Memory Total (MiB) 	 Memory Used (MiB) 	    Memory Free (MiB) 	 Power Drawed (W) 	 Clocks (Mhz) 	 
 62174.89797		 0.47736			62174.42060		49.53400		405.00000 
 62174.89797		 0.47736			62174.42060		49.05400		405.00000 
 62174.89797		 0.47736			62174.42060		49.05400		405.00000 
 62174.89797		 8.11514			62166.78282		49.05400		405.00000 
 62174.89797		 38.42760			62136.47037		49.05400		405.00000 
 62174.89797		 38.42760			62136.47037		49.05400		405.00000 
 62174.89797		 38.42760			62136.47037		49.05400		405.00000 
 62174.89797		 38.42760			62136.47037		49.05400		405.00000 
 62174.89797		 38.42760			62136.47037		49.05400		405.00000 
 62174.89797		 38.42760			62136.47037		49.05400		405.00000 
 62174.89797		 53.70316			62121.19480		49.05400		405.00000 
 62174.89797		 68.97873			62105.91924		49.05400		405.00000 
 62174.89797		 68.97873			62105.91924		49.05400		405.00000 
 62174.89797		 68.97873			62105.91924		49.05400		405.00000 
 62174.89797		 68.97873			62105.91924		49.05400		405.00000 
 62174.89797		 68.97873			62105.91924		49.05400		405.00000 
 62174.89797		 68.97873			62105.91924		49.05400		405.00000 
 62174.89797		 68.97873			62105.91924		49.31400		405.00000 
 62174.89797		 68.97873			62105.91924		49.31400		405.00000 
 62174.89797		 68.97873			62105.91924		49.31400		405.00000 
 62174.89797		 68.97873			62105.91924		49.31400		405.00000 
 62174.89797		 68.97873			62105.91924		49.31400		405.00000 
 62174.89797		 68.97873			62105.91924		49.05800		405.00000 
 62174.89797		 68.97873			62105.91924		49.05800		405.00000 
 62174.89797		 68.97873			62105.91924		49.05800		405.00000 
 62174.89797		 68.97873			62105.91924		49.05800		405.00000 
 62174.89797		 68.97873			62105.91924		49.05800		405.00000 
 62174.89797		 68.97873			62105.91924		49.12200		405.00000 
 62174.89797		 68.97873			62105.91924		49.12200		405.00000 
 62174.89797		 68.97873			62105.91924		49.12200		405.00000 
 62174.89797		 68.97873			62105.91924		49.12200		405.00000 
 62174.89797		 68.97873			62105.91924		49.12200		405.00000 
 62174.89797		 68.97873			62105.91924		49.60800		405.00000 
 62174.89797		 68.97873			62105.91924		49.60800		405.00000 
 62174.89797		 68.97873			62105.91924		49.60800		405.00000 
 62174.89797		 68.97873			62105.91924		49.60800		405.00000 
 62174.89797		 68.97873			62105.91924		49.60800		405.00000 
 62174.89797		 68.97873			62105.91924		49.13000		405.00000 
 62174.89797		 68.97873			62105.91924		49.13000		405.00000 
 62174.89797		 68.97873			62105.91924		49.13000		405.00000 
 62174.89797		 68.97873			62105.91924		49.13000		405.00000 
 62174.89797		 68.97873			62105.91924		49.13000		405.00000 
 62174.89797		 68.97873			62105.91924		49.14200		405.00000 
 62174.89797		 68.97873			62105.91924		49.14200		405.00000 
 62174.89797		 68.97873			62105.91924		49.14200		405.00000 
 62174.89797		 68.97873			62105.91924		49.14200		405.00000 
 62174.89797		 68.97873			62105.91924		49.14200		405.00000 
 62174.89797		 68.97873			62105.91924		49.14200		405.00000 
 62174.89797		 68.97873			62105.91924		49.14200		405.00000 
 62174.89797		 68.97873			62105.91924		49.14200		405.00000 
 62174.89797		 68.97873			62105.91924		49.14200		405.00000 
 62174.89797		 68.97873			62105.91924		49.14200		405.00000 
 62174.89797		 68.97873			62105.91924		49.14200		405.00000 
 62174.89797		 68.97873			62105.91924		49.14200		405.00000 
 62174.89797		 68.97873			62105.91924		49.14200		405.00000 
 62174.89797		 68.97873			62105.91924		49.14200		405.00000 
 62174.89797		 68.97873			62105.91924		49.14200		405.00000 
 62174.89797		 68.97873			62105.91924		49.64200		405.00000 
 62174.89797		 68.97873			62105.91924		49.64200		405.00000 
 62174.89797		 68.97873			62105.91924		49.64200		405.00000 
 62174.89797		 68.97873			62105.91924		49.64200		405.00000 
 62174.89797		 68.97873			62105.91924		49.64200		405.00000 
 62174.89797		 68.97873			62105.91924		49.64200		405.00000 
 62174.89797		 68.97873			62105.91924		49.64200		405.00000 
 62174.89797		 68.97873			62105.91924		49.64200		405.00000 
 62174.89797		 68.97873			62105.91924		49.64200		405.00000 
 62174.89797		 68.97873			62105.91924		49.64200		405.00000 
 62174.89797		 68.97873			62105.91924		49.64200		405.00000 
 62174.89797		 68.97873			62105.91924		49.64200		405.00000 
 62174.89797		 68.97873			62105.91924		49.15400		405.00000 
 62174.89797		 68.97873			62105.91924		49.15400		405.00000 
 62174.89797		 68.97873			62105.91924		49.15400		405.00000 
 62174.89797		 68.97873			62105.91924		49.15400		405.00000 
 62174.89797		 68.97873			62105.91924		49.15400		405.00000 
 62174.89797		 68.97873			62105.91924		49.15400		405.00000 
 62174.89797		 68.97873			62105.91924		49.64200		405.00000 
 62174.89797		 68.97873			62105.91924		49.64200		405.00000 
 62174.89797		 68.97873			62105.91924		49.64200		405.00000 
 62174.89797		 68.97873			62105.91924		49.15400		405.00000 
 62174.89797		 68.97873			62105.91924		49.15400		405.00000 
 62174.89797		 68.97873			62105.91924		49.15400		405.00000 
 62174.89797		 68.97873			62105.91924		49.15400		405.00000 
 62174.89797		 68.97873			62105.91924		49.15400		405.00000 
 62174.89797		 68.97873			62105.91924		49.15400		405.00000 
 62174.89797		 68.97873			62105.91924		49.64200		405.00000 
 62174.89797		 68.97873			62105.91924		49.64200		405.00000 
 62174.89797		 68.97873			62105.91924		49.64200		405.00000 
 62174.89797		 68.97873			62105.91924		49.64200		405.00000 
 62174.89797		 68.97873			62105.91924		49.64200		405.00000 
 62174.89797		 68.97873			62105.91924		49.64200		405.00000 
 62174.89797		 68.97873			62105.91924		49.64200		405.00000 
 62174.89797		 68.97873			62105.91924		49.64200		405.00000 
 62174.89797		 68.97873			62105.91924		49.64200		405.00000 
 62174.89797		 68.97873			62105.91924		49.64200		405.00000 
 62174.89797		 68.97873			62105.91924		49.64200		405.00000 
 62174.89797		 68.97873			62105.91924		49.64200		405.00000 
 62174.89797		 68.97873			62105.91924		49.64200		405.00000 
 62174.89797		 76.61651			62098.28145		49.64200		1189.00000 
 62174.89797		 76.61651			62098.28145		49.64200		1189.00000 
 62174.89797		 76.61651			62098.28145		49.64200		1189.00000 
 62174.89797		 76.61651			62098.28145		49.64200		1189.00000 
 62174.89797		 76.61651			62098.28145		49.64200		1189.00000 
 62174.89797		 80.43541			62094.46256		55.96400		1189.00000 
 62174.89797		 80.43541			62094.46256		55.96400		1189.00000 
 62174.89797		 80.43541			62094.46256		55.96400		1189.00000 
 62174.89797		 80.43541			62094.46256		55.96400		1189.00000 
 62174.89797		 80.43541			62094.46256		55.96400		1189.00000 
 62174.89797		 80.43541			62094.46256		55.96400		1189.00000 
 62174.89797		 88.07319			62086.82478		55.96400		1189.00000 
 62174.89797		 88.07319			62086.82478		55.96400		1189.00000 
 62174.89797		 88.07319			62086.82478		55.96400		1189.00000 
 62174.89797		 88.07319			62086.82478		55.96400		1189.00000 
 62174.89797		 88.07319			62086.82478		55.96400		1189.00000 
 62174.89797		 88.07319			62086.82478		55.96400		1189.00000 
 62174.89797		 88.07319			62086.82478		55.96400		1189.00000 
 62174.89797		 88.07319			62086.82478		55.96400		1189.00000 
 62174.89797		 225.55329			61949.34468		55.96400		1189.00000 
 62174.89797		 225.55329			61949.34468		55.96400		1189.00000 
 62174.89797		 225.55329			61949.34468		58.88400		1189.00000 
 62174.89797		 225.55329			61949.34468		58.88400		1189.00000 
 62174.89797		 225.55329			61949.34468		58.88400		1189.00000 
 62174.89797		 225.55329			61949.34468		58.88400		1189.00000 
 62174.89797		 225.55329			61949.34468		58.88400		1189.00000 
 62174.89797		 225.55329			61949.34468		58.88400		1189.00000 
 62174.89797		 225.55329			61949.34468		58.88400		1189.00000 
 62174.89797		 225.55329			61949.34468		58.88400		1189.00000 
 62174.89797		 225.55329			61949.34468		58.88400		1189.00000 
 62174.89797		 225.55329			61949.34468		58.88400		1189.00000 
 62174.89797		 225.55329			61949.34468		58.88400		1189.00000 
 62174.89797		 225.55329			61949.34468		58.88400		1189.00000 
 62174.89797		 225.55329			61949.34468		58.88400		1189.00000 
 62174.89797		 225.55329			61949.34468		58.88400		1189.00000 
 62174.89797		 225.55329			61949.34468		58.88400		1189.00000 
 62174.89797		 225.55329			61949.34468		58.88400		1189.00000 
 62174.89797		 225.55329			61949.34468		58.88400		1189.00000 
 62174.89797		 225.55329			61949.34468		58.88400		1189.00000 
 62174.89797		 225.55329			61949.34468		58.88400		1189.00000 
 62174.89797		 1134.44951			61040.44846		58.88400		1189.00000 
 62174.89797		 1134.44951			61040.44846		59.41400		1189.00000 
 62174.89797		 1134.44951			61040.44846		59.41400		1189.00000 
 62174.89797		 1134.44951			61040.44846		59.41400		1189.00000 
 62174.89797		 1134.44951			61040.44846		59.41400		1189.00000 
 62174.89797		 1134.44951			61040.44846		59.41400		1189.00000 
 62174.89797		 1149.72507			61025.17289		59.41400		1189.00000 
 62174.89797		 1180.27621			60994.62176		59.41400		1189.00000 
 62174.89797		 1180.27621			60994.62176		59.41400		1189.00000 
 62174.89797		 1180.27621			60994.62176		59.41400		1189.00000 
 62174.89797		 1180.27621			60994.62176		59.41400		1189.00000 
 62174.89797		 1180.27621			60994.62176		59.41400		1189.00000 
 62174.89797		 1180.27621			60994.62176		59.41400		1189.00000 
 62174.89797		 1180.27621			60994.62176		59.41400		1189.00000 
 62174.89797		 1180.27621			60994.62176		59.41400		1189.00000 
 62174.89797		 1180.27621			60994.62176		59.41400		1189.00000 
 62174.89797		 1180.27621			60994.62176		59.41400		1189.00000 
 62174.89797		 1180.27621			60994.62176		59.41400		1189.00000 
 62174.89797		 1180.27621			60994.62176		100.22400		1189.00000 
 62174.89797		 1180.27621			60994.62176		100.22400		1189.00000 
 62174.89797		 1180.27621			60994.62176		100.22400		1189.00000 
 62174.89797		 1180.27621			60994.62176		100.22400		1189.00000 
 62174.89797		 1180.27621			60994.62176		100.22400		1189.00000 
 62174.89797		 1180.27621			60994.62176		100.22400		1189.00000 
 62174.89797		 1180.27621			60994.62176		100.22400		1189.00000 
 62174.89797		 1180.27621			60994.62176		100.22400		1189.00000 
 62174.89797		 1180.27621			60994.62176		100.22400		1189.00000 
 62174.89797		 1180.27621			60994.62176		100.22400		1189.00000 
 62174.89797		 1180.27621			60994.62176		100.22400		1189.00000 
 62174.89797		 1180.27621			60994.62176		100.22400		1189.00000 
 62174.89797		 1180.27621			60994.62176		100.22400		1189.00000 
 62174.89797		 1180.27621			60994.62176		100.22400		1189.00000 
 62174.89797		 1180.27621			60994.62176		100.22400		1189.00000 
 62174.89797		 1180.27621			60994.62176		100.22400		1189.00000 
 62174.89797		 1180.27621			60994.62176		100.22400		1189.00000 
 62174.89797		 1180.27621			60994.62176		100.22400		1189.00000 
 62174.89797		 1180.27621			60994.62176		100.22400		1189.00000 
 62174.89797		 1180.27621			60994.62176		100.22400		1189.00000 
 62174.89797		 1180.27621			60994.62176		100.22400		1189.00000 
 62174.89797		 1180.27621			60994.62176		122.62400		1189.00000 
 62174.89797		 1180.27621			60994.62176		122.62400		1189.00000 
 62174.89797		 1180.27621			60994.62176		122.62400		1189.00000 
 62174.89797		 1180.27621			60994.62176		122.62400		1189.00000 
 62174.89797		 1180.27621			60994.62176		122.62400		1189.00000 
 62174.89797		 1180.27621			60994.62176		122.62400		1189.00000 
 62174.89797		 1180.27621			60994.62176		122.62400		1189.00000 
 62174.89797		 1180.27621			60994.62176		122.62400		1189.00000 
 62174.89797		 1180.27621			60994.62176		122.62400		1189.00000 
 62174.89797		 1180.27621			60994.62176		122.62400		1189.00000 
 62174.89797		 1180.27621			60994.62176		122.62400		1189.00000 
 62174.89797		 1180.27621			60994.62176		122.62400		1189.00000 
 62174.89797		 1180.27621			60994.62176		122.62400		1189.00000 
 62174.89797		 1180.27621			60994.62176		122.62400		1189.00000 
 62174.89797		 1180.27621			60994.62176		122.62400		1189.00000 
 62174.89797		 1180.27621			60994.62176		122.62400		1189.00000 
 62174.89797		 1180.27621			60994.62176		122.62400		1189.00000 
 62174.89797		 1180.27621			60994.62176		122.62400		1189.00000 
 62174.89797		 1180.27621			60994.62176		122.62400		1189.00000 
 62174.89797		 1180.27621			60994.62176		122.62400		1189.00000 
 62174.89797		 1180.27621			60994.62176		128.95000		1189.00000 
 62174.89797		 1180.27621			60994.62176		128.95000		1189.00000 
 62174.89797		 1180.27621			60994.62176		128.95000		1189.00000 
 62174.89797		 1180.27621			60994.62176		128.95000		1189.00000 
 62174.89797		 1180.27621			60994.62176		128.95000		1189.00000 
 62174.89797		 1180.27621			60994.62176		128.95000		1189.00000 
 62174.89797		 1180.27621			60994.62176		128.95000		1189.00000 
 62174.89797		 1180.27621			60994.62176		128.95000		1189.00000 
 62174.89797		 1180.27621			60994.62176		128.95000		1189.00000 
 62174.89797		 1180.27621			60994.62176		128.95000		1189.00000 
 62174.89797		 1180.27621			60994.62176		128.95000		1189.00000 
 62174.89797		 1180.27621			60994.62176		128.95000		1189.00000 
 62174.89797		 1180.27621			60994.62176		128.95000		1189.00000 
 62174.89797		 1180.27621			60994.62176		128.95000		1189.00000 
 62174.89797		 1180.27621			60994.62176		128.95000		1189.00000 
 62174.89797		 1180.27621			60994.62176		128.95000		1189.00000 
 62174.89797		 1180.27621			60994.62176		128.95000		1189.00000 
 62174.89797		 1180.27621			60994.62176		128.95000		1189.00000 
 62174.89797		 1180.27621			60994.62176		128.95000		1189.00000 
 62174.89797		 1180.27621			60994.62176		128.95000		1189.00000 
 62174.89797		 1180.27621			60994.62176		128.95000		1189.00000 
 62174.89797		 1180.27621			60994.62176		130.40800		1189.00000 
 62174.89797		 1180.27621			60994.62176		130.40800		1189.00000 
 62174.89797		 1180.27621			60994.62176		130.40800		1189.00000 
 62174.89797		 1180.27621			60994.62176		130.40800		1189.00000 
 62174.89797		 1180.27621			60994.62176		130.40800		1189.00000 
 62174.89797		 1180.27621			60994.62176		130.40800		1189.00000 
 62174.89797		 1180.27621			60994.62176		130.40800		1189.00000 
 62174.89797		 1180.27621			60994.62176		130.40800		1189.00000 
 62174.89797		 1180.27621			60994.62176		130.40800		1189.00000 
 62174.89797		 1180.27621			60994.62176		130.40800		1189.00000 
 62174.89797		 1180.27621			60994.62176		130.40800		1189.00000 
 62174.89797		 1180.27621			60994.62176		130.40800		1189.00000 
 62174.89797		 1180.27621			60994.62176		130.40800		1189.00000 
 62174.89797		 1180.27621			60994.62176		130.40800		1189.00000 
 62174.89797		 1180.27621			60994.62176		130.40800		1189.00000 
 62174.89797		 1180.27621			60994.62176		130.40800		1189.00000 
 62174.89797		 1180.27621			60994.62176		130.40800		1189.00000 
 62174.89797		 1180.27621			60994.62176		130.40800		1189.00000 
 62174.89797		 1180.27621			60994.62176		130.40800		1189.00000 
 62174.89797		 1180.27621			60994.62176		130.40800		1189.00000 
 62174.89797		 1180.27621			60994.62176		130.40800		1189.00000 
 62174.89797		 1180.27621			60994.62176		131.38200		1189.00000 
 62174.89797		 1180.27621			60994.62176		131.38200		1189.00000 
 62174.89797		 1180.27621			60994.62176		131.38200		1189.00000 
 62174.89797		 1180.27621			60994.62176		131.38200		1189.00000 
 62174.89797		 1180.27621			60994.62176		131.38200		1189.00000 
 62174.89797		 1180.27621			60994.62176		131.38200		1189.00000 
 62174.89797		 1180.27621			60994.62176		131.38200		1189.00000 
 62174.89797		 1180.27621			60994.62176		131.38200		1189.00000 
 62174.89797		 1180.27621			60994.62176		131.38200		1189.00000 
 62174.89797		 1180.27621			60994.62176		131.38200		1189.00000 
 62174.89797		 1180.27621			60994.62176		131.38200		1189.00000 
 62174.89797		 1180.27621			60994.62176		131.38200		1189.00000 
 62174.89797		 1180.27621			60994.62176		131.38200		1189.00000 
 62174.89797		 1180.27621			60994.62176		131.38200		1189.00000 
 62174.89797		 1180.27621			60994.62176		131.38200		1189.00000 
 62174.89797		 1180.27621			60994.62176		131.38200		1189.00000 
 62174.89797		 1180.27621			60994.62176		131.38200		1189.00000 
 62174.89797		 1180.27621			60994.62176		131.38200		1189.00000 
 62174.89797		 1180.27621			60994.62176		131.38200		1189.00000 
 62174.89797		 1180.27621			60994.62176		131.38200		1189.00000 
 62174.89797		 1180.27621			60994.62176		131.38200		1189.00000 
 62174.89797		 1180.27621			60994.62176		131.38200		1189.00000 
 62174.89797		 1180.27621			60994.62176		131.38200		1189.00000 
 62174.89797		 1180.27621			60994.62176		131.38200		1189.00000 
 62174.89797		 1149.72507			61025.17289		131.38200		1189.00000 
 62174.89797		 1134.44951			61040.44846		131.38200		1189.00000 
 62174.89797		 1134.44951			61040.44846		131.38200		1189.00000 
 62174.89797		 1134.44951			61040.44846		131.38200		1189.00000 
 62174.89797		 1134.44951			61040.44846		131.38200		1189.00000 
 62174.89797		 1134.44951			61040.44846		131.38200		1189.00000 
 62174.89797		 1134.44951			61040.44846		131.38200		1189.00000 
 62174.89797		 1134.44951			61040.44846		131.38200		1189.00000 
 62174.89797		 1134.44951			61040.44846		131.38200		1189.00000 
 62174.89797		 1134.44951			61040.44846		131.38200		1189.00000 
 62174.89797		 1134.44951			61040.44846		131.38200		1189.00000 
 62174.89797		 1134.44951			61040.44846		131.38200		1189.00000 
 62174.89797		 1134.44951			61040.44846		131.38200		1189.00000 
 62174.89797		 1134.44951			61040.44846		131.38200		1189.00000 
 62174.89797		 1134.44951			61040.44846		131.38200		1189.00000 
 62174.89797		 1134.44951			61040.44846		80.76800		1189.00000 
 62174.89797		 1134.44951			61040.44846		80.76800		1189.00000 
 62174.89797		 1134.44951			61040.44846		80.76800		1189.00000 
 62174.89797		 1134.44951			61040.44846		80.76800		1189.00000 
 62174.89797		 1134.44951			61040.44846		80.76800		1189.00000 
 62174.89797		 1134.44951			61040.44846		80.76800		1189.00000 
 62174.89797		 1134.44951			61040.44846		80.76800		1189.00000 
 62174.89797		 1134.44951			61040.44846		80.76800		1189.00000 
 62174.89797		 1134.44951			61040.44846		80.76800		1189.00000 
 62174.89797		 1134.44951			61040.44846		80.76800		1189.00000 
 62174.89797		 1134.44951			61040.44846		80.76800		1189.00000 
 62174.89797		 1134.44951			61040.44846		80.76800		1189.00000 
 62174.89797		 1134.44951			61040.44846		80.76800		1189.00000 
 62174.89797		 1134.44951			61040.44846		80.76800		1189.00000 
 62174.89797		 1134.44951			61040.44846		80.76800		1189.00000 
 62174.89797		 1126.33436			61048.56360		65.22600		1189.00000 
 62174.89797		 1126.33436			61048.56360		65.22600		1189.00000 
