Memory Total (MiB) 	 Memory Used (MiB) 	    Memory Free (MiB) 	 Power Drawed (W) 	 Clocks (Mhz) 	 
 62174.89797		 1134.44951			61040.44846		82.69400		1328.00000 
 62174.89797		 1134.44951			61040.44846		82.69400		1328.00000 
 62174.89797		 1134.44951			61040.44846		82.69400		1328.00000 
 62174.89797		 1134.44951			61040.44846		82.69400		1328.00000 
 62174.89797		 1134.44951			61040.44846		82.69400		1328.00000 
 62174.89797		 1134.44951			61040.44846		82.69400		1328.00000 
 62174.89797		 1134.44951			61040.44846		82.69400		1328.00000 
 62174.89797		 1134.44951			61040.44846		82.69400		1328.00000 
 62174.89797		 1134.44951			61040.44846		82.69400		1328.00000 
 62174.89797		 1134.44951			61040.44846		82.69400		1328.00000 
 62174.89797		 1134.44951			61040.44846		82.69400		1328.00000 
 62174.89797		 1134.44951			61040.44846		82.69400		1328.00000 
 62174.89797		 1134.44951			61040.44846		82.69400		1328.00000 
 62174.89797		 1134.44951			61040.44846		82.69400		1328.00000 
 62174.89797		 1134.44951			61040.44846		82.69400		1328.00000 
 62174.89797		 0.47736			62174.42060		71.00200		1328.00000 
 62174.89797		 0.47736			62174.42060		71.05000		1328.00000 
 62174.89797		 0.47736			62174.42060		71.05000		1328.00000 
 62174.89797		 38.42760			62136.47037		71.05000		1328.00000 
 62174.89797		 38.42760			62136.47037		71.05000		1328.00000 
 62174.89797		 38.42760			62136.47037		71.05000		1328.00000 
 62174.89797		 38.42760			62136.47037		71.05000		1328.00000 
 62174.89797		 38.42760			62136.47037		71.05000		1328.00000 
 62174.89797		 38.42760			62136.47037		71.05000		1328.00000 
 62174.89797		 53.70316			62121.19480		71.05000		1328.00000 
 62174.89797		 68.97873			62105.91924		71.05000		1328.00000 
 62174.89797		 68.97873			62105.91924		70.47000		1328.00000 
 62174.89797		 68.97873			62105.91924		70.47000		1328.00000 
 62174.89797		 68.97873			62105.91924		70.47000		1328.00000 
 62174.89797		 68.97873			62105.91924		70.47000		1328.00000 
 62174.89797		 68.97873			62105.91924		70.47000		1328.00000 
 62174.89797		 68.97873			62105.91924		70.47000		1328.00000 
 62174.89797		 68.97873			62105.91924		70.51600		1328.00000 
 62174.89797		 68.97873			62105.91924		70.51600		1328.00000 
 62174.89797		 68.97873			62105.91924		70.51600		1328.00000 
 62174.89797		 68.97873			62105.91924		70.51600		1328.00000 
 62174.89797		 68.97873			62105.91924		70.55200		1328.00000 
 62174.89797		 68.97873			62105.91924		70.55200		1328.00000 
 62174.89797		 68.97873			62105.91924		70.55200		1328.00000 
 62174.89797		 68.97873			62105.91924		70.55200		1328.00000 
 62174.89797		 68.97873			62105.91924		70.55200		1328.00000 
 62174.89797		 68.97873			62105.91924		70.55200		1328.00000 
 62174.89797		 68.97873			62105.91924		70.55200		1328.00000 
 62174.89797		 68.97873			62105.91924		70.55200		1328.00000 
 62174.89797		 68.97873			62105.91924		70.55200		1328.00000 
 62174.89797		 68.97873			62105.91924		70.55200		1328.00000 
 62174.89797		 68.97873			62105.91924		70.56200		1328.00000 
 62174.89797		 68.97873			62105.91924		70.56200		1328.00000 
 62174.89797		 68.97873			62105.91924		70.56200		1328.00000 
 62174.89797		 68.97873			62105.91924		70.56200		1328.00000 
 62174.89797		 68.97873			62105.91924		70.56200		1328.00000 
 62174.89797		 68.97873			62105.91924		70.56200		1328.00000 
 62174.89797		 68.97873			62105.91924		70.56200		1328.00000 
 62174.89797		 68.97873			62105.91924		70.56200		1328.00000 
 62174.89797		 68.97873			62105.91924		70.56200		1328.00000 
 62174.89797		 68.97873			62105.91924		70.56200		1328.00000 
 62174.89797		 68.97873			62105.91924		70.56200		1328.00000 
 62174.89797		 68.97873			62105.91924		70.51600		1328.00000 
 62174.89797		 68.97873			62105.91924		70.51600		1328.00000 
 62174.89797		 68.97873			62105.91924		70.51600		1328.00000 
 62174.89797		 68.97873			62105.91924		70.51600		1328.00000 
 62174.89797		 68.97873			62105.91924		70.51600		1328.00000 
 62174.89797		 68.97873			62105.91924		70.51600		1328.00000 
 62174.89797		 68.97873			62105.91924		70.51600		1328.00000 
 62174.89797		 68.97873			62105.91924		70.52800		1328.00000 
 62174.89797		 68.97873			62105.91924		70.52800		1328.00000 
 62174.89797		 68.97873			62105.91924		70.52800		1328.00000 
 62174.89797		 68.97873			62105.91924		70.52800		1328.00000 
 62174.89797		 68.97873			62105.91924		70.52800		1328.00000 
 62174.89797		 68.97873			62105.91924		70.52800		1328.00000 
 62174.89797		 68.97873			62105.91924		70.52800		1328.00000 
 62174.89797		 68.97873			62105.91924		70.52800		1328.00000 
 62174.89797		 68.97873			62105.91924		70.51600		1328.00000 
 62174.89797		 68.97873			62105.91924		70.51600		1328.00000 
 62174.89797		 68.97873			62105.91924		70.51600		1328.00000 
 62174.89797		 68.97873			62105.91924		70.51600		1328.00000 
 62174.89797		 68.97873			62105.91924		70.51600		1328.00000 
 62174.89797		 68.97873			62105.91924		70.51600		1328.00000 
 62174.89797		 68.97873			62105.91924		70.51600		1328.00000 
 62174.89797		 68.97873			62105.91924		70.51600		1328.00000 
 62174.89797		 68.97873			62105.91924		70.51600		1328.00000 
 62174.89797		 68.97873			62105.91924		70.51600		1328.00000 
 62174.89797		 68.97873			62105.91924		70.51600		1328.00000 
 62174.89797		 68.97873			62105.91924		70.56200		1328.00000 
 62174.89797		 68.97873			62105.91924		70.56200		1328.00000 
 62174.89797		 68.97873			62105.91924		70.56200		1328.00000 
 62174.89797		 68.97873			62105.91924		70.56200		1328.00000 
 62174.89797		 68.97873			62105.91924		70.56200		1328.00000 
 62174.89797		 68.97873			62105.91924		70.56200		1328.00000 
 62174.89797		 68.97873			62105.91924		70.56200		1328.00000 
 62174.89797		 68.97873			62105.91924		70.56200		1328.00000 
 62174.89797		 68.97873			62105.91924		70.56200		1328.00000 
 62174.89797		 68.97873			62105.91924		70.56200		1328.00000 
 62174.89797		 68.97873			62105.91924		70.56200		1328.00000 
 62174.89797		 68.97873			62105.91924		70.56200		1328.00000 
 62174.89797		 68.97873			62105.91924		70.56200		1328.00000 
 62174.89797		 68.97873			62105.91924		70.56200		1328.00000 
 62174.89797		 68.97873			62105.91924		70.56200		1328.00000 
 62174.89797		 68.97873			62105.91924		70.56200		1328.00000 
 62174.89797		 68.97873			62105.91924		70.56200		1328.00000 
 62174.89797		 68.97873			62105.91924		70.56200		1328.00000 
 62174.89797		 68.97873			62105.91924		70.56200		1328.00000 
 62174.89797		 68.97873			62105.91924		70.56200		1328.00000 
 62174.89797		 68.97873			62105.91924		70.56200		1328.00000 
 62174.89797		 68.97873			62105.91924		70.56200		1328.00000 
 62174.89797		 68.97873			62105.91924		70.56200		1328.00000 
 62174.89797		 68.97873			62105.91924		70.51600		1328.00000 
 62174.89797		 68.97873			62105.91924		70.51600		1328.00000 
 62174.89797		 68.97873			62105.91924		70.51600		1328.00000 
 62174.89797		 68.97873			62105.91924		70.51600		1328.00000 
 62174.89797		 68.97873			62105.91924		70.51600		1328.00000 
 62174.89797		 68.97873			62105.91924		70.56200		1328.00000 
 62174.89797		 68.97873			62105.91924		70.56200		1328.00000 
 62174.89797		 76.61651			62098.28145		70.56200		1328.00000 
 62174.89797		 76.61651			62098.28145		70.56200		1328.00000 
 62174.89797		 76.61651			62098.28145		70.56200		1328.00000 
 62174.89797		 76.61651			62098.28145		70.56200		1328.00000 
 62174.89797		 76.61651			62098.28145		70.56200		1328.00000 
 62174.89797		 80.43541			62094.46256		70.56200		1328.00000 
 62174.89797		 80.43541			62094.46256		70.56200		1328.00000 
 62174.89797		 80.43541			62094.46256		70.56200		1328.00000 
 62174.89797		 80.43541			62094.46256		70.56200		1328.00000 
 62174.89797		 88.07319			62086.82478		70.56200		1328.00000 
 62174.89797		 88.07319			62086.82478		70.56200		1328.00000 
 62174.89797		 88.07319			62086.82478		70.56200		1328.00000 
 62174.89797		 88.07319			62086.82478		70.56200		1328.00000 
 62174.89797		 88.07319			62086.82478		70.56200		1328.00000 
 62174.89797		 88.07319			62086.82478		70.56200		1328.00000 
 62174.89797		 88.07319			62086.82478		70.56200		1328.00000 
 62174.89797		 88.07319			62086.82478		70.56200		1328.00000 
 62174.89797		 225.55329			61949.34468		70.56200		1328.00000 
 62174.89797		 225.55329			61949.34468		70.56200		1328.00000 
 62174.89797		 225.55329			61949.34468		70.56200		1328.00000 
 62174.89797		 225.55329			61949.34468		70.56200		1328.00000 
 62174.89797		 225.55329			61949.34468		70.56200		1328.00000 
 62174.89797		 225.55329			61949.34468		70.56200		1328.00000 
 62174.89797		 225.55329			61949.34468		70.56200		1328.00000 
 62174.89797		 225.55329			61949.34468		70.56200		1328.00000 
 62174.89797		 225.55329			61949.34468		70.56200		1328.00000 
 62174.89797		 225.55329			61949.34468		70.56200		1328.00000 
 62174.89797		 225.55329			61949.34468		70.56200		1328.00000 
 62174.89797		 225.55329			61949.34468		70.56200		1328.00000 
 62174.89797		 225.55329			61949.34468		70.56200		1328.00000 
 62174.89797		 225.55329			61949.34468		70.56200		1328.00000 
 62174.89797		 225.55329			61949.34468		70.56200		1328.00000 
 62174.89797		 225.55329			61949.34468		70.56200		1328.00000 
 62174.89797		 225.55329			61949.34468		70.56200		1328.00000 
 62174.89797		 225.55329			61949.34468		70.56200		1328.00000 
 62174.89797		 225.55329			61949.34468		70.56200		1328.00000 
 62174.89797		 225.55329			61949.34468		70.56200		1328.00000 
 62174.89797		 225.55329			61949.34468		70.56200		1328.00000 
 62174.89797		 1134.44951			61040.44846		70.56200		1328.00000 
 62174.89797		 1134.44951			61040.44846		70.56200		1328.00000 
 62174.89797		 1134.44951			61040.44846		70.56200		1328.00000 
 62174.89797		 1134.44951			61040.44846		70.56200		1328.00000 
 62174.89797		 1134.44951			61040.44846		70.56200		1328.00000 
 62174.89797		 1180.27621			60994.62176		70.56200		1328.00000 
 62174.89797		 1203.18956			60971.70841		70.56200		1328.00000 
 62174.89797		 1203.18956			60971.70841		70.56200		1328.00000 
 62174.89797		 1203.18956			60971.70841		70.56200		1328.00000 
 62174.89797		 1203.18956			60971.70841		102.16000		1328.00000 
 62174.89797		 1203.18956			60971.70841		102.16000		1328.00000 
 62174.89797		 1203.18956			60971.70841		102.16000		1328.00000 
 62174.89797		 1203.18956			60971.70841		102.16000		1328.00000 
 62174.89797		 1203.18956			60971.70841		102.16000		1328.00000 
 62174.89797		 1203.18956			60971.70841		102.16000		1328.00000 
 62174.89797		 1203.18956			60971.70841		102.16000		1328.00000 
 62174.89797		 1203.18956			60971.70841		102.16000		1328.00000 
 62174.89797		 1203.18956			60971.70841		102.16000		1328.00000 
 62174.89797		 1203.18956			60971.70841		102.16000		1328.00000 
 62174.89797		 1203.18956			60971.70841		102.16000		1328.00000 
 62174.89797		 1203.18956			60971.70841		102.16000		1328.00000 
 62174.89797		 1203.18956			60971.70841		102.16000		1328.00000 
 62174.89797		 1203.18956			60971.70841		102.16000		1328.00000 
 62174.89797		 1203.18956			60971.70841		102.16000		1328.00000 
 62174.89797		 1203.18956			60971.70841		102.16000		1328.00000 
 62174.89797		 1203.18956			60971.70841		102.16000		1328.00000 
 62174.89797		 1203.18956			60971.70841		102.16000		1328.00000 
 62174.89797		 1203.18956			60971.70841		102.16000		1328.00000 
 62174.89797		 1203.18956			60971.70841		102.16000		1328.00000 
 62174.89797		 1203.18956			60971.70841		102.16000		1328.00000 
 62174.89797		 1203.18956			60971.70841		149.27600		1328.00000 
 62174.89797		 1203.18956			60971.70841		149.27600		1328.00000 
 62174.89797		 1203.18956			60971.70841		149.27600		1328.00000 
 62174.89797		 1203.18956			60971.70841		149.27600		1328.00000 
 62174.89797		 1203.18956			60971.70841		149.27600		1328.00000 
 62174.89797		 1203.18956			60971.70841		149.27600		1328.00000 
 62174.89797		 1203.18956			60971.70841		149.27600		1328.00000 
 62174.89797		 1203.18956			60971.70841		149.27600		1328.00000 
 62174.89797		 1203.18956			60971.70841		149.27600		1328.00000 
 62174.89797		 1203.18956			60971.70841		149.27600		1328.00000 
 62174.89797		 1203.18956			60971.70841		149.27600		1328.00000 
 62174.89797		 1203.18956			60971.70841		149.27600		1328.00000 
 62174.89797		 1203.18956			60971.70841		149.27600		1328.00000 
 62174.89797		 1203.18956			60971.70841		149.27600		1328.00000 
 62174.89797		 1203.18956			60971.70841		149.27600		1328.00000 
 62174.89797		 1203.18956			60971.70841		149.27600		1328.00000 
 62174.89797		 1203.18956			60971.70841		149.27600		1328.00000 
 62174.89797		 1203.18956			60971.70841		149.27600		1328.00000 
 62174.89797		 1203.18956			60971.70841		149.27600		1328.00000 
 62174.89797		 1203.18956			60971.70841		149.27600		1328.00000 
 62174.89797		 1203.18956			60971.70841		149.27600		1328.00000 
 62174.89797		 1203.18956			60971.70841		157.55400		1328.00000 
 62174.89797		 1203.18956			60971.70841		157.55400		1328.00000 
 62174.89797		 1203.18956			60971.70841		157.55400		1328.00000 
 62174.89797		 1203.18956			60971.70841		157.55400		1328.00000 
 62174.89797		 1203.18956			60971.70841		157.55400		1328.00000 
 62174.89797		 1203.18956			60971.70841		157.55400		1328.00000 
 62174.89797		 1203.18956			60971.70841		157.55400		1328.00000 
 62174.89797		 1203.18956			60971.70841		157.55400		1328.00000 
 62174.89797		 1203.18956			60971.70841		157.55400		1328.00000 
 62174.89797		 1203.18956			60971.70841		157.55400		1328.00000 
 62174.89797		 1203.18956			60971.70841		157.55400		1328.00000 
 62174.89797		 1203.18956			60971.70841		157.55400		1328.00000 
 62174.89797		 1203.18956			60971.70841		157.55400		1328.00000 
 62174.89797		 1203.18956			60971.70841		157.55400		1328.00000 
 62174.89797		 1203.18956			60971.70841		157.55400		1328.00000 
 62174.89797		 1203.18956			60971.70841		157.55400		1328.00000 
 62174.89797		 1203.18956			60971.70841		157.55400		1328.00000 
 62174.89797		 1203.18956			60971.70841		157.55400		1328.00000 
 62174.89797		 1203.18956			60971.70841		157.55400		1328.00000 
 62174.89797		 1203.18956			60971.70841		157.55400		1328.00000 
 62174.89797		 1203.18956			60971.70841		157.55400		1328.00000 
 62174.89797		 1203.18956			60971.70841		159.98600		1328.00000 
 62174.89797		 1203.18956			60971.70841		159.98600		1328.00000 
 62174.89797		 1203.18956			60971.70841		159.98600		1328.00000 
 62174.89797		 1203.18956			60971.70841		159.98600		1328.00000 
 62174.89797		 1203.18956			60971.70841		159.98600		1328.00000 
 62174.89797		 1203.18956			60971.70841		159.98600		1328.00000 
 62174.89797		 1203.18956			60971.70841		159.98600		1328.00000 
 62174.89797		 1203.18956			60971.70841		159.98600		1328.00000 
 62174.89797		 1203.18956			60971.70841		159.98600		1328.00000 
 62174.89797		 1203.18956			60971.70841		159.98600		1328.00000 
 62174.89797		 1203.18956			60971.70841		159.98600		1328.00000 
 62174.89797		 1203.18956			60971.70841		159.98600		1328.00000 
 62174.89797		 1203.18956			60971.70841		159.98600		1328.00000 
 62174.89797		 1203.18956			60971.70841		159.98600		1328.00000 
 62174.89797		 1203.18956			60971.70841		159.98600		1328.00000 
 62174.89797		 1203.18956			60971.70841		159.98600		1328.00000 
 62174.89797		 1203.18956			60971.70841		159.98600		1328.00000 
 62174.89797		 1203.18956			60971.70841		159.98600		1328.00000 
 62174.89797		 1203.18956			60971.70841		159.98600		1328.00000 
 62174.89797		 1203.18956			60971.70841		159.98600		1328.00000 
 62174.89797		 1203.18956			60971.70841		159.98600		1328.00000 
 62174.89797		 1203.18956			60971.70841		160.00000		1328.00000 
 62174.89797		 1203.18956			60971.70841		160.00000		1328.00000 
 62174.89797		 1203.18956			60971.70841		160.00000		1328.00000 
 62174.89797		 1203.18956			60971.70841		160.00000		1328.00000 
 62174.89797		 1203.18956			60971.70841		160.00000		1328.00000 
 62174.89797		 1203.18956			60971.70841		160.00000		1328.00000 
 62174.89797		 1203.18956			60971.70841		160.00000		1328.00000 
 62174.89797		 1203.18956			60971.70841		160.00000		1328.00000 
 62174.89797		 1203.18956			60971.70841		160.00000		1328.00000 
 62174.89797		 1203.18956			60971.70841		160.00000		1328.00000 
 62174.89797		 1203.18956			60971.70841		160.00000		1328.00000 
 62174.89797		 1203.18956			60971.70841		160.00000		1328.00000 
 62174.89797		 1203.18956			60971.70841		160.00000		1328.00000 
 62174.89797		 1203.18956			60971.70841		160.00000		1328.00000 
 62174.89797		 1203.18956			60971.70841		160.00000		1328.00000 
 62174.89797		 1203.18956			60971.70841		160.00000		1328.00000 
 62174.89797		 1203.18956			60971.70841		160.00000		1328.00000 
 62174.89797		 1203.18956			60971.70841		160.00000		1328.00000 
 62174.89797		 1203.18956			60971.70841		160.00000		1328.00000 
 62174.89797		 1203.18956			60971.70841		160.00000		1328.00000 
 62174.89797		 1203.18956			60971.70841		160.00000		1328.00000 
 62174.89797		 1203.18956			60971.70841		160.95800		1328.00000 
 62174.89797		 1203.18956			60971.70841		160.95800		1328.00000 
 62174.89797		 1203.18956			60971.70841		160.95800		1328.00000 
 62174.89797		 1203.18956			60971.70841		160.95800		1328.00000 
 62174.89797		 1203.18956			60971.70841		160.95800		1328.00000 
 62174.89797		 1203.18956			60971.70841		160.95800		1328.00000 
 62174.89797		 1203.18956			60971.70841		160.95800		1328.00000 
 62174.89797		 1203.18956			60971.70841		160.95800		1328.00000 
 62174.89797		 1203.18956			60971.70841		160.95800		1328.00000 
 62174.89797		 1203.18956			60971.70841		160.95800		1328.00000 
 62174.89797		 1203.18956			60971.70841		160.95800		1328.00000 
 62174.89797		 1203.18956			60971.70841		160.95800		1328.00000 
 62174.89797		 1203.18956			60971.70841		160.95800		1328.00000 
 62174.89797		 1203.18956			60971.70841		160.95800		1328.00000 
 62174.89797		 1203.18956			60971.70841		160.95800		1328.00000 
 62174.89797		 1203.18956			60971.70841		160.95800		1328.00000 
 62174.89797		 1203.18956			60971.70841		160.95800		1328.00000 
 62174.89797		 1203.18956			60971.70841		160.95800		1328.00000 
 62174.89797		 1203.18956			60971.70841		160.95800		1328.00000 
 62174.89797		 1203.18956			60971.70841		160.95800		1328.00000 
 62174.89797		 1203.18956			60971.70841		160.95800		1328.00000 
 62174.89797		 1203.18956			60971.70841		160.48600		1328.00000 
 62174.89797		 1203.18956			60971.70841		160.48600		1328.00000 
 62174.89797		 1180.27621			60994.62176		160.48600		1328.00000 
 62174.89797		 1134.44951			61040.44846		160.48600		1328.00000 
 62174.89797		 1134.44951			61040.44846		160.48600		1328.00000 
 62174.89797		 1134.44951			61040.44846		160.48600		1328.00000 
 62174.89797		 1134.44951			61040.44846		160.48600		1328.00000 
 62174.89797		 1134.44951			61040.44846		160.48600		1328.00000 
 62174.89797		 1134.44951			61040.44846		160.48600		1328.00000 
 62174.89797		 1134.44951			61040.44846		160.48600		1328.00000 
 62174.89797		 1134.44951			61040.44846		160.48600		1328.00000 
 62174.89797		 1134.44951			61040.44846		160.48600		1328.00000 
 62174.89797		 1134.44951			61040.44846		160.48600		1328.00000 
 62174.89797		 1134.44951			61040.44846		160.48600		1328.00000 
 62174.89797		 1134.44951			61040.44846		160.48600		1328.00000 
 62174.89797		 1134.44951			61040.44846		160.48600		1328.00000 
 62174.89797		 1134.44951			61040.44846		160.48600		1328.00000 
 62174.89797		 1134.44951			61040.44846		160.48600		1328.00000 
 62174.89797		 1134.44951			61040.44846		95.36600		1328.00000 
 62174.89797		 1134.44951			61040.44846		95.36600		1328.00000 
 62174.89797		 1134.44951			61040.44846		95.36600		1328.00000 
 62174.89797		 1134.44951			61040.44846		95.36600		1328.00000 
 62174.89797		 1134.44951			61040.44846		95.36600		1328.00000 
 62174.89797		 1134.44951			61040.44846		95.36600		1328.00000 
 62174.89797		 1134.44951			61040.44846		95.36600		1328.00000 
 62174.89797		 1134.44951			61040.44846		95.36600		1328.00000 
 62174.89797		 1134.44951			61040.44846		95.36600		1328.00000 
 62174.89797		 1134.44951			61040.44846		95.36600		1328.00000 
 62174.89797		 1134.44951			61040.44846		95.36600		1328.00000 
 62174.89797		 1134.44951			61040.44846		95.36600		1328.00000 
 62174.89797		 1134.44951			61040.44846		95.36600		1328.00000 
 62174.89797		 1134.44951			61040.44846		95.36600		1328.00000 
 62174.89797		 1134.44951			61040.44846		95.36600		1328.00000 
 62174.89797		 1134.44951			61040.44846		95.36600		1328.00000 
