Memory Total (MiB) 	 Memory Used (MiB) 	    Memory Free (MiB) 	 Power Drawed (W) 	 Clocks (Mhz) 	 
 62174.89797		 1134.44951			61040.44846		92.47600		1328.00000 
 62174.89797		 1134.44951			61040.44846		92.47600		1328.00000 
 62174.89797		 1134.44951			61040.44846		92.47600		1328.00000 
 62174.89797		 1134.44951			61040.44846		92.47600		1328.00000 
 62174.89797		 1134.44951			61040.44846		92.47600		1328.00000 
 62174.89797		 1134.44951			61040.44846		92.47600		1328.00000 
 62174.89797		 1134.44951			61040.44846		92.47600		1328.00000 
 62174.89797		 1134.44951			61040.44846		92.47600		1328.00000 
 62174.89797		 1134.44951			61040.44846		92.47600		1328.00000 
 62174.89797		 1134.44951			61040.44846		92.47600		1328.00000 
 62174.89797		 1134.44951			61040.44846		92.47600		1328.00000 
 62174.89797		 1134.44951			61040.44846		92.47600		1328.00000 
 62174.89797		 1134.44951			61040.44846		92.47600		1328.00000 
 62174.89797		 1134.44951			61040.44846		92.47600		1328.00000 
 62174.89797		 1134.44951			61040.44846		92.47600		1328.00000 
 62174.89797		 0.47736			62174.42060		71.52400		1328.00000 
 62174.89797		 0.47736			62174.42060		71.52400		1328.00000 
 62174.89797		 0.47736			62174.42060		71.52400		1328.00000 
 62174.89797		 0.47736			62174.42060		71.05000		1328.00000 
 62174.89797		 38.42760			62136.47037		71.05000		1328.00000 
 62174.89797		 38.42760			62136.47037		71.05000		1328.00000 
 62174.89797		 38.42760			62136.47037		71.05000		1328.00000 
 62174.89797		 38.42760			62136.47037		71.05000		1328.00000 
 62174.89797		 38.42760			62136.47037		71.05000		1328.00000 
 62174.89797		 46.06538			62128.83259		71.05000		1328.00000 
 62174.89797		 61.34095			62113.55702		71.05000		1328.00000 
 62174.89797		 68.97873			62105.91924		71.05000		1328.00000 
 62174.89797		 68.97873			62105.91924		71.05000		1328.00000 
 62174.89797		 68.97873			62105.91924		71.05000		1328.00000 
 62174.89797		 68.97873			62105.91924		71.05000		1328.00000 
 62174.89797		 68.97873			62105.91924		71.05000		1328.00000 
 62174.89797		 68.97873			62105.91924		71.05000		1328.00000 
 62174.89797		 68.97873			62105.91924		71.05000		1328.00000 
 62174.89797		 68.97873			62105.91924		71.05000		1328.00000 
 62174.89797		 68.97873			62105.91924		71.05000		1328.00000 
 62174.89797		 68.97873			62105.91924		71.05000		1328.00000 
 62174.89797		 68.97873			62105.91924		70.56200		1328.00000 
 62174.89797		 68.97873			62105.91924		70.56200		1328.00000 
 62174.89797		 68.97873			62105.91924		70.56200		1328.00000 
 62174.89797		 68.97873			62105.91924		70.56200		1328.00000 
 62174.89797		 68.97873			62105.91924		70.56200		1328.00000 
 62174.89797		 68.97873			62105.91924		71.05000		1328.00000 
 62174.89797		 68.97873			62105.91924		71.05000		1328.00000 
 62174.89797		 68.97873			62105.91924		71.05000		1328.00000 
 62174.89797		 68.97873			62105.91924		71.05000		1328.00000 
 62174.89797		 68.97873			62105.91924		71.05000		1328.00000 
 62174.89797		 68.97873			62105.91924		71.05000		1328.00000 
 62174.89797		 68.97873			62105.91924		71.05000		1328.00000 
 62174.89797		 68.97873			62105.91924		71.05000		1328.00000 
 62174.89797		 68.97873			62105.91924		71.05000		1328.00000 
 62174.89797		 68.97873			62105.91924		70.56200		1328.00000 
 62174.89797		 68.97873			62105.91924		70.56200		1328.00000 
 62174.89797		 68.97873			62105.91924		70.56200		1328.00000 
 62174.89797		 68.97873			62105.91924		70.56200		1328.00000 
 62174.89797		 68.97873			62105.91924		70.56200		1328.00000 
 62174.89797		 68.97873			62105.91924		70.56200		1328.00000 
 62174.89797		 68.97873			62105.91924		70.56200		1328.00000 
 62174.89797		 68.97873			62105.91924		70.56200		1328.00000 
 62174.89797		 68.97873			62105.91924		71.05000		1328.00000 
 62174.89797		 68.97873			62105.91924		71.05000		1328.00000 
 62174.89797		 68.97873			62105.91924		71.05000		1328.00000 
 62174.89797		 68.97873			62105.91924		71.05000		1328.00000 
 62174.89797		 68.97873			62105.91924		71.05000		1328.00000 
 62174.89797		 68.97873			62105.91924		71.05000		1328.00000 
 62174.89797		 68.97873			62105.91924		71.05000		1328.00000 
 62174.89797		 68.97873			62105.91924		71.05000		1328.00000 
 62174.89797		 68.97873			62105.91924		71.05000		1328.00000 
 62174.89797		 68.97873			62105.91924		71.05000		1328.00000 
 62174.89797		 68.97873			62105.91924		71.05000		1328.00000 
 62174.89797		 68.97873			62105.91924		71.05000		1328.00000 
 62174.89797		 68.97873			62105.91924		71.05000		1328.00000 
 62174.89797		 68.97873			62105.91924		71.05000		1328.00000 
 62174.89797		 68.97873			62105.91924		70.56200		1328.00000 
 62174.89797		 68.97873			62105.91924		70.56200		1328.00000 
 62174.89797		 68.97873			62105.91924		70.56200		1328.00000 
 62174.89797		 68.97873			62105.91924		70.56200		1328.00000 
 62174.89797		 68.97873			62105.91924		71.05000		1328.00000 
 62174.89797		 68.97873			62105.91924		71.05000		1328.00000 
 62174.89797		 68.97873			62105.91924		71.05000		1328.00000 
 62174.89797		 68.97873			62105.91924		71.05000		1328.00000 
 62174.89797		 68.97873			62105.91924		71.06200		1328.00000 
 62174.89797		 68.97873			62105.91924		71.06200		1328.00000 
 62174.89797		 68.97873			62105.91924		71.06200		1328.00000 
 62174.89797		 68.97873			62105.91924		71.06200		1328.00000 
 62174.89797		 68.97873			62105.91924		71.06200		1328.00000 
 62174.89797		 68.97873			62105.91924		71.06200		1328.00000 
 62174.89797		 68.97873			62105.91924		71.06200		1328.00000 
 62174.89797		 68.97873			62105.91924		71.06200		1328.00000 
 62174.89797		 68.97873			62105.91924		71.06200		1328.00000 
 62174.89797		 68.97873			62105.91924		71.06200		1328.00000 
 62174.89797		 68.97873			62105.91924		71.06200		1328.00000 
 62174.89797		 68.97873			62105.91924		71.06200		1328.00000 
 62174.89797		 68.97873			62105.91924		71.06200		1328.00000 
 62174.89797		 68.97873			62105.91924		71.05000		1328.00000 
 62174.89797		 68.97873			62105.91924		71.05000		1328.00000 
 62174.89797		 68.97873			62105.91924		71.05000		1328.00000 
 62174.89797		 68.97873			62105.91924		71.05000		1328.00000 
 62174.89797		 68.97873			62105.91924		71.05000		1328.00000 
 62174.89797		 68.97873			62105.91924		70.56200		1328.00000 
 62174.89797		 68.97873			62105.91924		70.56200		1328.00000 
 62174.89797		 68.97873			62105.91924		70.56200		1328.00000 
 62174.89797		 68.97873			62105.91924		70.56200		1328.00000 
 62174.89797		 68.97873			62105.91924		70.56200		1328.00000 
 62174.89797		 68.97873			62105.91924		71.05000		1328.00000 
 62174.89797		 68.97873			62105.91924		71.05000		1328.00000 
 62174.89797		 68.97873			62105.91924		71.05000		1328.00000 
 62174.89797		 68.97873			62105.91924		71.05000		1328.00000 
 62174.89797		 68.97873			62105.91924		71.05000		1328.00000 
 62174.89797		 68.97873			62105.91924		71.05000		1328.00000 
 62174.89797		 68.97873			62105.91924		71.05000		1328.00000 
 62174.89797		 68.97873			62105.91924		71.05000		1328.00000 
 62174.89797		 68.97873			62105.91924		71.05000		1328.00000 
 62174.89797		 68.97873			62105.91924		71.05000		1328.00000 
 62174.89797		 68.97873			62105.91924		71.05000		1328.00000 
 62174.89797		 76.61651			62098.28145		71.05000		1328.00000 
 62174.89797		 76.61651			62098.28145		71.05000		1328.00000 
 62174.89797		 76.61651			62098.28145		71.05000		1328.00000 
 62174.89797		 76.61651			62098.28145		71.01400		1328.00000 
 62174.89797		 76.61651			62098.28145		71.01400		1328.00000 
 62174.89797		 76.61651			62098.28145		71.01400		1328.00000 
 62174.89797		 80.43541			62094.46256		71.01400		1328.00000 
 62174.89797		 80.43541			62094.46256		71.01400		1328.00000 
 62174.89797		 80.43541			62094.46256		71.01400		1328.00000 
 62174.89797		 80.43541			62094.46256		71.01400		1328.00000 
 62174.89797		 80.43541			62094.46256		71.01400		1328.00000 
 62174.89797		 80.43541			62094.46256		71.01400		1328.00000 
 62174.89797		 88.07319			62086.82478		71.01400		1328.00000 
 62174.89797		 88.07319			62086.82478		71.01400		1328.00000 
 62174.89797		 88.07319			62086.82478		71.01400		1328.00000 
 62174.89797		 88.07319			62086.82478		71.01400		1328.00000 
 62174.89797		 88.07319			62086.82478		71.01400		1328.00000 
 62174.89797		 88.07319			62086.82478		71.01400		1328.00000 
 62174.89797		 88.07319			62086.82478		71.01400		1328.00000 
 62174.89797		 225.55329			61949.34468		71.01400		1328.00000 
 62174.89797		 225.55329			61949.34468		71.01400		1328.00000 
 62174.89797		 225.55329			61949.34468		71.01400		1328.00000 
 62174.89797		 225.55329			61949.34468		71.01400		1328.00000 
 62174.89797		 225.55329			61949.34468		71.01400		1328.00000 
 62174.89797		 225.55329			61949.34468		71.01400		1328.00000 
 62174.89797		 225.55329			61949.34468		71.01400		1328.00000 
 62174.89797		 225.55329			61949.34468		71.01400		1328.00000 
 62174.89797		 225.55329			61949.34468		71.01400		1328.00000 
 62174.89797		 225.55329			61949.34468		71.01400		1328.00000 
 62174.89797		 225.55329			61949.34468		71.01400		1328.00000 
 62174.89797		 225.55329			61949.34468		71.01400		1328.00000 
 62174.89797		 225.55329			61949.34468		71.01400		1328.00000 
 62174.89797		 225.55329			61949.34468		71.01400		1328.00000 
 62174.89797		 225.55329			61949.34468		71.01400		1328.00000 
 62174.89797		 225.55329			61949.34468		71.01400		1328.00000 
 62174.89797		 225.55329			61949.34468		71.01400		1328.00000 
 62174.89797		 225.55329			61949.34468		71.01400		1328.00000 
 62174.89797		 225.55329			61949.34468		71.01400		1328.00000 
 62174.89797		 225.55329			61949.34468		71.01400		1328.00000 
 62174.89797		 225.55329			61949.34468		71.55400		1328.00000 
 62174.89797		 225.55329			61949.34468		71.55400		1328.00000 
 62174.89797		 225.55329			61949.34468		71.55400		1328.00000 
 62174.89797		 225.55329			61949.34468		71.55400		1328.00000 
 62174.89797		 1134.44951			61040.44846		71.55400		1328.00000 
 62174.89797		 1134.44951			61040.44846		71.55400		1328.00000 
 62174.89797		 1134.44951			61040.44846		71.55400		1328.00000 
 62174.89797		 1134.44951			61040.44846		71.55400		1328.00000 
 62174.89797		 1157.36286			61017.53511		71.55400		1328.00000 
 62174.89797		 1203.18956			60971.70841		71.55400		1328.00000 
 62174.89797		 1203.18956			60971.70841		71.55400		1328.00000 
 62174.89797		 1203.18956			60971.70841		71.55400		1328.00000 
 62174.89797		 1203.18956			60971.70841		71.55400		1328.00000 
 62174.89797		 1203.18956			60971.70841		71.55400		1328.00000 
 62174.89797		 1203.18956			60971.70841		71.55400		1328.00000 
 62174.89797		 1203.18956			60971.70841		71.55400		1328.00000 
 62174.89797		 1203.18956			60971.70841		71.55400		1328.00000 
 62174.89797		 1203.18956			60971.70841		71.55400		1328.00000 
 62174.89797		 1203.18956			60971.70841		71.55400		1328.00000 
 62174.89797		 1203.18956			60971.70841		125.45000		1328.00000 
 62174.89797		 1203.18956			60971.70841		125.45000		1328.00000 
 62174.89797		 1203.18956			60971.70841		125.45000		1328.00000 
 62174.89797		 1203.18956			60971.70841		125.45000		1328.00000 
 62174.89797		 1203.18956			60971.70841		125.45000		1328.00000 
 62174.89797		 1203.18956			60971.70841		125.45000		1328.00000 
 62174.89797		 1203.18956			60971.70841		125.45000		1328.00000 
 62174.89797		 1203.18956			60971.70841		125.45000		1328.00000 
 62174.89797		 1203.18956			60971.70841		125.45000		1328.00000 
 62174.89797		 1203.18956			60971.70841		125.45000		1328.00000 
 62174.89797		 1203.18956			60971.70841		125.45000		1328.00000 
 62174.89797		 1203.18956			60971.70841		125.45000		1328.00000 
 62174.89797		 1203.18956			60971.70841		125.45000		1328.00000 
 62174.89797		 1203.18956			60971.70841		125.45000		1328.00000 
 62174.89797		 1203.18956			60971.70841		125.45000		1328.00000 
 62174.89797		 1203.18956			60971.70841		125.45000		1328.00000 
 62174.89797		 1203.18956			60971.70841		125.45000		1328.00000 
 62174.89797		 1203.18956			60971.70841		125.45000		1328.00000 
 62174.89797		 1203.18956			60971.70841		125.45000		1328.00000 
 62174.89797		 1203.18956			60971.70841		125.45000		1328.00000 
 62174.89797		 1203.18956			60971.70841		125.45000		1328.00000 
 62174.89797		 1203.18956			60971.70841		158.92200		1328.00000 
 62174.89797		 1203.18956			60971.70841		158.92200		1328.00000 
 62174.89797		 1203.18956			60971.70841		158.92200		1328.00000 
 62174.89797		 1203.18956			60971.70841		158.92200		1328.00000 
 62174.89797		 1203.18956			60971.70841		158.92200		1328.00000 
 62174.89797		 1203.18956			60971.70841		158.92200		1328.00000 
 62174.89797		 1203.18956			60971.70841		158.92200		1328.00000 
 62174.89797		 1203.18956			60971.70841		158.92200		1328.00000 
 62174.89797		 1203.18956			60971.70841		158.92200		1328.00000 
 62174.89797		 1203.18956			60971.70841		158.92200		1328.00000 
 62174.89797		 1203.18956			60971.70841		158.92200		1328.00000 
 62174.89797		 1203.18956			60971.70841		158.92200		1328.00000 
 62174.89797		 1203.18956			60971.70841		158.92200		1328.00000 
 62174.89797		 1203.18956			60971.70841		158.92200		1328.00000 
 62174.89797		 1203.18956			60971.70841		158.92200		1328.00000 
 62174.89797		 1203.18956			60971.70841		158.92200		1328.00000 
 62174.89797		 1203.18956			60971.70841		158.92200		1328.00000 
 62174.89797		 1203.18956			60971.70841		158.92200		1328.00000 
 62174.89797		 1203.18956			60971.70841		158.92200		1328.00000 
 62174.89797		 1203.18956			60971.70841		158.92200		1328.00000 
 62174.89797		 1203.18956			60971.70841		158.92200		1328.00000 
 62174.89797		 1203.18956			60971.70841		165.83600		1328.00000 
 62174.89797		 1203.18956			60971.70841		165.83600		1328.00000 
 62174.89797		 1203.18956			60971.70841		165.83600		1328.00000 
 62174.89797		 1203.18956			60971.70841		165.83600		1328.00000 
 62174.89797		 1203.18956			60971.70841		165.83600		1328.00000 
 62174.89797		 1203.18956			60971.70841		165.83600		1328.00000 
 62174.89797		 1203.18956			60971.70841		165.83600		1328.00000 
 62174.89797		 1203.18956			60971.70841		165.83600		1328.00000 
 62174.89797		 1203.18956			60971.70841		165.83600		1328.00000 
 62174.89797		 1203.18956			60971.70841		165.83600		1328.00000 
 62174.89797		 1203.18956			60971.70841		165.83600		1328.00000 
 62174.89797		 1203.18956			60971.70841		165.83600		1328.00000 
 62174.89797		 1203.18956			60971.70841		165.83600		1328.00000 
 62174.89797		 1203.18956			60971.70841		165.83600		1328.00000 
 62174.89797		 1203.18956			60971.70841		165.83600		1328.00000 
 62174.89797		 1203.18956			60971.70841		165.83600		1328.00000 
 62174.89797		 1203.18956			60971.70841		165.83600		1328.00000 
 62174.89797		 1203.18956			60971.70841		165.83600		1328.00000 
 62174.89797		 1203.18956			60971.70841		165.83600		1328.00000 
 62174.89797		 1203.18956			60971.70841		165.83600		1328.00000 
 62174.89797		 1203.18956			60971.70841		165.83600		1328.00000 
 62174.89797		 1203.18956			60971.70841		167.21200		1328.00000 
 62174.89797		 1203.18956			60971.70841		167.21200		1328.00000 
 62174.89797		 1203.18956			60971.70841		167.21200		1328.00000 
 62174.89797		 1203.18956			60971.70841		167.21200		1328.00000 
 62174.89797		 1203.18956			60971.70841		167.21200		1328.00000 
 62174.89797		 1203.18956			60971.70841		167.21200		1328.00000 
 62174.89797		 1203.18956			60971.70841		167.21200		1328.00000 
 62174.89797		 1203.18956			60971.70841		167.21200		1328.00000 
 62174.89797		 1203.18956			60971.70841		167.21200		1328.00000 
 62174.89797		 1203.18956			60971.70841		167.21200		1328.00000 
 62174.89797		 1203.18956			60971.70841		167.21200		1328.00000 
 62174.89797		 1203.18956			60971.70841		167.21200		1328.00000 
 62174.89797		 1203.18956			60971.70841		167.21200		1328.00000 
 62174.89797		 1203.18956			60971.70841		167.21200		1328.00000 
 62174.89797		 1203.18956			60971.70841		167.21200		1328.00000 
 62174.89797		 1203.18956			60971.70841		167.21200		1328.00000 
 62174.89797		 1203.18956			60971.70841		167.21200		1328.00000 
 62174.89797		 1203.18956			60971.70841		167.21200		1328.00000 
 62174.89797		 1203.18956			60971.70841		167.21200		1328.00000 
 62174.89797		 1203.18956			60971.70841		167.21200		1328.00000 
 62174.89797		 1203.18956			60971.70841		167.21200		1328.00000 
 62174.89797		 1203.18956			60971.70841		167.18400		1328.00000 
 62174.89797		 1203.18956			60971.70841		167.18400		1328.00000 
 62174.89797		 1203.18956			60971.70841		167.18400		1328.00000 
 62174.89797		 1203.18956			60971.70841		167.18400		1328.00000 
 62174.89797		 1203.18956			60971.70841		167.18400		1328.00000 
 62174.89797		 1203.18956			60971.70841		167.18400		1328.00000 
 62174.89797		 1203.18956			60971.70841		167.18400		1328.00000 
 62174.89797		 1203.18956			60971.70841		167.18400		1328.00000 
 62174.89797		 1203.18956			60971.70841		167.18400		1328.00000 
 62174.89797		 1203.18956			60971.70841		167.18400		1328.00000 
 62174.89797		 1203.18956			60971.70841		167.18400		1328.00000 
 62174.89797		 1203.18956			60971.70841		167.18400		1328.00000 
 62174.89797		 1203.18956			60971.70841		167.18400		1328.00000 
 62174.89797		 1203.18956			60971.70841		167.18400		1328.00000 
 62174.89797		 1203.18956			60971.70841		167.18400		1328.00000 
 62174.89797		 1203.18956			60971.70841		167.18400		1328.00000 
 62174.89797		 1203.18956			60971.70841		167.18400		1328.00000 
 62174.89797		 1203.18956			60971.70841		167.18400		1328.00000 
 62174.89797		 1203.18956			60971.70841		167.18400		1328.00000 
 62174.89797		 1203.18956			60971.70841		167.18400		1328.00000 
 62174.89797		 1203.18956			60971.70841		167.18400		1328.00000 
 62174.89797		 1203.18956			60971.70841		168.25200		1328.00000 
 62174.89797		 1203.18956			60971.70841		168.25200		1328.00000 
 62174.89797		 1203.18956			60971.70841		168.25200		1328.00000 
 62174.89797		 1203.18956			60971.70841		168.25200		1328.00000 
 62174.89797		 1203.18956			60971.70841		168.25200		1328.00000 
 62174.89797		 1203.18956			60971.70841		168.25200		1328.00000 
 62174.89797		 1203.18956			60971.70841		168.25200		1328.00000 
 62174.89797		 1203.18956			60971.70841		168.25200		1328.00000 
 62174.89797		 1203.18956			60971.70841		168.25200		1328.00000 
 62174.89797		 1203.18956			60971.70841		168.25200		1328.00000 
 62174.89797		 1203.18956			60971.70841		168.25200		1328.00000 
 62174.89797		 1203.18956			60971.70841		168.25200		1328.00000 
 62174.89797		 1203.18956			60971.70841		168.25200		1328.00000 
 62174.89797		 1203.18956			60971.70841		168.25200		1328.00000 
 62174.89797		 1203.18956			60971.70841		168.25200		1328.00000 
 62174.89797		 1203.18956			60971.70841		168.25200		1328.00000 
 62174.89797		 1203.18956			60971.70841		168.25200		1328.00000 
 62174.89797		 1203.18956			60971.70841		168.25200		1328.00000 
 62174.89797		 1203.18956			60971.70841		168.25200		1328.00000 
 62174.89797		 1203.18956			60971.70841		168.25200		1328.00000 
 62174.89797		 1203.18956			60971.70841		168.25200		1328.00000 
 62174.89797		 1203.18956			60971.70841		167.67000		1328.00000 
 62174.89797		 1203.18956			60971.70841		167.67000		1328.00000 
 62174.89797		 1203.18956			60971.70841		167.67000		1328.00000 
 62174.89797		 1203.18956			60971.70841		167.67000		1328.00000 
 62174.89797		 1203.18956			60971.70841		167.67000		1328.00000 
 62174.89797		 1203.18956			60971.70841		167.67000		1328.00000 
 62174.89797		 1203.18956			60971.70841		167.67000		1328.00000 
 62174.89797		 1203.18956			60971.70841		167.67000		1328.00000 
 62174.89797		 1203.18956			60971.70841		167.67000		1328.00000 
 62174.89797		 1203.18956			60971.70841		167.67000		1328.00000 
 62174.89797		 1203.18956			60971.70841		167.67000		1328.00000 
 62174.89797		 1203.18956			60971.70841		167.67000		1328.00000 
 62174.89797		 1203.18956			60971.70841		167.67000		1328.00000 
 62174.89797		 1203.18956			60971.70841		167.67000		1328.00000 
 62174.89797		 1203.18956			60971.70841		167.67000		1328.00000 
 62174.89797		 1203.18956			60971.70841		167.67000		1328.00000 
 62174.89797		 1203.18956			60971.70841		167.67000		1328.00000 
 62174.89797		 1203.18956			60971.70841		167.67000		1328.00000 
 62174.89797		 1203.18956			60971.70841		167.67000		1328.00000 
 62174.89797		 1203.18956			60971.70841		167.67000		1328.00000 
 62174.89797		 1203.18956			60971.70841		167.67000		1328.00000 
 62174.89797		 1180.27621			60994.62176		161.94400		1328.00000 
 62174.89797		 1134.44951			61040.44846		161.94400		1328.00000 
 62174.89797		 1134.44951			61040.44846		161.94400		1328.00000 
 62174.89797		 1134.44951			61040.44846		161.94400		1328.00000 
 62174.89797		 1134.44951			61040.44846		161.94400		1328.00000 
 62174.89797		 1134.44951			61040.44846		161.94400		1328.00000 
 62174.89797		 1134.44951			61040.44846		161.94400		1328.00000 
 62174.89797		 1134.44951			61040.44846		161.94400		1328.00000 
 62174.89797		 1134.44951			61040.44846		161.94400		1328.00000 
 62174.89797		 1134.44951			61040.44846		161.94400		1328.00000 
 62174.89797		 1134.44951			61040.44846		161.94400		1328.00000 
 62174.89797		 1134.44951			61040.44846		161.94400		1328.00000 
 62174.89797		 1134.44951			61040.44846		161.94400		1328.00000 
 62174.89797		 1134.44951			61040.44846		161.94400		1328.00000 
 62174.89797		 1134.44951			61040.44846		161.94400		1328.00000 
 62174.89797		 1134.44951			61040.44846		161.94400		1328.00000 
 62174.89797		 1134.44951			61040.44846		161.94400		1328.00000 
 62174.89797		 1134.44951			61040.44846		161.94400		1328.00000 
 62174.89797		 1134.44951			61040.44846		90.50000		1328.00000 
 62174.89797		 1134.44951			61040.44846		90.50000		1328.00000 
 62174.89797		 1134.44951			61040.44846		90.50000		1328.00000 
 62174.89797		 1134.44951			61040.44846		90.50000		1328.00000 
 62174.89797		 1134.44951			61040.44846		90.50000		1328.00000 
 62174.89797		 1134.44951			61040.44846		90.50000		1328.00000 
 62174.89797		 1134.44951			61040.44846		90.50000		1328.00000 
 62174.89797		 1134.44951			61040.44846		90.50000		1328.00000 
 62174.89797		 1134.44951			61040.44846		90.50000		1328.00000 
 62174.89797		 1134.44951			61040.44846		90.50000		1328.00000 
 62174.89797		 1126.81172			61048.08624		90.50000		1328.00000 
 62174.89797		 1126.81172			61048.08624		90.50000		1328.00000 
