Memory Total (MiB) 	 Memory Used (MiB) 	    Memory Free (MiB) 	 Power Drawed (W) 	 Clocks (Mhz) 	 
 62174.89797		 1134.44951			61040.44846		77.88200		1328.00000 
 62174.89797		 1134.44951			61040.44846		77.88200		1328.00000 
 62174.89797		 1134.44951			61040.44846		77.88200		1328.00000 
 62174.89797		 1134.44951			61040.44846		77.88200		1328.00000 
 62174.89797		 1134.44951			61040.44846		77.88200		1328.00000 
 62174.89797		 1134.44951			61040.44846		77.88200		1328.00000 
 62174.89797		 1134.44951			61040.44846		77.88200		1328.00000 
 62174.89797		 1134.44951			61040.44846		77.88200		1328.00000 
 62174.89797		 1134.44951			61040.44846		77.88200		1328.00000 
 62174.89797		 1134.44951			61040.44846		77.88200		1328.00000 
 62174.89797		 1134.44951			61040.44846		77.88200		1328.00000 
 62174.89797		 1134.44951			61040.44846		77.88200		1328.00000 
 62174.89797		 1134.44951			61040.44846		77.88200		1328.00000 
 62174.89797		 1134.44951			61040.44846		77.88200		1328.00000 
 62174.89797		 0.47736			62174.42060		71.53600		1328.00000 
 62174.89797		 0.47736			62174.42060		71.53600		1328.00000 
 62174.89797		 0.47736			62174.42060		71.58400		1328.00000 
 62174.89797		 0.47736			62174.42060		71.58400		1328.00000 
 62174.89797		 38.42760			62136.47037		71.58400		1328.00000 
 62174.89797		 38.42760			62136.47037		71.58400		1328.00000 
 62174.89797		 38.42760			62136.47037		71.58400		1328.00000 
 62174.89797		 38.42760			62136.47037		71.58400		1328.00000 
 62174.89797		 38.42760			62136.47037		71.58400		1328.00000 
 62174.89797		 46.06538			62128.83259		71.58400		1328.00000 
 62174.89797		 61.34095			62113.55702		71.58400		1328.00000 
 62174.89797		 68.97873			62105.91924		71.58400		1328.00000 
 62174.89797		 68.97873			62105.91924		72.02200		1328.00000 
 62174.89797		 68.97873			62105.91924		72.02200		1328.00000 
 62174.89797		 68.97873			62105.91924		72.02200		1328.00000 
 62174.89797		 68.97873			62105.91924		72.02200		1328.00000 
 62174.89797		 68.97873			62105.91924		72.02200		1328.00000 
 62174.89797		 68.97873			62105.91924		71.53600		1328.00000 
 62174.89797		 68.97873			62105.91924		71.53600		1328.00000 
 62174.89797		 68.97873			62105.91924		71.53600		1328.00000 
 62174.89797		 68.97873			62105.91924		71.53600		1328.00000 
 62174.89797		 68.97873			62105.91924		71.53600		1328.00000 
 62174.89797		 68.97873			62105.91924		71.53600		1328.00000 
 62174.89797		 68.97873			62105.91924		71.53600		1328.00000 
 62174.89797		 68.97873			62105.91924		71.53600		1328.00000 
 62174.89797		 68.97873			62105.91924		71.53600		1328.00000 
 62174.89797		 68.97873			62105.91924		72.03400		1328.00000 
 62174.89797		 68.97873			62105.91924		72.03400		1328.00000 
 62174.89797		 68.97873			62105.91924		72.03400		1328.00000 
 62174.89797		 68.97873			62105.91924		72.03400		1328.00000 
 62174.89797		 68.97873			62105.91924		71.58400		1328.00000 
 62174.89797		 68.97873			62105.91924		71.58400		1328.00000 
 62174.89797		 68.97873			62105.91924		71.58400		1328.00000 
 62174.89797		 68.97873			62105.91924		71.58400		1328.00000 
 62174.89797		 68.97873			62105.91924		71.58400		1328.00000 
 62174.89797		 68.97873			62105.91924		71.53600		1328.00000 
 62174.89797		 68.97873			62105.91924		71.53600		1328.00000 
 62174.89797		 68.97873			62105.91924		71.53600		1328.00000 
 62174.89797		 68.97873			62105.91924		71.53600		1328.00000 
 62174.89797		 68.97873			62105.91924		71.55400		1328.00000 
 62174.89797		 68.97873			62105.91924		71.55400		1328.00000 
 62174.89797		 68.97873			62105.91924		71.55400		1328.00000 
 62174.89797		 68.97873			62105.91924		71.55400		1328.00000 
 62174.89797		 68.97873			62105.91924		72.03400		1328.00000 
 62174.89797		 68.97873			62105.91924		72.03400		1328.00000 
 62174.89797		 68.97873			62105.91924		72.03400		1328.00000 
 62174.89797		 68.97873			62105.91924		72.03400		1328.00000 
 62174.89797		 68.97873			62105.91924		72.03400		1328.00000 
 62174.89797		 68.97873			62105.91924		72.03400		1328.00000 
 62174.89797		 68.97873			62105.91924		72.03400		1328.00000 
 62174.89797		 68.97873			62105.91924		72.03400		1328.00000 
 62174.89797		 68.97873			62105.91924		72.03400		1328.00000 
 62174.89797		 68.97873			62105.91924		72.03400		1328.00000 
 62174.89797		 68.97873			62105.91924		72.03400		1328.00000 
 62174.89797		 68.97873			62105.91924		72.03400		1328.00000 
 62174.89797		 68.97873			62105.91924		71.55400		1328.00000 
 62174.89797		 68.97873			62105.91924		71.55400		1328.00000 
 62174.89797		 68.97873			62105.91924		71.55400		1328.00000 
 62174.89797		 68.97873			62105.91924		71.55400		1328.00000 
 62174.89797		 68.97873			62105.91924		71.55400		1328.00000 
 62174.89797		 68.97873			62105.91924		71.55400		1328.00000 
 62174.89797		 68.97873			62105.91924		71.55400		1328.00000 
 62174.89797		 68.97873			62105.91924		71.55400		1328.00000 
 62174.89797		 68.97873			62105.91924		71.06600		1328.00000 
 62174.89797		 68.97873			62105.91924		71.06600		1328.00000 
 62174.89797		 68.97873			62105.91924		71.06600		1328.00000 
 62174.89797		 68.97873			62105.91924		71.06600		1328.00000 
 62174.89797		 68.97873			62105.91924		71.55400		1328.00000 
 62174.89797		 68.97873			62105.91924		71.55400		1328.00000 
 62174.89797		 68.97873			62105.91924		71.55400		1328.00000 
 62174.89797		 68.97873			62105.91924		71.55400		1328.00000 
 62174.89797		 68.97873			62105.91924		71.55400		1328.00000 
 62174.89797		 68.97873			62105.91924		71.55400		1328.00000 
 62174.89797		 68.97873			62105.91924		71.55400		1328.00000 
 62174.89797		 68.97873			62105.91924		71.06600		1328.00000 
 62174.89797		 68.97873			62105.91924		71.06600		1328.00000 
 62174.89797		 68.97873			62105.91924		71.06600		1328.00000 
 62174.89797		 68.97873			62105.91924		71.06600		1328.00000 
 62174.89797		 68.97873			62105.91924		71.06600		1328.00000 
 62174.89797		 68.97873			62105.91924		71.06600		1328.00000 
 62174.89797		 68.97873			62105.91924		71.06600		1328.00000 
 62174.89797		 68.97873			62105.91924		71.06600		1328.00000 
 62174.89797		 68.97873			62105.91924		71.06600		1328.00000 
 62174.89797		 68.97873			62105.91924		71.06600		1328.00000 
 62174.89797		 68.97873			62105.91924		71.05000		1328.00000 
 62174.89797		 68.97873			62105.91924		71.05000		1328.00000 
 62174.89797		 68.97873			62105.91924		71.05000		1328.00000 
 62174.89797		 68.97873			62105.91924		71.05000		1328.00000 
 62174.89797		 68.97873			62105.91924		71.05000		1328.00000 
 62174.89797		 68.97873			62105.91924		71.05000		1328.00000 
 62174.89797		 68.97873			62105.91924		71.05000		1328.00000 
 62174.89797		 68.97873			62105.91924		71.05000		1328.00000 
 62174.89797		 68.97873			62105.91924		71.05000		1328.00000 
 62174.89797		 68.97873			62105.91924		71.05000		1328.00000 
 62174.89797		 68.97873			62105.91924		71.05000		1328.00000 
 62174.89797		 76.61651			62098.28145		71.05000		1328.00000 
 62174.89797		 76.61651			62098.28145		71.05000		1328.00000 
 62174.89797		 76.61651			62098.28145		71.05000		1328.00000 
 62174.89797		 76.61651			62098.28145		71.05000		1328.00000 
 62174.89797		 76.61651			62098.28145		71.05000		1328.00000 
 62174.89797		 80.43541			62094.46256		71.06600		1328.00000 
 62174.89797		 80.43541			62094.46256		71.06600		1328.00000 
 62174.89797		 80.43541			62094.46256		71.06600		1328.00000 
 62174.89797		 80.43541			62094.46256		71.06600		1328.00000 
 62174.89797		 80.43541			62094.46256		71.06600		1328.00000 
 62174.89797		 80.43541			62094.46256		71.06600		1328.00000 
 62174.89797		 88.07319			62086.82478		71.06600		1328.00000 
 62174.89797		 88.07319			62086.82478		71.06600		1328.00000 
 62174.89797		 88.07319			62086.82478		71.06600		1328.00000 
 62174.89797		 88.07319			62086.82478		71.06600		1328.00000 
 62174.89797		 88.07319			62086.82478		71.06600		1328.00000 
 62174.89797		 88.07319			62086.82478		71.06600		1328.00000 
 62174.89797		 88.07319			62086.82478		71.06600		1328.00000 
 62174.89797		 88.07319			62086.82478		71.06600		1328.00000 
 62174.89797		 225.55329			61949.34468		71.06600		1328.00000 
 62174.89797		 225.55329			61949.34468		71.06600		1328.00000 
 62174.89797		 225.55329			61949.34468		71.58400		1328.00000 
 62174.89797		 225.55329			61949.34468		71.58400		1328.00000 
 62174.89797		 225.55329			61949.34468		71.58400		1328.00000 
 62174.89797		 225.55329			61949.34468		71.58400		1328.00000 
 62174.89797		 225.55329			61949.34468		71.58400		1328.00000 
 62174.89797		 225.55329			61949.34468		71.58400		1328.00000 
 62174.89797		 225.55329			61949.34468		71.58400		1328.00000 
 62174.89797		 225.55329			61949.34468		71.58400		1328.00000 
 62174.89797		 225.55329			61949.34468		71.58400		1328.00000 
 62174.89797		 225.55329			61949.34468		71.58400		1328.00000 
 62174.89797		 225.55329			61949.34468		71.58400		1328.00000 
 62174.89797		 225.55329			61949.34468		71.58400		1328.00000 
 62174.89797		 225.55329			61949.34468		71.58400		1328.00000 
 62174.89797		 225.55329			61949.34468		71.58400		1328.00000 
 62174.89797		 225.55329			61949.34468		71.58400		1328.00000 
 62174.89797		 225.55329			61949.34468		71.58400		1328.00000 
 62174.89797		 225.55329			61949.34468		71.58400		1328.00000 
 62174.89797		 225.55329			61949.34468		71.58400		1328.00000 
 62174.89797		 225.55329			61949.34468		71.58400		1328.00000 
 62174.89797		 225.55329			61949.34468		71.58400		1328.00000 
 62174.89797		 225.55329			61949.34468		72.07000		1328.00000 
 62174.89797		 1134.44951			61040.44846		72.07000		1328.00000 
 62174.89797		 1134.44951			61040.44846		72.07000		1328.00000 
 62174.89797		 1134.44951			61040.44846		72.07000		1328.00000 
 62174.89797		 1134.44951			61040.44846		72.07000		1328.00000 
 62174.89797		 1180.27621			60994.62176		72.07000		1328.00000 
 62174.89797		 1271.92961			60902.96836		72.07000		1328.00000 
 62174.89797		 1271.92961			60902.96836		72.07000		1328.00000 
 62174.89797		 1271.92961			60902.96836		72.07000		1328.00000 
 62174.89797		 1271.92961			60902.96836		72.07000		1328.00000 
 62174.89797		 1271.92961			60902.96836		72.07000		1328.00000 
 62174.89797		 1271.92961			60902.96836		72.07000		1328.00000 
 62174.89797		 1271.92961			60902.96836		72.07000		1328.00000 
 62174.89797		 1271.92961			60902.96836		72.07000		1328.00000 
 62174.89797		 1271.92961			60902.96836		72.07000		1328.00000 
 62174.89797		 1271.92961			60902.96836		72.07000		1328.00000 
 62174.89797		 1271.92961			60902.96836		72.07000		1328.00000 
 62174.89797		 1271.92961			60902.96836		72.07000		1328.00000 
 62174.89797		 1271.92961			60902.96836		72.07000		1328.00000 
 62174.89797		 1271.92961			60902.96836		142.48000		1328.00000 
 62174.89797		 1271.92961			60902.96836		142.48000		1328.00000 
 62174.89797		 1271.92961			60902.96836		142.48000		1328.00000 
 62174.89797		 1271.92961			60902.96836		142.48000		1328.00000 
 62174.89797		 1271.92961			60902.96836		142.48000		1328.00000 
 62174.89797		 1271.92961			60902.96836		142.48000		1328.00000 
 62174.89797		 1271.92961			60902.96836		142.48000		1328.00000 
 62174.89797		 1271.92961			60902.96836		142.48000		1328.00000 
 62174.89797		 1271.92961			60902.96836		142.48000		1328.00000 
 62174.89797		 1271.92961			60902.96836		142.48000		1328.00000 
 62174.89797		 1271.92961			60902.96836		142.48000		1328.00000 
 62174.89797		 1271.92961			60902.96836		142.48000		1328.00000 
 62174.89797		 1271.92961			60902.96836		142.48000		1328.00000 
 62174.89797		 1271.92961			60902.96836		142.48000		1328.00000 
 62174.89797		 1271.92961			60902.96836		142.48000		1328.00000 
 62174.89797		 1271.92961			60902.96836		142.48000		1328.00000 
 62174.89797		 1271.92961			60902.96836		142.48000		1328.00000 
 62174.89797		 1271.92961			60902.96836		142.48000		1328.00000 
 62174.89797		 1271.92961			60902.96836		142.48000		1328.00000 
 62174.89797		 1271.92961			60902.96836		142.48000		1328.00000 
 62174.89797		 1271.92961			60902.96836		142.48000		1328.00000 
 62174.89797		 1271.92961			60902.96836		173.50200		1328.00000 
 62174.89797		 1271.92961			60902.96836		173.50200		1328.00000 
 62174.89797		 1271.92961			60902.96836		173.50200		1328.00000 
 62174.89797		 1271.92961			60902.96836		173.50200		1328.00000 
 62174.89797		 1271.92961			60902.96836		173.50200		1328.00000 
 62174.89797		 1271.92961			60902.96836		173.50200		1328.00000 
 62174.89797		 1271.92961			60902.96836		173.50200		1328.00000 
 62174.89797		 1271.92961			60902.96836		173.50200		1328.00000 
 62174.89797		 1271.92961			60902.96836		173.50200		1328.00000 
 62174.89797		 1271.92961			60902.96836		173.50200		1328.00000 
 62174.89797		 1271.92961			60902.96836		173.50200		1328.00000 
 62174.89797		 1271.92961			60902.96836		173.50200		1328.00000 
 62174.89797		 1271.92961			60902.96836		173.50200		1328.00000 
 62174.89797		 1271.92961			60902.96836		173.50200		1328.00000 
 62174.89797		 1271.92961			60902.96836		173.50200		1328.00000 
 62174.89797		 1271.92961			60902.96836		173.50200		1328.00000 
 62174.89797		 1271.92961			60902.96836		173.50200		1328.00000 
 62174.89797		 1271.92961			60902.96836		173.50200		1328.00000 
 62174.89797		 1271.92961			60902.96836		173.50200		1328.00000 
 62174.89797		 1271.92961			60902.96836		173.50200		1328.00000 
 62174.89797		 1271.92961			60902.96836		173.50200		1328.00000 
 62174.89797		 1271.92961			60902.96836		178.39200		1328.00000 
 62174.89797		 1271.92961			60902.96836		178.39200		1328.00000 
 62174.89797		 1271.92961			60902.96836		178.39200		1328.00000 
 62174.89797		 1271.92961			60902.96836		178.39200		1328.00000 
 62174.89797		 1271.92961			60902.96836		178.39200		1328.00000 
 62174.89797		 1271.92961			60902.96836		178.39200		1328.00000 
 62174.89797		 1271.92961			60902.96836		178.39200		1328.00000 
 62174.89797		 1271.92961			60902.96836		178.39200		1328.00000 
 62174.89797		 1271.92961			60902.96836		178.39200		1328.00000 
 62174.89797		 1271.92961			60902.96836		178.39200		1328.00000 
 62174.89797		 1271.92961			60902.96836		178.39200		1328.00000 
 62174.89797		 1271.92961			60902.96836		178.39200		1328.00000 
 62174.89797		 1271.92961			60902.96836		178.39200		1328.00000 
 62174.89797		 1271.92961			60902.96836		178.39200		1328.00000 
 62174.89797		 1271.92961			60902.96836		178.39200		1328.00000 
 62174.89797		 1271.92961			60902.96836		178.39200		1328.00000 
 62174.89797		 1271.92961			60902.96836		178.39200		1328.00000 
 62174.89797		 1271.92961			60902.96836		178.39200		1328.00000 
 62174.89797		 1271.92961			60902.96836		178.39200		1328.00000 
 62174.89797		 1271.92961			60902.96836		178.39200		1328.00000 
 62174.89797		 1271.92961			60902.96836		178.39200		1328.00000 
 62174.89797		 1271.92961			60902.96836		179.33400		1328.00000 
 62174.89797		 1271.92961			60902.96836		179.33400		1328.00000 
 62174.89797		 1271.92961			60902.96836		179.33400		1328.00000 
 62174.89797		 1271.92961			60902.96836		179.33400		1328.00000 
 62174.89797		 1271.92961			60902.96836		179.33400		1328.00000 
 62174.89797		 1271.92961			60902.96836		179.33400		1328.00000 
 62174.89797		 1271.92961			60902.96836		179.33400		1328.00000 
 62174.89797		 1271.92961			60902.96836		179.33400		1328.00000 
 62174.89797		 1271.92961			60902.96836		179.33400		1328.00000 
 62174.89797		 1271.92961			60902.96836		179.33400		1328.00000 
 62174.89797		 1271.92961			60902.96836		179.33400		1328.00000 
 62174.89797		 1271.92961			60902.96836		179.33400		1328.00000 
 62174.89797		 1271.92961			60902.96836		179.33400		1328.00000 
 62174.89797		 1271.92961			60902.96836		179.33400		1328.00000 
 62174.89797		 1271.92961			60902.96836		179.33400		1328.00000 
 62174.89797		 1271.92961			60902.96836		179.33400		1328.00000 
 62174.89797		 1271.92961			60902.96836		179.33400		1328.00000 
 62174.89797		 1271.92961			60902.96836		179.33400		1328.00000 
 62174.89797		 1271.92961			60902.96836		179.33400		1328.00000 
 62174.89797		 1271.92961			60902.96836		179.33400		1328.00000 
 62174.89797		 1271.92961			60902.96836		179.33400		1328.00000 
 62174.89797		 1271.92961			60902.96836		180.30600		1328.00000 
 62174.89797		 1271.92961			60902.96836		180.30600		1328.00000 
 62174.89797		 1271.92961			60902.96836		180.30600		1328.00000 
 62174.89797		 1271.92961			60902.96836		180.30600		1328.00000 
 62174.89797		 1271.92961			60902.96836		180.30600		1328.00000 
 62174.89797		 1271.92961			60902.96836		180.30600		1328.00000 
 62174.89797		 1271.92961			60902.96836		180.30600		1328.00000 
 62174.89797		 1271.92961			60902.96836		180.30600		1328.00000 
 62174.89797		 1271.92961			60902.96836		180.30600		1328.00000 
 62174.89797		 1271.92961			60902.96836		180.30600		1328.00000 
 62174.89797		 1271.92961			60902.96836		180.30600		1328.00000 
 62174.89797		 1271.92961			60902.96836		180.30600		1328.00000 
 62174.89797		 1271.92961			60902.96836		180.30600		1328.00000 
 62174.89797		 1271.92961			60902.96836		180.30600		1328.00000 
 62174.89797		 1271.92961			60902.96836		180.30600		1328.00000 
 62174.89797		 1271.92961			60902.96836		180.30600		1328.00000 
 62174.89797		 1271.92961			60902.96836		180.30600		1328.00000 
 62174.89797		 1271.92961			60902.96836		180.30600		1328.00000 
 62174.89797		 1271.92961			60902.96836		180.30600		1328.00000 
 62174.89797		 1271.92961			60902.96836		180.30600		1328.00000 
 62174.89797		 1271.92961			60902.96836		180.30600		1328.00000 
 62174.89797		 1271.92961			60902.96836		180.79200		1328.00000 
 62174.89797		 1271.92961			60902.96836		180.79200		1328.00000 
 62174.89797		 1271.92961			60902.96836		180.79200		1328.00000 
 62174.89797		 1271.92961			60902.96836		180.79200		1328.00000 
 62174.89797		 1271.92961			60902.96836		180.79200		1328.00000 
 62174.89797		 1271.92961			60902.96836		180.79200		1328.00000 
 62174.89797		 1271.92961			60902.96836		180.79200		1328.00000 
 62174.89797		 1271.92961			60902.96836		180.79200		1328.00000 
 62174.89797		 1271.92961			60902.96836		180.79200		1328.00000 
 62174.89797		 1271.92961			60902.96836		180.79200		1328.00000 
 62174.89797		 1271.92961			60902.96836		180.79200		1328.00000 
 62174.89797		 1271.92961			60902.96836		180.79200		1328.00000 
 62174.89797		 1271.92961			60902.96836		180.79200		1328.00000 
 62174.89797		 1271.92961			60902.96836		180.79200		1328.00000 
 62174.89797		 1271.92961			60902.96836		180.79200		1328.00000 
 62174.89797		 1271.92961			60902.96836		180.79200		1328.00000 
 62174.89797		 1271.92961			60902.96836		180.79200		1328.00000 
 62174.89797		 1271.92961			60902.96836		180.79200		1328.00000 
 62174.89797		 1271.92961			60902.96836		180.79200		1328.00000 
 62174.89797		 1271.92961			60902.96836		180.79200		1328.00000 
 62174.89797		 1271.92961			60902.96836		180.79200		1328.00000 
 62174.89797		 1271.92961			60902.96836		181.30800		1328.00000 
 62174.89797		 1271.92961			60902.96836		181.30800		1328.00000 
 62174.89797		 1271.92961			60902.96836		181.30800		1328.00000 
 62174.89797		 1271.92961			60902.96836		181.30800		1328.00000 
 62174.89797		 1271.92961			60902.96836		181.30800		1328.00000 
 62174.89797		 1271.92961			60902.96836		181.30800		1328.00000 
 62174.89797		 1271.92961			60902.96836		181.30800		1328.00000 
 62174.89797		 1271.92961			60902.96836		181.30800		1328.00000 
 62174.89797		 1271.92961			60902.96836		181.30800		1328.00000 
 62174.89797		 1271.92961			60902.96836		181.30800		1328.00000 
 62174.89797		 1271.92961			60902.96836		181.30800		1328.00000 
 62174.89797		 1271.92961			60902.96836		181.30800		1328.00000 
 62174.89797		 1271.92961			60902.96836		181.30800		1328.00000 
 62174.89797		 1271.92961			60902.96836		181.30800		1328.00000 
 62174.89797		 1271.92961			60902.96836		181.30800		1328.00000 
 62174.89797		 1271.92961			60902.96836		181.30800		1328.00000 
 62174.89797		 1271.92961			60902.96836		181.30800		1328.00000 
 62174.89797		 1271.92961			60902.96836		181.30800		1328.00000 
 62174.89797		 1271.92961			60902.96836		181.30800		1328.00000 
 62174.89797		 1271.92961			60902.96836		181.30800		1328.00000 
 62174.89797		 1271.92961			60902.96836		181.30800		1328.00000 
 62174.89797		 1271.92961			60902.96836		180.79200		1328.00000 
 62174.89797		 1271.92961			60902.96836		180.79200		1328.00000 
 62174.89797		 1271.92961			60902.96836		180.79200		1328.00000 
 62174.89797		 1271.92961			60902.96836		180.79200		1328.00000 
 62174.89797		 1271.92961			60902.96836		180.79200		1328.00000 
 62174.89797		 1271.92961			60902.96836		180.79200		1328.00000 
 62174.89797		 1271.92961			60902.96836		180.79200		1328.00000 
 62174.89797		 1271.92961			60902.96836		180.79200		1328.00000 
 62174.89797		 1271.92961			60902.96836		180.79200		1328.00000 
 62174.89797		 1271.92961			60902.96836		180.79200		1328.00000 
 62174.89797		 1271.92961			60902.96836		180.79200		1328.00000 
 62174.89797		 1271.92961			60902.96836		180.79200		1328.00000 
 62174.89797		 1271.92961			60902.96836		180.79200		1328.00000 
 62174.89797		 1271.92961			60902.96836		180.79200		1328.00000 
 62174.89797		 1271.92961			60902.96836		180.79200		1328.00000 
 62174.89797		 1271.92961			60902.96836		180.79200		1328.00000 
 62174.89797		 1271.92961			60902.96836		180.79200		1328.00000 
 62174.89797		 1271.92961			60902.96836		180.79200		1328.00000 
 62174.89797		 1271.92961			60902.96836		180.79200		1328.00000 
 62174.89797		 1271.92961			60902.96836		180.79200		1328.00000 
 62174.89797		 1271.92961			60902.96836		180.79200		1328.00000 
 62174.89797		 1271.92961			60902.96836		180.30600		1328.00000 
 62174.89797		 1271.92961			60902.96836		180.30600		1328.00000 
 62174.89797		 1271.92961			60902.96836		180.30600		1328.00000 
 62174.89797		 1271.92961			60902.96836		180.30600		1328.00000 
 62174.89797		 1271.92961			60902.96836		180.30600		1328.00000 
 62174.89797		 1271.92961			60902.96836		180.30600		1328.00000 
 62174.89797		 1271.92961			60902.96836		180.30600		1328.00000 
 62174.89797		 1271.92961			60902.96836		180.30600		1328.00000 
 62174.89797		 1271.92961			60902.96836		180.30600		1328.00000 
 62174.89797		 1271.92961			60902.96836		180.30600		1328.00000 
 62174.89797		 1271.92961			60902.96836		180.30600		1328.00000 
 62174.89797		 1271.92961			60902.96836		180.30600		1328.00000 
 62174.89797		 1271.92961			60902.96836		180.30600		1328.00000 
 62174.89797		 1271.92961			60902.96836		180.30600		1328.00000 
 62174.89797		 1271.92961			60902.96836		180.30600		1328.00000 
 62174.89797		 1271.92961			60902.96836		180.30600		1328.00000 
 62174.89797		 1271.92961			60902.96836		180.30600		1328.00000 
 62174.89797		 1271.92961			60902.96836		180.30600		1328.00000 
 62174.89797		 1271.92961			60902.96836		180.30600		1328.00000 
 62174.89797		 1271.92961			60902.96836		180.30600		1328.00000 
 62174.89797		 1271.92961			60902.96836		180.30600		1328.00000 
 62174.89797		 1271.92961			60902.96836		180.30600		1328.00000 
 62174.89797		 1271.92961			60902.96836		180.30600		1328.00000 
 62174.89797		 1271.92961			60902.96836		180.30600		1328.00000 
 62174.89797		 1271.92961			60902.96836		180.30600		1328.00000 
 62174.89797		 1271.92961			60902.96836		180.30600		1328.00000 
 62174.89797		 1271.92961			60902.96836		180.30600		1328.00000 
 62174.89797		 1271.92961			60902.96836		180.30600		1328.00000 
 62174.89797		 1271.92961			60902.96836		180.30600		1328.00000 
 62174.89797		 1271.92961			60902.96836		180.30600		1328.00000 
 62174.89797		 1271.92961			60902.96836		180.30600		1328.00000 
 62174.89797		 1271.92961			60902.96836		180.30600		1328.00000 
 62174.89797		 1271.92961			60902.96836		180.30600		1328.00000 
 62174.89797		 1271.92961			60902.96836		180.30600		1328.00000 
 62174.89797		 1271.92961			60902.96836		180.30600		1328.00000 
 62174.89797		 1271.92961			60902.96836		180.30600		1328.00000 
 62174.89797		 1271.92961			60902.96836		180.30600		1328.00000 
 62174.89797		 1271.92961			60902.96836		180.30600		1328.00000 
 62174.89797		 1271.92961			60902.96836		180.30600		1328.00000 
 62174.89797		 1271.92961			60902.96836		180.30600		1328.00000 
 62174.89797		 1271.92961			60902.96836		180.30600		1328.00000 
 62174.89797		 1271.92961			60902.96836		180.30600		1328.00000 
 62174.89797		 1271.92961			60902.96836		180.30600		1328.00000 
 62174.89797		 1271.92961			60902.96836		180.30600		1328.00000 
 62174.89797		 1271.92961			60902.96836		180.30600		1328.00000 
 62174.89797		 1271.92961			60902.96836		180.30600		1328.00000 
 62174.89797		 1271.92961			60902.96836		180.30600		1328.00000 
 62174.89797		 1271.92961			60902.96836		180.30600		1328.00000 
 62174.89797		 1271.92961			60902.96836		180.30600		1328.00000 
 62174.89797		 1271.92961			60902.96836		180.30600		1328.00000 
 62174.89797		 1271.92961			60902.96836		180.30600		1328.00000 
 62174.89797		 1271.92961			60902.96836		180.30600		1328.00000 
 62174.89797		 1271.92961			60902.96836		180.30600		1328.00000 
 62174.89797		 1271.92961			60902.96836		180.30600		1328.00000 
 62174.89797		 1271.92961			60902.96836		180.30600		1328.00000 
 62174.89797		 1271.92961			60902.96836		180.30600		1328.00000 
 62174.89797		 1271.92961			60902.96836		180.30600		1328.00000 
 62174.89797		 1271.92961			60902.96836		180.30600		1328.00000 
 62174.89797		 1271.92961			60902.96836		180.30600		1328.00000 
 62174.89797		 1271.92961			60902.96836		180.30600		1328.00000 
 62174.89797		 1271.92961			60902.96836		180.30600		1328.00000 
 62174.89797		 1271.92961			60902.96836		180.30600		1328.00000 
 62174.89797		 1271.92961			60902.96836		180.30600		1328.00000 
 62174.89797		 1271.92961			60902.96836		180.30600		1328.00000 
 62174.89797		 1271.92961			60902.96836		180.30600		1328.00000 
 62174.89797		 1271.92961			60902.96836		180.30600		1328.00000 
 62174.89797		 1271.92961			60902.96836		180.30600		1328.00000 
 62174.89797		 1271.92961			60902.96836		180.30600		1328.00000 
 62174.89797		 1271.92961			60902.96836		180.30600		1328.00000 
 62174.89797		 1271.92961			60902.96836		180.30600		1328.00000 
 62174.89797		 1271.92961			60902.96836		180.30600		1328.00000 
 62174.89797		 1271.92961			60902.96836		180.30600		1328.00000 
 62174.89797		 1271.92961			60902.96836		180.30600		1328.00000 
 62174.89797		 1271.92961			60902.96836		180.30600		1328.00000 
 62174.89797		 1271.92961			60902.96836		180.30600		1328.00000 
 62174.89797		 1271.92961			60902.96836		180.30600		1328.00000 
 62174.89797		 1271.92961			60902.96836		180.30600		1328.00000 
 62174.89797		 1271.92961			60902.96836		180.30600		1328.00000 
 62174.89797		 1271.92961			60902.96836		180.30600		1328.00000 
 62174.89797		 1271.92961			60902.96836		180.30600		1328.00000 
 62174.89797		 1271.92961			60902.96836		180.30600		1328.00000 
 62174.89797		 1271.92961			60902.96836		180.30600		1328.00000 
 62174.89797		 1271.92961			60902.96836		180.30600		1328.00000 
 62174.89797		 1226.10291			60948.79506		179.82000		1328.00000 
 62174.89797		 1180.27621			60994.62176		179.82000		1328.00000 
 62174.89797		 1134.44951			61040.44846		179.82000		1328.00000 
 62174.89797		 1134.44951			61040.44846		179.82000		1328.00000 
 62174.89797		 1134.44951			61040.44846		179.82000		1328.00000 
 62174.89797		 1134.44951			61040.44846		179.82000		1328.00000 
 62174.89797		 1134.44951			61040.44846		179.82000		1328.00000 
 62174.89797		 1134.44951			61040.44846		179.82000		1328.00000 
 62174.89797		 1134.44951			61040.44846		179.82000		1328.00000 
 62174.89797		 1134.44951			61040.44846		179.82000		1328.00000 
 62174.89797		 1134.44951			61040.44846		179.82000		1328.00000 
 62174.89797		 1134.44951			61040.44846		179.82000		1328.00000 
 62174.89797		 1134.44951			61040.44846		179.82000		1328.00000 
 62174.89797		 1134.44951			61040.44846		179.82000		1328.00000 
 62174.89797		 1134.44951			61040.44846		179.82000		1328.00000 
 62174.89797		 1134.44951			61040.44846		179.82000		1328.00000 
 62174.89797		 1134.44951			61040.44846		179.82000		1328.00000 
 62174.89797		 1134.44951			61040.44846		95.83600		1328.00000 
 62174.89797		 1134.44951			61040.44846		95.83600		1328.00000 
 62174.89797		 1134.44951			61040.44846		95.83600		1328.00000 
 62174.89797		 1134.44951			61040.44846		95.83600		1328.00000 
 62174.89797		 1134.44951			61040.44846		95.83600		1328.00000 
 62174.89797		 1134.44951			61040.44846		95.83600		1328.00000 
 62174.89797		 1134.44951			61040.44846		95.83600		1328.00000 
 62174.89797		 1134.44951			61040.44846		95.83600		1328.00000 
 62174.89797		 1134.44951			61040.44846		95.83600		1328.00000 
 62174.89797		 1134.44951			61040.44846		95.83600		1328.00000 
 62174.89797		 1134.44951			61040.44846		95.83600		1328.00000 
 62174.89797		 1134.44951			61040.44846		95.83600		1328.00000 
 62174.89797		 1126.81172			61048.08624		95.83600		1328.00000 
 62174.89797		 1126.81172			61048.08624		95.83600		1328.00000 
