Memory Total (MiB) 	 Memory Used (MiB) 	    Memory Free (MiB) 	 Power Drawed (W) 	 Clocks (Mhz) 	 
 62174.89797		 1126.81172			61048.08624		80.31600		1328.00000 
 62174.89797		 1126.81172			61048.08624		80.31600		1328.00000 
 62174.89797		 1126.81172			61048.08624		80.31600		1328.00000 
 62174.89797		 1126.81172			61048.08624		80.31600		1328.00000 
 62174.89797		 1126.81172			61048.08624		80.31600		1328.00000 
 62174.89797		 1126.81172			61048.08624		80.31600		1328.00000 
 62174.89797		 1126.81172			61048.08624		80.31600		1328.00000 
 62174.89797		 1126.81172			61048.08624		80.31600		1328.00000 
 62174.89797		 1126.81172			61048.08624		80.31600		1328.00000 
 62174.89797		 1126.81172			61048.08624		80.31600		1328.00000 
 62174.89797		 1126.81172			61048.08624		80.31600		1328.00000 
 62174.89797		 1126.81172			61048.08624		80.31600		1328.00000 
 62174.89797		 1126.81172			61048.08624		80.31600		1328.00000 
 62174.89797		 1126.81172			61048.08624		80.31600		1328.00000 
 62174.89797		 1126.81172			61048.08624		80.31600		1328.00000 
 62174.89797		 0.47736			62174.42060		70.51600		1328.00000 
 62174.89797		 0.47736			62174.42060		70.51600		1328.00000 
 62174.89797		 0.47736			62174.42060		70.56200		1328.00000 
 62174.89797		 0.47736			62174.42060		70.56200		1328.00000 
 62174.89797		 38.42760			62136.47037		70.56200		1328.00000 
 62174.89797		 38.42760			62136.47037		70.56200		1328.00000 
 62174.89797		 38.42760			62136.47037		70.56200		1328.00000 
 62174.89797		 38.42760			62136.47037		70.56200		1328.00000 
 62174.89797		 38.42760			62136.47037		70.56200		1328.00000 
 62174.89797		 46.06538			62128.83259		70.56200		1328.00000 
 62174.89797		 53.70316			62121.19480		70.56200		1328.00000 
 62174.89797		 68.97873			62105.91924		70.56200		1328.00000 
 62174.89797		 68.97873			62105.91924		70.52800		1328.00000 
 62174.89797		 68.97873			62105.91924		70.52800		1328.00000 
 62174.89797		 68.97873			62105.91924		70.52800		1328.00000 
 62174.89797		 68.97873			62105.91924		70.52800		1328.00000 
 62174.89797		 68.97873			62105.91924		70.52800		1328.00000 
 62174.89797		 68.97873			62105.91924		70.56200		1328.00000 
 62174.89797		 68.97873			62105.91924		70.56200		1328.00000 
 62174.89797		 68.97873			62105.91924		70.56200		1328.00000 
 62174.89797		 68.97873			62105.91924		70.56200		1328.00000 
 62174.89797		 68.97873			62105.91924		70.56200		1328.00000 
 62174.89797		 68.97873			62105.91924		70.56200		1328.00000 
 62174.89797		 68.97873			62105.91924		70.51600		1328.00000 
 62174.89797		 68.97873			62105.91924		70.51600		1328.00000 
 62174.89797		 68.97873			62105.91924		70.51600		1328.00000 
 62174.89797		 68.97873			62105.91924		70.51600		1328.00000 
 62174.89797		 68.97873			62105.91924		70.51600		1328.00000 
 62174.89797		 68.97873			62105.91924		70.51600		1328.00000 
 62174.89797		 68.97873			62105.91924		70.51600		1328.00000 
 62174.89797		 68.97873			62105.91924		70.51600		1328.00000 
 62174.89797		 68.97873			62105.91924		70.51600		1328.00000 
 62174.89797		 68.97873			62105.91924		70.51600		1328.00000 
 62174.89797		 68.97873			62105.91924		70.47000		1328.00000 
 62174.89797		 68.97873			62105.91924		70.47000		1328.00000 
 62174.89797		 68.97873			62105.91924		70.47000		1328.00000 
 62174.89797		 68.97873			62105.91924		70.47000		1328.00000 
 62174.89797		 68.97873			62105.91924		70.47000		1328.00000 
 62174.89797		 68.97873			62105.91924		70.47000		1328.00000 
 62174.89797		 68.97873			62105.91924		70.55200		1328.00000 
 62174.89797		 68.97873			62105.91924		70.55200		1328.00000 
 62174.89797		 68.97873			62105.91924		70.55200		1328.00000 
 62174.89797		 68.97873			62105.91924		70.55200		1328.00000 
 62174.89797		 68.97873			62105.91924		70.55200		1328.00000 
 62174.89797		 68.97873			62105.91924		70.55200		1328.00000 
 62174.89797		 68.97873			62105.91924		70.51600		1328.00000 
 62174.89797		 68.97873			62105.91924		70.51600		1328.00000 
 62174.89797		 68.97873			62105.91924		70.51600		1328.00000 
 62174.89797		 68.97873			62105.91924		70.51600		1328.00000 
 62174.89797		 68.97873			62105.91924		70.51600		1328.00000 
 62174.89797		 68.97873			62105.91924		70.51600		1328.00000 
 62174.89797		 68.97873			62105.91924		70.56200		1328.00000 
 62174.89797		 68.97873			62105.91924		70.56200		1328.00000 
 62174.89797		 68.97873			62105.91924		70.56200		1328.00000 
 62174.89797		 68.97873			62105.91924		70.56200		1328.00000 
 62174.89797		 68.97873			62105.91924		70.56200		1328.00000 
 62174.89797		 68.97873			62105.91924		70.56200		1328.00000 
 62174.89797		 68.97873			62105.91924		70.56200		1328.00000 
 62174.89797		 68.97873			62105.91924		70.56200		1328.00000 
 62174.89797		 68.97873			62105.91924		70.51600		1328.00000 
 62174.89797		 68.97873			62105.91924		70.51600		1328.00000 
 62174.89797		 68.97873			62105.91924		70.51600		1328.00000 
 62174.89797		 68.97873			62105.91924		70.51600		1328.00000 
 62174.89797		 68.97873			62105.91924		70.51600		1328.00000 
 62174.89797		 68.97873			62105.91924		70.56200		1328.00000 
 62174.89797		 68.97873			62105.91924		70.56200		1328.00000 
 62174.89797		 68.97873			62105.91924		70.56200		1328.00000 
 62174.89797		 68.97873			62105.91924		70.56200		1328.00000 
 62174.89797		 68.97873			62105.91924		70.56200		1328.00000 
 62174.89797		 68.97873			62105.91924		70.56200		1328.00000 
 62174.89797		 68.97873			62105.91924		70.56200		1328.00000 
 62174.89797		 68.97873			62105.91924		70.56200		1328.00000 
 62174.89797		 68.97873			62105.91924		70.56200		1328.00000 
 62174.89797		 68.97873			62105.91924		70.56200		1328.00000 
 62174.89797		 68.97873			62105.91924		70.56200		1328.00000 
 62174.89797		 68.97873			62105.91924		70.56200		1328.00000 
 62174.89797		 68.97873			62105.91924		70.55200		1328.00000 
 62174.89797		 68.97873			62105.91924		70.55200		1328.00000 
 62174.89797		 68.97873			62105.91924		70.55200		1328.00000 
 62174.89797		 68.97873			62105.91924		70.55200		1328.00000 
 62174.89797		 68.97873			62105.91924		70.55200		1328.00000 
 62174.89797		 68.97873			62105.91924		70.55200		1328.00000 
 62174.89797		 68.97873			62105.91924		70.56200		1328.00000 
 62174.89797		 68.97873			62105.91924		70.56200		1328.00000 
 62174.89797		 68.97873			62105.91924		70.56200		1328.00000 
 62174.89797		 68.97873			62105.91924		70.56200		1328.00000 
 62174.89797		 68.97873			62105.91924		70.56200		1328.00000 
 62174.89797		 68.97873			62105.91924		70.56200		1328.00000 
 62174.89797		 68.97873			62105.91924		70.56200		1328.00000 
 62174.89797		 68.97873			62105.91924		70.56200		1328.00000 
 62174.89797		 68.97873			62105.91924		70.56200		1328.00000 
 62174.89797		 68.97873			62105.91924		70.56200		1328.00000 
 62174.89797		 68.97873			62105.91924		70.56200		1328.00000 
 62174.89797		 68.97873			62105.91924		70.55200		1328.00000 
 62174.89797		 68.97873			62105.91924		70.55200		1328.00000 
 62174.89797		 68.97873			62105.91924		70.55200		1328.00000 
 62174.89797		 68.97873			62105.91924		70.55200		1328.00000 
 62174.89797		 68.97873			62105.91924		70.55200		1328.00000 
 62174.89797		 68.97873			62105.91924		70.55200		1328.00000 
 62174.89797		 68.97873			62105.91924		70.55200		1328.00000 
 62174.89797		 68.97873			62105.91924		70.56200		1328.00000 
 62174.89797		 76.61651			62098.28145		70.56200		1328.00000 
 62174.89797		 76.61651			62098.28145		70.56200		1328.00000 
 62174.89797		 76.61651			62098.28145		70.56200		1328.00000 
 62174.89797		 76.61651			62098.28145		70.56200		1328.00000 
 62174.89797		 76.61651			62098.28145		70.56200		1328.00000 
 62174.89797		 76.61651			62098.28145		70.56200		1328.00000 
 62174.89797		 80.43541			62094.46256		70.56200		1328.00000 
 62174.89797		 80.43541			62094.46256		70.56200		1328.00000 
 62174.89797		 80.43541			62094.46256		70.56200		1328.00000 
 62174.89797		 80.43541			62094.46256		70.56200		1328.00000 
 62174.89797		 80.43541			62094.46256		70.56200		1328.00000 
 62174.89797		 80.43541			62094.46256		70.56200		1328.00000 
 62174.89797		 88.07319			62086.82478		70.56200		1328.00000 
 62174.89797		 88.07319			62086.82478		70.56200		1328.00000 
 62174.89797		 88.07319			62086.82478		70.56200		1328.00000 
 62174.89797		 88.07319			62086.82478		70.56200		1328.00000 
 62174.89797		 88.07319			62086.82478		70.56200		1328.00000 
 62174.89797		 88.07319			62086.82478		70.56200		1328.00000 
 62174.89797		 88.07319			62086.82478		70.56200		1328.00000 
 62174.89797		 225.55329			61949.34468		70.56200		1328.00000 
 62174.89797		 225.55329			61949.34468		70.56200		1328.00000 
 62174.89797		 225.55329			61949.34468		70.56200		1328.00000 
 62174.89797		 225.55329			61949.34468		70.56200		1328.00000 
 62174.89797		 225.55329			61949.34468		70.56200		1328.00000 
 62174.89797		 225.55329			61949.34468		70.56200		1328.00000 
 62174.89797		 225.55329			61949.34468		70.56200		1328.00000 
 62174.89797		 225.55329			61949.34468		70.56200		1328.00000 
 62174.89797		 225.55329			61949.34468		70.56200		1328.00000 
 62174.89797		 225.55329			61949.34468		70.56200		1328.00000 
 62174.89797		 225.55329			61949.34468		70.56200		1328.00000 
 62174.89797		 225.55329			61949.34468		70.56200		1328.00000 
 62174.89797		 225.55329			61949.34468		70.56200		1328.00000 
 62174.89797		 225.55329			61949.34468		70.56200		1328.00000 
 62174.89797		 225.55329			61949.34468		70.56200		1328.00000 
 62174.89797		 225.55329			61949.34468		70.56200		1328.00000 
 62174.89797		 225.55329			61949.34468		70.56200		1328.00000 
 62174.89797		 225.55329			61949.34468		70.56200		1328.00000 
 62174.89797		 225.55329			61949.34468		70.56200		1328.00000 
 62174.89797		 225.55329			61949.34468		70.56200		1328.00000 
 62174.89797		 225.55329			61949.34468		70.56200		1328.00000 
 62174.89797		 1134.44951			61040.44846		70.56200		1328.00000 
 62174.89797		 1134.44951			61040.44846		70.56200		1328.00000 
 62174.89797		 1134.44951			61040.44846		70.56200		1328.00000 
 62174.89797		 1134.44951			61040.44846		70.56200		1328.00000 
 62174.89797		 1134.44951			61040.44846		70.56200		1328.00000 
 62174.89797		 1180.27621			60994.62176		70.56200		1328.00000 
 62174.89797		 1203.18956			60971.70841		70.57400		1328.00000 
 62174.89797		 1203.18956			60971.70841		70.57400		1328.00000 
 62174.89797		 1203.18956			60971.70841		70.57400		1328.00000 
 62174.89797		 1203.18956			60971.70841		70.57400		1328.00000 
 62174.89797		 1203.18956			60971.70841		70.57400		1328.00000 
 62174.89797		 1203.18956			60971.70841		70.57400		1328.00000 
 62174.89797		 1203.18956			60971.70841		70.57400		1328.00000 
 62174.89797		 1203.18956			60971.70841		70.57400		1328.00000 
 62174.89797		 1203.18956			60971.70841		70.57400		1328.00000 
 62174.89797		 1203.18956			60971.70841		70.57400		1328.00000 
 62174.89797		 1203.18956			60971.70841		70.57400		1328.00000 
 62174.89797		 1203.18956			60971.70841		70.57400		1328.00000 
 62174.89797		 1203.18956			60971.70841		70.57400		1328.00000 
 62174.89797		 1203.18956			60971.70841		70.57400		1328.00000 
 62174.89797		 1203.18956			60971.70841		70.57400		1328.00000 
 62174.89797		 1203.18956			60971.70841		70.57400		1328.00000 
 62174.89797		 1203.18956			60971.70841		70.57400		1328.00000 
 62174.89797		 1203.18956			60971.70841		70.57400		1328.00000 
 62174.89797		 1203.18956			60971.70841		70.57400		1328.00000 
 62174.89797		 1203.18956			60971.70841		70.57400		1328.00000 
 62174.89797		 1203.18956			60971.70841		70.57400		1328.00000 
 62174.89797		 1203.18956			60971.70841		137.14200		1328.00000 
 62174.89797		 1203.18956			60971.70841		137.14200		1328.00000 
 62174.89797		 1203.18956			60971.70841		137.14200		1328.00000 
 62174.89797		 1203.18956			60971.70841		137.14200		1328.00000 
 62174.89797		 1203.18956			60971.70841		137.14200		1328.00000 
 62174.89797		 1203.18956			60971.70841		137.14200		1328.00000 
 62174.89797		 1203.18956			60971.70841		137.14200		1328.00000 
 62174.89797		 1203.18956			60971.70841		137.14200		1328.00000 
 62174.89797		 1203.18956			60971.70841		137.14200		1328.00000 
 62174.89797		 1203.18956			60971.70841		137.14200		1328.00000 
 62174.89797		 1203.18956			60971.70841		137.14200		1328.00000 
 62174.89797		 1203.18956			60971.70841		137.14200		1328.00000 
 62174.89797		 1203.18956			60971.70841		137.14200		1328.00000 
 62174.89797		 1203.18956			60971.70841		137.14200		1328.00000 
 62174.89797		 1203.18956			60971.70841		137.14200		1328.00000 
 62174.89797		 1203.18956			60971.70841		137.14200		1328.00000 
 62174.89797		 1203.18956			60971.70841		137.14200		1328.00000 
 62174.89797		 1203.18956			60971.70841		137.14200		1328.00000 
 62174.89797		 1203.18956			60971.70841		137.14200		1328.00000 
 62174.89797		 1203.18956			60971.70841		137.14200		1328.00000 
 62174.89797		 1203.18956			60971.70841		137.14200		1328.00000 
 62174.89797		 1203.18956			60971.70841		152.69200		1328.00000 
 62174.89797		 1203.18956			60971.70841		152.69200		1328.00000 
 62174.89797		 1203.18956			60971.70841		152.69200		1328.00000 
 62174.89797		 1203.18956			60971.70841		152.69200		1328.00000 
 62174.89797		 1203.18956			60971.70841		152.69200		1328.00000 
 62174.89797		 1203.18956			60971.70841		152.69200		1328.00000 
 62174.89797		 1203.18956			60971.70841		152.69200		1328.00000 
 62174.89797		 1203.18956			60971.70841		152.69200		1328.00000 
 62174.89797		 1203.18956			60971.70841		152.69200		1328.00000 
 62174.89797		 1203.18956			60971.70841		152.69200		1328.00000 
 62174.89797		 1203.18956			60971.70841		152.69200		1328.00000 
 62174.89797		 1203.18956			60971.70841		152.69200		1328.00000 
 62174.89797		 1203.18956			60971.70841		152.69200		1328.00000 
 62174.89797		 1203.18956			60971.70841		152.69200		1328.00000 
 62174.89797		 1203.18956			60971.70841		152.69200		1328.00000 
 62174.89797		 1203.18956			60971.70841		152.69200		1328.00000 
 62174.89797		 1203.18956			60971.70841		152.69200		1328.00000 
 62174.89797		 1203.18956			60971.70841		152.69200		1328.00000 
 62174.89797		 1203.18956			60971.70841		152.69200		1328.00000 
 62174.89797		 1203.18956			60971.70841		152.69200		1328.00000 
 62174.89797		 1203.18956			60971.70841		152.69200		1328.00000 
 62174.89797		 1203.18956			60971.70841		155.62200		1328.00000 
 62174.89797		 1203.18956			60971.70841		155.62200		1328.00000 
 62174.89797		 1203.18956			60971.70841		155.62200		1328.00000 
 62174.89797		 1203.18956			60971.70841		155.62200		1328.00000 
 62174.89797		 1203.18956			60971.70841		155.62200		1328.00000 
 62174.89797		 1203.18956			60971.70841		155.62200		1328.00000 
 62174.89797		 1203.18956			60971.70841		155.62200		1328.00000 
 62174.89797		 1203.18956			60971.70841		155.62200		1328.00000 
 62174.89797		 1203.18956			60971.70841		155.62200		1328.00000 
 62174.89797		 1203.18956			60971.70841		155.62200		1328.00000 
 62174.89797		 1203.18956			60971.70841		155.62200		1328.00000 
 62174.89797		 1203.18956			60971.70841		155.62200		1328.00000 
 62174.89797		 1203.18956			60971.70841		155.62200		1328.00000 
 62174.89797		 1203.18956			60971.70841		155.62200		1328.00000 
 62174.89797		 1203.18956			60971.70841		155.62200		1328.00000 
 62174.89797		 1203.18956			60971.70841		155.62200		1328.00000 
 62174.89797		 1203.18956			60971.70841		155.62200		1328.00000 
 62174.89797		 1203.18956			60971.70841		155.62200		1328.00000 
 62174.89797		 1203.18956			60971.70841		155.62200		1328.00000 
 62174.89797		 1203.18956			60971.70841		155.62200		1328.00000 
 62174.89797		 1203.18956			60971.70841		155.62200		1328.00000 
 62174.89797		 1203.18956			60971.70841		156.59600		1328.00000 
 62174.89797		 1203.18956			60971.70841		156.59600		1328.00000 
 62174.89797		 1203.18956			60971.70841		156.59600		1328.00000 
 62174.89797		 1203.18956			60971.70841		156.59600		1328.00000 
 62174.89797		 1203.18956			60971.70841		156.59600		1328.00000 
 62174.89797		 1203.18956			60971.70841		156.59600		1328.00000 
 62174.89797		 1203.18956			60971.70841		156.59600		1328.00000 
 62174.89797		 1203.18956			60971.70841		156.59600		1328.00000 
 62174.89797		 1203.18956			60971.70841		156.59600		1328.00000 
 62174.89797		 1203.18956			60971.70841		156.59600		1328.00000 
 62174.89797		 1203.18956			60971.70841		156.59600		1328.00000 
 62174.89797		 1203.18956			60971.70841		156.59600		1328.00000 
 62174.89797		 1203.18956			60971.70841		156.59600		1328.00000 
 62174.89797		 1203.18956			60971.70841		156.59600		1328.00000 
 62174.89797		 1203.18956			60971.70841		156.59600		1328.00000 
 62174.89797		 1203.18956			60971.70841		156.59600		1328.00000 
 62174.89797		 1203.18956			60971.70841		156.59600		1328.00000 
 62174.89797		 1203.18956			60971.70841		156.59600		1328.00000 
 62174.89797		 1203.18956			60971.70841		156.59600		1328.00000 
 62174.89797		 1203.18956			60971.70841		156.59600		1328.00000 
 62174.89797		 1203.18956			60971.70841		156.59600		1328.00000 
 62174.89797		 1203.18956			60971.70841		157.06800		1328.00000 
 62174.89797		 1203.18956			60971.70841		157.06800		1328.00000 
 62174.89797		 1203.18956			60971.70841		157.06800		1328.00000 
 62174.89797		 1203.18956			60971.70841		157.06800		1328.00000 
 62174.89797		 1203.18956			60971.70841		157.06800		1328.00000 
 62174.89797		 1203.18956			60971.70841		157.06800		1328.00000 
 62174.89797		 1203.18956			60971.70841		157.06800		1328.00000 
 62174.89797		 1203.18956			60971.70841		157.06800		1328.00000 
 62174.89797		 1203.18956			60971.70841		157.06800		1328.00000 
 62174.89797		 1203.18956			60971.70841		157.06800		1328.00000 
 62174.89797		 1203.18956			60971.70841		157.06800		1328.00000 
 62174.89797		 1203.18956			60971.70841		157.06800		1328.00000 
 62174.89797		 1203.18956			60971.70841		157.06800		1328.00000 
 62174.89797		 1203.18956			60971.70841		157.06800		1328.00000 
 62174.89797		 1203.18956			60971.70841		157.06800		1328.00000 
 62174.89797		 1203.18956			60971.70841		157.06800		1328.00000 
 62174.89797		 1203.18956			60971.70841		157.06800		1328.00000 
 62174.89797		 1203.18956			60971.70841		157.06800		1328.00000 
 62174.89797		 1203.18956			60971.70841		157.06800		1328.00000 
 62174.89797		 1203.18956			60971.70841		157.06800		1328.00000 
 62174.89797		 1203.18956			60971.70841		157.06800		1328.00000 
 62174.89797		 1203.18956			60971.70841		157.08200		1328.00000 
 62174.89797		 1203.18956			60971.70841		157.08200		1328.00000 
 62174.89797		 1203.18956			60971.70841		157.08200		1328.00000 
 62174.89797		 1203.18956			60971.70841		157.08200		1328.00000 
 62174.89797		 1203.18956			60971.70841		157.08200		1328.00000 
 62174.89797		 1203.18956			60971.70841		157.08200		1328.00000 
 62174.89797		 1203.18956			60971.70841		157.08200		1328.00000 
 62174.89797		 1203.18956			60971.70841		157.08200		1328.00000 
 62174.89797		 1203.18956			60971.70841		157.08200		1328.00000 
 62174.89797		 1203.18956			60971.70841		157.08200		1328.00000 
 62174.89797		 1203.18956			60971.70841		157.08200		1328.00000 
 62174.89797		 1203.18956			60971.70841		157.08200		1328.00000 
 62174.89797		 1203.18956			60971.70841		157.08200		1328.00000 
 62174.89797		 1180.27621			60994.62176		157.08200		1328.00000 
 62174.89797		 1134.44951			61040.44846		157.08200		1328.00000 
 62174.89797		 1134.44951			61040.44846		157.08200		1328.00000 
 62174.89797		 1134.44951			61040.44846		157.08200		1328.00000 
 62174.89797		 1134.44951			61040.44846		157.08200		1328.00000 
 62174.89797		 1134.44951			61040.44846		157.08200		1328.00000 
 62174.89797		 1134.44951			61040.44846		157.08200		1328.00000 
 62174.89797		 1134.44951			61040.44846		157.08200		1328.00000 
 62174.89797		 1134.44951			61040.44846		111.42200		1328.00000 
 62174.89797		 1134.44951			61040.44846		111.42200		1328.00000 
 62174.89797		 1134.44951			61040.44846		111.42200		1328.00000 
 62174.89797		 1134.44951			61040.44846		111.42200		1328.00000 
 62174.89797		 1134.44951			61040.44846		111.42200		1328.00000 
 62174.89797		 1134.44951			61040.44846		111.42200		1328.00000 
 62174.89797		 1134.44951			61040.44846		111.42200		1328.00000 
 62174.89797		 1134.44951			61040.44846		111.42200		1328.00000 
 62174.89797		 1134.44951			61040.44846		111.42200		1328.00000 
 62174.89797		 1134.44951			61040.44846		111.42200		1328.00000 
 62174.89797		 1134.44951			61040.44846		111.42200		1328.00000 
 62174.89797		 1134.44951			61040.44846		111.42200		1328.00000 
 62174.89797		 1134.44951			61040.44846		111.42200		1328.00000 
 62174.89797		 1134.44951			61040.44846		111.42200		1328.00000 
 62174.89797		 1134.44951			61040.44846		111.42200		1328.00000 
 62174.89797		 1134.44951			61040.44846		111.42200		1328.00000 
 62174.89797		 1134.44951			61040.44846		111.42200		1328.00000 
 62174.89797		 1134.44951			61040.44846		79.34200		1328.00000 
 62174.89797		 1134.44951			61040.44846		79.34200		1328.00000 
 62174.89797		 1134.44951			61040.44846		79.34200		1328.00000 
 62174.89797		 1134.44951			61040.44846		79.34200		1328.00000 
 62174.89797		 1134.44951			61040.44846		79.34200		1328.00000 
 62174.89797		 1126.81172			61048.08624		79.34200		1328.00000 
 62174.89797		 1126.81172			61048.08624		79.34200		1328.00000 
