Memory Total (MiB) 	 Memory Used (MiB) 	    Memory Free (MiB) 	 Power Drawed (W) 	 Clocks (Mhz) 	 
 62174.89797		 1134.44951			61040.44846		77.86800		1328.00000 
 62174.89797		 1134.44951			61040.44846		77.86800		1328.00000 
 62174.89797		 1134.44951			61040.44846		77.86800		1328.00000 
 62174.89797		 1134.44951			61040.44846		77.86800		1328.00000 
 62174.89797		 1134.44951			61040.44846		77.86800		1328.00000 
 62174.89797		 1134.44951			61040.44846		77.86800		1328.00000 
 62174.89797		 1134.44951			61040.44846		77.86800		1328.00000 
 62174.89797		 1134.44951			61040.44846		77.86800		1328.00000 
 62174.89797		 1134.44951			61040.44846		77.86800		1328.00000 
 62174.89797		 1134.44951			61040.44846		77.86800		1328.00000 
 62174.89797		 1134.44951			61040.44846		77.86800		1328.00000 
 62174.89797		 1134.44951			61040.44846		77.86800		1328.00000 
 62174.89797		 1134.44951			61040.44846		77.86800		1328.00000 
 62174.89797		 1134.44951			61040.44846		77.86800		1328.00000 
 62174.89797		 1134.44951			61040.44846		77.86800		1328.00000 
 62174.89797		 0.47736			62174.42060		71.49000		1328.00000 
 62174.89797		 0.47736			62174.42060		71.06600		1328.00000 
 62174.89797		 0.47736			62174.42060		71.06600		1328.00000 
 62174.89797		 8.11514			62166.78282		71.06600		1328.00000 
 62174.89797		 38.42760			62136.47037		71.06600		1328.00000 
 62174.89797		 38.42760			62136.47037		71.06600		1328.00000 
 62174.89797		 38.42760			62136.47037		71.06600		1328.00000 
 62174.89797		 38.42760			62136.47037		71.06600		1328.00000 
 62174.89797		 38.42760			62136.47037		71.06600		1328.00000 
 62174.89797		 46.06538			62128.83259		71.06600		1328.00000 
 62174.89797		 53.70316			62121.19480		71.06600		1328.00000 
 62174.89797		 68.97873			62105.91924		71.06600		1328.00000 
 62174.89797		 68.97873			62105.91924		71.00200		1328.00000 
 62174.89797		 68.97873			62105.91924		71.00200		1328.00000 
 62174.89797		 68.97873			62105.91924		71.00200		1328.00000 
 62174.89797		 68.97873			62105.91924		71.00200		1328.00000 
 62174.89797		 68.97873			62105.91924		71.00200		1328.00000 
 62174.89797		 68.97873			62105.91924		71.00200		1328.00000 
 62174.89797		 68.97873			62105.91924		71.00200		1328.00000 
 62174.89797		 68.97873			62105.91924		71.00200		1328.00000 
 62174.89797		 68.97873			62105.91924		71.00200		1328.00000 
 62174.89797		 68.97873			62105.91924		71.00200		1328.00000 
 62174.89797		 68.97873			62105.91924		71.00200		1328.00000 
 62174.89797		 68.97873			62105.91924		71.03800		1328.00000 
 62174.89797		 68.97873			62105.91924		71.03800		1328.00000 
 62174.89797		 68.97873			62105.91924		71.03800		1328.00000 
 62174.89797		 68.97873			62105.91924		71.03800		1328.00000 
 62174.89797		 68.97873			62105.91924		71.03800		1328.00000 
 62174.89797		 68.97873			62105.91924		71.03800		1328.00000 
 62174.89797		 68.97873			62105.91924		71.05000		1328.00000 
 62174.89797		 68.97873			62105.91924		71.05000		1328.00000 
 62174.89797		 68.97873			62105.91924		71.05000		1328.00000 
 62174.89797		 68.97873			62105.91924		71.05000		1328.00000 
 62174.89797		 68.97873			62105.91924		71.05000		1328.00000 
 62174.89797		 68.97873			62105.91924		71.05000		1328.00000 
 62174.89797		 68.97873			62105.91924		71.05000		1328.00000 
 62174.89797		 68.97873			62105.91924		71.00200		1328.00000 
 62174.89797		 68.97873			62105.91924		71.00200		1328.00000 
 62174.89797		 68.97873			62105.91924		71.00200		1328.00000 
 62174.89797		 68.97873			62105.91924		71.00200		1328.00000 
 62174.89797		 68.97873			62105.91924		71.00200		1328.00000 
 62174.89797		 68.97873			62105.91924		71.00200		1328.00000 
 62174.89797		 68.97873			62105.91924		71.00200		1328.00000 
 62174.89797		 68.97873			62105.91924		71.00200		1328.00000 
 62174.89797		 68.97873			62105.91924		71.00200		1328.00000 
 62174.89797		 68.97873			62105.91924		71.00200		1328.00000 
 62174.89797		 68.97873			62105.91924		71.00200		1328.00000 
 62174.89797		 68.97873			62105.91924		71.05000		1328.00000 
 62174.89797		 68.97873			62105.91924		71.05000		1328.00000 
 62174.89797		 68.97873			62105.91924		71.05000		1328.00000 
 62174.89797		 68.97873			62105.91924		71.05000		1328.00000 
 62174.89797		 68.97873			62105.91924		71.05000		1328.00000 
 62174.89797		 68.97873			62105.91924		71.05000		1328.00000 
 62174.89797		 68.97873			62105.91924		71.05000		1328.00000 
 62174.89797		 68.97873			62105.91924		71.05000		1328.00000 
 62174.89797		 68.97873			62105.91924		71.05000		1328.00000 
 62174.89797		 68.97873			62105.91924		71.05000		1328.00000 
 62174.89797		 68.97873			62105.91924		71.05000		1328.00000 
 62174.89797		 68.97873			62105.91924		71.05000		1328.00000 
 62174.89797		 68.97873			62105.91924		71.06600		1328.00000 
 62174.89797		 68.97873			62105.91924		71.06600		1328.00000 
 62174.89797		 68.97873			62105.91924		71.06600		1328.00000 
 62174.89797		 68.97873			62105.91924		71.06600		1328.00000 
 62174.89797		 68.97873			62105.91924		71.06600		1328.00000 
 62174.89797		 68.97873			62105.91924		71.06600		1328.00000 
 62174.89797		 68.97873			62105.91924		71.06600		1328.00000 
 62174.89797		 68.97873			62105.91924		71.00200		1328.00000 
 62174.89797		 68.97873			62105.91924		71.00200		1328.00000 
 62174.89797		 68.97873			62105.91924		71.00200		1328.00000 
 62174.89797		 68.97873			62105.91924		71.00200		1328.00000 
 62174.89797		 68.97873			62105.91924		71.00200		1328.00000 
 62174.89797		 68.97873			62105.91924		71.00200		1328.00000 
 62174.89797		 68.97873			62105.91924		70.95600		1328.00000 
 62174.89797		 68.97873			62105.91924		70.95600		1328.00000 
 62174.89797		 68.97873			62105.91924		70.95600		1328.00000 
 62174.89797		 68.97873			62105.91924		70.95600		1328.00000 
 62174.89797		 68.97873			62105.91924		70.95600		1328.00000 
 62174.89797		 68.97873			62105.91924		70.95600		1328.00000 
 62174.89797		 68.97873			62105.91924		71.00200		1328.00000 
 62174.89797		 68.97873			62105.91924		71.00200		1328.00000 
 62174.89797		 68.97873			62105.91924		71.00200		1328.00000 
 62174.89797		 68.97873			62105.91924		71.00200		1328.00000 
 62174.89797		 68.97873			62105.91924		70.99200		1328.00000 
 62174.89797		 68.97873			62105.91924		70.99200		1328.00000 
 62174.89797		 68.97873			62105.91924		70.99200		1328.00000 
 62174.89797		 68.97873			62105.91924		70.99200		1328.00000 
 62174.89797		 68.97873			62105.91924		71.03800		1328.00000 
 62174.89797		 68.97873			62105.91924		71.03800		1328.00000 
 62174.89797		 68.97873			62105.91924		71.03800		1328.00000 
 62174.89797		 68.97873			62105.91924		71.03800		1328.00000 
 62174.89797		 68.97873			62105.91924		71.05000		1328.00000 
 62174.89797		 68.97873			62105.91924		71.05000		1328.00000 
 62174.89797		 68.97873			62105.91924		71.05000		1328.00000 
 62174.89797		 68.97873			62105.91924		71.05000		1328.00000 
 62174.89797		 68.97873			62105.91924		71.05000		1328.00000 
 62174.89797		 68.97873			62105.91924		71.05000		1328.00000 
 62174.89797		 68.97873			62105.91924		71.05000		1328.00000 
 62174.89797		 68.97873			62105.91924		71.05000		1328.00000 
 62174.89797		 76.61651			62098.28145		71.05000		1328.00000 
 62174.89797		 76.61651			62098.28145		71.05000		1328.00000 
 62174.89797		 76.61651			62098.28145		71.05000		1328.00000 
 62174.89797		 76.61651			62098.28145		71.05000		1328.00000 
 62174.89797		 76.61651			62098.28145		71.05000		1328.00000 
 62174.89797		 80.43541			62094.46256		71.05000		1328.00000 
 62174.89797		 80.43541			62094.46256		71.05000		1328.00000 
 62174.89797		 80.43541			62094.46256		71.05000		1328.00000 
 62174.89797		 80.43541			62094.46256		71.06600		1328.00000 
 62174.89797		 80.43541			62094.46256		71.06600		1328.00000 
 62174.89797		 80.43541			62094.46256		71.06600		1328.00000 
 62174.89797		 88.07319			62086.82478		71.06600		1328.00000 
 62174.89797		 88.07319			62086.82478		71.06600		1328.00000 
 62174.89797		 88.07319			62086.82478		71.06600		1328.00000 
 62174.89797		 88.07319			62086.82478		71.06600		1328.00000 
 62174.89797		 88.07319			62086.82478		71.06600		1328.00000 
 62174.89797		 88.07319			62086.82478		71.06600		1328.00000 
 62174.89797		 88.07319			62086.82478		71.06600		1328.00000 
 62174.89797		 88.07319			62086.82478		71.06600		1328.00000 
 62174.89797		 225.55329			61949.34468		71.06600		1328.00000 
 62174.89797		 225.55329			61949.34468		71.06600		1328.00000 
 62174.89797		 225.55329			61949.34468		71.06600		1328.00000 
 62174.89797		 225.55329			61949.34468		71.06600		1328.00000 
 62174.89797		 225.55329			61949.34468		71.06600		1328.00000 
 62174.89797		 225.55329			61949.34468		71.06600		1328.00000 
 62174.89797		 225.55329			61949.34468		71.06600		1328.00000 
 62174.89797		 225.55329			61949.34468		71.06600		1328.00000 
 62174.89797		 225.55329			61949.34468		71.09600		1328.00000 
 62174.89797		 225.55329			61949.34468		71.09600		1328.00000 
 62174.89797		 225.55329			61949.34468		71.09600		1328.00000 
 62174.89797		 225.55329			61949.34468		71.09600		1328.00000 
 62174.89797		 225.55329			61949.34468		71.09600		1328.00000 
 62174.89797		 225.55329			61949.34468		71.09600		1328.00000 
 62174.89797		 225.55329			61949.34468		71.09600		1328.00000 
 62174.89797		 225.55329			61949.34468		71.09600		1328.00000 
 62174.89797		 225.55329			61949.34468		71.09600		1328.00000 
 62174.89797		 225.55329			61949.34468		71.09600		1328.00000 
 62174.89797		 225.55329			61949.34468		71.09600		1328.00000 
 62174.89797		 225.55329			61949.34468		71.09600		1328.00000 
 62174.89797		 225.55329			61949.34468		71.09600		1328.00000 
 62174.89797		 1134.44951			61040.44846		71.09600		1328.00000 
 62174.89797		 1134.44951			61040.44846		71.09600		1328.00000 
 62174.89797		 1134.44951			61040.44846		71.09600		1328.00000 
 62174.89797		 1134.44951			61040.44846		71.09600		1328.00000 
 62174.89797		 1165.00064			61009.89733		71.09600		1328.00000 
 62174.89797		 1195.55177			60979.34619		71.09600		1328.00000 
 62174.89797		 1226.10291			60948.79506		71.09600		1328.00000 
 62174.89797		 1226.10291			60948.79506		95.35800		1328.00000 
 62174.89797		 1226.10291			60948.79506		95.35800		1328.00000 
 62174.89797		 1226.10291			60948.79506		95.35800		1328.00000 
 62174.89797		 1226.10291			60948.79506		95.35800		1328.00000 
 62174.89797		 1226.10291			60948.79506		95.35800		1328.00000 
 62174.89797		 1226.10291			60948.79506		95.35800		1328.00000 
 62174.89797		 1226.10291			60948.79506		95.35800		1328.00000 
 62174.89797		 1226.10291			60948.79506		95.35800		1328.00000 
 62174.89797		 1226.10291			60948.79506		95.35800		1328.00000 
 62174.89797		 1226.10291			60948.79506		95.35800		1328.00000 
 62174.89797		 1226.10291			60948.79506		95.35800		1328.00000 
 62174.89797		 1226.10291			60948.79506		95.35800		1328.00000 
 62174.89797		 1226.10291			60948.79506		95.35800		1328.00000 
 62174.89797		 1226.10291			60948.79506		95.35800		1328.00000 
 62174.89797		 1226.10291			60948.79506		95.35800		1328.00000 
 62174.89797		 1226.10291			60948.79506		95.35800		1328.00000 
 62174.89797		 1226.10291			60948.79506		95.35800		1328.00000 
 62174.89797		 1226.10291			60948.79506		95.35800		1328.00000 
 62174.89797		 1226.10291			60948.79506		95.35800		1328.00000 
 62174.89797		 1226.10291			60948.79506		95.35800		1328.00000 
 62174.89797		 1226.10291			60948.79506		95.35800		1328.00000 
 62174.89797		 1226.10291			60948.79506		156.58200		1328.00000 
 62174.89797		 1226.10291			60948.79506		156.58200		1328.00000 
 62174.89797		 1226.10291			60948.79506		156.58200		1328.00000 
 62174.89797		 1226.10291			60948.79506		156.58200		1328.00000 
 62174.89797		 1226.10291			60948.79506		156.58200		1328.00000 
 62174.89797		 1226.10291			60948.79506		156.58200		1328.00000 
 62174.89797		 1226.10291			60948.79506		156.58200		1328.00000 
 62174.89797		 1226.10291			60948.79506		156.58200		1328.00000 
 62174.89797		 1226.10291			60948.79506		156.58200		1328.00000 
 62174.89797		 1226.10291			60948.79506		156.58200		1328.00000 
 62174.89797		 1226.10291			60948.79506		156.58200		1328.00000 
 62174.89797		 1226.10291			60948.79506		156.58200		1328.00000 
 62174.89797		 1226.10291			60948.79506		156.58200		1328.00000 
 62174.89797		 1226.10291			60948.79506		156.58200		1328.00000 
 62174.89797		 1226.10291			60948.79506		156.58200		1328.00000 
 62174.89797		 1226.10291			60948.79506		156.58200		1328.00000 
 62174.89797		 1226.10291			60948.79506		156.58200		1328.00000 
 62174.89797		 1226.10291			60948.79506		156.58200		1328.00000 
 62174.89797		 1226.10291			60948.79506		156.58200		1328.00000 
 62174.89797		 1226.10291			60948.79506		156.58200		1328.00000 
 62174.89797		 1226.10291			60948.79506		156.58200		1328.00000 
 62174.89797		 1226.10291			60948.79506		166.80800		1328.00000 
 62174.89797		 1226.10291			60948.79506		166.80800		1328.00000 
 62174.89797		 1226.10291			60948.79506		166.80800		1328.00000 
 62174.89797		 1226.10291			60948.79506		166.80800		1328.00000 
 62174.89797		 1226.10291			60948.79506		166.80800		1328.00000 
 62174.89797		 1226.10291			60948.79506		166.80800		1328.00000 
 62174.89797		 1226.10291			60948.79506		166.80800		1328.00000 
 62174.89797		 1226.10291			60948.79506		166.80800		1328.00000 
 62174.89797		 1226.10291			60948.79506		166.80800		1328.00000 
 62174.89797		 1226.10291			60948.79506		166.80800		1328.00000 
 62174.89797		 1226.10291			60948.79506		166.80800		1328.00000 
 62174.89797		 1226.10291			60948.79506		166.80800		1328.00000 
 62174.89797		 1226.10291			60948.79506		166.80800		1328.00000 
 62174.89797		 1226.10291			60948.79506		166.80800		1328.00000 
 62174.89797		 1226.10291			60948.79506		166.80800		1328.00000 
 62174.89797		 1226.10291			60948.79506		166.80800		1328.00000 
 62174.89797		 1226.10291			60948.79506		166.80800		1328.00000 
 62174.89797		 1226.10291			60948.79506		166.80800		1328.00000 
 62174.89797		 1226.10291			60948.79506		166.80800		1328.00000 
 62174.89797		 1226.10291			60948.79506		166.80800		1328.00000 
 62174.89797		 1226.10291			60948.79506		166.80800		1328.00000 
 62174.89797		 1226.10291			60948.79506		169.24000		1328.00000 
 62174.89797		 1226.10291			60948.79506		169.24000		1328.00000 
 62174.89797		 1226.10291			60948.79506		169.24000		1328.00000 
 62174.89797		 1226.10291			60948.79506		169.24000		1328.00000 
 62174.89797		 1226.10291			60948.79506		169.24000		1328.00000 
 62174.89797		 1226.10291			60948.79506		169.24000		1328.00000 
 62174.89797		 1226.10291			60948.79506		169.24000		1328.00000 
 62174.89797		 1226.10291			60948.79506		169.24000		1328.00000 
 62174.89797		 1226.10291			60948.79506		169.24000		1328.00000 
 62174.89797		 1226.10291			60948.79506		169.24000		1328.00000 
 62174.89797		 1226.10291			60948.79506		169.24000		1328.00000 
 62174.89797		 1226.10291			60948.79506		169.24000		1328.00000 
 62174.89797		 1226.10291			60948.79506		169.24000		1328.00000 
 62174.89797		 1226.10291			60948.79506		169.24000		1328.00000 
 62174.89797		 1226.10291			60948.79506		169.24000		1328.00000 
 62174.89797		 1226.10291			60948.79506		169.24000		1328.00000 
 62174.89797		 1226.10291			60948.79506		169.24000		1328.00000 
 62174.89797		 1226.10291			60948.79506		169.24000		1328.00000 
 62174.89797		 1226.10291			60948.79506		169.24000		1328.00000 
 62174.89797		 1226.10291			60948.79506		169.24000		1328.00000 
 62174.89797		 1226.10291			60948.79506		169.24000		1328.00000 
 62174.89797		 1226.10291			60948.79506		169.15600		1328.00000 
 62174.89797		 1226.10291			60948.79506		169.15600		1328.00000 
 62174.89797		 1226.10291			60948.79506		169.15600		1328.00000 
 62174.89797		 1226.10291			60948.79506		169.15600		1328.00000 
 62174.89797		 1226.10291			60948.79506		169.15600		1328.00000 
 62174.89797		 1226.10291			60948.79506		169.15600		1328.00000 
 62174.89797		 1226.10291			60948.79506		169.15600		1328.00000 
 62174.89797		 1226.10291			60948.79506		169.15600		1328.00000 
 62174.89797		 1226.10291			60948.79506		169.15600		1328.00000 
 62174.89797		 1226.10291			60948.79506		169.15600		1328.00000 
 62174.89797		 1226.10291			60948.79506		169.15600		1328.00000 
 62174.89797		 1226.10291			60948.79506		169.15600		1328.00000 
 62174.89797		 1226.10291			60948.79506		169.15600		1328.00000 
 62174.89797		 1226.10291			60948.79506		169.15600		1328.00000 
 62174.89797		 1226.10291			60948.79506		169.15600		1328.00000 
 62174.89797		 1226.10291			60948.79506		169.15600		1328.00000 
 62174.89797		 1226.10291			60948.79506		169.15600		1328.00000 
 62174.89797		 1226.10291			60948.79506		169.15600		1328.00000 
 62174.89797		 1226.10291			60948.79506		169.15600		1328.00000 
 62174.89797		 1226.10291			60948.79506		169.15600		1328.00000 
 62174.89797		 1226.10291			60948.79506		169.15600		1328.00000 
 62174.89797		 1226.10291			60948.79506		169.64200		1328.00000 
 62174.89797		 1226.10291			60948.79506		169.64200		1328.00000 
 62174.89797		 1226.10291			60948.79506		169.64200		1328.00000 
 62174.89797		 1226.10291			60948.79506		169.64200		1328.00000 
 62174.89797		 1226.10291			60948.79506		169.64200		1328.00000 
 62174.89797		 1226.10291			60948.79506		169.64200		1328.00000 
 62174.89797		 1226.10291			60948.79506		169.64200		1328.00000 
 62174.89797		 1226.10291			60948.79506		169.64200		1328.00000 
 62174.89797		 1226.10291			60948.79506		169.64200		1328.00000 
 62174.89797		 1226.10291			60948.79506		169.64200		1328.00000 
 62174.89797		 1226.10291			60948.79506		169.64200		1328.00000 
 62174.89797		 1226.10291			60948.79506		169.64200		1328.00000 
 62174.89797		 1226.10291			60948.79506		169.64200		1328.00000 
 62174.89797		 1226.10291			60948.79506		169.64200		1328.00000 
 62174.89797		 1226.10291			60948.79506		169.64200		1328.00000 
 62174.89797		 1226.10291			60948.79506		169.64200		1328.00000 
 62174.89797		 1226.10291			60948.79506		169.64200		1328.00000 
 62174.89797		 1226.10291			60948.79506		169.64200		1328.00000 
 62174.89797		 1226.10291			60948.79506		169.64200		1328.00000 
 62174.89797		 1226.10291			60948.79506		169.64200		1328.00000 
 62174.89797		 1226.10291			60948.79506		169.64200		1328.00000 
 62174.89797		 1226.10291			60948.79506		169.72600		1328.00000 
 62174.89797		 1226.10291			60948.79506		169.72600		1328.00000 
 62174.89797		 1226.10291			60948.79506		169.72600		1328.00000 
 62174.89797		 1226.10291			60948.79506		169.72600		1328.00000 
 62174.89797		 1226.10291			60948.79506		169.72600		1328.00000 
 62174.89797		 1226.10291			60948.79506		169.72600		1328.00000 
 62174.89797		 1226.10291			60948.79506		169.72600		1328.00000 
 62174.89797		 1226.10291			60948.79506		169.72600		1328.00000 
 62174.89797		 1226.10291			60948.79506		169.72600		1328.00000 
 62174.89797		 1226.10291			60948.79506		169.72600		1328.00000 
 62174.89797		 1226.10291			60948.79506		169.72600		1328.00000 
 62174.89797		 1226.10291			60948.79506		169.72600		1328.00000 
 62174.89797		 1226.10291			60948.79506		169.72600		1328.00000 
 62174.89797		 1226.10291			60948.79506		169.72600		1328.00000 
 62174.89797		 1226.10291			60948.79506		169.72600		1328.00000 
 62174.89797		 1226.10291			60948.79506		169.72600		1328.00000 
 62174.89797		 1226.10291			60948.79506		169.72600		1328.00000 
 62174.89797		 1226.10291			60948.79506		169.72600		1328.00000 
 62174.89797		 1226.10291			60948.79506		169.72600		1328.00000 
 62174.89797		 1226.10291			60948.79506		169.72600		1328.00000 
 62174.89797		 1226.10291			60948.79506		169.72600		1328.00000 
 62174.89797		 1226.10291			60948.79506		169.61400		1328.00000 
 62174.89797		 1226.10291			60948.79506		169.61400		1328.00000 
 62174.89797		 1226.10291			60948.79506		169.61400		1328.00000 
 62174.89797		 1226.10291			60948.79506		169.61400		1328.00000 
 62174.89797		 1226.10291			60948.79506		169.61400		1328.00000 
 62174.89797		 1226.10291			60948.79506		169.61400		1328.00000 
 62174.89797		 1226.10291			60948.79506		169.61400		1328.00000 
 62174.89797		 1226.10291			60948.79506		169.61400		1328.00000 
 62174.89797		 1226.10291			60948.79506		169.61400		1328.00000 
 62174.89797		 1226.10291			60948.79506		169.61400		1328.00000 
 62174.89797		 1226.10291			60948.79506		169.61400		1328.00000 
 62174.89797		 1226.10291			60948.79506		169.61400		1328.00000 
 62174.89797		 1226.10291			60948.79506		169.61400		1328.00000 
 62174.89797		 1226.10291			60948.79506		169.61400		1328.00000 
 62174.89797		 1226.10291			60948.79506		169.61400		1328.00000 
 62174.89797		 1226.10291			60948.79506		169.61400		1328.00000 
 62174.89797		 1226.10291			60948.79506		169.61400		1328.00000 
 62174.89797		 1226.10291			60948.79506		169.61400		1328.00000 
 62174.89797		 1226.10291			60948.79506		169.61400		1328.00000 
 62174.89797		 1226.10291			60948.79506		169.61400		1328.00000 
 62174.89797		 1226.10291			60948.79506		169.61400		1328.00000 
 62174.89797		 1226.10291			60948.79506		169.61400		1328.00000 
 62174.89797		 1226.10291			60948.79506		171.54400		1328.00000 
 62174.89797		 1226.10291			60948.79506		171.54400		1328.00000 
 62174.89797		 1226.10291			60948.79506		171.54400		1328.00000 
 62174.89797		 1226.10291			60948.79506		171.54400		1328.00000 
 62174.89797		 1226.10291			60948.79506		171.54400		1328.00000 
 62174.89797		 1226.10291			60948.79506		171.54400		1328.00000 
 62174.89797		 1226.10291			60948.79506		171.54400		1328.00000 
 62174.89797		 1226.10291			60948.79506		171.54400		1328.00000 
 62174.89797		 1226.10291			60948.79506		171.54400		1328.00000 
 62174.89797		 1226.10291			60948.79506		171.54400		1328.00000 
 62174.89797		 1226.10291			60948.79506		171.54400		1328.00000 
 62174.89797		 1226.10291			60948.79506		171.54400		1328.00000 
 62174.89797		 1226.10291			60948.79506		171.54400		1328.00000 
 62174.89797		 1226.10291			60948.79506		171.54400		1328.00000 
 62174.89797		 1226.10291			60948.79506		171.54400		1328.00000 
 62174.89797		 1226.10291			60948.79506		171.54400		1328.00000 
 62174.89797		 1226.10291			60948.79506		171.54400		1328.00000 
 62174.89797		 1226.10291			60948.79506		171.54400		1328.00000 
 62174.89797		 1226.10291			60948.79506		171.54400		1328.00000 
 62174.89797		 1226.10291			60948.79506		171.54400		1328.00000 
 62174.89797		 1226.10291			60948.79506		171.54400		1328.00000 
 62174.89797		 1226.10291			60948.79506		171.54400		1328.00000 
 62174.89797		 1226.10291			60948.79506		172.03000		1328.00000 
 62174.89797		 1226.10291			60948.79506		172.03000		1328.00000 
 62174.89797		 1226.10291			60948.79506		172.03000		1328.00000 
 62174.89797		 1226.10291			60948.79506		172.03000		1328.00000 
 62174.89797		 1195.55177			60979.34619		172.03000		1328.00000 
 62174.89797		 1165.00064			61009.89733		172.03000		1328.00000 
 62174.89797		 1134.44951			61040.44846		172.03000		1328.00000 
 62174.89797		 1134.44951			61040.44846		172.03000		1328.00000 
 62174.89797		 1134.44951			61040.44846		172.03000		1328.00000 
 62174.89797		 1134.44951			61040.44846		172.03000		1328.00000 
 62174.89797		 1134.44951			61040.44846		172.03000		1328.00000 
 62174.89797		 1134.44951			61040.44846		172.03000		1328.00000 
 62174.89797		 1134.44951			61040.44846		172.03000		1328.00000 
 62174.89797		 1134.44951			61040.44846		172.03000		1328.00000 
 62174.89797		 1134.44951			61040.44846		172.03000		1328.00000 
 62174.89797		 1134.44951			61040.44846		172.03000		1328.00000 
 62174.89797		 1134.44951			61040.44846		172.03000		1328.00000 
 62174.89797		 1134.44951			61040.44846		172.03000		1328.00000 
 62174.89797		 1134.44951			61040.44846		101.23800		1328.00000 
 62174.89797		 1134.44951			61040.44846		101.23800		1328.00000 
 62174.89797		 1134.44951			61040.44846		101.23800		1328.00000 
 62174.89797		 1134.44951			61040.44846		101.23800		1328.00000 
 62174.89797		 1134.44951			61040.44846		101.23800		1328.00000 
 62174.89797		 1134.44951			61040.44846		101.23800		1328.00000 
 62174.89797		 1134.44951			61040.44846		101.23800		1328.00000 
 62174.89797		 1134.44951			61040.44846		101.23800		1328.00000 
 62174.89797		 1134.44951			61040.44846		101.23800		1328.00000 
 62174.89797		 1134.44951			61040.44846		101.23800		1328.00000 
 62174.89797		 1134.44951			61040.44846		101.23800		1328.00000 
 62174.89797		 1134.44951			61040.44846		101.23800		1328.00000 
 62174.89797		 1134.44951			61040.44846		101.23800		1328.00000 
 62174.89797		 1134.44951			61040.44846		101.23800		1328.00000 
 62174.89797		 1134.44951			61040.44846		101.23800		1328.00000 
 62174.89797		 1134.44951			61040.44846		101.23800		1328.00000 
 62174.89797		 1134.44951			61040.44846		101.23800		1328.00000 
 62174.89797		 1134.44951			61040.44846		77.88200		1328.00000 
 62174.89797		 1134.44951			61040.44846		77.88200		1328.00000 
