Memory Total (MiB) 	 Memory Used (MiB) 	    Memory Free (MiB) 	 Power Drawed (W) 	 Clocks (Mhz) 	 
 43692.65567		 261.35540			43431.30027		186.04200		875.00000 
 43692.65567		 261.35540			43431.30027		71.21000		324.00000 
 43692.65567		 261.35540			43431.30027		186.04200		875.00000 
 43692.65567		 261.35540			43431.30027		71.21000		324.00000 
 43692.65567		 261.35540			43431.30027		186.04200		875.00000 
 43692.65567		 261.35540			43431.30027		71.21000		324.00000 
 43692.65567		 261.35540			43431.30027		186.04200		875.00000 
 43692.65567		 261.35540			43431.30027		71.21000		324.00000 
 43692.65567		 261.35540			43431.30027		186.04200		875.00000 
 43692.65567		 261.35540			43431.30027		71.21000		324.00000 
 43692.65567		 261.35540			43431.30027		186.04200		875.00000 
 43692.65567		 261.35540			43431.30027		71.21000		324.00000 
 43692.65567		 261.35540			43431.30027		186.04200		875.00000 
 43692.65567		 261.35540			43431.30027		71.21000		324.00000 
 43692.65567		 261.35540			43431.30027		186.04200		875.00000 
 43692.65567		 261.35540			43431.30027		71.21000		324.00000 
 43692.65567		 261.35540			43431.30027		186.04200		875.00000 
 43692.65567		 261.35540			43431.30027		71.21000		324.00000 
 43692.65567		 261.35540			43431.30027		186.04200		875.00000 
 43692.65567		 261.35540			43431.30027		71.21000		324.00000 
 43692.65567		 261.35540			43431.30027		186.04200		875.00000 
 43692.65567		 261.35540			43431.30027		71.21000		324.00000 
 43692.65567		 261.35540			43431.30027		186.04200		875.00000 
 43692.65567		 261.35540			43431.30027		71.21000		324.00000 
 43692.65567		 261.35540			43431.30027		186.04200		875.00000 
 43692.65567		 261.35540			43431.30027		71.21000		324.00000 
 43692.65567		 261.35540			43431.30027		186.04200		875.00000 
 43692.65567		 261.35540			43431.30027		71.21000		324.00000 
 43692.65567		 261.35540			43431.30027		186.04200		875.00000 
 43692.65567		 261.35540			43431.30027		71.21000		324.00000 
 43692.65567		 261.35540			43431.30027		186.04200		875.00000 
 43692.65567		 261.35540			43431.30027		71.21000		324.00000 
 43692.65567		 261.35540			43431.30027		186.04200		875.00000 
 43692.65567		 261.35540			43431.30027		71.21000		324.00000 
 43692.65567		 261.35540			43431.30027		186.04200		875.00000 
 43692.65567		 261.35540			43431.30027		71.21000		324.00000 
 43692.65567		 265.17429			43427.48138		186.04200		875.00000 
 43692.65567		 261.35540			43431.30027		71.21000		324.00000 
 43692.65567		 272.81207			43419.84360		186.04200		875.00000 
 43692.65567		 261.35540			43431.30027		71.21000		324.00000 
 43692.65567		 272.81207			43419.84360		186.04200		875.00000 
 43692.65567		 261.35540			43431.30027		71.21000		324.00000 
 43692.65567		 272.81207			43419.84360		186.04200		875.00000 
 43692.65567		 265.17429			43427.48138		71.21000		324.00000 
 43692.65567		 272.81207			43419.84360		186.04200		875.00000 
 43692.65567		 265.17429			43427.48138		71.21000		324.00000 
 43692.65567		 272.81207			43419.84360		186.04200		875.00000 
 43692.65567		 265.17429			43427.48138		71.21000		324.00000 
 43692.65567		 272.81207			43419.84360		186.04200		875.00000 
 43692.65567		 272.81207			43419.84360		71.21000		324.00000 
 43692.65567		 305.27265			43387.38302		151.92800		875.00000 
 43692.65567		 305.27265			43387.38302		71.21000		324.00000 
 43692.65567		 305.27265			43387.38302		151.92800		875.00000 
 43692.65567		 305.27265			43387.38302		71.21000		324.00000 
 43692.65567		 305.27265			43387.38302		151.92800		875.00000 
 43692.65567		 305.27265			43387.38302		71.21000		324.00000 
 43692.65567		 305.27265			43387.38302		151.92800		875.00000 
 43692.65567		 305.27265			43387.38302		71.21000		324.00000 
 43692.65567		 305.27265			43387.38302		151.92800		875.00000 
 43692.65567		 305.27265			43387.38302		71.21000		324.00000 
 43692.65567		 309.09154			43383.56413		151.92800		875.00000 
 43692.65567		 305.27265			43387.38302		71.21000		324.00000 
 43692.65567		 310.52363			43382.13204		151.92800		875.00000 
 43692.65567		 305.27265			43387.38302		71.21000		324.00000 
 43692.65567		 311.00099			43381.65468		151.92800		875.00000 
 43692.65567		 305.27265			43387.38302		71.21000		324.00000 
 43692.65567		 311.00099			43381.65468		151.92800		875.00000 
 43692.65567		 305.27265			43387.38302		71.21000		324.00000 
 43692.65567		 311.00099			43381.65468		151.92800		875.00000 
 43692.65567		 305.27265			43387.38302		71.21000		324.00000 
 43692.65567		 311.00099			43381.65468		151.92800		875.00000 
 43692.65567		 305.27265			43387.38302		71.21000		324.00000 
 43692.65567		 311.00099			43381.65468		151.92800		875.00000 
 43692.65567		 305.27265			43387.38302		71.21000		324.00000 
 43692.65567		 311.00099			43381.65468		151.92800		875.00000 
 43692.65567		 305.27265			43387.38302		71.21000		324.00000 
 43692.65567		 311.00099			43381.65468		151.92800		875.00000 
 43692.65567		 305.27265			43387.38302		71.21000		324.00000 
 43692.65567		 311.00099			43381.65468		151.92800		875.00000 
 43692.65567		 305.27265			43387.38302		71.21000		324.00000 
 43692.65567		 311.00099			43381.65468		151.92800		875.00000 
 43692.65567		 305.27265			43387.38302		71.21000		324.00000 
 43692.65567		 311.00099			43381.65468		151.92800		875.00000 
 43692.65567		 305.27265			43387.38302		71.21000		324.00000 
 43692.65567		 311.00099			43381.65468		151.92800		875.00000 
 43692.65567		 305.27265			43387.38302		71.21000		324.00000 
 43692.65567		 311.00099			43381.65468		151.92800		875.00000 
 43692.65567		 305.27265			43387.38302		71.21000		324.00000 
 43692.65567		 311.00099			43381.65468		151.92800		875.00000 
 43692.65567		 305.27265			43387.38302		71.21000		324.00000 
 43692.65567		 311.00099			43381.65468		151.92800		875.00000 
 43692.65567		 305.27265			43387.38302		71.21000		324.00000 
 43692.65567		 311.00099			43381.65468		151.92800		875.00000 
 43692.65567		 305.27265			43387.38302		71.21000		324.00000 
 43692.65567		 311.00099			43381.65468		151.92800		875.00000 
 43692.65567		 305.27265			43387.38302		71.21000		324.00000 
 43692.65567		 311.00099			43381.65468		151.92800		875.00000 
 43692.65567		 305.27265			43387.38302		71.21000		324.00000 
 43692.65567		 311.00099			43381.65468		151.92800		875.00000 
 43692.65567		 305.27265			43387.38302		71.21000		324.00000 
 43692.65567		 311.00099			43381.65468		151.92800		875.00000 
 43692.65567		 305.27265			43387.38302		71.21000		324.00000 
 43692.65567		 311.00099			43381.65468		151.92800		875.00000 
 43692.65567		 305.27265			43387.38302		71.21000		324.00000 
 43692.65567		 311.00099			43381.65468		151.92800		875.00000 
 43692.65567		 305.27265			43387.38302		71.21000		324.00000 
 43692.65567		 311.00099			43381.65468		151.92800		875.00000 
 43692.65567		 305.27265			43387.38302		71.21000		324.00000 
 43692.65567		 311.00099			43381.65468		151.92800		875.00000 
 43692.65567		 305.27265			43387.38302		71.21000		324.00000 
 43692.65567		 311.00099			43381.65468		151.92800		875.00000 
 43692.65567		 305.27265			43387.38302		71.21000		324.00000 
 43692.65567		 311.00099			43381.65468		151.92800		875.00000 
 43692.65567		 305.27265			43387.38302		71.21000		324.00000 
 43692.65567		 311.00099			43381.65468		151.92800		875.00000 
 43692.65567		 305.27265			43387.38302		71.21000		324.00000 
 43692.65567		 311.00099			43381.65468		151.92800		875.00000 
 43692.65567		 305.27265			43387.38302		71.21000		324.00000 
 43692.65567		 311.00099			43381.65468		139.28000		875.00000 
 43692.65567		 305.27265			43387.38302		71.21000		324.00000 
 43692.65567		 311.00099			43381.65468		139.28000		875.00000 
 43692.65567		 305.27265			43387.38302		71.21000		324.00000 
 43692.65567		 311.00099			43381.65468		139.28000		875.00000 
 43692.65567		 305.27265			43387.38302		71.21000		324.00000 
 43692.65567		 311.00099			43381.65468		139.28000		875.00000 
 43692.65567		 305.27265			43387.38302		71.21000		324.00000 
 43692.65567		 311.00099			43381.65468		139.28000		875.00000 
 43692.65567		 305.27265			43387.38302		71.21000		324.00000 
 43692.65567		 311.00099			43381.65468		139.28000		875.00000 
 43692.65567		 305.27265			43387.38302		71.21000		324.00000 
 43692.65567		 311.00099			43381.65468		139.28000		875.00000 
 43692.65567		 305.27265			43387.38302		71.21000		324.00000 
 43692.65567		 311.00099			43381.65468		139.28000		875.00000 
 43692.65567		 305.27265			43387.38302		71.21000		324.00000 
 43692.65567		 311.00099			43381.65468		139.28000		875.00000 
 43692.65567		 305.27265			43387.38302		71.21000		324.00000 
 43692.65567		 311.00099			43381.65468		139.28000		875.00000 
 43692.65567		 305.27265			43387.38302		71.21000		324.00000 
 43692.65567		 311.00099			43381.65468		139.28000		875.00000 
 43692.65567		 305.27265			43387.38302		71.21000		324.00000 
 43692.65567		 311.00099			43381.65468		139.28000		875.00000 
 43692.65567		 305.27265			43387.38302		71.21000		324.00000 
 43692.65567		 311.00099			43381.65468		139.28000		875.00000 
 43692.65567		 305.27265			43387.38302		71.21000		324.00000 
 43692.65567		 311.00099			43381.65468		139.28000		875.00000 
 43692.65567		 305.27265			43387.38302		71.21000		324.00000 
 43692.65567		 311.00099			43381.65468		139.28000		875.00000 
 43692.65567		 305.27265			43387.38302		71.21000		324.00000 
 43692.65567		 311.00099			43381.65468		139.28000		875.00000 
 43692.65567		 305.27265			43387.38302		71.21000		324.00000 
 43692.65567		 311.00099			43381.65468		139.28000		875.00000 
 43692.65567		 305.27265			43387.38302		71.21000		324.00000 
 43692.65567		 311.00099			43381.65468		139.28000		875.00000 
 43692.65567		 305.27265			43387.38302		71.21000		324.00000 
 43692.65567		 311.00099			43381.65468		139.28000		875.00000 
 43692.65567		 305.27265			43387.38302		71.21000		324.00000 
 43692.65567		 311.00099			43381.65468		139.28000		875.00000 
 43692.65567		 305.27265			43387.38302		71.21000		324.00000 
 43692.65567		 311.00099			43381.65468		139.28000		875.00000 
 43692.65567		 305.27265			43387.38302		71.21000		324.00000 
 43692.65567		 311.00099			43381.65468		139.28000		875.00000 
 43692.65567		 305.27265			43387.38302		71.21000		324.00000 
 43692.65567		 314.81988			43377.83579		139.28000		875.00000 
 43692.65567		 305.27265			43387.38302		71.21000		324.00000 
 43692.65567		 314.81988			43377.83579		139.28000		875.00000 
 43692.65567		 305.27265			43387.38302		71.21000		324.00000 
 43692.65567		 314.81988			43377.83579		139.28000		875.00000 
 43692.65567		 305.27265			43387.38302		71.21000		324.00000 
 43692.65567		 318.63877			43374.01690		139.28000		875.00000 
 43692.65567		 305.27265			43387.38302		71.21000		324.00000 
 43692.65567		 322.45767			43370.19801		139.28000		875.00000 
 43692.65567		 305.27265			43387.38302		71.21000		324.00000 
 43692.65567		 326.27656			43366.37912		139.28000		875.00000 
 43692.65567		 305.27265			43387.38302		71.21000		324.00000 
 43692.65567		 326.27656			43366.37912		139.28000		875.00000 
 43692.65567		 305.27265			43387.38302		71.21000		324.00000 
 43692.65567		 326.27656			43366.37912		139.28000		875.00000 
 43692.65567		 305.27265			43387.38302		71.21000		324.00000 
 43692.65567		 537.27032			43155.38535		139.28000		875.00000 
 43692.65567		 305.27265			43387.38302		71.21000		324.00000 
 43692.65567		 605.53301			43087.12266		139.28000		875.00000 
 43692.65567		 305.27265			43387.38302		71.21000		324.00000 
 43692.65567		 742.05839			42950.59728		139.28000		875.00000 
 43692.65567		 305.27265			43387.38302		71.21000		324.00000 
 43692.65567		 742.05839			42950.59728		139.28000		875.00000 
 43692.65567		 305.27265			43387.38302		71.21000		324.00000 
 43692.65567		 742.05839			42950.59728		138.91800		875.00000 
 43692.65567		 305.27265			43387.38302		71.21000		324.00000 
 43692.65567		 742.05839			42950.59728		138.91800		875.00000 
 43692.65567		 305.27265			43387.38302		71.21000		324.00000 
 43692.65567		 742.05839			42950.59728		138.91800		875.00000 
 43692.65567		 305.27265			43387.38302		71.21000		324.00000 
 43692.65567		 742.05839			42950.59728		138.91800		875.00000 
 43692.65567		 305.27265			43387.38302		71.21000		324.00000 
 43692.65567		 742.05839			42950.59728		138.91800		875.00000 
 43692.65567		 305.27265			43387.38302		71.21000		324.00000 
 43692.65567		 742.05839			42950.59728		138.91800		875.00000 
 43692.65567		 305.27265			43387.38302		71.21000		324.00000 
 43692.65567		 742.05839			42950.59728		138.91800		875.00000 
 43692.65567		 305.27265			43387.38302		71.21000		324.00000 
 43692.65567		 742.05839			42950.59728		138.91800		875.00000 
 43692.65567		 305.27265			43387.38302		71.21000		324.00000 
 43692.65567		 742.05839			42950.59728		138.91800		875.00000 
 43692.65567		 305.27265			43387.38302		71.21000		324.00000 
 43692.65567		 742.05839			42950.59728		138.91800		875.00000 
 43692.65567		 305.27265			43387.38302		71.21000		324.00000 
 43692.65567		 742.05839			42950.59728		138.91800		875.00000 
 43692.65567		 305.27265			43387.38302		71.21000		324.00000 
 43692.65567		 742.05839			42950.59728		138.91800		875.00000 
 43692.65567		 305.27265			43387.38302		71.21000		324.00000 
 43692.65567		 742.05839			42950.59728		138.91800		875.00000 
 43692.65567		 305.27265			43387.38302		71.21000		324.00000 
 43692.65567		 742.05839			42950.59728		138.91800		875.00000 
 43692.65567		 305.27265			43387.38302		71.21000		324.00000 
 43692.65567		 742.05839			42950.59728		138.91800		875.00000 
 43692.65567		 305.27265			43387.38302		71.21000		324.00000 
 43692.65567		 742.05839			42950.59728		138.91800		875.00000 
 43692.65567		 305.27265			43387.38302		71.21000		324.00000 
 43692.65567		 742.05839			42950.59728		138.91800		875.00000 
 43692.65567		 305.27265			43387.38302		71.21000		324.00000 
 43692.65567		 742.05839			42950.59728		138.91800		875.00000 
 43692.65567		 305.27265			43387.38302		71.21000		324.00000 
 43692.65567		 742.05839			42950.59728		138.91800		875.00000 
 43692.65567		 305.27265			43387.38302		71.21000		324.00000 
 43692.65567		 742.05839			42950.59728		138.91800		875.00000 
 43692.65567		 305.27265			43387.38302		71.21000		324.00000 
 43692.65567		 742.05839			42950.59728		138.91800		875.00000 
 43692.65567		 305.27265			43387.38302		71.21000		324.00000 
 43692.65567		 742.05839			42950.59728		138.91800		875.00000 
 43692.65567		 305.27265			43387.38302		71.21000		324.00000 
 43692.65567		 742.05839			42950.59728		138.91800		875.00000 
 43692.65567		 305.27265			43387.38302		71.21000		324.00000 
 43692.65567		 742.05839			42950.59728		138.91800		875.00000 
 43692.65567		 305.27265			43387.38302		71.21000		324.00000 
 43692.65567		 742.05839			42950.59728		138.91800		875.00000 
 43692.65567		 305.27265			43387.38302		71.21000		324.00000 
 43692.65567		 742.05839			42950.59728		138.91800		875.00000 
 43692.65567		 305.27265			43387.38302		71.21000		324.00000 
 43692.65567		 742.05839			42950.59728		138.91800		875.00000 
 43692.65567		 305.27265			43387.38302		71.21000		324.00000 
 43692.65567		 742.05839			42950.59728		138.91800		875.00000 
 43692.65567		 305.27265			43387.38302		71.21000		324.00000 
 43692.65567		 742.05839			42950.59728		138.91800		875.00000 
 43692.65567		 305.27265			43387.38302		71.21000		324.00000 
 43692.65567		 742.05839			42950.59728		138.91800		875.00000 
 43692.65567		 305.27265			43387.38302		71.21000		324.00000 
 43692.65567		 742.05839			42950.59728		138.91800		875.00000 
 43692.65567		 305.27265			43387.38302		71.21000		324.00000 
 43692.65567		 742.05839			42950.59728		138.91800		875.00000 
 43692.65567		 305.27265			43387.38302		71.21000		324.00000 
 43692.65567		 742.05839			42950.59728		138.91800		875.00000 
 43692.65567		 305.27265			43387.38302		71.21000		324.00000 
 43692.65567		 742.05839			42950.59728		138.91800		875.00000 
 43692.65567		 305.27265			43387.38302		71.21000		324.00000 
 43692.65567		 742.05839			42950.59728		138.91800		875.00000 
 43692.65567		 305.27265			43387.38302		71.21000		324.00000 
 43692.65567		 742.05839			42950.59728		138.91800		875.00000 
 43692.65567		 305.27265			43387.38302		71.21000		324.00000 
 43692.65567		 742.05839			42950.59728		138.91800		875.00000 
 43692.65567		 305.27265			43387.38302		71.21000		324.00000 
 43692.65567		 742.05839			42950.59728		138.91800		875.00000 
 43692.65567		 305.27265			43387.38302		71.21000		324.00000 
 43692.65567		 742.05839			42950.59728		138.91800		875.00000 
 43692.65567		 305.27265			43387.38302		71.21000		324.00000 
 43692.65567		 742.05839			42950.59728		138.91800		875.00000 
 43692.65567		 305.27265			43387.38302		71.21000		324.00000 
 43692.65567		 742.05839			42950.59728		138.91800		875.00000 
 43692.65567		 305.27265			43387.38302		71.21000		324.00000 
 43692.65567		 742.05839			42950.59728		138.91800		875.00000 
 43692.65567		 305.27265			43387.38302		71.21000		324.00000 
 43692.65567		 742.05839			42950.59728		138.91800		875.00000 
 43692.65567		 305.27265			43387.38302		71.21000		324.00000 
 43692.65567		 742.05839			42950.59728		138.91800		875.00000 
 43692.65567		 305.27265			43387.38302		71.21000		324.00000 
 43692.65567		 742.05839			42950.59728		138.91800		875.00000 
 43692.65567		 305.27265			43387.38302		71.21000		324.00000 
 43692.65567		 742.05839			42950.59728		138.91800		875.00000 
 43692.65567		 305.27265			43387.38302		71.21000		324.00000 
 43692.65567		 742.05839			42950.59728		138.91800		875.00000 
 43692.65567		 305.27265			43387.38302		71.21000		324.00000 
 43692.65567		 742.05839			42950.59728		138.91800		875.00000 
 43692.65567		 305.27265			43387.38302		71.21000		324.00000 
 43692.65567		 742.05839			42950.59728		138.91800		875.00000 
 43692.65567		 305.27265			43387.38302		71.21000		324.00000 
 43692.65567		 742.05839			42950.59728		138.91800		875.00000 
 43692.65567		 305.27265			43387.38302		71.21000		324.00000 
 43692.65567		 742.05839			42950.59728		138.91800		875.00000 
 43692.65567		 305.27265			43387.38302		71.21000		324.00000 
 43692.65567		 742.05839			42950.59728		138.91800		875.00000 
 43692.65567		 305.27265			43387.38302		71.21000		324.00000 
 43692.65567		 742.05839			42950.59728		138.91800		875.00000 
 43692.65567		 305.27265			43387.38302		71.21000		324.00000 
 43692.65567		 742.05839			42950.59728		138.91800		875.00000 
 43692.65567		 305.27265			43387.38302		71.21000		324.00000 
 43692.65567		 742.05839			42950.59728		138.91800		875.00000 
 43692.65567		 305.27265			43387.38302		71.21000		324.00000 
 43692.65567		 742.05839			42950.59728		138.91800		875.00000 
 43692.65567		 305.27265			43387.38302		71.21000		324.00000 
 43692.65567		 742.05839			42950.59728		138.91800		875.00000 
 43692.65567		 305.27265			43387.38302		71.21000		324.00000 
 43692.65567		 742.05839			42950.59728		138.91800		875.00000 
 43692.65567		 305.27265			43387.38302		71.21000		324.00000 
 43692.65567		 742.05839			42950.59728		138.91800		875.00000 
 43692.65567		 305.27265			43387.38302		71.21000		324.00000 
 43692.65567		 742.05839			42950.59728		138.91800		875.00000 
 43692.65567		 305.27265			43387.38302		71.21000		324.00000 
 43692.65567		 742.05839			42950.59728		138.91800		875.00000 
 43692.65567		 305.27265			43387.38302		71.21000		324.00000 
 43692.65567		 742.05839			42950.59728		138.91800		875.00000 
 43692.65567		 305.27265			43387.38302		71.21000		324.00000 
 43692.65567		 742.05839			42950.59728		138.91800		875.00000 
 43692.65567		 305.27265			43387.38302		71.21000		324.00000 
 43692.65567		 742.05839			42950.59728		138.91800		875.00000 
 43692.65567		 305.27265			43387.38302		68.70800		324.00000 
 43692.65567		 742.05839			42950.59728		193.43800		875.00000 
 43692.65567		 305.27265			43387.38302		68.70800		324.00000 
 43692.65567		 742.05839			42950.59728		193.43800		875.00000 
 43692.65567		 305.27265			43387.38302		68.70800		324.00000 
 43692.65567		 742.05839			42950.59728		193.43800		875.00000 
 43692.65567		 305.27265			43387.38302		68.70800		324.00000 
 43692.65567		 742.05839			42950.59728		193.43800		875.00000 
 43692.65567		 305.27265			43387.38302		68.70800		324.00000 
 43692.65567		 742.05839			42950.59728		193.43800		875.00000 
 43692.65567		 305.27265			43387.38302		68.70800		324.00000 
 43692.65567		 742.05839			42950.59728		193.43800		875.00000 
 43692.65567		 305.27265			43387.38302		68.70800		324.00000 
 43692.65567		 742.05839			42950.59728		193.43800		875.00000 
 43692.65567		 305.27265			43387.38302		68.70800		324.00000 
 43692.65567		 742.05839			42950.59728		193.43800		875.00000 
 43692.65567		 305.27265			43387.38302		68.70800		324.00000 
 43692.65567		 742.05839			42950.59728		193.43800		875.00000 
 43692.65567		 305.27265			43387.38302		68.70800		324.00000 
 43692.65567		 742.05839			42950.59728		193.43800		875.00000 
 43692.65567		 305.27265			43387.38302		68.70800		324.00000 
 43692.65567		 742.05839			42950.59728		193.43800		875.00000 
 43692.65567		 305.27265			43387.38302		68.70800		324.00000 
 43692.65567		 742.05839			42950.59728		193.43800		875.00000 
 43692.65567		 305.27265			43387.38302		68.70800		324.00000 
 43692.65567		 742.05839			42950.59728		193.43800		875.00000 
 43692.65567		 305.27265			43387.38302		68.70800		324.00000 
 43692.65567		 742.05839			42950.59728		193.43800		875.00000 
 43692.65567		 305.27265			43387.38302		68.70800		324.00000 
 43692.65567		 742.05839			42950.59728		193.43800		875.00000 
 43692.65567		 305.27265			43387.38302		68.70800		324.00000 
 43692.65567		 742.05839			42950.59728		193.43800		875.00000 
 43692.65567		 305.27265			43387.38302		68.70800		324.00000 
 43692.65567		 742.05839			42950.59728		193.43800		875.00000 
 43692.65567		 305.27265			43387.38302		68.70800		324.00000 
 43692.65567		 742.05839			42950.59728		193.43800		875.00000 
 43692.65567		 305.27265			43387.38302		68.70800		324.00000 
 43692.65567		 742.05839			42950.59728		193.43800		875.00000 
 43692.65567		 305.27265			43387.38302		68.70800		324.00000 
 43692.65567		 742.05839			42950.59728		193.43800		875.00000 
 43692.65567		 305.27265			43387.38302		68.70800		324.00000 
 43692.65567		 742.05839			42950.59728		193.43800		875.00000 
 43692.65567		 305.27265			43387.38302		68.70800		324.00000 
 43692.65567		 742.05839			42950.59728		193.43800		875.00000 
 43692.65567		 305.27265			43387.38302		68.70800		324.00000 
 43692.65567		 742.05839			42950.59728		193.43800		875.00000 
 43692.65567		 305.27265			43387.38302		68.70800		324.00000 
 43692.65567		 742.05839			42950.59728		193.43800		875.00000 
 43692.65567		 305.27265			43387.38302		68.70800		324.00000 
 43692.65567		 742.05839			42950.59728		193.43800		875.00000 
 43692.65567		 305.27265			43387.38302		68.70800		324.00000 
 43692.65567		 742.05839			42950.59728		193.43800		875.00000 
 43692.65567		 305.27265			43387.38302		68.70800		324.00000 
 43692.65567		 742.05839			42950.59728		193.43800		875.00000 
 43692.65567		 305.27265			43387.38302		68.70800		324.00000 
 43692.65567		 742.05839			42950.59728		193.43800		875.00000 
 43692.65567		 305.27265			43387.38302		68.70800		324.00000 
 43692.65567		 742.05839			42950.59728		193.43800		875.00000 
 43692.65567		 305.27265			43387.38302		68.70800		324.00000 
 43692.65567		 742.05839			42950.59728		193.43800		875.00000 
 43692.65567		 305.27265			43387.38302		68.70800		324.00000 
 43692.65567		 742.05839			42950.59728		193.43800		875.00000 
 43692.65567		 305.27265			43387.38302		68.70800		324.00000 
 43692.65567		 742.05839			42950.59728		193.43800		875.00000 
 43692.65567		 305.27265			43387.38302		68.70800		324.00000 
 43692.65567		 742.05839			42950.59728		193.43800		875.00000 
 43692.65567		 305.27265			43387.38302		68.70800		324.00000 
 43692.65567		 742.05839			42950.59728		193.43800		875.00000 
 43692.65567		 305.27265			43387.38302		68.70800		324.00000 
 43692.65567		 742.05839			42950.59728		193.43800		875.00000 
 43692.65567		 305.27265			43387.38302		68.70800		324.00000 
 43692.65567		 742.05839			42950.59728		193.43800		875.00000 
 43692.65567		 305.27265			43387.38302		68.70800		324.00000 
 43692.65567		 742.05839			42950.59728		193.43800		875.00000 
 43692.65567		 305.27265			43387.38302		68.70800		324.00000 
 43692.65567		 742.05839			42950.59728		193.43800		875.00000 
 43692.65567		 305.27265			43387.38302		68.70800		324.00000 
 43692.65567		 742.05839			42950.59728		193.43800		875.00000 
 43692.65567		 305.27265			43387.38302		68.70800		324.00000 
 43692.65567		 742.05839			42950.59728		193.43800		875.00000 
 43692.65567		 305.27265			43387.38302		68.70800		324.00000 
 43692.65567		 742.05839			42950.59728		193.43800		875.00000 
 43692.65567		 305.27265			43387.38302		68.70800		324.00000 
 43692.65567		 742.05839			42950.59728		193.43800		875.00000 
 43692.65567		 305.27265			43387.38302		68.70800		324.00000 
 43692.65567		 742.05839			42950.59728		193.43800		875.00000 
 43692.65567		 305.27265			43387.38302		68.70800		324.00000 
 43692.65567		 742.05839			42950.59728		193.43800		875.00000 
 43692.65567		 305.27265			43387.38302		68.70800		324.00000 
 43692.65567		 742.05839			42950.59728		193.43800		875.00000 
 43692.65567		 305.27265			43387.38302		68.70800		324.00000 
 43692.65567		 742.05839			42950.59728		193.43800		875.00000 
 43692.65567		 305.27265			43387.38302		68.70800		324.00000 
 43692.65567		 742.05839			42950.59728		193.43800		875.00000 
 43692.65567		 305.27265			43387.38302		68.70800		324.00000 
 43692.65567		 742.05839			42950.59728		193.43800		875.00000 
 43692.65567		 305.27265			43387.38302		68.70800		324.00000 
 43692.65567		 742.05839			42950.59728		193.43800		875.00000 
 43692.65567		 305.27265			43387.38302		68.70800		324.00000 
 43692.65567		 742.05839			42950.59728		193.43800		875.00000 
 43692.65567		 305.27265			43387.38302		68.70800		324.00000 
 43692.65567		 742.05839			42950.59728		193.43800		875.00000 
 43692.65567		 305.27265			43387.38302		68.70800		324.00000 
 43692.65567		 742.05839			42950.59728		193.43800		875.00000 
 43692.65567		 305.27265			43387.38302		68.70800		324.00000 
 43692.65567		 742.05839			42950.59728		193.43800		875.00000 
 43692.65567		 305.27265			43387.38302		68.70800		324.00000 
 43692.65567		 742.05839			42950.59728		193.43800		875.00000 
 43692.65567		 305.27265			43387.38302		68.70800		324.00000 
 43692.65567		 742.05839			42950.59728		193.43800		875.00000 
 43692.65567		 305.27265			43387.38302		68.70800		324.00000 
 43692.65567		 742.05839			42950.59728		193.43800		875.00000 
 43692.65567		 305.27265			43387.38302		68.70800		324.00000 
 43692.65567		 742.05839			42950.59728		193.43800		875.00000 
 43692.65567		 305.27265			43387.38302		68.70800		324.00000 
 43692.65567		 742.05839			42950.59728		193.43800		875.00000 
 43692.65567		 305.27265			43387.38302		68.70800		324.00000 
 43692.65567		 742.05839			42950.59728		193.43800		875.00000 
 43692.65567		 305.27265			43387.38302		68.70800		324.00000 
 43692.65567		 742.05839			42950.59728		193.43800		875.00000 
 43692.65567		 305.27265			43387.38302		68.70800		324.00000 
 43692.65567		 742.05839			42950.59728		193.43800		875.00000 
 43692.65567		 305.27265			43387.38302		68.70800		324.00000 
 43692.65567		 742.05839			42950.59728		193.43800		875.00000 
 43692.65567		 305.27265			43387.38302		68.70800		324.00000 
 43692.65567		 742.05839			42950.59728		193.43800		875.00000 
 43692.65567		 305.27265			43387.38302		68.70800		324.00000 
 43692.65567		 742.05839			42950.59728		213.31200		875.00000 
 43692.65567		 305.27265			43387.38302		68.70800		324.00000 
 43692.65567		 742.05839			42950.59728		213.31200		875.00000 
 43692.65567		 305.27265			43387.38302		68.70800		324.00000 
 43692.65567		 742.05839			42950.59728		213.31200		875.00000 
 43692.65567		 305.27265			43387.38302		68.70800		324.00000 
 43692.65567		 742.05839			42950.59728		213.31200		875.00000 
 43692.65567		 305.27265			43387.38302		68.70800		324.00000 
 43692.65567		 742.05839			42950.59728		213.31200		875.00000 
 43692.65567		 305.27265			43387.38302		68.70800		324.00000 
 43692.65567		 742.05839			42950.59728		213.31200		875.00000 
 43692.65567		 305.27265			43387.38302		68.70800		324.00000 
 43692.65567		 742.05839			42950.59728		213.31200		875.00000 
 43692.65567		 305.27265			43387.38302		68.70800		324.00000 
 43692.65567		 742.05839			42950.59728		213.31200		875.00000 
 43692.65567		 305.27265			43387.38302		68.70800		324.00000 
 43692.65567		 742.05839			42950.59728		213.31200		875.00000 
 43692.65567		 305.27265			43387.38302		68.70800		324.00000 
 43692.65567		 742.05839			42950.59728		213.31200		875.00000 
 43692.65567		 305.27265			43387.38302		68.70800		324.00000 
 43692.65567		 742.05839			42950.59728		213.31200		875.00000 
 43692.65567		 305.27265			43387.38302		68.70800		324.00000 
 43692.65567		 742.05839			42950.59728		213.31200		875.00000 
 43692.65567		 305.27265			43387.38302		68.70800		324.00000 
 43692.65567		 742.05839			42950.59728		213.31200		875.00000 
 43692.65567		 305.27265			43387.38302		68.70800		324.00000 
 43692.65567		 742.05839			42950.59728		213.31200		875.00000 
 43692.65567		 305.27265			43387.38302		68.70800		324.00000 
 43692.65567		 742.05839			42950.59728		213.31200		875.00000 
 43692.65567		 305.27265			43387.38302		68.70800		324.00000 
 43692.65567		 742.05839			42950.59728		213.31200		875.00000 
 43692.65567		 305.27265			43387.38302		68.70800		324.00000 
 43692.65567		 742.05839			42950.59728		213.31200		875.00000 
 43692.65567		 305.27265			43387.38302		68.70800		324.00000 
 43692.65567		 742.05839			42950.59728		213.31200		875.00000 
 43692.65567		 305.27265			43387.38302		68.70800		324.00000 
 43692.65567		 742.05839			42950.59728		213.31200		875.00000 
 43692.65567		 305.27265			43387.38302		68.70800		324.00000 
 43692.65567		 742.05839			42950.59728		213.31200		875.00000 
 43692.65567		 305.27265			43387.38302		68.70800		324.00000 
 43692.65567		 742.05839			42950.59728		213.31200		875.00000 
 43692.65567		 305.27265			43387.38302		68.70800		324.00000 
 43692.65567		 742.05839			42950.59728		213.31200		875.00000 
 43692.65567		 305.27265			43387.38302		68.70800		324.00000 
 43692.65567		 742.05839			42950.59728		213.31200		875.00000 
 43692.65567		 305.27265			43387.38302		68.70800		324.00000 
 43692.65567		 742.05839			42950.59728		213.31200		875.00000 
 43692.65567		 305.27265			43387.38302		68.70800		324.00000 
 43692.65567		 742.05839			42950.59728		213.31200		875.00000 
 43692.65567		 305.27265			43387.38302		68.70800		324.00000 
 43692.65567		 742.05839			42950.59728		213.31200		875.00000 
 43692.65567		 305.27265			43387.38302		68.70800		324.00000 
 43692.65567		 742.05839			42950.59728		213.31200		875.00000 
 43692.65567		 305.27265			43387.38302		68.70800		324.00000 
 43692.65567		 742.05839			42950.59728		213.31200		875.00000 
 43692.65567		 305.27265			43387.38302		68.70800		324.00000 
 43692.65567		 742.05839			42950.59728		213.31200		875.00000 
 43692.65567		 305.27265			43387.38302		68.70800		324.00000 
 43692.65567		 742.05839			42950.59728		213.31200		875.00000 
 43692.65567		 305.27265			43387.38302		68.70800		324.00000 
 43692.65567		 742.05839			42950.59728		213.31200		875.00000 
 43692.65567		 305.27265			43387.38302		68.70800		324.00000 
 43692.65567		 742.05839			42950.59728		213.31200		875.00000 
 43692.65567		 305.27265			43387.38302		68.70800		324.00000 
 43692.65567		 742.05839			42950.59728		213.31200		875.00000 
 43692.65567		 305.27265			43387.38302		68.70800		324.00000 
 43692.65567		 742.05839			42950.59728		213.31200		875.00000 
 43692.65567		 305.27265			43387.38302		68.70800		324.00000 
 43692.65567		 742.05839			42950.59728		213.31200		875.00000 
 43692.65567		 305.27265			43387.38302		68.70800		324.00000 
 43692.65567		 742.05839			42950.59728		213.31200		875.00000 
 43692.65567		 305.27265			43387.38302		68.70800		324.00000 
 43692.65567		 742.05839			42950.59728		213.31200		875.00000 
 43692.65567		 305.27265			43387.38302		68.70800		324.00000 
 43692.65567		 742.05839			42950.59728		213.31200		875.00000 
 43692.65567		 305.27265			43387.38302		68.70800		324.00000 
 43692.65567		 742.05839			42950.59728		213.31200		875.00000 
 43692.65567		 305.27265			43387.38302		68.70800		324.00000 
 43692.65567		 742.05839			42950.59728		213.31200		875.00000 
 43692.65567		 305.27265			43387.38302		68.70800		324.00000 
 43692.65567		 742.05839			42950.59728		213.31200		875.00000 
 43692.65567		 305.27265			43387.38302		68.70800		324.00000 
 43692.65567		 742.05839			42950.59728		213.31200		875.00000 
 43692.65567		 305.27265			43387.38302		68.70800		324.00000 
 43692.65567		 742.05839			42950.59728		213.31200		875.00000 
 43692.65567		 305.27265			43387.38302		68.70800		324.00000 
 43692.65567		 742.05839			42950.59728		213.31200		875.00000 
 43692.65567		 305.27265			43387.38302		68.70800		324.00000 
 43692.65567		 742.05839			42950.59728		213.31200		875.00000 
 43692.65567		 305.27265			43387.38302		68.70800		324.00000 
 43692.65567		 742.05839			42950.59728		213.31200		875.00000 
 43692.65567		 305.27265			43387.38302		68.70800		324.00000 
 43692.65567		 742.05839			42950.59728		213.31200		875.00000 
 43692.65567		 305.27265			43387.38302		68.70800		324.00000 
 43692.65567		 742.05839			42950.59728		213.31200		875.00000 
 43692.65567		 305.27265			43387.38302		68.70800		324.00000 
 43692.65567		 742.05839			42950.59728		213.31200		875.00000 
 43692.65567		 305.27265			43387.38302		68.70800		324.00000 
 43692.65567		 742.05839			42950.59728		213.31200		875.00000 
 43692.65567		 305.27265			43387.38302		68.70800		324.00000 
 43692.65567		 742.05839			42950.59728		213.31200		875.00000 
 43692.65567		 305.27265			43387.38302		68.70800		324.00000 
 43692.65567		 742.05839			42950.59728		213.31200		875.00000 
 43692.65567		 305.27265			43387.38302		68.70800		324.00000 
 43692.65567		 742.05839			42950.59728		213.31200		875.00000 
 43692.65567		 305.27265			43387.38302		68.70800		324.00000 
 43692.65567		 742.05839			42950.59728		213.31200		875.00000 
 43692.65567		 305.27265			43387.38302		68.70800		324.00000 
 43692.65567		 742.05839			42950.59728		213.31200		875.00000 
 43692.65567		 305.27265			43387.38302		68.70800		324.00000 
 43692.65567		 742.05839			42950.59728		213.31200		875.00000 
 43692.65567		 305.27265			43387.38302		68.70800		324.00000 
 43692.65567		 742.05839			42950.59728		213.31200		875.00000 
 43692.65567		 305.27265			43387.38302		68.70800		324.00000 
 43692.65567		 742.05839			42950.59728		213.31200		875.00000 
 43692.65567		 305.27265			43387.38302		68.70800		324.00000 
 43692.65567		 742.05839			42950.59728		213.31200		875.00000 
 43692.65567		 305.27265			43387.38302		68.70800		324.00000 
 43692.65567		 742.05839			42950.59728		213.31200		875.00000 
 43692.65567		 305.27265			43387.38302		68.70800		324.00000 
 43692.65567		 742.05839			42950.59728		213.31200		875.00000 
 43692.65567		 305.27265			43387.38302		68.70800		324.00000 
 43692.65567		 742.05839			42950.59728		213.31200		875.00000 
 43692.65567		 305.27265			43387.38302		68.70800		324.00000 
 43692.65567		 742.05839			42950.59728		213.31200		875.00000 
 43692.65567		 305.27265			43387.38302		68.70800		324.00000 
 43692.65567		 742.05839			42950.59728		213.31200		875.00000 
 43692.65567		 305.27265			43387.38302		68.70800		324.00000 
 43692.65567		 742.05839			42950.59728		220.70600		875.00000 
 43692.65567		 305.27265			43387.38302		68.70800		324.00000 
 43692.65567		 742.05839			42950.59728		220.70600		875.00000 
 43692.65567		 305.27265			43387.38302		68.70800		324.00000 
 43692.65567		 742.05839			42950.59728		220.70600		875.00000 
 43692.65567		 305.27265			43387.38302		68.70800		324.00000 
 43692.65567		 742.05839			42950.59728		220.70600		875.00000 
 43692.65567		 305.27265			43387.38302		68.70800		324.00000 
 43692.65567		 742.05839			42950.59728		220.70600		875.00000 
 43692.65567		 305.27265			43387.38302		68.70800		324.00000 
 43692.65567		 742.05839			42950.59728		220.70600		875.00000 
 43692.65567		 305.27265			43387.38302		68.70800		324.00000 
 43692.65567		 742.05839			42950.59728		220.70600		875.00000 
 43692.65567		 305.27265			43387.38302		68.70800		324.00000 
 43692.65567		 742.05839			42950.59728		220.70600		875.00000 
 43692.65567		 305.27265			43387.38302		68.70800		324.00000 
 43692.65567		 742.05839			42950.59728		220.70600		875.00000 
 43692.65567		 305.27265			43387.38302		68.70800		324.00000 
 43692.65567		 742.05839			42950.59728		220.70600		875.00000 
 43692.65567		 305.27265			43387.38302		68.70800		324.00000 
 43692.65567		 742.05839			42950.59728		220.70600		875.00000 
 43692.65567		 305.27265			43387.38302		68.70800		324.00000 
 43692.65567		 742.05839			42950.59728		220.70600		875.00000 
 43692.65567		 305.27265			43387.38302		68.70800		324.00000 
 43692.65567		 742.05839			42950.59728		220.70600		875.00000 
 43692.65567		 305.27265			43387.38302		68.70800		324.00000 
 43692.65567		 742.05839			42950.59728		220.70600		875.00000 
 43692.65567		 305.27265			43387.38302		68.70800		324.00000 
 43692.65567		 742.05839			42950.59728		220.70600		875.00000 
 43692.65567		 305.27265			43387.38302		68.70800		324.00000 
 43692.65567		 742.05839			42950.59728		220.70600		875.00000 
 43692.65567		 305.27265			43387.38302		68.70800		324.00000 
 43692.65567		 742.05839			42950.59728		220.70600		875.00000 
 43692.65567		 305.27265			43387.38302		68.70800		324.00000 
 43692.65567		 742.05839			42950.59728		220.70600		875.00000 
 43692.65567		 305.27265			43387.38302		68.70800		324.00000 
 43692.65567		 742.05839			42950.59728		220.70600		875.00000 
 43692.65567		 305.27265			43387.38302		68.70800		324.00000 
 43692.65567		 742.05839			42950.59728		220.70600		875.00000 
 43692.65567		 305.27265			43387.38302		68.70800		324.00000 
 43692.65567		 742.05839			42950.59728		220.70600		875.00000 
 43692.65567		 305.27265			43387.38302		68.70800		324.00000 
 43692.65567		 742.05839			42950.59728		220.70600		875.00000 
 43692.65567		 305.27265			43387.38302		68.70800		324.00000 
 43692.65567		 742.05839			42950.59728		220.70600		875.00000 
 43692.65567		 305.27265			43387.38302		68.70800		324.00000 
 43692.65567		 742.05839			42950.59728		220.70600		875.00000 
 43692.65567		 305.27265			43387.38302		68.70800		324.00000 
 43692.65567		 742.05839			42950.59728		220.70600		875.00000 
 43692.65567		 305.27265			43387.38302		68.70800		324.00000 
 43692.65567		 742.05839			42950.59728		220.70600		875.00000 
 43692.65567		 305.27265			43387.38302		68.70800		324.00000 
 43692.65567		 742.05839			42950.59728		220.70600		875.00000 
 43692.65567		 305.27265			43387.38302		68.70800		324.00000 
 43692.65567		 742.05839			42950.59728		220.70600		875.00000 
 43692.65567		 305.27265			43387.38302		68.70800		324.00000 
 43692.65567		 742.05839			42950.59728		220.70600		875.00000 
 43692.65567		 305.27265			43387.38302		68.70800		324.00000 
 43692.65567		 742.05839			42950.59728		220.70600		875.00000 
 43692.65567		 305.27265			43387.38302		68.70800		324.00000 
 43692.65567		 742.05839			42950.59728		220.70600		875.00000 
 43692.65567		 305.27265			43387.38302		68.70800		324.00000 
 43692.65567		 742.05839			42950.59728		220.70600		875.00000 
 43692.65567		 305.27265			43387.38302		68.70800		324.00000 
 43692.65567		 742.05839			42950.59728		220.70600		875.00000 
 43692.65567		 305.27265			43387.38302		68.70800		324.00000 
 43692.65567		 742.05839			42950.59728		220.70600		875.00000 
 43692.65567		 305.27265			43387.38302		68.70800		324.00000 
 43692.65567		 742.05839			42950.59728		220.70600		875.00000 
 43692.65567		 305.27265			43387.38302		68.70800		324.00000 
 43692.65567		 742.05839			42950.59728		220.70600		875.00000 
 43692.65567		 305.27265			43387.38302		68.70800		324.00000 
 43692.65567		 742.05839			42950.59728		220.70600		875.00000 
 43692.65567		 305.27265			43387.38302		68.70800		324.00000 
 43692.65567		 742.05839			42950.59728		220.70600		875.00000 
 43692.65567		 305.27265			43387.38302		68.70800		324.00000 
 43692.65567		 742.05839			42950.59728		220.70600		875.00000 
 43692.65567		 305.27265			43387.38302		68.70800		324.00000 
 43692.65567		 742.05839			42950.59728		220.70600		875.00000 
 43692.65567		 305.27265			43387.38302		68.70800		324.00000 
 43692.65567		 742.05839			42950.59728		220.70600		875.00000 
 43692.65567		 305.27265			43387.38302		68.70800		324.00000 
 43692.65567		 742.05839			42950.59728		220.70600		875.00000 
 43692.65567		 305.27265			43387.38302		68.70800		324.00000 
 43692.65567		 742.05839			42950.59728		220.70600		875.00000 
 43692.65567		 305.27265			43387.38302		68.70800		324.00000 
 43692.65567		 742.05839			42950.59728		220.70600		875.00000 
 43692.65567		 305.27265			43387.38302		68.70800		324.00000 
 43692.65567		 742.05839			42950.59728		220.70600		875.00000 
 43692.65567		 305.27265			43387.38302		68.70800		324.00000 
 43692.65567		 742.05839			42950.59728		220.70600		875.00000 
 43692.65567		 305.27265			43387.38302		68.70800		324.00000 
 43692.65567		 742.05839			42950.59728		220.70600		875.00000 
 43692.65567		 305.27265			43387.38302		68.70800		324.00000 
 43692.65567		 742.05839			42950.59728		220.70600		875.00000 
 43692.65567		 305.27265			43387.38302		68.70800		324.00000 
 43692.65567		 742.05839			42950.59728		220.70600		875.00000 
 43692.65567		 305.27265			43387.38302		68.70800		324.00000 
 43692.65567		 742.05839			42950.59728		220.70600		875.00000 
 43692.65567		 305.27265			43387.38302		68.70800		324.00000 
 43692.65567		 742.05839			42950.59728		220.70600		875.00000 
 43692.65567		 305.27265			43387.38302		68.70800		324.00000 
 43692.65567		 742.05839			42950.59728		220.70600		875.00000 
 43692.65567		 305.27265			43387.38302		68.70800		324.00000 
 43692.65567		 742.05839			42950.59728		220.70600		875.00000 
 43692.65567		 305.27265			43387.38302		68.70800		324.00000 
 43692.65567		 742.05839			42950.59728		220.70600		875.00000 
 43692.65567		 305.27265			43387.38302		68.70800		324.00000 
 43692.65567		 742.05839			42950.59728		220.70600		875.00000 
 43692.65567		 305.27265			43387.38302		68.70800		324.00000 
 43692.65567		 742.05839			42950.59728		220.70600		875.00000 
 43692.65567		 305.27265			43387.38302		68.70800		324.00000 
 43692.65567		 742.05839			42950.59728		220.70600		875.00000 
 43692.65567		 305.27265			43387.38302		68.70800		324.00000 
 43692.65567		 742.05839			42950.59728		220.70600		875.00000 
 43692.65567		 305.27265			43387.38302		68.70800		324.00000 
 43692.65567		 742.05839			42950.59728		220.70600		875.00000 
 43692.65567		 305.27265			43387.38302		68.70800		324.00000 
 43692.65567		 742.05839			42950.59728		220.70600		875.00000 
 43692.65567		 305.27265			43387.38302		68.70800		324.00000 
 43692.65567		 742.05839			42950.59728		220.70600		875.00000 
 43692.65567		 305.27265			43387.38302		68.70800		324.00000 
 43692.65567		 742.05839			42950.59728		220.70600		875.00000 
 43692.65567		 305.27265			43387.38302		68.70800		324.00000 
 43692.65567		 742.05839			42950.59728		220.70600		875.00000 
 43692.65567		 305.27265			43387.38302		68.70800		324.00000 
 43692.65567		 742.05839			42950.59728		220.70600		875.00000 
 43692.65567		 305.27265			43387.38302		68.70800		324.00000 
 43692.65567		 742.05839			42950.59728		222.98600		875.00000 
 43692.65567		 305.27265			43387.38302		68.70800		324.00000 
 43692.65567		 742.05839			42950.59728		222.98600		875.00000 
 43692.65567		 305.27265			43387.38302		68.70800		324.00000 
 43692.65567		 742.05839			42950.59728		222.98600		875.00000 
 43692.65567		 305.27265			43387.38302		68.70800		324.00000 
 43692.65567		 742.05839			42950.59728		222.98600		875.00000 
 43692.65567		 305.27265			43387.38302		68.70800		324.00000 
 43692.65567		 742.05839			42950.59728		222.98600		875.00000 
 43692.65567		 305.27265			43387.38302		68.70800		324.00000 
 43692.65567		 742.05839			42950.59728		222.98600		875.00000 
 43692.65567		 305.27265			43387.38302		68.70800		324.00000 
 43692.65567		 742.05839			42950.59728		222.98600		875.00000 
 43692.65567		 305.27265			43387.38302		68.70800		324.00000 
 43692.65567		 742.05839			42950.59728		222.98600		875.00000 
 43692.65567		 305.27265			43387.38302		68.70800		324.00000 
 43692.65567		 742.05839			42950.59728		222.98600		875.00000 
 43692.65567		 305.27265			43387.38302		68.70800		324.00000 
 43692.65567		 742.05839			42950.59728		222.98600		875.00000 
 43692.65567		 305.27265			43387.38302		68.70800		324.00000 
 43692.65567		 742.05839			42950.59728		222.98600		875.00000 
 43692.65567		 305.27265			43387.38302		68.70800		324.00000 
 43692.65567		 742.05839			42950.59728		222.98600		875.00000 
 43692.65567		 305.27265			43387.38302		68.70800		324.00000 
 43692.65567		 742.05839			42950.59728		222.98600		875.00000 
 43692.65567		 305.27265			43387.38302		68.70800		324.00000 
 43692.65567		 742.05839			42950.59728		222.98600		875.00000 
 43692.65567		 305.27265			43387.38302		68.70800		324.00000 
 43692.65567		 742.05839			42950.59728		222.98600		875.00000 
 43692.65567		 305.27265			43387.38302		68.70800		324.00000 
 43692.65567		 742.05839			42950.59728		222.98600		875.00000 
 43692.65567		 305.27265			43387.38302		68.70800		324.00000 
 43692.65567		 742.05839			42950.59728		222.98600		875.00000 
 43692.65567		 305.27265			43387.38302		68.70800		324.00000 
 43692.65567		 742.05839			42950.59728		222.98600		875.00000 
 43692.65567		 305.27265			43387.38302		68.70800		324.00000 
 43692.65567		 742.05839			42950.59728		222.98600		875.00000 
 43692.65567		 305.27265			43387.38302		68.70800		324.00000 
 43692.65567		 742.05839			42950.59728		222.98600		875.00000 
 43692.65567		 305.27265			43387.38302		68.70800		324.00000 
 43692.65567		 742.05839			42950.59728		222.98600		875.00000 
 43692.65567		 305.27265			43387.38302		68.70800		324.00000 
 43692.65567		 742.05839			42950.59728		222.98600		875.00000 
 43692.65567		 305.27265			43387.38302		68.70800		324.00000 
 43692.65567		 742.05839			42950.59728		222.98600		875.00000 
 43692.65567		 305.27265			43387.38302		68.70800		324.00000 
 43692.65567		 742.05839			42950.59728		222.98600		875.00000 
 43692.65567		 305.27265			43387.38302		68.70800		324.00000 
 43692.65567		 742.05839			42950.59728		222.98600		875.00000 
 43692.65567		 305.27265			43387.38302		68.70800		324.00000 
 43692.65567		 742.05839			42950.59728		222.98600		875.00000 
 43692.65567		 305.27265			43387.38302		68.70800		324.00000 
 43692.65567		 742.05839			42950.59728		222.98600		875.00000 
 43692.65567		 305.27265			43387.38302		68.70800		324.00000 
 43692.65567		 742.05839			42950.59728		222.98600		875.00000 
 43692.65567		 305.27265			43387.38302		68.70800		324.00000 
 43692.65567		 742.05839			42950.59728		222.98600		875.00000 
 43692.65567		 305.27265			43387.38302		68.70800		324.00000 
 43692.65567		 742.05839			42950.59728		222.98600		875.00000 
 43692.65567		 305.27265			43387.38302		68.70800		324.00000 
 43692.65567		 742.05839			42950.59728		222.98600		875.00000 
 43692.65567		 305.27265			43387.38302		68.70800		324.00000 
 43692.65567		 742.05839			42950.59728		222.98600		875.00000 
 43692.65567		 305.27265			43387.38302		68.70800		324.00000 
 43692.65567		 742.05839			42950.59728		222.98600		875.00000 
 43692.65567		 305.27265			43387.38302		68.70800		324.00000 
 43692.65567		 742.05839			42950.59728		222.98600		875.00000 
 43692.65567		 305.27265			43387.38302		68.70800		324.00000 
 43692.65567		 742.05839			42950.59728		222.98600		875.00000 
 43692.65567		 305.27265			43387.38302		68.70800		324.00000 
 43692.65567		 742.05839			42950.59728		222.98600		875.00000 
 43692.65567		 305.27265			43387.38302		68.70800		324.00000 
 43692.65567		 742.05839			42950.59728		222.98600		875.00000 
 43692.65567		 305.27265			43387.38302		68.70800		324.00000 
 43692.65567		 742.05839			42950.59728		222.98600		875.00000 
 43692.65567		 305.27265			43387.38302		68.70800		324.00000 
 43692.65567		 742.05839			42950.59728		222.98600		875.00000 
 43692.65567		 305.27265			43387.38302		68.70800		324.00000 
 43692.65567		 742.05839			42950.59728		222.98600		875.00000 
 43692.65567		 305.27265			43387.38302		68.70800		324.00000 
 43692.65567		 742.05839			42950.59728		222.98600		875.00000 
 43692.65567		 305.27265			43387.38302		68.70800		324.00000 
 43692.65567		 742.05839			42950.59728		222.98600		875.00000 
 43692.65567		 305.27265			43387.38302		68.70800		324.00000 
 43692.65567		 742.05839			42950.59728		222.98600		875.00000 
 43692.65567		 305.27265			43387.38302		68.70800		324.00000 
 43692.65567		 742.05839			42950.59728		222.98600		875.00000 
 43692.65567		 305.27265			43387.38302		68.70800		324.00000 
 43692.65567		 742.05839			42950.59728		222.98600		875.00000 
 43692.65567		 305.27265			43387.38302		68.70800		324.00000 
 43692.65567		 742.05839			42950.59728		222.98600		875.00000 
 43692.65567		 305.27265			43387.38302		68.70800		324.00000 
 43692.65567		 742.05839			42950.59728		222.98600		875.00000 
 43692.65567		 305.27265			43387.38302		68.70800		324.00000 
 43692.65567		 742.05839			42950.59728		222.98600		875.00000 
 43692.65567		 305.27265			43387.38302		68.70800		324.00000 
 43692.65567		 742.05839			42950.59728		222.98600		875.00000 
 43692.65567		 305.27265			43387.38302		68.70800		324.00000 
 43692.65567		 742.05839			42950.59728		222.98600		875.00000 
 43692.65567		 305.27265			43387.38302		68.70800		324.00000 
 43692.65567		 742.05839			42950.59728		222.98600		875.00000 
 43692.65567		 305.27265			43387.38302		68.70800		324.00000 
 43692.65567		 742.05839			42950.59728		222.98600		875.00000 
 43692.65567		 305.27265			43387.38302		68.70800		324.00000 
 43692.65567		 742.05839			42950.59728		222.98600		875.00000 
 43692.65567		 305.27265			43387.38302		68.70800		324.00000 
 43692.65567		 742.05839			42950.59728		222.98600		875.00000 
 43692.65567		 305.27265			43387.38302		68.70800		324.00000 
 43692.65567		 742.05839			42950.59728		222.98600		875.00000 
 43692.65567		 305.27265			43387.38302		68.70800		324.00000 
 43692.65567		 742.05839			42950.59728		222.98600		875.00000 
 43692.65567		 305.27265			43387.38302		68.70800		324.00000 
 43692.65567		 742.05839			42950.59728		222.98600		875.00000 
 43692.65567		 305.27265			43387.38302		68.70800		324.00000 
 43692.65567		 742.05839			42950.59728		222.98600		875.00000 
 43692.65567		 305.27265			43387.38302		68.70800		324.00000 
 43692.65567		 742.05839			42950.59728		222.98600		875.00000 
 43692.65567		 305.27265			43387.38302		68.70800		324.00000 
 43692.65567		 742.05839			42950.59728		222.98600		875.00000 
 43692.65567		 305.27265			43387.38302		68.70800		324.00000 
 43692.65567		 742.05839			42950.59728		222.98600		875.00000 
 43692.65567		 305.27265			43387.38302		68.70800		324.00000 
 43692.65567		 742.05839			42950.59728		222.98600		875.00000 
 43692.65567		 305.27265			43387.38302		68.70800		324.00000 
 43692.65567		 742.05839			42950.59728		222.98600		875.00000 
 43692.65567		 305.27265			43387.38302		68.70800		324.00000 
 43692.65567		 742.05839			42950.59728		222.98600		875.00000 
 43692.65567		 305.27265			43387.38302		68.70800		324.00000 
 43692.65567		 742.05839			42950.59728		222.98600		875.00000 
 43692.65567		 305.27265			43387.38302		68.70800		324.00000 
 43692.65567		 742.05839			42950.59728		223.78800		875.00000 
 43692.65567		 305.27265			43387.38302		68.70800		324.00000 
 43692.65567		 742.05839			42950.59728		223.78800		875.00000 
 43692.65567		 305.27265			43387.38302		68.70800		324.00000 
 43692.65567		 742.05839			42950.59728		223.78800		875.00000 
 43692.65567		 305.27265			43387.38302		68.70800		324.00000 
 43692.65567		 742.05839			42950.59728		223.78800		875.00000 
 43692.65567		 305.27265			43387.38302		68.70800		324.00000 
 43692.65567		 742.05839			42950.59728		223.78800		875.00000 
 43692.65567		 305.27265			43387.38302		68.70800		324.00000 
 43692.65567		 742.05839			42950.59728		223.78800		875.00000 
 43692.65567		 305.27265			43387.38302		68.70800		324.00000 
 43692.65567		 742.05839			42950.59728		223.78800		875.00000 
 43692.65567		 305.27265			43387.38302		68.70800		324.00000 
 43692.65567		 742.05839			42950.59728		223.78800		875.00000 
 43692.65567		 305.27265			43387.38302		68.70800		324.00000 
 43692.65567		 742.05839			42950.59728		223.78800		875.00000 
 43692.65567		 305.27265			43387.38302		68.70800		324.00000 
 43692.65567		 742.05839			42950.59728		223.78800		875.00000 
 43692.65567		 305.27265			43387.38302		68.70800		324.00000 
 43692.65567		 742.05839			42950.59728		223.78800		875.00000 
 43692.65567		 305.27265			43387.38302		68.70800		324.00000 
 43692.65567		 742.05839			42950.59728		223.78800		875.00000 
 43692.65567		 305.27265			43387.38302		68.70800		324.00000 
 43692.65567		 742.05839			42950.59728		223.78800		875.00000 
 43692.65567		 305.27265			43387.38302		68.70800		324.00000 
 43692.65567		 742.05839			42950.59728		223.78800		875.00000 
 43692.65567		 305.27265			43387.38302		68.70800		324.00000 
 43692.65567		 742.05839			42950.59728		223.78800		875.00000 
 43692.65567		 305.27265			43387.38302		68.70800		324.00000 
 43692.65567		 742.05839			42950.59728		223.78800		875.00000 
 43692.65567		 305.27265			43387.38302		68.70800		324.00000 
 43692.65567		 742.05839			42950.59728		223.78800		875.00000 
 43692.65567		 305.27265			43387.38302		68.70800		324.00000 
 43692.65567		 742.05839			42950.59728		223.78800		875.00000 
 43692.65567		 305.27265			43387.38302		68.70800		324.00000 
 43692.65567		 742.05839			42950.59728		223.78800		875.00000 
 43692.65567		 305.27265			43387.38302		68.70800		324.00000 
 43692.65567		 742.05839			42950.59728		223.78800		875.00000 
 43692.65567		 305.27265			43387.38302		68.70800		324.00000 
 43692.65567		 742.05839			42950.59728		223.78800		875.00000 
 43692.65567		 305.27265			43387.38302		68.70800		324.00000 
 43692.65567		 742.05839			42950.59728		223.78800		875.00000 
 43692.65567		 305.27265			43387.38302		68.70800		324.00000 
 43692.65567		 742.05839			42950.59728		223.78800		875.00000 
 43692.65567		 305.27265			43387.38302		68.70800		324.00000 
 43692.65567		 742.05839			42950.59728		223.78800		875.00000 
 43692.65567		 305.27265			43387.38302		68.70800		324.00000 
 43692.65567		 742.05839			42950.59728		223.78800		875.00000 
 43692.65567		 305.27265			43387.38302		68.70800		324.00000 
 43692.65567		 742.05839			42950.59728		223.78800		875.00000 
 43692.65567		 305.27265			43387.38302		68.70800		324.00000 
 43692.65567		 742.05839			42950.59728		223.78800		875.00000 
 43692.65567		 305.27265			43387.38302		68.70800		324.00000 
 43692.65567		 742.05839			42950.59728		223.78800		875.00000 
 43692.65567		 305.27265			43387.38302		68.70800		324.00000 
 43692.65567		 742.05839			42950.59728		223.78800		875.00000 
 43692.65567		 305.27265			43387.38302		68.70800		324.00000 
 43692.65567		 742.05839			42950.59728		223.78800		875.00000 
 43692.65567		 305.27265			43387.38302		68.70800		324.00000 
 43692.65567		 742.05839			42950.59728		223.78800		875.00000 
 43692.65567		 305.27265			43387.38302		68.70800		324.00000 
 43692.65567		 742.05839			42950.59728		223.78800		875.00000 
 43692.65567		 305.27265			43387.38302		68.70800		324.00000 
 43692.65567		 742.05839			42950.59728		223.78800		875.00000 
 43692.65567		 305.27265			43387.38302		68.70800		324.00000 
 43692.65567		 742.05839			42950.59728		223.78800		875.00000 
 43692.65567		 305.27265			43387.38302		68.70800		324.00000 
 43692.65567		 742.05839			42950.59728		223.78800		875.00000 
 43692.65567		 305.27265			43387.38302		68.70800		324.00000 
 43692.65567		 742.05839			42950.59728		223.78800		875.00000 
 43692.65567		 305.27265			43387.38302		68.70800		324.00000 
 43692.65567		 742.05839			42950.59728		223.78800		875.00000 
 43692.65567		 305.27265			43387.38302		68.70800		324.00000 
 43692.65567		 742.05839			42950.59728		223.78800		875.00000 
 43692.65567		 305.27265			43387.38302		68.70800		324.00000 
 43692.65567		 742.05839			42950.59728		223.78800		875.00000 
 43692.65567		 305.27265			43387.38302		68.70800		324.00000 
 43692.65567		 742.05839			42950.59728		223.78800		875.00000 
 43692.65567		 305.27265			43387.38302		68.70800		324.00000 
 43692.65567		 742.05839			42950.59728		223.78800		875.00000 
 43692.65567		 305.27265			43387.38302		68.70800		324.00000 
 43692.65567		 742.05839			42950.59728		223.78800		875.00000 
 43692.65567		 305.27265			43387.38302		68.70800		324.00000 
 43692.65567		 742.05839			42950.59728		223.78800		875.00000 
 43692.65567		 305.27265			43387.38302		68.70800		324.00000 
 43692.65567		 742.05839			42950.59728		223.78800		875.00000 
 43692.65567		 305.27265			43387.38302		68.70800		324.00000 
 43692.65567		 742.05839			42950.59728		223.78800		875.00000 
 43692.65567		 305.27265			43387.38302		68.70800		324.00000 
 43692.65567		 742.05839			42950.59728		223.78800		875.00000 
 43692.65567		 305.27265			43387.38302		68.70800		324.00000 
 43692.65567		 742.05839			42950.59728		223.78800		875.00000 
 43692.65567		 305.27265			43387.38302		68.70800		324.00000 
 43692.65567		 742.05839			42950.59728		223.78800		875.00000 
 43692.65567		 305.27265			43387.38302		68.70800		324.00000 
 43692.65567		 742.05839			42950.59728		223.78800		875.00000 
 43692.65567		 305.27265			43387.38302		68.70800		324.00000 
 43692.65567		 742.05839			42950.59728		223.78800		875.00000 
 43692.65567		 305.27265			43387.38302		68.70800		324.00000 
 43692.65567		 742.05839			42950.59728		223.78800		875.00000 
 43692.65567		 305.27265			43387.38302		68.70800		324.00000 
 43692.65567		 742.05839			42950.59728		223.78800		875.00000 
 43692.65567		 305.27265			43387.38302		68.70800		324.00000 
 43692.65567		 742.05839			42950.59728		223.78800		875.00000 
 43692.65567		 305.27265			43387.38302		68.70800		324.00000 
 43692.65567		 742.05839			42950.59728		223.78800		875.00000 
 43692.65567		 305.27265			43387.38302		68.70800		324.00000 
 43692.65567		 742.05839			42950.59728		223.78800		875.00000 
 43692.65567		 305.27265			43387.38302		68.70800		324.00000 
 43692.65567		 742.05839			42950.59728		223.78800		875.00000 
 43692.65567		 305.27265			43387.38302		68.70800		324.00000 
 43692.65567		 742.05839			42950.59728		223.78800		875.00000 
 43692.65567		 305.27265			43387.38302		68.70800		324.00000 
 43692.65567		 742.05839			42950.59728		223.78800		875.00000 
 43692.65567		 305.27265			43387.38302		68.70800		324.00000 
 43692.65567		 742.05839			42950.59728		223.78800		875.00000 
 43692.65567		 305.27265			43387.38302		68.70800		324.00000 
 43692.65567		 742.05839			42950.59728		223.78800		875.00000 
 43692.65567		 305.27265			43387.38302		68.70800		324.00000 
 43692.65567		 742.05839			42950.59728		223.78800		875.00000 
 43692.65567		 305.27265			43387.38302		68.70800		324.00000 
 43692.65567		 742.05839			42950.59728		223.78800		875.00000 
 43692.65567		 305.27265			43387.38302		68.70800		324.00000 
 43692.65567		 742.05839			42950.59728		223.78800		875.00000 
 43692.65567		 305.27265			43387.38302		68.70800		324.00000 
 43692.65567		 742.05839			42950.59728		223.78800		875.00000 
 43692.65567		 305.27265			43387.38302		68.70800		324.00000 
 43692.65567		 742.05839			42950.59728		223.78800		875.00000 
 43692.65567		 305.27265			43387.38302		68.70800		324.00000 
 43692.65567		 742.05839			42950.59728		223.78800		875.00000 
 43692.65567		 305.27265			43387.38302		68.70800		324.00000 
 43692.65567		 742.05839			42950.59728		223.78800		875.00000 
 43692.65567		 305.27265			43387.38302		68.70800		324.00000 
 43692.65567		 742.05839			42950.59728		223.78800		875.00000 
 43692.65567		 305.27265			43387.38302		68.70800		324.00000 
 43692.65567		 742.05839			42950.59728		223.78800		875.00000 
 43692.65567		 305.27265			43387.38302		68.70800		324.00000 
 43692.65567		 742.05839			42950.59728		223.78800		875.00000 
 43692.65567		 305.27265			43387.38302		68.70800		324.00000 
 43692.65567		 742.05839			42950.59728		223.78800		875.00000 
 43692.65567		 305.27265			43387.38302		68.70800		324.00000 
 43692.65567		 742.05839			42950.59728		223.78800		875.00000 
 43692.65567		 305.27265			43387.38302		68.70800		324.00000 
 43692.65567		 742.05839			42950.59728		223.78800		875.00000 
 43692.65567		 305.27265			43387.38302		68.70800		324.00000 
 43692.65567		 742.05839			42950.59728		223.78800		875.00000 
 43692.65567		 305.27265			43387.38302		68.70800		324.00000 
 43692.65567		 742.05839			42950.59728		223.78800		875.00000 
 43692.65567		 305.27265			43387.38302		68.70800		324.00000 
 43692.65567		 742.05839			42950.59728		223.78800		875.00000 
 43692.65567		 305.27265			43387.38302		68.70800		324.00000 
 43692.65567		 742.05839			42950.59728		223.78800		875.00000 
 43692.65567		 305.27265			43387.38302		68.70800		324.00000 
 43692.65567		 742.05839			42950.59728		223.78800		875.00000 
 43692.65567		 305.27265			43387.38302		68.70800		324.00000 
 43692.65567		 742.05839			42950.59728		223.78800		875.00000 
 43692.65567		 305.27265			43387.38302		68.70800		324.00000 
 43692.65567		 742.05839			42950.59728		223.78800		875.00000 
 43692.65567		 305.27265			43387.38302		68.70800		324.00000 
 43692.65567		 742.05839			42950.59728		223.78800		875.00000 
 43692.65567		 305.27265			43387.38302		68.70800		324.00000 
 43692.65567		 742.05839			42950.59728		223.78800		875.00000 
 43692.65567		 305.27265			43387.38302		68.70800		324.00000 
 43692.65567		 742.05839			42950.59728		223.78800		875.00000 
 43692.65567		 305.27265			43387.38302		68.70800		324.00000 
 43692.65567		 742.05839			42950.59728		223.78800		875.00000 
 43692.65567		 305.27265			43387.38302		68.70800		324.00000 
 43692.65567		 742.05839			42950.59728		223.78800		875.00000 
 43692.65567		 305.27265			43387.38302		68.70800		324.00000 
 43692.65567		 742.05839			42950.59728		223.78800		875.00000 
 43692.65567		 305.27265			43387.38302		68.70800		324.00000 
 43692.65567		 742.05839			42950.59728		223.78800		875.00000 
 43692.65567		 305.27265			43387.38302		68.70800		324.00000 
 43692.65567		 742.05839			42950.59728		223.78800		875.00000 
 43692.65567		 305.27265			43387.38302		68.70800		324.00000 
 43692.65567		 742.05839			42950.59728		223.78800		875.00000 
 43692.65567		 305.27265			43387.38302		68.70800		324.00000 
 43692.65567		 742.05839			42950.59728		223.78800		875.00000 
 43692.65567		 305.27265			43387.38302		68.70800		324.00000 
 43692.65567		 742.05839			42950.59728		223.78800		875.00000 
 43692.65567		 305.27265			43387.38302		68.70800		324.00000 
 43692.65567		 742.05839			42950.59728		223.78800		875.00000 
 43692.65567		 305.27265			43387.38302		68.70800		324.00000 
 43692.65567		 742.05839			42950.59728		223.78800		875.00000 
 43692.65567		 305.27265			43387.38302		68.70800		324.00000 
 43692.65567		 742.05839			42950.59728		223.78800		875.00000 
 43692.65567		 305.27265			43387.38302		68.70800		324.00000 
 43692.65567		 742.05839			42950.59728		223.78800		875.00000 
 43692.65567		 305.27265			43387.38302		68.70800		324.00000 
 43692.65567		 742.05839			42950.59728		223.78800		875.00000 
 43692.65567		 305.27265			43387.38302		68.70800		324.00000 
 43692.65567		 742.05839			42950.59728		223.78800		875.00000 
 43692.65567		 305.27265			43387.38302		68.70800		324.00000 
 43692.65567		 742.05839			42950.59728		223.78800		875.00000 
 43692.65567		 305.27265			43387.38302		68.70800		324.00000 
 43692.65567		 742.05839			42950.59728		223.78800		875.00000 
 43692.65567		 305.27265			43387.38302		68.70800		324.00000 
 43692.65567		 742.05839			42950.59728		223.78800		875.00000 
 43692.65567		 305.27265			43387.38302		68.70800		324.00000 
 43692.65567		 742.05839			42950.59728		223.78800		875.00000 
 43692.65567		 305.27265			43387.38302		68.70800		324.00000 
 43692.65567		 742.05839			42950.59728		223.78800		875.00000 
 43692.65567		 305.27265			43387.38302		68.70800		324.00000 
 43692.65567		 742.05839			42950.59728		223.78800		875.00000 
 43692.65567		 305.27265			43387.38302		68.70800		324.00000 
 43692.65567		 742.05839			42950.59728		223.78800		875.00000 
 43692.65567		 305.27265			43387.38302		68.70800		324.00000 
 43692.65567		 742.05839			42950.59728		223.78800		875.00000 
 43692.65567		 305.27265			43387.38302		68.70800		324.00000 
 43692.65567		 742.05839			42950.59728		223.78800		875.00000 
 43692.65567		 305.27265			43387.38302		68.70800		324.00000 
 43692.65567		 742.05839			42950.59728		223.78800		875.00000 
 43692.65567		 305.27265			43387.38302		68.70800		324.00000 
 43692.65567		 742.05839			42950.59728		223.78800		875.00000 
 43692.65567		 305.27265			43387.38302		68.70800		324.00000 
 43692.65567		 742.05839			42950.59728		223.78800		875.00000 
 43692.65567		 305.27265			43387.38302		68.70800		324.00000 
 43692.65567		 742.05839			42950.59728		223.78800		875.00000 
 43692.65567		 305.27265			43387.38302		68.70800		324.00000 
 43692.65567		 742.05839			42950.59728		223.78800		875.00000 
 43692.65567		 305.27265			43387.38302		68.70800		324.00000 
 43692.65567		 742.05839			42950.59728		223.78800		875.00000 
 43692.65567		 305.27265			43387.38302		68.70800		324.00000 
 43692.65567		 742.05839			42950.59728		223.78800		875.00000 
 43692.65567		 305.27265			43387.38302		68.70800		324.00000 
 43692.65567		 742.05839			42950.59728		223.78800		875.00000 
 43692.65567		 305.27265			43387.38302		68.70800		324.00000 
 43692.65567		 742.05839			42950.59728		223.78800		875.00000 
 43692.65567		 305.27265			43387.38302		68.70800		324.00000 
 43692.65567		 742.05839			42950.59728		223.78800		875.00000 
 43692.65567		 305.27265			43387.38302		68.70800		324.00000 
 43692.65567		 742.05839			42950.59728		223.78800		875.00000 
 43692.65567		 305.27265			43387.38302		68.70800		324.00000 
 43692.65567		 742.05839			42950.59728		223.78800		875.00000 
 43692.65567		 305.27265			43387.38302		68.70800		324.00000 
 43692.65567		 742.05839			42950.59728		223.78800		875.00000 
 43692.65567		 305.27265			43387.38302		68.70800		324.00000 
 43692.65567		 742.05839			42950.59728		223.78800		875.00000 
 43692.65567		 305.27265			43387.38302		68.70800		324.00000 
 43692.65567		 742.05839			42950.59728		223.78800		875.00000 
 43692.65567		 305.27265			43387.38302		68.70800		324.00000 
 43692.65567		 742.05839			42950.59728		223.78800		875.00000 
 43692.65567		 305.27265			43387.38302		68.70800		324.00000 
 43692.65567		 742.05839			42950.59728		223.78800		875.00000 
 43692.65567		 305.27265			43387.38302		68.70800		324.00000 
 43692.65567		 742.05839			42950.59728		223.78800		875.00000 
 43692.65567		 305.27265			43387.38302		68.70800		324.00000 
 43692.65567		 742.05839			42950.59728		223.78800		875.00000 
 43692.65567		 305.27265			43387.38302		68.70800		324.00000 
 43692.65567		 742.05839			42950.59728		223.78800		875.00000 
 43692.65567		 305.27265			43387.38302		68.70800		324.00000 
 43692.65567		 742.05839			42950.59728		223.78800		875.00000 
 43692.65567		 305.27265			43387.38302		68.70800		324.00000 
 43692.65567		 742.05839			42950.59728		223.78800		875.00000 
 43692.65567		 305.27265			43387.38302		68.70800		324.00000 
 43692.65567		 742.05839			42950.59728		223.78800		875.00000 
 43692.65567		 305.27265			43387.38302		68.70800		324.00000 
 43692.65567		 742.05839			42950.59728		223.18800		875.00000 
 43692.65567		 305.27265			43387.38302		68.70800		324.00000 
 43692.65567		 742.05839			42950.59728		223.18800		875.00000 
 43692.65567		 305.27265			43387.38302		68.70800		324.00000 
 43692.65567		 742.05839			42950.59728		223.18800		875.00000 
 43692.65567		 305.27265			43387.38302		68.70800		324.00000 
 43692.65567		 742.05839			42950.59728		223.18800		875.00000 
 43692.65567		 305.27265			43387.38302		68.70800		324.00000 
 43692.65567		 742.05839			42950.59728		223.18800		875.00000 
 43692.65567		 305.27265			43387.38302		68.70800		324.00000 
 43692.65567		 742.05839			42950.59728		223.18800		875.00000 
 43692.65567		 305.27265			43387.38302		68.70800		324.00000 
 43692.65567		 742.05839			42950.59728		223.18800		875.00000 
 43692.65567		 305.27265			43387.38302		68.70800		324.00000 
 43692.65567		 742.05839			42950.59728		223.18800		875.00000 
 43692.65567		 305.27265			43387.38302		68.70800		324.00000 
 43692.65567		 742.05839			42950.59728		223.18800		875.00000 
 43692.65567		 305.27265			43387.38302		68.70800		324.00000 
 43692.65567		 742.05839			42950.59728		223.18800		875.00000 
 43692.65567		 305.27265			43387.38302		68.70800		324.00000 
 43692.65567		 742.05839			42950.59728		223.18800		875.00000 
 43692.65567		 305.27265			43387.38302		68.70800		324.00000 
 43692.65567		 742.05839			42950.59728		223.18800		875.00000 
 43692.65567		 305.27265			43387.38302		68.70800		324.00000 
 43692.65567		 742.05839			42950.59728		223.18800		875.00000 
 43692.65567		 305.27265			43387.38302		68.70800		324.00000 
 43692.65567		 742.05839			42950.59728		223.18800		875.00000 
 43692.65567		 305.27265			43387.38302		68.70800		324.00000 
 43692.65567		 742.05839			42950.59728		223.18800		875.00000 
 43692.65567		 305.27265			43387.38302		68.70800		324.00000 
 43692.65567		 742.05839			42950.59728		223.18800		875.00000 
 43692.65567		 305.27265			43387.38302		68.70800		324.00000 
 43692.65567		 742.05839			42950.59728		223.18800		875.00000 
 43692.65567		 305.27265			43387.38302		68.70800		324.00000 
 43692.65567		 742.05839			42950.59728		223.18800		875.00000 
 43692.65567		 305.27265			43387.38302		68.70800		324.00000 
 43692.65567		 742.05839			42950.59728		223.18800		875.00000 
 43692.65567		 305.27265			43387.38302		68.70800		324.00000 
 43692.65567		 742.05839			42950.59728		223.18800		875.00000 
 43692.65567		 305.27265			43387.38302		68.70800		324.00000 
 43692.65567		 742.05839			42950.59728		223.18800		875.00000 
 43692.65567		 305.27265			43387.38302		68.70800		324.00000 
 43692.65567		 742.05839			42950.59728		223.18800		875.00000 
 43692.65567		 305.27265			43387.38302		68.70800		324.00000 
 43692.65567		 742.05839			42950.59728		223.18800		875.00000 
 43692.65567		 305.27265			43387.38302		68.70800		324.00000 
 43692.65567		 742.05839			42950.59728		223.18800		875.00000 
 43692.65567		 305.27265			43387.38302		68.70800		324.00000 
 43692.65567		 742.05839			42950.59728		223.18800		875.00000 
 43692.65567		 305.27265			43387.38302		68.70800		324.00000 
 43692.65567		 742.05839			42950.59728		223.18800		875.00000 
 43692.65567		 305.27265			43387.38302		68.70800		324.00000 
 43692.65567		 742.05839			42950.59728		223.18800		875.00000 
 43692.65567		 305.27265			43387.38302		68.70800		324.00000 
 43692.65567		 742.05839			42950.59728		223.18800		875.00000 
 43692.65567		 305.27265			43387.38302		68.70800		324.00000 
 43692.65567		 742.05839			42950.59728		223.18800		875.00000 
 43692.65567		 305.27265			43387.38302		68.70800		324.00000 
 43692.65567		 742.05839			42950.59728		223.18800		875.00000 
 43692.65567		 305.27265			43387.38302		68.70800		324.00000 
 43692.65567		 742.05839			42950.59728		223.18800		875.00000 
 43692.65567		 305.27265			43387.38302		68.70800		324.00000 
 43692.65567		 742.05839			42950.59728		223.18800		875.00000 
 43692.65567		 305.27265			43387.38302		68.70800		324.00000 
 43692.65567		 742.05839			42950.59728		223.18800		875.00000 
 43692.65567		 305.27265			43387.38302		68.70800		324.00000 
 43692.65567		 742.05839			42950.59728		223.18800		875.00000 
 43692.65567		 305.27265			43387.38302		68.70800		324.00000 
 43692.65567		 742.05839			42950.59728		223.18800		875.00000 
 43692.65567		 305.27265			43387.38302		68.70800		324.00000 
 43692.65567		 742.05839			42950.59728		223.18800		875.00000 
 43692.65567		 305.27265			43387.38302		68.70800		324.00000 
 43692.65567		 742.05839			42950.59728		223.18800		875.00000 
 43692.65567		 305.27265			43387.38302		68.70800		324.00000 
 43692.65567		 742.05839			42950.59728		223.18800		875.00000 
 43692.65567		 305.27265			43387.38302		68.70800		324.00000 
 43692.65567		 742.05839			42950.59728		223.18800		875.00000 
 43692.65567		 305.27265			43387.38302		68.70800		324.00000 
 43692.65567		 742.05839			42950.59728		223.18800		875.00000 
 43692.65567		 305.27265			43387.38302		68.70800		324.00000 
 43692.65567		 742.05839			42950.59728		223.18800		875.00000 
 43692.65567		 305.27265			43387.38302		68.70800		324.00000 
 43692.65567		 742.05839			42950.59728		223.18800		875.00000 
 43692.65567		 305.27265			43387.38302		68.70800		324.00000 
 43692.65567		 742.05839			42950.59728		223.18800		875.00000 
 43692.65567		 305.27265			43387.38302		68.70800		324.00000 
 43692.65567		 742.05839			42950.59728		223.18800		875.00000 
 43692.65567		 305.27265			43387.38302		68.70800		324.00000 
 43692.65567		 742.05839			42950.59728		223.18800		875.00000 
 43692.65567		 305.27265			43387.38302		68.70800		324.00000 
 43692.65567		 742.05839			42950.59728		223.18800		875.00000 
 43692.65567		 305.27265			43387.38302		68.70800		324.00000 
 43692.65567		 742.05839			42950.59728		223.18800		875.00000 
 43692.65567		 305.27265			43387.38302		68.70800		324.00000 
 43692.65567		 742.05839			42950.59728		223.18800		875.00000 
 43692.65567		 305.27265			43387.38302		68.70800		324.00000 
 43692.65567		 742.05839			42950.59728		223.18800		875.00000 
 43692.65567		 305.27265			43387.38302		68.70800		324.00000 
 43692.65567		 742.05839			42950.59728		223.18800		875.00000 
 43692.65567		 305.27265			43387.38302		68.70800		324.00000 
 43692.65567		 742.05839			42950.59728		223.18800		875.00000 
 43692.65567		 305.27265			43387.38302		68.70800		324.00000 
 43692.65567		 742.05839			42950.59728		223.18800		875.00000 
 43692.65567		 305.27265			43387.38302		68.70800		324.00000 
 43692.65567		 742.05839			42950.59728		223.18800		875.00000 
 43692.65567		 305.27265			43387.38302		68.70800		324.00000 
 43692.65567		 742.05839			42950.59728		223.18800		875.00000 
 43692.65567		 305.27265			43387.38302		68.70800		324.00000 
 43692.65567		 742.05839			42950.59728		223.18800		875.00000 
 43692.65567		 305.27265			43387.38302		68.70800		324.00000 
 43692.65567		 742.05839			42950.59728		223.18800		875.00000 
 43692.65567		 305.27265			43387.38302		68.70800		324.00000 
 43692.65567		 742.05839			42950.59728		223.18800		875.00000 
 43692.65567		 305.27265			43387.38302		68.70800		324.00000 
 43692.65567		 742.05839			42950.59728		223.18800		875.00000 
 43692.65567		 305.27265			43387.38302		68.70800		324.00000 
 43692.65567		 742.05839			42950.59728		223.18800		875.00000 
 43692.65567		 305.27265			43387.38302		68.70800		324.00000 
 43692.65567		 742.05839			42950.59728		223.18800		875.00000 
 43692.65567		 305.27265			43387.38302		68.70800		324.00000 
 43692.65567		 742.05839			42950.59728		223.18800		875.00000 
 43692.65567		 305.27265			43387.38302		68.70800		324.00000 
 43692.65567		 742.05839			42950.59728		223.18800		875.00000 
 43692.65567		 305.27265			43387.38302		68.70800		324.00000 
 43692.65567		 742.05839			42950.59728		223.18800		875.00000 
 43692.65567		 305.27265			43387.38302		68.70800		324.00000 
 43692.65567		 742.05839			42950.59728		223.18800		875.00000 
 43692.65567		 305.27265			43387.38302		68.70800		324.00000 
 43692.65567		 742.05839			42950.59728		223.18800		875.00000 
 43692.65567		 305.27265			43387.38302		68.70800		324.00000 
 43692.65567		 742.05839			42950.59728		223.18800		875.00000 
 43692.65567		 305.27265			43387.38302		68.70800		324.00000 
 43692.65567		 742.05839			42950.59728		224.38800		875.00000 
 43692.65567		 305.27265			43387.38302		68.70800		324.00000 
 43692.65567		 742.05839			42950.59728		224.38800		875.00000 
 43692.65567		 305.27265			43387.38302		68.70800		324.00000 
 43692.65567		 742.05839			42950.59728		224.38800		875.00000 
 43692.65567		 305.27265			43387.38302		68.70800		324.00000 
 43692.65567		 742.05839			42950.59728		224.38800		875.00000 
 43692.65567		 305.27265			43387.38302		68.70800		324.00000 
 43692.65567		 742.05839			42950.59728		224.38800		875.00000 
 43692.65567		 305.27265			43387.38302		68.70800		324.00000 
 43692.65567		 742.05839			42950.59728		224.38800		875.00000 
 43692.65567		 305.27265			43387.38302		68.70800		324.00000 
 43692.65567		 742.05839			42950.59728		224.38800		875.00000 
 43692.65567		 305.27265			43387.38302		68.70800		324.00000 
 43692.65567		 742.05839			42950.59728		224.38800		875.00000 
 43692.65567		 305.27265			43387.38302		68.70800		324.00000 
 43692.65567		 742.05839			42950.59728		224.38800		875.00000 
 43692.65567		 305.27265			43387.38302		68.70800		324.00000 
 43692.65567		 742.05839			42950.59728		224.38800		875.00000 
 43692.65567		 305.27265			43387.38302		68.70800		324.00000 
 43692.65567		 742.05839			42950.59728		224.38800		875.00000 
 43692.65567		 305.27265			43387.38302		68.70800		324.00000 
 43692.65567		 742.05839			42950.59728		224.38800		875.00000 
 43692.65567		 305.27265			43387.38302		68.70800		324.00000 
 43692.65567		 742.05839			42950.59728		224.38800		875.00000 
 43692.65567		 305.27265			43387.38302		68.70800		324.00000 
 43692.65567		 742.05839			42950.59728		224.38800		875.00000 
 43692.65567		 305.27265			43387.38302		68.70800		324.00000 
 43692.65567		 742.05839			42950.59728		224.38800		875.00000 
 43692.65567		 305.27265			43387.38302		68.70800		324.00000 
 43692.65567		 742.05839			42950.59728		224.38800		875.00000 
 43692.65567		 305.27265			43387.38302		68.70800		324.00000 
 43692.65567		 742.05839			42950.59728		224.38800		875.00000 
 43692.65567		 305.27265			43387.38302		68.70800		324.00000 
 43692.65567		 742.05839			42950.59728		224.38800		875.00000 
 43692.65567		 305.27265			43387.38302		68.70800		324.00000 
 43692.65567		 742.05839			42950.59728		224.38800		875.00000 
 43692.65567		 305.27265			43387.38302		68.70800		324.00000 
 43692.65567		 742.05839			42950.59728		224.38800		875.00000 
 43692.65567		 305.27265			43387.38302		68.70800		324.00000 
 43692.65567		 742.05839			42950.59728		224.38800		875.00000 
 43692.65567		 305.27265			43387.38302		68.70800		324.00000 
 43692.65567		 742.05839			42950.59728		224.38800		875.00000 
 43692.65567		 305.27265			43387.38302		68.70800		324.00000 
 43692.65567		 742.05839			42950.59728		224.38800		875.00000 
 43692.65567		 305.27265			43387.38302		68.70800		324.00000 
 43692.65567		 742.05839			42950.59728		224.38800		875.00000 
 43692.65567		 305.27265			43387.38302		68.70800		324.00000 
 43692.65567		 742.05839			42950.59728		224.38800		875.00000 
 43692.65567		 305.27265			43387.38302		68.70800		324.00000 
 43692.65567		 742.05839			42950.59728		224.38800		875.00000 
 43692.65567		 305.27265			43387.38302		68.70800		324.00000 
 43692.65567		 742.05839			42950.59728		224.38800		875.00000 
 43692.65567		 305.27265			43387.38302		68.70800		324.00000 
 43692.65567		 742.05839			42950.59728		224.38800		875.00000 
 43692.65567		 305.27265			43387.38302		68.70800		324.00000 
 43692.65567		 742.05839			42950.59728		224.38800		875.00000 
 43692.65567		 305.27265			43387.38302		68.70800		324.00000 
 43692.65567		 742.05839			42950.59728		224.38800		875.00000 
 43692.65567		 305.27265			43387.38302		68.70800		324.00000 
 43692.65567		 742.05839			42950.59728		224.38800		875.00000 
 43692.65567		 305.27265			43387.38302		68.70800		324.00000 
 43692.65567		 742.05839			42950.59728		224.38800		875.00000 
 43692.65567		 305.27265			43387.38302		68.70800		324.00000 
 43692.65567		 742.05839			42950.59728		224.38800		875.00000 
 43692.65567		 305.27265			43387.38302		68.70800		324.00000 
 43692.65567		 742.05839			42950.59728		224.38800		875.00000 
 43692.65567		 305.27265			43387.38302		68.70800		324.00000 
 43692.65567		 742.05839			42950.59728		224.38800		875.00000 
 43692.65567		 305.27265			43387.38302		68.70800		324.00000 
 43692.65567		 742.05839			42950.59728		224.38800		875.00000 
 43692.65567		 305.27265			43387.38302		68.70800		324.00000 
 43692.65567		 742.05839			42950.59728		224.38800		875.00000 
 43692.65567		 305.27265			43387.38302		68.70800		324.00000 
 43692.65567		 742.05839			42950.59728		224.38800		875.00000 
 43692.65567		 305.27265			43387.38302		68.70800		324.00000 
 43692.65567		 742.05839			42950.59728		224.38800		875.00000 
 43692.65567		 305.27265			43387.38302		68.70800		324.00000 
 43692.65567		 742.05839			42950.59728		224.38800		875.00000 
 43692.65567		 305.27265			43387.38302		68.70800		324.00000 
 43692.65567		 742.05839			42950.59728		224.38800		875.00000 
 43692.65567		 305.27265			43387.38302		68.70800		324.00000 
 43692.65567		 742.05839			42950.59728		224.38800		875.00000 
 43692.65567		 305.27265			43387.38302		68.70800		324.00000 
 43692.65567		 742.05839			42950.59728		224.38800		875.00000 
 43692.65567		 305.27265			43387.38302		68.70800		324.00000 
 43692.65567		 742.05839			42950.59728		224.38800		875.00000 
 43692.65567		 305.27265			43387.38302		68.70800		324.00000 
 43692.65567		 742.05839			42950.59728		224.38800		875.00000 
 43692.65567		 305.27265			43387.38302		68.70800		324.00000 
 43692.65567		 742.05839			42950.59728		224.38800		875.00000 
 43692.65567		 305.27265			43387.38302		68.70800		324.00000 
 43692.65567		 742.05839			42950.59728		224.38800		875.00000 
 43692.65567		 305.27265			43387.38302		68.70800		324.00000 
 43692.65567		 742.05839			42950.59728		224.38800		875.00000 
 43692.65567		 305.27265			43387.38302		68.70800		324.00000 
 43692.65567		 742.05839			42950.59728		224.38800		875.00000 
 43692.65567		 305.27265			43387.38302		68.70800		324.00000 
 43692.65567		 742.05839			42950.59728		224.38800		875.00000 
 43692.65567		 305.27265			43387.38302		68.70800		324.00000 
 43692.65567		 742.05839			42950.59728		224.38800		875.00000 
 43692.65567		 305.27265			43387.38302		68.70800		324.00000 
 43692.65567		 742.05839			42950.59728		224.38800		875.00000 
 43692.65567		 305.27265			43387.38302		68.70800		324.00000 
 43692.65567		 742.05839			42950.59728		224.38800		875.00000 
 43692.65567		 305.27265			43387.38302		68.70800		324.00000 
 43692.65567		 742.05839			42950.59728		224.38800		875.00000 
 43692.65567		 305.27265			43387.38302		68.70800		324.00000 
 43692.65567		 742.05839			42950.59728		224.38800		875.00000 
 43692.65567		 305.27265			43387.38302		68.70800		324.00000 
 43692.65567		 742.05839			42950.59728		224.38800		875.00000 
 43692.65567		 305.27265			43387.38302		68.70800		324.00000 
 43692.65567		 742.05839			42950.59728		224.38800		875.00000 
 43692.65567		 305.27265			43387.38302		68.70800		324.00000 
 43692.65567		 742.05839			42950.59728		224.38800		875.00000 
 43692.65567		 305.27265			43387.38302		68.70800		324.00000 
 43692.65567		 742.05839			42950.59728		224.38800		875.00000 
 43692.65567		 305.27265			43387.38302		68.70800		324.00000 
 43692.65567		 742.05839			42950.59728		224.38800		875.00000 
 43692.65567		 305.27265			43387.38302		68.70800		324.00000 
 43692.65567		 742.05839			42950.59728		224.38800		875.00000 
 43692.65567		 305.27265			43387.38302		68.70800		324.00000 
 43692.65567		 742.05839			42950.59728		224.38800		875.00000 
 43692.65567		 305.27265			43387.38302		68.70800		324.00000 
 43692.65567		 742.05839			42950.59728		224.38800		875.00000 
 43692.65567		 305.27265			43387.38302		68.70800		324.00000 
 43692.65567		 742.05839			42950.59728		224.38800		875.00000 
 43692.65567		 305.27265			43387.38302		68.70800		324.00000 
 43692.65567		 742.05839			42950.59728		224.38800		875.00000 
 43692.65567		 305.27265			43387.38302		68.70800		324.00000 
 43692.65567		 742.05839			42950.59728		224.38800		875.00000 
 43692.65567		 305.27265			43387.38302		68.70800		324.00000 
 43692.65567		 742.05839			42950.59728		224.38800		875.00000 
 43692.65567		 305.27265			43387.38302		68.70800		324.00000 
 43692.65567		 742.05839			42950.59728		224.38800		875.00000 
 43692.65567		 305.27265			43387.38302		68.70800		324.00000 
 43692.65567		 742.05839			42950.59728		224.38800		875.00000 
 43692.65567		 305.27265			43387.38302		68.70800		324.00000 
 43692.65567		 742.05839			42950.59728		224.38800		875.00000 
 43692.65567		 305.27265			43387.38302		68.70800		324.00000 
 43692.65567		 742.05839			42950.59728		224.38800		875.00000 
 43692.65567		 305.27265			43387.38302		68.70800		324.00000 
 43692.65567		 742.05839			42950.59728		224.38800		875.00000 
 43692.65567		 305.27265			43387.38302		68.70800		324.00000 
 43692.65567		 742.05839			42950.59728		224.38800		875.00000 
 43692.65567		 305.27265			43387.38302		68.70800		324.00000 
 43692.65567		 742.05839			42950.59728		224.38800		875.00000 
 43692.65567		 305.27265			43387.38302		68.70800		324.00000 
 43692.65567		 742.05839			42950.59728		224.38800		875.00000 
 43692.65567		 305.27265			43387.38302		68.70800		324.00000 
 43692.65567		 742.05839			42950.59728		224.38800		875.00000 
 43692.65567		 305.27265			43387.38302		68.70800		324.00000 
 43692.65567		 742.05839			42950.59728		224.38800		875.00000 
 43692.65567		 305.27265			43387.38302		68.70800		324.00000 
 43692.65567		 742.05839			42950.59728		224.38800		875.00000 
 43692.65567		 305.27265			43387.38302		68.70800		324.00000 
 43692.65567		 742.05839			42950.59728		224.38800		875.00000 
 43692.65567		 305.27265			43387.38302		68.70800		324.00000 
 43692.65567		 742.05839			42950.59728		224.38800		875.00000 
 43692.65567		 305.27265			43387.38302		68.70800		324.00000 
 43692.65567		 742.05839			42950.59728		224.38800		875.00000 
 43692.65567		 305.27265			43387.38302		68.70800		324.00000 
 43692.65567		 742.05839			42950.59728		224.38800		875.00000 
 43692.65567		 305.27265			43387.38302		68.70800		324.00000 
 43692.65567		 742.05839			42950.59728		224.38800		875.00000 
 43692.65567		 305.27265			43387.38302		68.70800		324.00000 
 43692.65567		 742.05839			42950.59728		224.38800		875.00000 
 43692.65567		 305.27265			43387.38302		68.70800		324.00000 
 43692.65567		 742.05839			42950.59728		224.38800		875.00000 
 43692.65567		 305.27265			43387.38302		68.70800		324.00000 
 43692.65567		 742.05839			42950.59728		224.38800		875.00000 
 43692.65567		 305.27265			43387.38302		68.70800		324.00000 
 43692.65567		 742.05839			42950.59728		224.38800		875.00000 
 43692.65567		 305.27265			43387.38302		68.70800		324.00000 
 43692.65567		 742.05839			42950.59728		224.38800		875.00000 
 43692.65567		 305.27265			43387.38302		68.70800		324.00000 
 43692.65567		 742.05839			42950.59728		224.38800		875.00000 
 43692.65567		 305.27265			43387.38302		68.70800		324.00000 
 43692.65567		 742.05839			42950.59728		224.38800		875.00000 
 43692.65567		 305.27265			43387.38302		68.70800		324.00000 
 43692.65567		 742.05839			42950.59728		224.38800		875.00000 
 43692.65567		 305.27265			43387.38302		68.70800		324.00000 
 43692.65567		 742.05839			42950.59728		224.38800		875.00000 
 43692.65567		 305.27265			43387.38302		68.70800		324.00000 
 43692.65567		 742.05839			42950.59728		224.38800		875.00000 
 43692.65567		 305.27265			43387.38302		68.70800		324.00000 
 43692.65567		 742.05839			42950.59728		224.38800		875.00000 
 43692.65567		 305.27265			43387.38302		68.70800		324.00000 
 43692.65567		 742.05839			42950.59728		224.38800		875.00000 
 43692.65567		 305.27265			43387.38302		68.70800		324.00000 
 43692.65567		 742.05839			42950.59728		224.38800		875.00000 
 43692.65567		 305.27265			43387.38302		68.70800		324.00000 
 43692.65567		 742.05839			42950.59728		224.38800		875.00000 
 43692.65567		 305.27265			43387.38302		68.70800		324.00000 
 43692.65567		 742.05839			42950.59728		224.38800		875.00000 
 43692.65567		 305.27265			43387.38302		68.70800		324.00000 
 43692.65567		 742.05839			42950.59728		224.38800		875.00000 
 43692.65567		 305.27265			43387.38302		68.70800		324.00000 
 43692.65567		 742.05839			42950.59728		224.38800		875.00000 
 43692.65567		 305.27265			43387.38302		68.70800		324.00000 
 43692.65567		 742.05839			42950.59728		224.38800		875.00000 
 43692.65567		 305.27265			43387.38302		68.70800		324.00000 
 43692.65567		 742.05839			42950.59728		224.38800		875.00000 
 43692.65567		 305.27265			43387.38302		68.70800		324.00000 
 43692.65567		 742.05839			42950.59728		224.38800		875.00000 
 43692.65567		 305.27265			43387.38302		68.70800		324.00000 
 43692.65567		 742.05839			42950.59728		224.38800		875.00000 
 43692.65567		 305.27265			43387.38302		68.70800		324.00000 
 43692.65567		 742.05839			42950.59728		224.38800		875.00000 
 43692.65567		 305.27265			43387.38302		68.70800		324.00000 
 43692.65567		 742.05839			42950.59728		224.38800		875.00000 
 43692.65567		 305.27265			43387.38302		68.70800		324.00000 
 43692.65567		 742.05839			42950.59728		224.38800		875.00000 
 43692.65567		 305.27265			43387.38302		68.70800		324.00000 
 43692.65567		 742.05839			42950.59728		224.38800		875.00000 
 43692.65567		 305.27265			43387.38302		68.70800		324.00000 
 43692.65567		 742.05839			42950.59728		224.38800		875.00000 
 43692.65567		 305.27265			43387.38302		68.70800		324.00000 
 43692.65567		 742.05839			42950.59728		224.38800		875.00000 
 43692.65567		 305.27265			43387.38302		68.70800		324.00000 
 43692.65567		 742.05839			42950.59728		224.38800		875.00000 
 43692.65567		 305.27265			43387.38302		68.70800		324.00000 
 43692.65567		 742.05839			42950.59728		224.38800		875.00000 
 43692.65567		 305.27265			43387.38302		68.70800		324.00000 
 43692.65567		 742.05839			42950.59728		224.38800		875.00000 
 43692.65567		 305.27265			43387.38302		68.70800		324.00000 
 43692.65567		 742.05839			42950.59728		224.38800		875.00000 
 43692.65567		 305.27265			43387.38302		68.70800		324.00000 
 43692.65567		 742.05839			42950.59728		224.38800		875.00000 
 43692.65567		 305.27265			43387.38302		68.70800		324.00000 
 43692.65567		 742.05839			42950.59728		224.38800		875.00000 
 43692.65567		 305.27265			43387.38302		68.70800		324.00000 
 43692.65567		 742.05839			42950.59728		224.38800		875.00000 
 43692.65567		 305.27265			43387.38302		68.70800		324.00000 
 43692.65567		 742.05839			42950.59728		224.38800		875.00000 
 43692.65567		 305.27265			43387.38302		68.70800		324.00000 
 43692.65567		 742.05839			42950.59728		224.38800		875.00000 
 43692.65567		 305.27265			43387.38302		68.70800		324.00000 
 43692.65567		 742.05839			42950.59728		224.38800		875.00000 
 43692.65567		 305.27265			43387.38302		68.70800		324.00000 
 43692.65567		 742.05839			42950.59728		224.38800		875.00000 
 43692.65567		 305.27265			43387.38302		68.70800		324.00000 
 43692.65567		 742.05839			42950.59728		224.38800		875.00000 
 43692.65567		 305.27265			43387.38302		68.70800		324.00000 
 43692.65567		 742.05839			42950.59728		224.38800		875.00000 
 43692.65567		 305.27265			43387.38302		68.70800		324.00000 
 43692.65567		 742.05839			42950.59728		224.38800		875.00000 
 43692.65567		 305.27265			43387.38302		68.70800		324.00000 
 43692.65567		 742.05839			42950.59728		224.38800		875.00000 
 43692.65567		 305.27265			43387.38302		68.70800		324.00000 
 43692.65567		 742.05839			42950.59728		224.38800		875.00000 
 43692.65567		 305.27265			43387.38302		68.70800		324.00000 
 43692.65567		 742.05839			42950.59728		224.38800		875.00000 
 43692.65567		 305.27265			43387.38302		68.70800		324.00000 
 43692.65567		 742.05839			42950.59728		224.38800		875.00000 
 43692.65567		 305.27265			43387.38302		68.70800		324.00000 
 43692.65567		 742.05839			42950.59728		224.38800		875.00000 
 43692.65567		 305.27265			43387.38302		68.70800		324.00000 
 43692.65567		 742.05839			42950.59728		224.38800		875.00000 
 43692.65567		 305.27265			43387.38302		68.70800		324.00000 
 43692.65567		 742.05839			42950.59728		224.38800		875.00000 
 43692.65567		 305.27265			43387.38302		68.70800		324.00000 
 43692.65567		 742.05839			42950.59728		224.38800		875.00000 
 43692.65567		 305.27265			43387.38302		68.70800		324.00000 
 43692.65567		 742.05839			42950.59728		224.38800		875.00000 
 43692.65567		 305.27265			43387.38302		68.70800		324.00000 
 43692.65567		 742.05839			42950.59728		223.78800		875.00000 
 43692.65567		 305.27265			43387.38302		68.70800		324.00000 
 43692.65567		 742.05839			42950.59728		223.78800		875.00000 
 43692.65567		 305.27265			43387.38302		68.70800		324.00000 
 43692.65567		 742.05839			42950.59728		223.78800		875.00000 
 43692.65567		 305.27265			43387.38302		68.70800		324.00000 
 43692.65567		 742.05839			42950.59728		223.78800		875.00000 
 43692.65567		 305.27265			43387.38302		68.70800		324.00000 
 43692.65567		 742.05839			42950.59728		223.78800		875.00000 
 43692.65567		 305.27265			43387.38302		68.70800		324.00000 
 43692.65567		 742.05839			42950.59728		223.78800		875.00000 
 43692.65567		 305.27265			43387.38302		68.70800		324.00000 
 43692.65567		 742.05839			42950.59728		223.78800		875.00000 
 43692.65567		 305.27265			43387.38302		68.70800		324.00000 
 43692.65567		 742.05839			42950.59728		223.78800		875.00000 
 43692.65567		 305.27265			43387.38302		68.70800		324.00000 
 43692.65567		 742.05839			42950.59728		223.78800		875.00000 
 43692.65567		 305.27265			43387.38302		68.70800		324.00000 
 43692.65567		 742.05839			42950.59728		223.78800		875.00000 
 43692.65567		 305.27265			43387.38302		68.70800		324.00000 
 43692.65567		 742.05839			42950.59728		223.78800		875.00000 
 43692.65567		 305.27265			43387.38302		68.70800		324.00000 
 43692.65567		 742.05839			42950.59728		223.78800		875.00000 
 43692.65567		 305.27265			43387.38302		68.70800		324.00000 
 43692.65567		 742.05839			42950.59728		223.78800		875.00000 
 43692.65567		 305.27265			43387.38302		68.70800		324.00000 
 43692.65567		 742.05839			42950.59728		223.78800		875.00000 
 43692.65567		 305.27265			43387.38302		68.70800		324.00000 
 43692.65567		 742.05839			42950.59728		223.78800		875.00000 
 43692.65567		 305.27265			43387.38302		68.70800		324.00000 
 43692.65567		 742.05839			42950.59728		223.78800		875.00000 
 43692.65567		 305.27265			43387.38302		68.70800		324.00000 
 43692.65567		 742.05839			42950.59728		223.78800		875.00000 
 43692.65567		 305.27265			43387.38302		68.70800		324.00000 
 43692.65567		 742.05839			42950.59728		223.78800		875.00000 
 43692.65567		 305.27265			43387.38302		68.70800		324.00000 
 43692.65567		 742.05839			42950.59728		223.78800		875.00000 
 43692.65567		 305.27265			43387.38302		68.70800		324.00000 
 43692.65567		 742.05839			42950.59728		223.78800		875.00000 
 43692.65567		 305.27265			43387.38302		68.70800		324.00000 
 43692.65567		 742.05839			42950.59728		223.78800		875.00000 
 43692.65567		 305.27265			43387.38302		68.70800		324.00000 
 43692.65567		 742.05839			42950.59728		223.78800		875.00000 
 43692.65567		 305.27265			43387.38302		68.70800		324.00000 
 43692.65567		 742.05839			42950.59728		223.78800		875.00000 
 43692.65567		 305.27265			43387.38302		68.70800		324.00000 
 43692.65567		 742.05839			42950.59728		223.78800		875.00000 
 43692.65567		 305.27265			43387.38302		68.70800		324.00000 
 43692.65567		 742.05839			42950.59728		223.78800		875.00000 
 43692.65567		 305.27265			43387.38302		68.70800		324.00000 
 43692.65567		 742.05839			42950.59728		223.78800		875.00000 
 43692.65567		 305.27265			43387.38302		68.70800		324.00000 
 43692.65567		 742.05839			42950.59728		223.78800		875.00000 
 43692.65567		 305.27265			43387.38302		68.70800		324.00000 
 43692.65567		 742.05839			42950.59728		223.78800		875.00000 
 43692.65567		 305.27265			43387.38302		68.70800		324.00000 
 43692.65567		 742.05839			42950.59728		223.78800		875.00000 
 43692.65567		 305.27265			43387.38302		68.70800		324.00000 
 43692.65567		 742.05839			42950.59728		223.78800		875.00000 
 43692.65567		 305.27265			43387.38302		68.70800		324.00000 
 43692.65567		 742.05839			42950.59728		223.78800		875.00000 
 43692.65567		 305.27265			43387.38302		68.70800		324.00000 
 43692.65567		 742.05839			42950.59728		223.78800		875.00000 
 43692.65567		 305.27265			43387.38302		68.70800		324.00000 
 43692.65567		 742.05839			42950.59728		223.78800		875.00000 
 43692.65567		 305.27265			43387.38302		68.70800		324.00000 
 43692.65567		 742.05839			42950.59728		223.78800		875.00000 
 43692.65567		 305.27265			43387.38302		68.70800		324.00000 
 43692.65567		 742.05839			42950.59728		223.78800		875.00000 
 43692.65567		 305.27265			43387.38302		68.70800		324.00000 
 43692.65567		 742.05839			42950.59728		223.78800		875.00000 
 43692.65567		 305.27265			43387.38302		68.70800		324.00000 
 43692.65567		 742.05839			42950.59728		223.78800		875.00000 
 43692.65567		 305.27265			43387.38302		68.70800		324.00000 
 43692.65567		 742.05839			42950.59728		223.78800		875.00000 
 43692.65567		 305.27265			43387.38302		68.70800		324.00000 
 43692.65567		 742.05839			42950.59728		223.78800		875.00000 
 43692.65567		 305.27265			43387.38302		68.70800		324.00000 
 43692.65567		 742.05839			42950.59728		223.78800		875.00000 
 43692.65567		 305.27265			43387.38302		68.70800		324.00000 
 43692.65567		 742.05839			42950.59728		223.78800		875.00000 
 43692.65567		 305.27265			43387.38302		68.70800		324.00000 
 43692.65567		 742.05839			42950.59728		223.78800		875.00000 
 43692.65567		 305.27265			43387.38302		68.70800		324.00000 
 43692.65567		 742.05839			42950.59728		223.78800		875.00000 
 43692.65567		 305.27265			43387.38302		68.70800		324.00000 
 43692.65567		 742.05839			42950.59728		223.78800		875.00000 
 43692.65567		 305.27265			43387.38302		68.70800		324.00000 
 43692.65567		 742.05839			42950.59728		223.78800		875.00000 
 43692.65567		 305.27265			43387.38302		68.70800		324.00000 
 43692.65567		 742.05839			42950.59728		223.78800		875.00000 
 43692.65567		 305.27265			43387.38302		68.70800		324.00000 
 43692.65567		 742.05839			42950.59728		223.78800		875.00000 
 43692.65567		 305.27265			43387.38302		68.70800		324.00000 
 43692.65567		 742.05839			42950.59728		223.78800		875.00000 
 43692.65567		 305.27265			43387.38302		68.70800		324.00000 
 43692.65567		 742.05839			42950.59728		223.78800		875.00000 
 43692.65567		 305.27265			43387.38302		68.70800		324.00000 
 43692.65567		 742.05839			42950.59728		223.78800		875.00000 
 43692.65567		 305.27265			43387.38302		68.70800		324.00000 
 43692.65567		 742.05839			42950.59728		223.78800		875.00000 
 43692.65567		 305.27265			43387.38302		68.70800		324.00000 
 43692.65567		 742.05839			42950.59728		223.78800		875.00000 
 43692.65567		 305.27265			43387.38302		68.70800		324.00000 
 43692.65567		 742.05839			42950.59728		223.78800		875.00000 
 43692.65567		 305.27265			43387.38302		68.70800		324.00000 
 43692.65567		 742.05839			42950.59728		223.78800		875.00000 
 43692.65567		 305.27265			43387.38302		68.70800		324.00000 
 43692.65567		 742.05839			42950.59728		223.78800		875.00000 
 43692.65567		 305.27265			43387.38302		68.70800		324.00000 
 43692.65567		 742.05839			42950.59728		223.78800		875.00000 
 43692.65567		 305.27265			43387.38302		68.70800		324.00000 
 43692.65567		 742.05839			42950.59728		223.78800		875.00000 
 43692.65567		 305.27265			43387.38302		68.70800		324.00000 
 43692.65567		 742.05839			42950.59728		223.78800		875.00000 
 43692.65567		 305.27265			43387.38302		68.70800		324.00000 
 43692.65567		 742.05839			42950.59728		223.78800		875.00000 
 43692.65567		 305.27265			43387.38302		68.70800		324.00000 
 43692.65567		 742.05839			42950.59728		223.78800		875.00000 
 43692.65567		 305.27265			43387.38302		68.70800		324.00000 
 43692.65567		 742.05839			42950.59728		223.78800		875.00000 
 43692.65567		 305.27265			43387.38302		68.70800		324.00000 
 43692.65567		 742.05839			42950.59728		223.78800		875.00000 
 43692.65567		 305.27265			43387.38302		68.70800		324.00000 
 43692.65567		 742.05839			42950.59728		223.78800		875.00000 
 43692.65567		 305.27265			43387.38302		68.70800		324.00000 
 43692.65567		 742.05839			42950.59728		223.78800		875.00000 
 43692.65567		 305.27265			43387.38302		68.70800		324.00000 
 43692.65567		 742.05839			42950.59728		223.78800		875.00000 
 43692.65567		 305.27265			43387.38302		68.70800		324.00000 
 43692.65567		 742.05839			42950.59728		223.78800		875.00000 
 43692.65567		 305.27265			43387.38302		68.70800		324.00000 
 43692.65567		 742.05839			42950.59728		223.78800		875.00000 
 43692.65567		 305.27265			43387.38302		68.70800		324.00000 
 43692.65567		 742.05839			42950.59728		223.78800		875.00000 
 43692.65567		 305.27265			43387.38302		68.70800		324.00000 
 43692.65567		 742.05839			42950.59728		223.78800		875.00000 
 43692.65567		 305.27265			43387.38302		68.70800		324.00000 
 43692.65567		 742.05839			42950.59728		223.78800		875.00000 
 43692.65567		 305.27265			43387.38302		68.70800		324.00000 
 43692.65567		 742.05839			42950.59728		223.78800		875.00000 
 43692.65567		 305.27265			43387.38302		68.70800		324.00000 
 43692.65567		 742.05839			42950.59728		223.78800		875.00000 
 43692.65567		 305.27265			43387.38302		68.70800		324.00000 
 43692.65567		 742.05839			42950.59728		223.78800		875.00000 
 43692.65567		 305.27265			43387.38302		68.70800		324.00000 
 43692.65567		 742.05839			42950.59728		223.78800		875.00000 
 43692.65567		 305.27265			43387.38302		68.70800		324.00000 
 43692.65567		 742.05839			42950.59728		223.78800		875.00000 
 43692.65567		 305.27265			43387.38302		68.70800		324.00000 
 43692.65567		 742.05839			42950.59728		223.78800		875.00000 
 43692.65567		 305.27265			43387.38302		68.70800		324.00000 
 43692.65567		 742.05839			42950.59728		223.78800		875.00000 
 43692.65567		 305.27265			43387.38302		68.70800		324.00000 
 43692.65567		 742.05839			42950.59728		223.78800		875.00000 
 43692.65567		 305.27265			43387.38302		68.70800		324.00000 
 43692.65567		 742.05839			42950.59728		223.78800		875.00000 
 43692.65567		 305.27265			43387.38302		68.70800		324.00000 
 43692.65567		 742.05839			42950.59728		223.78800		875.00000 
 43692.65567		 305.27265			43387.38302		68.70800		324.00000 
 43692.65567		 742.05839			42950.59728		223.78800		875.00000 
 43692.65567		 305.27265			43387.38302		68.70800		324.00000 
 43692.65567		 742.05839			42950.59728		223.78800		875.00000 
 43692.65567		 305.27265			43387.38302		68.70800		324.00000 
 43692.65567		 742.05839			42950.59728		223.78800		875.00000 
 43692.65567		 305.27265			43387.38302		69.64400		324.00000 
 43692.65567		 742.05839			42950.59728		223.78800		875.00000 
 43692.65567		 305.27265			43387.38302		69.64400		324.00000 
 43692.65567		 742.05839			42950.59728		223.78800		875.00000 
 43692.65567		 305.27265			43387.38302		69.64400		324.00000 
 43692.65567		 742.05839			42950.59728		223.78800		875.00000 
 43692.65567		 305.27265			43387.38302		69.64400		324.00000 
 43692.65567		 742.05839			42950.59728		223.78800		875.00000 
 43692.65567		 305.27265			43387.38302		69.64400		324.00000 
 43692.65567		 742.05839			42950.59728		223.78800		875.00000 
 43692.65567		 305.27265			43387.38302		69.64400		324.00000 
 43692.65567		 673.79570			43018.85997		223.78800		875.00000 
 43692.65567		 305.27265			43387.38302		69.64400		324.00000 
 43692.65567		 605.53301			43087.12266		223.78800		875.00000 
 43692.65567		 305.27265			43387.38302		69.64400		324.00000 
 43692.65567		 537.27032			43155.38535		223.78800		875.00000 
 43692.65567		 305.27265			43387.38302		69.64400		324.00000 
 43692.65567		 537.27032			43155.38535		223.78800		875.00000 
 43692.65567		 305.27265			43387.38302		69.64400		324.00000 
 43692.65567		 537.27032			43155.38535		223.78800		875.00000 
 43692.65567		 305.27265			43387.38302		69.64400		324.00000 
 43692.65567		 537.27032			43155.38535		223.78800		875.00000 
 43692.65567		 305.27265			43387.38302		69.64400		324.00000 
 43692.65567		 537.27032			43155.38535		223.78800		875.00000 
 43692.65567		 305.27265			43387.38302		69.64400		324.00000 
 43692.65567		 537.27032			43155.38535		223.78800		875.00000 
 43692.65567		 305.27265			43387.38302		69.64400		324.00000 
 43692.65567		 537.27032			43155.38535		223.78800		875.00000 
 43692.65567		 305.27265			43387.38302		69.64400		324.00000 
 43692.65567		 537.27032			43155.38535		223.78800		875.00000 
 43692.65567		 305.27265			43387.38302		69.64400		324.00000 
 43692.65567		 537.27032			43155.38535		223.78800		875.00000 
 43692.65567		 305.27265			43387.38302		69.64400		324.00000 
 43692.65567		 537.27032			43155.38535		223.78800		875.00000 
 43692.65567		 305.27265			43387.38302		69.64400		324.00000 
 43692.65567		 537.27032			43155.38535		223.78800		875.00000 
 43692.65567		 305.27265			43387.38302		69.64400		324.00000 
 43692.65567		 537.27032			43155.38535		223.78800		875.00000 
 43692.65567		 305.27265			43387.38302		69.64400		324.00000 
 43692.65567		 537.27032			43155.38535		223.78800		875.00000 
 43692.65567		 305.27265			43387.38302		69.64400		324.00000 
 43692.65567		 537.27032			43155.38535		223.78800		875.00000 
 43692.65567		 305.27265			43387.38302		69.64400		324.00000 
 43692.65567		 537.27032			43155.38535		223.78800		875.00000 
 43692.65567		 305.27265			43387.38302		69.64400		324.00000 
 43692.65567		 537.27032			43155.38535		223.78800		875.00000 
 43692.65567		 305.27265			43387.38302		69.64400		324.00000 
 43692.65567		 537.27032			43155.38535		223.78800		875.00000 
 43692.65567		 305.27265			43387.38302		69.64400		324.00000 
 43692.65567		 537.27032			43155.38535		223.78800		875.00000 
 43692.65567		 305.27265			43387.38302		69.64400		324.00000 
 43692.65567		 537.27032			43155.38535		223.78800		875.00000 
 43692.65567		 305.27265			43387.38302		69.64400		324.00000 
 43692.65567		 537.27032			43155.38535		223.78800		875.00000 
 43692.65567		 305.27265			43387.38302		69.64400		324.00000 
 43692.65567		 529.63254			43163.02313		223.78800		875.00000 
 43692.65567		 305.27265			43387.38302		69.64400		324.00000 
 43692.65567		 525.81365			43166.84203		223.78800		875.00000 
 43692.65567		 305.27265			43387.38302		69.64400		324.00000 
 43692.65567		 525.81365			43166.84203		223.78800		875.00000 
 43692.65567		 261.35540			43431.30027		69.64400		324.00000 
 43692.65567		 261.35540			43431.30027		184.23800		875.00000 
 43692.65567		 261.35540			43431.30027		69.64400		324.00000 
