Memory Total (MiB) 	 Memory Used (MiB) 	    Memory Free (MiB) 	 Power Drawed (W) 	 Clocks (Mhz) 	 
 43692.65567		 261.35540			43431.30027		192.48400		875.00000 
 43692.65567		 261.35540			43431.30027		69.17400		324.00000 
 43692.65567		 261.35540			43431.30027		192.48400		875.00000 
 43692.65567		 261.35540			43431.30027		69.17400		324.00000 
 43692.65567		 261.35540			43431.30027		192.48400		875.00000 
 43692.65567		 261.35540			43431.30027		69.17400		324.00000 
 43692.65567		 261.35540			43431.30027		192.48400		875.00000 
 43692.65567		 261.35540			43431.30027		69.17400		324.00000 
 43692.65567		 261.35540			43431.30027		192.48400		875.00000 
 43692.65567		 261.35540			43431.30027		69.17400		324.00000 
 43692.65567		 261.35540			43431.30027		192.48400		875.00000 
 43692.65567		 261.35540			43431.30027		69.17400		324.00000 
 43692.65567		 261.35540			43431.30027		192.48400		875.00000 
 43692.65567		 261.35540			43431.30027		69.17400		324.00000 
 43692.65567		 261.35540			43431.30027		192.48400		875.00000 
 43692.65567		 261.35540			43431.30027		69.17400		324.00000 
 43692.65567		 261.35540			43431.30027		192.48400		875.00000 
 43692.65567		 261.35540			43431.30027		69.17400		324.00000 
 43692.65567		 261.35540			43431.30027		192.48400		875.00000 
 43692.65567		 261.35540			43431.30027		69.17400		324.00000 
 43692.65567		 261.35540			43431.30027		192.48400		875.00000 
 43692.65567		 261.35540			43431.30027		69.17400		324.00000 
 43692.65567		 261.35540			43431.30027		192.48400		875.00000 
 43692.65567		 261.35540			43431.30027		69.17400		324.00000 
 43692.65567		 261.35540			43431.30027		192.48400		875.00000 
 43692.65567		 261.35540			43431.30027		69.17400		324.00000 
 43692.65567		 261.35540			43431.30027		192.48400		875.00000 
 43692.65567		 261.35540			43431.30027		69.17400		324.00000 
 43692.65567		 261.35540			43431.30027		192.48400		875.00000 
 43692.65567		 261.35540			43431.30027		69.17400		324.00000 
 43692.65567		 261.35540			43431.30027		192.48400		875.00000 
 43692.65567		 261.35540			43431.30027		69.17400		324.00000 
 43692.65567		 261.35540			43431.30027		192.48400		875.00000 
 43692.65567		 261.35540			43431.30027		69.17400		324.00000 
 43692.65567		 261.35540			43431.30027		192.48400		875.00000 
 43692.65567		 261.35540			43431.30027		69.17400		324.00000 
 43692.65567		 265.17429			43427.48138		192.48400		875.00000 
 43692.65567		 261.35540			43431.30027		69.17400		324.00000 
 43692.65567		 265.17429			43427.48138		192.48400		875.00000 
 43692.65567		 261.35540			43431.30027		69.17400		324.00000 
 43692.65567		 272.81207			43419.84360		154.68600		875.00000 
 43692.65567		 261.35540			43431.30027		69.17400		324.00000 
 43692.65567		 272.81207			43419.84360		154.68600		875.00000 
 43692.65567		 261.35540			43431.30027		69.17400		324.00000 
 43692.65567		 272.81207			43419.84360		154.68600		875.00000 
 43692.65567		 265.17429			43427.48138		69.17400		324.00000 
 43692.65567		 272.81207			43419.84360		154.68600		875.00000 
 43692.65567		 265.17429			43427.48138		69.17400		324.00000 
 43692.65567		 272.81207			43419.84360		154.68600		875.00000 
 43692.65567		 265.17429			43427.48138		69.17400		324.00000 
 43692.65567		 272.81207			43419.84360		154.68600		875.00000 
 43692.65567		 272.81207			43419.84360		69.17400		324.00000 
 43692.65567		 272.81207			43419.84360		154.68600		875.00000 
 43692.65567		 272.81207			43419.84360		69.17400		324.00000 
 43692.65567		 272.81207			43419.84360		154.68600		875.00000 
 43692.65567		 272.81207			43419.84360		69.17400		324.00000 
 43692.65567		 305.27265			43387.38302		154.68600		875.00000 
 43692.65567		 305.27265			43387.38302		69.17400		324.00000 
 43692.65567		 305.27265			43387.38302		154.68600		875.00000 
 43692.65567		 305.27265			43387.38302		69.17400		324.00000 
 43692.65567		 305.27265			43387.38302		154.68600		875.00000 
 43692.65567		 305.27265			43387.38302		69.17400		324.00000 
 43692.65567		 305.27265			43387.38302		154.68600		875.00000 
 43692.65567		 305.27265			43387.38302		69.17400		324.00000 
 43692.65567		 305.27265			43387.38302		154.68600		875.00000 
 43692.65567		 305.27265			43387.38302		69.17400		324.00000 
 43692.65567		 309.09154			43383.56413		154.68600		875.00000 
 43692.65567		 305.27265			43387.38302		69.17400		324.00000 
 43692.65567		 310.52363			43382.13204		154.68600		875.00000 
 43692.65567		 305.27265			43387.38302		69.17400		324.00000 
 43692.65567		 311.00099			43381.65468		154.68600		875.00000 
 43692.65567		 305.27265			43387.38302		69.17400		324.00000 
 43692.65567		 311.00099			43381.65468		154.68600		875.00000 
 43692.65567		 305.27265			43387.38302		69.17400		324.00000 
 43692.65567		 311.00099			43381.65468		154.68600		875.00000 
 43692.65567		 305.27265			43387.38302		69.17400		324.00000 
 43692.65567		 311.00099			43381.65468		154.68600		875.00000 
 43692.65567		 305.27265			43387.38302		69.17400		324.00000 
 43692.65567		 311.00099			43381.65468		154.68600		875.00000 
 43692.65567		 305.27265			43387.38302		69.17400		324.00000 
 43692.65567		 311.00099			43381.65468		154.68600		875.00000 
 43692.65567		 305.27265			43387.38302		69.17400		324.00000 
 43692.65567		 311.00099			43381.65468		154.68600		875.00000 
 43692.65567		 305.27265			43387.38302		69.17400		324.00000 
 43692.65567		 311.00099			43381.65468		154.68600		875.00000 
 43692.65567		 305.27265			43387.38302		69.17400		324.00000 
 43692.65567		 311.00099			43381.65468		154.68600		875.00000 
 43692.65567		 305.27265			43387.38302		69.17400		324.00000 
 43692.65567		 311.00099			43381.65468		154.68600		875.00000 
 43692.65567		 305.27265			43387.38302		69.17400		324.00000 
 43692.65567		 311.00099			43381.65468		154.68600		875.00000 
 43692.65567		 305.27265			43387.38302		69.17400		324.00000 
 43692.65567		 311.00099			43381.65468		154.68600		875.00000 
 43692.65567		 305.27265			43387.38302		69.17400		324.00000 
 43692.65567		 311.00099			43381.65468		154.68600		875.00000 
 43692.65567		 305.27265			43387.38302		69.17400		324.00000 
 43692.65567		 311.00099			43381.65468		154.68600		875.00000 
 43692.65567		 305.27265			43387.38302		69.17400		324.00000 
 43692.65567		 311.00099			43381.65468		154.68600		875.00000 
 43692.65567		 305.27265			43387.38302		69.17400		324.00000 
 43692.65567		 311.00099			43381.65468		154.68600		875.00000 
 43692.65567		 305.27265			43387.38302		69.17400		324.00000 
 43692.65567		 311.00099			43381.65468		154.68600		875.00000 
 43692.65567		 305.27265			43387.38302		69.17400		324.00000 
 43692.65567		 311.00099			43381.65468		139.84200		875.00000 
 43692.65567		 305.27265			43387.38302		69.17400		324.00000 
 43692.65567		 311.00099			43381.65468		139.84200		875.00000 
 43692.65567		 305.27265			43387.38302		69.17400		324.00000 
 43692.65567		 311.00099			43381.65468		139.84200		875.00000 
 43692.65567		 305.27265			43387.38302		69.17400		324.00000 
 43692.65567		 311.00099			43381.65468		139.84200		875.00000 
 43692.65567		 305.27265			43387.38302		69.17400		324.00000 
 43692.65567		 311.00099			43381.65468		139.84200		875.00000 
 43692.65567		 305.27265			43387.38302		69.17400		324.00000 
 43692.65567		 311.00099			43381.65468		139.84200		875.00000 
 43692.65567		 305.27265			43387.38302		69.17400		324.00000 
 43692.65567		 311.00099			43381.65468		139.84200		875.00000 
 43692.65567		 305.27265			43387.38302		69.17400		324.00000 
 43692.65567		 311.00099			43381.65468		139.84200		875.00000 
 43692.65567		 305.27265			43387.38302		69.17400		324.00000 
 43692.65567		 311.00099			43381.65468		139.84200		875.00000 
 43692.65567		 305.27265			43387.38302		69.17400		324.00000 
 43692.65567		 311.00099			43381.65468		139.84200		875.00000 
 43692.65567		 305.27265			43387.38302		69.17400		324.00000 
 43692.65567		 311.00099			43381.65468		139.84200		875.00000 
 43692.65567		 305.27265			43387.38302		69.17400		324.00000 
 43692.65567		 311.00099			43381.65468		139.84200		875.00000 
 43692.65567		 305.27265			43387.38302		69.17400		324.00000 
 43692.65567		 311.00099			43381.65468		139.84200		875.00000 
 43692.65567		 305.27265			43387.38302		69.17400		324.00000 
 43692.65567		 311.00099			43381.65468		139.84200		875.00000 
 43692.65567		 305.27265			43387.38302		69.17400		324.00000 
 43692.65567		 311.00099			43381.65468		139.84200		875.00000 
 43692.65567		 305.27265			43387.38302		69.17400		324.00000 
 43692.65567		 311.00099			43381.65468		139.84200		875.00000 
 43692.65567		 305.27265			43387.38302		69.17400		324.00000 
 43692.65567		 311.00099			43381.65468		139.84200		875.00000 
 43692.65567		 305.27265			43387.38302		69.17400		324.00000 
 43692.65567		 311.00099			43381.65468		139.84200		875.00000 
 43692.65567		 305.27265			43387.38302		69.17400		324.00000 
 43692.65567		 311.00099			43381.65468		139.84200		875.00000 
 43692.65567		 305.27265			43387.38302		69.17400		324.00000 
 43692.65567		 311.00099			43381.65468		139.84200		875.00000 
 43692.65567		 305.27265			43387.38302		69.17400		324.00000 
 43692.65567		 311.00099			43381.65468		139.84200		875.00000 
 43692.65567		 305.27265			43387.38302		69.17400		324.00000 
 43692.65567		 311.00099			43381.65468		139.84200		875.00000 
 43692.65567		 305.27265			43387.38302		69.17400		324.00000 
 43692.65567		 311.00099			43381.65468		139.84200		875.00000 
 43692.65567		 305.27265			43387.38302		69.17400		324.00000 
 43692.65567		 311.00099			43381.65468		139.84200		875.00000 
 43692.65567		 305.27265			43387.38302		69.17400		324.00000 
 43692.65567		 311.00099			43381.65468		139.84200		875.00000 
 43692.65567		 305.27265			43387.38302		69.17400		324.00000 
 43692.65567		 311.00099			43381.65468		139.84200		875.00000 
 43692.65567		 305.27265			43387.38302		69.17400		324.00000 
 43692.65567		 311.00099			43381.65468		139.84200		875.00000 
 43692.65567		 305.27265			43387.38302		69.17400		324.00000 
 43692.65567		 311.00099			43381.65468		139.84200		875.00000 
 43692.65567		 305.27265			43387.38302		69.17400		324.00000 
 43692.65567		 311.00099			43381.65468		139.84200		875.00000 
 43692.65567		 305.27265			43387.38302		69.17400		324.00000 
 43692.65567		 311.00099			43381.65468		139.84200		875.00000 
 43692.65567		 305.27265			43387.38302		69.17400		324.00000 
 43692.65567		 311.00099			43381.65468		139.84200		875.00000 
 43692.65567		 305.27265			43387.38302		69.17400		324.00000 
 43692.65567		 311.00099			43381.65468		135.03600		875.00000 
 43692.65567		 305.27265			43387.38302		69.17400		324.00000 
 43692.65567		 311.00099			43381.65468		135.03600		875.00000 
 43692.65567		 305.27265			43387.38302		69.17400		324.00000 
 43692.65567		 311.00099			43381.65468		135.03600		875.00000 
 43692.65567		 305.27265			43387.38302		69.17400		324.00000 
 43692.65567		 314.81988			43377.83579		135.03600		875.00000 
 43692.65567		 305.27265			43387.38302		69.17400		324.00000 
 43692.65567		 314.81988			43377.83579		135.03600		875.00000 
 43692.65567		 305.27265			43387.38302		69.17400		324.00000 
 43692.65567		 318.63877			43374.01690		135.03600		875.00000 
 43692.65567		 305.27265			43387.38302		69.17400		324.00000 
 43692.65567		 322.45767			43370.19801		135.03600		875.00000 
 43692.65567		 305.27265			43387.38302		69.17400		324.00000 
 43692.65567		 326.27656			43366.37912		135.03600		875.00000 
 43692.65567		 305.27265			43387.38302		69.17400		324.00000 
 43692.65567		 326.27656			43366.37912		135.03600		875.00000 
 43692.65567		 305.27265			43387.38302		69.17400		324.00000 
 43692.65567		 326.27656			43366.37912		135.03600		875.00000 
 43692.65567		 305.27265			43387.38302		69.17400		324.00000 
 43692.65567		 537.27032			43155.38535		135.03600		875.00000 
 43692.65567		 305.27265			43387.38302		69.17400		324.00000 
 43692.65567		 673.79570			43018.85997		135.03600		875.00000 
 43692.65567		 305.27265			43387.38302		69.17400		324.00000 
 43692.65567		 742.05839			42950.59728		135.03600		875.00000 
 43692.65567		 305.27265			43387.38302		69.17400		324.00000 
 43692.65567		 742.05839			42950.59728		135.03600		875.00000 
 43692.65567		 305.27265			43387.38302		69.17400		324.00000 
 43692.65567		 742.05839			42950.59728		135.03600		875.00000 
 43692.65567		 305.27265			43387.38302		69.17400		324.00000 
 43692.65567		 742.05839			42950.59728		135.03600		875.00000 
 43692.65567		 305.27265			43387.38302		69.17400		324.00000 
 43692.65567		 742.05839			42950.59728		135.03600		875.00000 
 43692.65567		 305.27265			43387.38302		69.17400		324.00000 
 43692.65567		 742.05839			42950.59728		135.03600		875.00000 
 43692.65567		 305.27265			43387.38302		69.17400		324.00000 
 43692.65567		 742.05839			42950.59728		135.03600		875.00000 
 43692.65567		 305.27265			43387.38302		69.17400		324.00000 
 43692.65567		 742.05839			42950.59728		135.03600		875.00000 
 43692.65567		 305.27265			43387.38302		69.17400		324.00000 
 43692.65567		 742.05839			42950.59728		135.03600		875.00000 
 43692.65567		 305.27265			43387.38302		69.17400		324.00000 
 43692.65567		 742.05839			42950.59728		135.03600		875.00000 
 43692.65567		 305.27265			43387.38302		69.17400		324.00000 
 43692.65567		 742.05839			42950.59728		135.03600		875.00000 
 43692.65567		 305.27265			43387.38302		69.17400		324.00000 
 43692.65567		 742.05839			42950.59728		135.03600		875.00000 
 43692.65567		 305.27265			43387.38302		69.17400		324.00000 
 43692.65567		 742.05839			42950.59728		135.03600		875.00000 
 43692.65567		 305.27265			43387.38302		69.17400		324.00000 
 43692.65567		 742.05839			42950.59728		135.03600		875.00000 
 43692.65567		 305.27265			43387.38302		69.17400		324.00000 
 43692.65567		 742.05839			42950.59728		135.03600		875.00000 
 43692.65567		 305.27265			43387.38302		69.17400		324.00000 
 43692.65567		 742.05839			42950.59728		135.03600		875.00000 
 43692.65567		 305.27265			43387.38302		69.17400		324.00000 
 43692.65567		 742.05839			42950.59728		135.03600		875.00000 
 43692.65567		 305.27265			43387.38302		69.17400		324.00000 
 43692.65567		 742.05839			42950.59728		135.03600		875.00000 
 43692.65567		 305.27265			43387.38302		69.17400		324.00000 
 43692.65567		 742.05839			42950.59728		135.03600		875.00000 
 43692.65567		 305.27265			43387.38302		69.17400		324.00000 
 43692.65567		 742.05839			42950.59728		135.03600		875.00000 
 43692.65567		 305.27265			43387.38302		69.17400		324.00000 
 43692.65567		 742.05839			42950.59728		135.03600		875.00000 
 43692.65567		 305.27265			43387.38302		69.17400		324.00000 
 43692.65567		 742.05839			42950.59728		135.03600		875.00000 
 43692.65567		 305.27265			43387.38302		69.17400		324.00000 
 43692.65567		 742.05839			42950.59728		135.03600		875.00000 
 43692.65567		 305.27265			43387.38302		69.17400		324.00000 
 43692.65567		 742.05839			42950.59728		135.03600		875.00000 
 43692.65567		 305.27265			43387.38302		69.17400		324.00000 
 43692.65567		 742.05839			42950.59728		135.03600		875.00000 
 43692.65567		 305.27265			43387.38302		69.17400		324.00000 
 43692.65567		 742.05839			42950.59728		135.03600		875.00000 
 43692.65567		 305.27265			43387.38302		69.17400		324.00000 
 43692.65567		 742.05839			42950.59728		135.03600		875.00000 
 43692.65567		 305.27265			43387.38302		69.17400		324.00000 
 43692.65567		 742.05839			42950.59728		135.03600		875.00000 
 43692.65567		 305.27265			43387.38302		69.17400		324.00000 
 43692.65567		 742.05839			42950.59728		135.03600		875.00000 
 43692.65567		 305.27265			43387.38302		69.17400		324.00000 
 43692.65567		 742.05839			42950.59728		135.03600		875.00000 
 43692.65567		 305.27265			43387.38302		69.17400		324.00000 
 43692.65567		 742.05839			42950.59728		135.03600		875.00000 
 43692.65567		 305.27265			43387.38302		69.17400		324.00000 
 43692.65567		 742.05839			42950.59728		135.03600		875.00000 
 43692.65567		 305.27265			43387.38302		69.17400		324.00000 
 43692.65567		 742.05839			42950.59728		135.03600		875.00000 
 43692.65567		 305.27265			43387.38302		69.17400		324.00000 
 43692.65567		 742.05839			42950.59728		135.03600		875.00000 
 43692.65567		 305.27265			43387.38302		69.17400		324.00000 
 43692.65567		 742.05839			42950.59728		135.03600		875.00000 
 43692.65567		 305.27265			43387.38302		69.17400		324.00000 
 43692.65567		 742.05839			42950.59728		135.03600		875.00000 
 43692.65567		 305.27265			43387.38302		69.17400		324.00000 
 43692.65567		 742.05839			42950.59728		135.03600		875.00000 
 43692.65567		 305.27265			43387.38302		69.17400		324.00000 
 43692.65567		 742.05839			42950.59728		135.03600		875.00000 
 43692.65567		 305.27265			43387.38302		69.17400		324.00000 
 43692.65567		 742.05839			42950.59728		135.03600		875.00000 
 43692.65567		 305.27265			43387.38302		69.17400		324.00000 
 43692.65567		 742.05839			42950.59728		135.03600		875.00000 
 43692.65567		 305.27265			43387.38302		69.17400		324.00000 
 43692.65567		 742.05839			42950.59728		135.03600		875.00000 
 43692.65567		 305.27265			43387.38302		69.17400		324.00000 
 43692.65567		 742.05839			42950.59728		135.03600		875.00000 
 43692.65567		 305.27265			43387.38302		69.17400		324.00000 
 43692.65567		 742.05839			42950.59728		135.03600		875.00000 
 43692.65567		 305.27265			43387.38302		69.17400		324.00000 
 43692.65567		 742.05839			42950.59728		135.03600		875.00000 
 43692.65567		 305.27265			43387.38302		69.17400		324.00000 
 43692.65567		 742.05839			42950.59728		135.03600		875.00000 
 43692.65567		 305.27265			43387.38302		69.17400		324.00000 
 43692.65567		 742.05839			42950.59728		135.03600		875.00000 
 43692.65567		 305.27265			43387.38302		69.17400		324.00000 
 43692.65567		 742.05839			42950.59728		135.03600		875.00000 
 43692.65567		 305.27265			43387.38302		69.17400		324.00000 
 43692.65567		 742.05839			42950.59728		177.54000		875.00000 
 43692.65567		 305.27265			43387.38302		69.17400		324.00000 
 43692.65567		 742.05839			42950.59728		177.54000		875.00000 
 43692.65567		 305.27265			43387.38302		69.17400		324.00000 
 43692.65567		 742.05839			42950.59728		177.54000		875.00000 
 43692.65567		 305.27265			43387.38302		69.17400		324.00000 
 43692.65567		 742.05839			42950.59728		177.54000		875.00000 
 43692.65567		 305.27265			43387.38302		69.17400		324.00000 
 43692.65567		 742.05839			42950.59728		177.54000		875.00000 
 43692.65567		 305.27265			43387.38302		69.17400		324.00000 
 43692.65567		 742.05839			42950.59728		177.54000		875.00000 
 43692.65567		 305.27265			43387.38302		69.17400		324.00000 
 43692.65567		 742.05839			42950.59728		177.54000		875.00000 
 43692.65567		 305.27265			43387.38302		69.17400		324.00000 
 43692.65567		 742.05839			42950.59728		177.54000		875.00000 
 43692.65567		 305.27265			43387.38302		69.17400		324.00000 
 43692.65567		 742.05839			42950.59728		177.54000		875.00000 
 43692.65567		 305.27265			43387.38302		69.17400		324.00000 
 43692.65567		 742.05839			42950.59728		177.54000		875.00000 
 43692.65567		 305.27265			43387.38302		69.17400		324.00000 
 43692.65567		 742.05839			42950.59728		177.54000		875.00000 
 43692.65567		 305.27265			43387.38302		69.17400		324.00000 
 43692.65567		 742.05839			42950.59728		177.54000		875.00000 
 43692.65567		 305.27265			43387.38302		69.17400		324.00000 
 43692.65567		 742.05839			42950.59728		177.54000		875.00000 
 43692.65567		 305.27265			43387.38302		69.17400		324.00000 
 43692.65567		 742.05839			42950.59728		177.54000		875.00000 
 43692.65567		 305.27265			43387.38302		69.17400		324.00000 
 43692.65567		 742.05839			42950.59728		177.54000		875.00000 
 43692.65567		 305.27265			43387.38302		69.17400		324.00000 
 43692.65567		 742.05839			42950.59728		177.54000		875.00000 
 43692.65567		 305.27265			43387.38302		69.17400		324.00000 
 43692.65567		 742.05839			42950.59728		177.54000		875.00000 
 43692.65567		 305.27265			43387.38302		69.17400		324.00000 
 43692.65567		 742.05839			42950.59728		177.54000		875.00000 
 43692.65567		 305.27265			43387.38302		69.17400		324.00000 
 43692.65567		 742.05839			42950.59728		177.54000		875.00000 
 43692.65567		 305.27265			43387.38302		69.17400		324.00000 
 43692.65567		 742.05839			42950.59728		177.54000		875.00000 
 43692.65567		 305.27265			43387.38302		69.17400		324.00000 
 43692.65567		 742.05839			42950.59728		177.54000		875.00000 
 43692.65567		 305.27265			43387.38302		69.17400		324.00000 
 43692.65567		 742.05839			42950.59728		177.54000		875.00000 
 43692.65567		 305.27265			43387.38302		69.17400		324.00000 
 43692.65567		 742.05839			42950.59728		177.54000		875.00000 
 43692.65567		 305.27265			43387.38302		69.17400		324.00000 
 43692.65567		 742.05839			42950.59728		177.54000		875.00000 
 43692.65567		 305.27265			43387.38302		69.17400		324.00000 
 43692.65567		 742.05839			42950.59728		177.54000		875.00000 
 43692.65567		 305.27265			43387.38302		69.17400		324.00000 
 43692.65567		 742.05839			42950.59728		177.54000		875.00000 
 43692.65567		 305.27265			43387.38302		69.17400		324.00000 
 43692.65567		 742.05839			42950.59728		177.54000		875.00000 
 43692.65567		 305.27265			43387.38302		69.17400		324.00000 
 43692.65567		 742.05839			42950.59728		177.54000		875.00000 
 43692.65567		 305.27265			43387.38302		69.17400		324.00000 
 43692.65567		 742.05839			42950.59728		177.54000		875.00000 
 43692.65567		 305.27265			43387.38302		69.17400		324.00000 
 43692.65567		 742.05839			42950.59728		177.54000		875.00000 
 43692.65567		 305.27265			43387.38302		69.17400		324.00000 
 43692.65567		 742.05839			42950.59728		177.54000		875.00000 
 43692.65567		 305.27265			43387.38302		69.17400		324.00000 
 43692.65567		 742.05839			42950.59728		177.54000		875.00000 
 43692.65567		 305.27265			43387.38302		69.17400		324.00000 
 43692.65567		 742.05839			42950.59728		177.54000		875.00000 
 43692.65567		 305.27265			43387.38302		69.17400		324.00000 
 43692.65567		 742.05839			42950.59728		177.54000		875.00000 
 43692.65567		 305.27265			43387.38302		69.17400		324.00000 
 43692.65567		 742.05839			42950.59728		177.54000		875.00000 
 43692.65567		 305.27265			43387.38302		69.17400		324.00000 
 43692.65567		 742.05839			42950.59728		177.54000		875.00000 
 43692.65567		 305.27265			43387.38302		69.17400		324.00000 
 43692.65567		 742.05839			42950.59728		177.54000		875.00000 
 43692.65567		 305.27265			43387.38302		69.17400		324.00000 
 43692.65567		 742.05839			42950.59728		177.54000		875.00000 
 43692.65567		 305.27265			43387.38302		69.17400		324.00000 
 43692.65567		 742.05839			42950.59728		177.54000		875.00000 
 43692.65567		 305.27265			43387.38302		69.17400		324.00000 
 43692.65567		 742.05839			42950.59728		177.54000		875.00000 
 43692.65567		 305.27265			43387.38302		69.17400		324.00000 
 43692.65567		 742.05839			42950.59728		177.54000		875.00000 
 43692.65567		 305.27265			43387.38302		69.17400		324.00000 
 43692.65567		 742.05839			42950.59728		177.54000		875.00000 
 43692.65567		 305.27265			43387.38302		69.17400		324.00000 
 43692.65567		 742.05839			42950.59728		177.54000		875.00000 
 43692.65567		 305.27265			43387.38302		69.17400		324.00000 
 43692.65567		 742.05839			42950.59728		177.54000		875.00000 
 43692.65567		 305.27265			43387.38302		69.17400		324.00000 
 43692.65567		 742.05839			42950.59728		177.54000		875.00000 
 43692.65567		 305.27265			43387.38302		69.17400		324.00000 
 43692.65567		 742.05839			42950.59728		177.54000		875.00000 
 43692.65567		 305.27265			43387.38302		69.17400		324.00000 
 43692.65567		 742.05839			42950.59728		177.54000		875.00000 
 43692.65567		 305.27265			43387.38302		69.17400		324.00000 
 43692.65567		 742.05839			42950.59728		177.54000		875.00000 
 43692.65567		 305.27265			43387.38302		69.17400		324.00000 
 43692.65567		 742.05839			42950.59728		177.54000		875.00000 
 43692.65567		 305.27265			43387.38302		69.17400		324.00000 
 43692.65567		 742.05839			42950.59728		177.54000		875.00000 
 43692.65567		 305.27265			43387.38302		69.17800		324.00000 
 43692.65567		 742.05839			42950.59728		177.54000		875.00000 
 43692.65567		 305.27265			43387.38302		69.17800		324.00000 
 43692.65567		 742.05839			42950.59728		177.54000		875.00000 
 43692.65567		 305.27265			43387.38302		69.17800		324.00000 
 43692.65567		 742.05839			42950.59728		177.54000		875.00000 
 43692.65567		 305.27265			43387.38302		69.17800		324.00000 
 43692.65567		 742.05839			42950.59728		177.54000		875.00000 
 43692.65567		 305.27265			43387.38302		69.17800		324.00000 
 43692.65567		 742.05839			42950.59728		177.54000		875.00000 
 43692.65567		 305.27265			43387.38302		69.17800		324.00000 
 43692.65567		 742.05839			42950.59728		177.54000		875.00000 
 43692.65567		 305.27265			43387.38302		69.17800		324.00000 
 43692.65567		 742.05839			42950.59728		177.54000		875.00000 
 43692.65567		 305.27265			43387.38302		69.17800		324.00000 
 43692.65567		 742.05839			42950.59728		177.54000		875.00000 
 43692.65567		 305.27265			43387.38302		69.17800		324.00000 
 43692.65567		 742.05839			42950.59728		177.54000		875.00000 
 43692.65567		 305.27265			43387.38302		69.17800		324.00000 
 43692.65567		 742.05839			42950.59728		177.54000		875.00000 
 43692.65567		 305.27265			43387.38302		69.17800		324.00000 
 43692.65567		 742.05839			42950.59728		177.54000		875.00000 
 43692.65567		 305.27265			43387.38302		69.17800		324.00000 
 43692.65567		 742.05839			42950.59728		177.54000		875.00000 
 43692.65567		 305.27265			43387.38302		69.17800		324.00000 
 43692.65567		 742.05839			42950.59728		177.54000		875.00000 
 43692.65567		 305.27265			43387.38302		69.17800		324.00000 
 43692.65567		 742.05839			42950.59728		203.75200		875.00000 
 43692.65567		 305.27265			43387.38302		69.17800		324.00000 
 43692.65567		 742.05839			42950.59728		203.75200		875.00000 
 43692.65567		 305.27265			43387.38302		69.17800		324.00000 
 43692.65567		 742.05839			42950.59728		203.75200		875.00000 
 43692.65567		 305.27265			43387.38302		69.17800		324.00000 
 43692.65567		 742.05839			42950.59728		203.75200		875.00000 
 43692.65567		 305.27265			43387.38302		69.17800		324.00000 
 43692.65567		 742.05839			42950.59728		203.75200		875.00000 
 43692.65567		 305.27265			43387.38302		69.17800		324.00000 
 43692.65567		 742.05839			42950.59728		203.75200		875.00000 
 43692.65567		 305.27265			43387.38302		69.17800		324.00000 
 43692.65567		 742.05839			42950.59728		203.75200		875.00000 
 43692.65567		 305.27265			43387.38302		69.17800		324.00000 
 43692.65567		 742.05839			42950.59728		203.75200		875.00000 
 43692.65567		 305.27265			43387.38302		69.17800		324.00000 
 43692.65567		 742.05839			42950.59728		203.75200		875.00000 
 43692.65567		 305.27265			43387.38302		69.17800		324.00000 
 43692.65567		 742.05839			42950.59728		203.75200		875.00000 
 43692.65567		 305.27265			43387.38302		69.17800		324.00000 
 43692.65567		 742.05839			42950.59728		203.75200		875.00000 
 43692.65567		 305.27265			43387.38302		69.17800		324.00000 
 43692.65567		 742.05839			42950.59728		203.75200		875.00000 
 43692.65567		 305.27265			43387.38302		69.17800		324.00000 
 43692.65567		 742.05839			42950.59728		203.75200		875.00000 
 43692.65567		 305.27265			43387.38302		69.17800		324.00000 
 43692.65567		 742.05839			42950.59728		203.75200		875.00000 
 43692.65567		 305.27265			43387.38302		69.17800		324.00000 
 43692.65567		 742.05839			42950.59728		203.75200		875.00000 
 43692.65567		 305.27265			43387.38302		69.17800		324.00000 
 43692.65567		 742.05839			42950.59728		203.75200		875.00000 
 43692.65567		 305.27265			43387.38302		69.17800		324.00000 
 43692.65567		 742.05839			42950.59728		203.75200		875.00000 
 43692.65567		 305.27265			43387.38302		69.17800		324.00000 
 43692.65567		 742.05839			42950.59728		203.75200		875.00000 
 43692.65567		 305.27265			43387.38302		69.17800		324.00000 
 43692.65567		 742.05839			42950.59728		203.75200		875.00000 
 43692.65567		 305.27265			43387.38302		69.17800		324.00000 
 43692.65567		 742.05839			42950.59728		203.75200		875.00000 
 43692.65567		 305.27265			43387.38302		69.17800		324.00000 
 43692.65567		 742.05839			42950.59728		203.75200		875.00000 
 43692.65567		 305.27265			43387.38302		69.17800		324.00000 
 43692.65567		 742.05839			42950.59728		203.75200		875.00000 
 43692.65567		 305.27265			43387.38302		69.17800		324.00000 
 43692.65567		 742.05839			42950.59728		203.75200		875.00000 
 43692.65567		 305.27265			43387.38302		69.17800		324.00000 
 43692.65567		 742.05839			42950.59728		203.75200		875.00000 
 43692.65567		 305.27265			43387.38302		69.17800		324.00000 
 43692.65567		 742.05839			42950.59728		203.75200		875.00000 
 43692.65567		 305.27265			43387.38302		69.17800		324.00000 
 43692.65567		 742.05839			42950.59728		203.75200		875.00000 
 43692.65567		 305.27265			43387.38302		69.17800		324.00000 
 43692.65567		 742.05839			42950.59728		203.75200		875.00000 
 43692.65567		 305.27265			43387.38302		69.17800		324.00000 
 43692.65567		 742.05839			42950.59728		203.75200		875.00000 
 43692.65567		 305.27265			43387.38302		69.17800		324.00000 
 43692.65567		 742.05839			42950.59728		203.75200		875.00000 
 43692.65567		 305.27265			43387.38302		69.17800		324.00000 
 43692.65567		 742.05839			42950.59728		203.75200		875.00000 
 43692.65567		 305.27265			43387.38302		69.17800		324.00000 
 43692.65567		 742.05839			42950.59728		203.75200		875.00000 
 43692.65567		 305.27265			43387.38302		69.17800		324.00000 
 43692.65567		 742.05839			42950.59728		203.75200		875.00000 
 43692.65567		 305.27265			43387.38302		69.17800		324.00000 
 43692.65567		 742.05839			42950.59728		203.75200		875.00000 
 43692.65567		 305.27265			43387.38302		69.17800		324.00000 
 43692.65567		 742.05839			42950.59728		203.75200		875.00000 
 43692.65567		 305.27265			43387.38302		69.17800		324.00000 
 43692.65567		 742.05839			42950.59728		203.75200		875.00000 
 43692.65567		 305.27265			43387.38302		69.17800		324.00000 
 43692.65567		 742.05839			42950.59728		203.75200		875.00000 
 43692.65567		 305.27265			43387.38302		69.17800		324.00000 
 43692.65567		 742.05839			42950.59728		203.75200		875.00000 
 43692.65567		 305.27265			43387.38302		69.17800		324.00000 
 43692.65567		 742.05839			42950.59728		203.75200		875.00000 
 43692.65567		 305.27265			43387.38302		69.17800		324.00000 
 43692.65567		 742.05839			42950.59728		203.75200		875.00000 
 43692.65567		 305.27265			43387.38302		69.17800		324.00000 
 43692.65567		 742.05839			42950.59728		203.75200		875.00000 
 43692.65567		 305.27265			43387.38302		69.17800		324.00000 
 43692.65567		 742.05839			42950.59728		203.75200		875.00000 
 43692.65567		 305.27265			43387.38302		69.17800		324.00000 
 43692.65567		 742.05839			42950.59728		203.75200		875.00000 
 43692.65567		 305.27265			43387.38302		69.17800		324.00000 
 43692.65567		 742.05839			42950.59728		203.75200		875.00000 
 43692.65567		 305.27265			43387.38302		69.17800		324.00000 
 43692.65567		 742.05839			42950.59728		203.75200		875.00000 
 43692.65567		 305.27265			43387.38302		69.17800		324.00000 
 43692.65567		 742.05839			42950.59728		203.75200		875.00000 
 43692.65567		 305.27265			43387.38302		69.17800		324.00000 
 43692.65567		 742.05839			42950.59728		203.75200		875.00000 
 43692.65567		 305.27265			43387.38302		69.17800		324.00000 
 43692.65567		 742.05839			42950.59728		203.75200		875.00000 
 43692.65567		 305.27265			43387.38302		69.17800		324.00000 
 43692.65567		 742.05839			42950.59728		203.75200		875.00000 
 43692.65567		 305.27265			43387.38302		69.17800		324.00000 
 43692.65567		 742.05839			42950.59728		203.75200		875.00000 
 43692.65567		 305.27265			43387.38302		69.17800		324.00000 
 43692.65567		 742.05839			42950.59728		203.75200		875.00000 
 43692.65567		 305.27265			43387.38302		69.17800		324.00000 
 43692.65567		 742.05839			42950.59728		203.75200		875.00000 
 43692.65567		 305.27265			43387.38302		69.17800		324.00000 
 43692.65567		 742.05839			42950.59728		203.75200		875.00000 
 43692.65567		 305.27265			43387.38302		69.17800		324.00000 
 43692.65567		 742.05839			42950.59728		203.75200		875.00000 
 43692.65567		 305.27265			43387.38302		69.17800		324.00000 
 43692.65567		 742.05839			42950.59728		203.75200		875.00000 
 43692.65567		 305.27265			43387.38302		69.17800		324.00000 
 43692.65567		 742.05839			42950.59728		203.75200		875.00000 
 43692.65567		 305.27265			43387.38302		69.17800		324.00000 
 43692.65567		 742.05839			42950.59728		203.75200		875.00000 
 43692.65567		 305.27265			43387.38302		69.17800		324.00000 
 43692.65567		 742.05839			42950.59728		203.75200		875.00000 
 43692.65567		 305.27265			43387.38302		69.17800		324.00000 
 43692.65567		 742.05839			42950.59728		203.75200		875.00000 
 43692.65567		 305.27265			43387.38302		69.17800		324.00000 
 43692.65567		 742.05839			42950.59728		203.75200		875.00000 
 43692.65567		 305.27265			43387.38302		69.17800		324.00000 
 43692.65567		 742.05839			42950.59728		203.75200		875.00000 
 43692.65567		 305.27265			43387.38302		69.17800		324.00000 
 43692.65567		 742.05839			42950.59728		203.75200		875.00000 
 43692.65567		 305.27265			43387.38302		69.17800		324.00000 
 43692.65567		 742.05839			42950.59728		203.75200		875.00000 
 43692.65567		 305.27265			43387.38302		69.17800		324.00000 
 43692.65567		 742.05839			42950.59728		203.75200		875.00000 
 43692.65567		 305.27265			43387.38302		69.17800		324.00000 
 43692.65567		 742.05839			42950.59728		203.75200		875.00000 
 43692.65567		 305.27265			43387.38302		69.17800		324.00000 
 43692.65567		 742.05839			42950.59728		203.75200		875.00000 
 43692.65567		 305.27265			43387.38302		69.17800		324.00000 
 43692.65567		 742.05839			42950.59728		203.75200		875.00000 
 43692.65567		 305.27265			43387.38302		69.17800		324.00000 
 43692.65567		 742.05839			42950.59728		203.75200		875.00000 
 43692.65567		 305.27265			43387.38302		69.17800		324.00000 
 43692.65567		 742.05839			42950.59728		214.13600		875.00000 
 43692.65567		 305.27265			43387.38302		69.17800		324.00000 
 43692.65567		 742.05839			42950.59728		214.13600		875.00000 
 43692.65567		 305.27265			43387.38302		69.17800		324.00000 
 43692.65567		 742.05839			42950.59728		214.13600		875.00000 
 43692.65567		 305.27265			43387.38302		69.17800		324.00000 
 43692.65567		 742.05839			42950.59728		214.13600		875.00000 
 43692.65567		 305.27265			43387.38302		69.17800		324.00000 
 43692.65567		 742.05839			42950.59728		214.13600		875.00000 
 43692.65567		 305.27265			43387.38302		69.17800		324.00000 
 43692.65567		 742.05839			42950.59728		214.13600		875.00000 
 43692.65567		 305.27265			43387.38302		69.17800		324.00000 
 43692.65567		 742.05839			42950.59728		214.13600		875.00000 
 43692.65567		 305.27265			43387.38302		69.17800		324.00000 
 43692.65567		 742.05839			42950.59728		214.13600		875.00000 
 43692.65567		 305.27265			43387.38302		69.17800		324.00000 
 43692.65567		 742.05839			42950.59728		214.13600		875.00000 
 43692.65567		 305.27265			43387.38302		69.17800		324.00000 
 43692.65567		 742.05839			42950.59728		214.13600		875.00000 
 43692.65567		 305.27265			43387.38302		69.17800		324.00000 
 43692.65567		 742.05839			42950.59728		214.13600		875.00000 
 43692.65567		 305.27265			43387.38302		69.17800		324.00000 
 43692.65567		 742.05839			42950.59728		214.13600		875.00000 
 43692.65567		 305.27265			43387.38302		69.17800		324.00000 
 43692.65567		 742.05839			42950.59728		214.13600		875.00000 
 43692.65567		 305.27265			43387.38302		69.17800		324.00000 
 43692.65567		 742.05839			42950.59728		214.13600		875.00000 
 43692.65567		 305.27265			43387.38302		69.17800		324.00000 
 43692.65567		 742.05839			42950.59728		214.13600		875.00000 
 43692.65567		 305.27265			43387.38302		69.17800		324.00000 
 43692.65567		 742.05839			42950.59728		214.13600		875.00000 
 43692.65567		 305.27265			43387.38302		69.17800		324.00000 
 43692.65567		 742.05839			42950.59728		214.13600		875.00000 
 43692.65567		 305.27265			43387.38302		69.17800		324.00000 
 43692.65567		 742.05839			42950.59728		214.13600		875.00000 
 43692.65567		 305.27265			43387.38302		69.17800		324.00000 
 43692.65567		 742.05839			42950.59728		214.13600		875.00000 
 43692.65567		 305.27265			43387.38302		69.17800		324.00000 
 43692.65567		 742.05839			42950.59728		214.13600		875.00000 
 43692.65567		 305.27265			43387.38302		69.17800		324.00000 
 43692.65567		 742.05839			42950.59728		214.13600		875.00000 
 43692.65567		 305.27265			43387.38302		69.17800		324.00000 
 43692.65567		 742.05839			42950.59728		214.13600		875.00000 
 43692.65567		 305.27265			43387.38302		69.17800		324.00000 
 43692.65567		 742.05839			42950.59728		214.13600		875.00000 
 43692.65567		 305.27265			43387.38302		69.17800		324.00000 
 43692.65567		 742.05839			42950.59728		214.13600		875.00000 
 43692.65567		 305.27265			43387.38302		69.17800		324.00000 
 43692.65567		 742.05839			42950.59728		214.13600		875.00000 
 43692.65567		 305.27265			43387.38302		69.17800		324.00000 
 43692.65567		 742.05839			42950.59728		214.13600		875.00000 
 43692.65567		 305.27265			43387.38302		69.17800		324.00000 
 43692.65567		 742.05839			42950.59728		214.13600		875.00000 
 43692.65567		 305.27265			43387.38302		69.17800		324.00000 
 43692.65567		 742.05839			42950.59728		214.13600		875.00000 
 43692.65567		 305.27265			43387.38302		69.17800		324.00000 
 43692.65567		 742.05839			42950.59728		214.13600		875.00000 
 43692.65567		 305.27265			43387.38302		69.17800		324.00000 
 43692.65567		 742.05839			42950.59728		214.13600		875.00000 
 43692.65567		 305.27265			43387.38302		69.17800		324.00000 
 43692.65567		 742.05839			42950.59728		214.13600		875.00000 
 43692.65567		 305.27265			43387.38302		69.17800		324.00000 
 43692.65567		 742.05839			42950.59728		214.13600		875.00000 
 43692.65567		 305.27265			43387.38302		69.17800		324.00000 
 43692.65567		 742.05839			42950.59728		214.13600		875.00000 
 43692.65567		 305.27265			43387.38302		69.17800		324.00000 
 43692.65567		 742.05839			42950.59728		214.13600		875.00000 
 43692.65567		 305.27265			43387.38302		69.17800		324.00000 
 43692.65567		 742.05839			42950.59728		214.13600		875.00000 
 43692.65567		 305.27265			43387.38302		69.17800		324.00000 
 43692.65567		 742.05839			42950.59728		214.13600		875.00000 
 43692.65567		 305.27265			43387.38302		69.17800		324.00000 
 43692.65567		 742.05839			42950.59728		214.13600		875.00000 
 43692.65567		 305.27265			43387.38302		69.17800		324.00000 
 43692.65567		 742.05839			42950.59728		214.13600		875.00000 
 43692.65567		 305.27265			43387.38302		69.17800		324.00000 
 43692.65567		 742.05839			42950.59728		214.13600		875.00000 
 43692.65567		 305.27265			43387.38302		69.17800		324.00000 
 43692.65567		 742.05839			42950.59728		214.13600		875.00000 
 43692.65567		 305.27265			43387.38302		69.17800		324.00000 
 43692.65567		 742.05839			42950.59728		214.13600		875.00000 
 43692.65567		 305.27265			43387.38302		69.17800		324.00000 
 43692.65567		 742.05839			42950.59728		214.13600		875.00000 
 43692.65567		 305.27265			43387.38302		69.17800		324.00000 
 43692.65567		 742.05839			42950.59728		214.13600		875.00000 
 43692.65567		 305.27265			43387.38302		69.17800		324.00000 
 43692.65567		 742.05839			42950.59728		214.13600		875.00000 
 43692.65567		 305.27265			43387.38302		69.17800		324.00000 
 43692.65567		 742.05839			42950.59728		214.13600		875.00000 
 43692.65567		 305.27265			43387.38302		69.17800		324.00000 
 43692.65567		 742.05839			42950.59728		214.13600		875.00000 
 43692.65567		 305.27265			43387.38302		69.17800		324.00000 
 43692.65567		 742.05839			42950.59728		214.13600		875.00000 
 43692.65567		 305.27265			43387.38302		69.17800		324.00000 
 43692.65567		 742.05839			42950.59728		214.13600		875.00000 
 43692.65567		 305.27265			43387.38302		69.17800		324.00000 
 43692.65567		 742.05839			42950.59728		214.13600		875.00000 
 43692.65567		 305.27265			43387.38302		69.17800		324.00000 
 43692.65567		 742.05839			42950.59728		214.13600		875.00000 
 43692.65567		 305.27265			43387.38302		69.17800		324.00000 
 43692.65567		 742.05839			42950.59728		214.13600		875.00000 
 43692.65567		 305.27265			43387.38302		69.17800		324.00000 
 43692.65567		 742.05839			42950.59728		214.13600		875.00000 
 43692.65567		 305.27265			43387.38302		69.17800		324.00000 
 43692.65567		 742.05839			42950.59728		214.13600		875.00000 
 43692.65567		 305.27265			43387.38302		69.17800		324.00000 
 43692.65567		 742.05839			42950.59728		214.13600		875.00000 
 43692.65567		 305.27265			43387.38302		69.17800		324.00000 
 43692.65567		 742.05839			42950.59728		214.13600		875.00000 
 43692.65567		 305.27265			43387.38302		69.17800		324.00000 
 43692.65567		 742.05839			42950.59728		214.13600		875.00000 
 43692.65567		 305.27265			43387.38302		69.17800		324.00000 
 43692.65567		 742.05839			42950.59728		214.13600		875.00000 
 43692.65567		 305.27265			43387.38302		69.17800		324.00000 
 43692.65567		 742.05839			42950.59728		214.13600		875.00000 
 43692.65567		 305.27265			43387.38302		69.17800		324.00000 
 43692.65567		 742.05839			42950.59728		214.13600		875.00000 
 43692.65567		 305.27265			43387.38302		69.17800		324.00000 
 43692.65567		 742.05839			42950.59728		214.13600		875.00000 
 43692.65567		 305.27265			43387.38302		69.17800		324.00000 
 43692.65567		 742.05839			42950.59728		214.13600		875.00000 
 43692.65567		 305.27265			43387.38302		69.17800		324.00000 
 43692.65567		 742.05839			42950.59728		214.13600		875.00000 
 43692.65567		 305.27265			43387.38302		69.17800		324.00000 
 43692.65567		 742.05839			42950.59728		214.13600		875.00000 
 43692.65567		 305.27265			43387.38302		69.17800		324.00000 
 43692.65567		 742.05839			42950.59728		214.13600		875.00000 
 43692.65567		 305.27265			43387.38302		69.17800		324.00000 
 43692.65567		 742.05839			42950.59728		214.13600		875.00000 
 43692.65567		 305.27265			43387.38302		69.17800		324.00000 
 43692.65567		 742.05839			42950.59728		218.17000		875.00000 
 43692.65567		 305.27265			43387.38302		69.17800		324.00000 
 43692.65567		 742.05839			42950.59728		218.17000		875.00000 
 43692.65567		 305.27265			43387.38302		69.17800		324.00000 
 43692.65567		 742.05839			42950.59728		218.17000		875.00000 
 43692.65567		 305.27265			43387.38302		69.17800		324.00000 
 43692.65567		 742.05839			42950.59728		218.17000		875.00000 
 43692.65567		 305.27265			43387.38302		69.17800		324.00000 
 43692.65567		 742.05839			42950.59728		218.17000		875.00000 
 43692.65567		 305.27265			43387.38302		69.17800		324.00000 
 43692.65567		 742.05839			42950.59728		218.17000		875.00000 
 43692.65567		 305.27265			43387.38302		69.17800		324.00000 
 43692.65567		 742.05839			42950.59728		218.17000		875.00000 
 43692.65567		 305.27265			43387.38302		69.17800		324.00000 
 43692.65567		 742.05839			42950.59728		218.17000		875.00000 
 43692.65567		 305.27265			43387.38302		69.17800		324.00000 
 43692.65567		 742.05839			42950.59728		218.17000		875.00000 
 43692.65567		 305.27265			43387.38302		69.17800		324.00000 
 43692.65567		 742.05839			42950.59728		218.17000		875.00000 
 43692.65567		 305.27265			43387.38302		69.17800		324.00000 
 43692.65567		 742.05839			42950.59728		218.17000		875.00000 
 43692.65567		 305.27265			43387.38302		69.17800		324.00000 
 43692.65567		 742.05839			42950.59728		218.17000		875.00000 
 43692.65567		 305.27265			43387.38302		69.17800		324.00000 
 43692.65567		 742.05839			42950.59728		218.17000		875.00000 
 43692.65567		 305.27265			43387.38302		69.17800		324.00000 
 43692.65567		 742.05839			42950.59728		218.17000		875.00000 
 43692.65567		 305.27265			43387.38302		69.17800		324.00000 
 43692.65567		 742.05839			42950.59728		218.17000		875.00000 
 43692.65567		 305.27265			43387.38302		69.17800		324.00000 
 43692.65567		 742.05839			42950.59728		218.17000		875.00000 
 43692.65567		 305.27265			43387.38302		69.17800		324.00000 
 43692.65567		 742.05839			42950.59728		218.17000		875.00000 
 43692.65567		 305.27265			43387.38302		69.17800		324.00000 
 43692.65567		 742.05839			42950.59728		218.17000		875.00000 
 43692.65567		 305.27265			43387.38302		69.17800		324.00000 
 43692.65567		 742.05839			42950.59728		218.17000		875.00000 
 43692.65567		 305.27265			43387.38302		69.17800		324.00000 
 43692.65567		 742.05839			42950.59728		218.17000		875.00000 
 43692.65567		 305.27265			43387.38302		69.17800		324.00000 
 43692.65567		 742.05839			42950.59728		218.17000		875.00000 
 43692.65567		 305.27265			43387.38302		69.17800		324.00000 
 43692.65567		 742.05839			42950.59728		218.17000		875.00000 
 43692.65567		 305.27265			43387.38302		69.17800		324.00000 
 43692.65567		 742.05839			42950.59728		218.17000		875.00000 
 43692.65567		 305.27265			43387.38302		69.17800		324.00000 
 43692.65567		 742.05839			42950.59728		218.17000		875.00000 
 43692.65567		 305.27265			43387.38302		69.17800		324.00000 
 43692.65567		 742.05839			42950.59728		218.17000		875.00000 
 43692.65567		 305.27265			43387.38302		69.17800		324.00000 
 43692.65567		 742.05839			42950.59728		218.17000		875.00000 
 43692.65567		 305.27265			43387.38302		69.17800		324.00000 
 43692.65567		 742.05839			42950.59728		218.17000		875.00000 
 43692.65567		 305.27265			43387.38302		69.17800		324.00000 
 43692.65567		 742.05839			42950.59728		218.17000		875.00000 
 43692.65567		 305.27265			43387.38302		69.17800		324.00000 
 43692.65567		 742.05839			42950.59728		218.17000		875.00000 
 43692.65567		 305.27265			43387.38302		69.17800		324.00000 
 43692.65567		 742.05839			42950.59728		218.17000		875.00000 
 43692.65567		 305.27265			43387.38302		69.17800		324.00000 
 43692.65567		 742.05839			42950.59728		218.17000		875.00000 
 43692.65567		 305.27265			43387.38302		69.17800		324.00000 
 43692.65567		 742.05839			42950.59728		218.17000		875.00000 
 43692.65567		 305.27265			43387.38302		69.17800		324.00000 
 43692.65567		 742.05839			42950.59728		218.17000		875.00000 
 43692.65567		 305.27265			43387.38302		69.17800		324.00000 
 43692.65567		 742.05839			42950.59728		218.17000		875.00000 
 43692.65567		 305.27265			43387.38302		69.17800		324.00000 
 43692.65567		 742.05839			42950.59728		218.17000		875.00000 
 43692.65567		 305.27265			43387.38302		69.17800		324.00000 
 43692.65567		 742.05839			42950.59728		218.17000		875.00000 
 43692.65567		 305.27265			43387.38302		69.17800		324.00000 
 43692.65567		 742.05839			42950.59728		218.17000		875.00000 
 43692.65567		 305.27265			43387.38302		69.17800		324.00000 
 43692.65567		 742.05839			42950.59728		218.17000		875.00000 
 43692.65567		 305.27265			43387.38302		69.17800		324.00000 
 43692.65567		 742.05839			42950.59728		218.17000		875.00000 
 43692.65567		 305.27265			43387.38302		69.17800		324.00000 
 43692.65567		 742.05839			42950.59728		218.17000		875.00000 
 43692.65567		 305.27265			43387.38302		69.17800		324.00000 
 43692.65567		 742.05839			42950.59728		218.17000		875.00000 
 43692.65567		 305.27265			43387.38302		69.17800		324.00000 
 43692.65567		 742.05839			42950.59728		218.17000		875.00000 
 43692.65567		 305.27265			43387.38302		69.17800		324.00000 
 43692.65567		 742.05839			42950.59728		218.17000		875.00000 
 43692.65567		 305.27265			43387.38302		69.17800		324.00000 
 43692.65567		 742.05839			42950.59728		218.17000		875.00000 
 43692.65567		 305.27265			43387.38302		69.17800		324.00000 
 43692.65567		 742.05839			42950.59728		218.17000		875.00000 
 43692.65567		 305.27265			43387.38302		69.17800		324.00000 
 43692.65567		 742.05839			42950.59728		218.17000		875.00000 
 43692.65567		 305.27265			43387.38302		69.17800		324.00000 
 43692.65567		 742.05839			42950.59728		218.17000		875.00000 
 43692.65567		 305.27265			43387.38302		69.17800		324.00000 
 43692.65567		 742.05839			42950.59728		218.17000		875.00000 
 43692.65567		 305.27265			43387.38302		69.17800		324.00000 
 43692.65567		 742.05839			42950.59728		218.17000		875.00000 
 43692.65567		 305.27265			43387.38302		69.17800		324.00000 
 43692.65567		 742.05839			42950.59728		218.17000		875.00000 
 43692.65567		 305.27265			43387.38302		69.17800		324.00000 
 43692.65567		 742.05839			42950.59728		218.17000		875.00000 
 43692.65567		 305.27265			43387.38302		69.17800		324.00000 
 43692.65567		 742.05839			42950.59728		218.17000		875.00000 
 43692.65567		 305.27265			43387.38302		69.17800		324.00000 
 43692.65567		 742.05839			42950.59728		218.17000		875.00000 
 43692.65567		 305.27265			43387.38302		69.17800		324.00000 
 43692.65567		 742.05839			42950.59728		218.17000		875.00000 
 43692.65567		 305.27265			43387.38302		69.17800		324.00000 
 43692.65567		 742.05839			42950.59728		218.17000		875.00000 
 43692.65567		 305.27265			43387.38302		69.17800		324.00000 
 43692.65567		 742.05839			42950.59728		218.17000		875.00000 
 43692.65567		 305.27265			43387.38302		69.17800		324.00000 
 43692.65567		 742.05839			42950.59728		218.17000		875.00000 
 43692.65567		 305.27265			43387.38302		69.17800		324.00000 
 43692.65567		 742.05839			42950.59728		218.17000		875.00000 
 43692.65567		 305.27265			43387.38302		69.17800		324.00000 
 43692.65567		 742.05839			42950.59728		218.17000		875.00000 
 43692.65567		 305.27265			43387.38302		69.17800		324.00000 
 43692.65567		 742.05839			42950.59728		218.17000		875.00000 
 43692.65567		 305.27265			43387.38302		69.17800		324.00000 
 43692.65567		 742.05839			42950.59728		218.17000		875.00000 
 43692.65567		 305.27265			43387.38302		69.17800		324.00000 
 43692.65567		 742.05839			42950.59728		218.17000		875.00000 
 43692.65567		 305.27265			43387.38302		69.17800		324.00000 
 43692.65567		 742.05839			42950.59728		218.17000		875.00000 
 43692.65567		 305.27265			43387.38302		69.17800		324.00000 
 43692.65567		 742.05839			42950.59728		218.17000		875.00000 
 43692.65567		 305.27265			43387.38302		69.17800		324.00000 
 43692.65567		 742.05839			42950.59728		218.17000		875.00000 
 43692.65567		 305.27265			43387.38302		69.17800		324.00000 
 43692.65567		 742.05839			42950.59728		219.89400		875.00000 
 43692.65567		 305.27265			43387.38302		69.17800		324.00000 
 43692.65567		 742.05839			42950.59728		219.89400		875.00000 
 43692.65567		 305.27265			43387.38302		69.17800		324.00000 
 43692.65567		 742.05839			42950.59728		219.89400		875.00000 
 43692.65567		 305.27265			43387.38302		69.17800		324.00000 
 43692.65567		 742.05839			42950.59728		219.89400		875.00000 
 43692.65567		 305.27265			43387.38302		69.17800		324.00000 
 43692.65567		 742.05839			42950.59728		219.89400		875.00000 
 43692.65567		 305.27265			43387.38302		69.17800		324.00000 
 43692.65567		 742.05839			42950.59728		219.89400		875.00000 
 43692.65567		 305.27265			43387.38302		69.17800		324.00000 
 43692.65567		 742.05839			42950.59728		219.89400		875.00000 
 43692.65567		 305.27265			43387.38302		69.17800		324.00000 
 43692.65567		 742.05839			42950.59728		219.89400		875.00000 
 43692.65567		 305.27265			43387.38302		69.17800		324.00000 
 43692.65567		 742.05839			42950.59728		219.89400		875.00000 
 43692.65567		 305.27265			43387.38302		69.17800		324.00000 
 43692.65567		 742.05839			42950.59728		219.89400		875.00000 
 43692.65567		 305.27265			43387.38302		69.17800		324.00000 
 43692.65567		 742.05839			42950.59728		219.89400		875.00000 
 43692.65567		 305.27265			43387.38302		69.17800		324.00000 
 43692.65567		 742.05839			42950.59728		219.89400		875.00000 
 43692.65567		 305.27265			43387.38302		69.17800		324.00000 
 43692.65567		 742.05839			42950.59728		219.89400		875.00000 
 43692.65567		 305.27265			43387.38302		69.17800		324.00000 
 43692.65567		 742.05839			42950.59728		219.89400		875.00000 
 43692.65567		 305.27265			43387.38302		69.17800		324.00000 
 43692.65567		 742.05839			42950.59728		219.89400		875.00000 
 43692.65567		 305.27265			43387.38302		69.17800		324.00000 
 43692.65567		 742.05839			42950.59728		219.89400		875.00000 
 43692.65567		 305.27265			43387.38302		69.17800		324.00000 
 43692.65567		 742.05839			42950.59728		219.89400		875.00000 
 43692.65567		 305.27265			43387.38302		69.17800		324.00000 
 43692.65567		 742.05839			42950.59728		219.89400		875.00000 
 43692.65567		 305.27265			43387.38302		69.17800		324.00000 
 43692.65567		 742.05839			42950.59728		219.89400		875.00000 
 43692.65567		 305.27265			43387.38302		69.17800		324.00000 
 43692.65567		 742.05839			42950.59728		219.89400		875.00000 
 43692.65567		 305.27265			43387.38302		69.17800		324.00000 
 43692.65567		 742.05839			42950.59728		219.89400		875.00000 
 43692.65567		 305.27265			43387.38302		69.17800		324.00000 
 43692.65567		 742.05839			42950.59728		219.89400		875.00000 
 43692.65567		 305.27265			43387.38302		69.17800		324.00000 
 43692.65567		 742.05839			42950.59728		219.89400		875.00000 
 43692.65567		 305.27265			43387.38302		69.17800		324.00000 
 43692.65567		 742.05839			42950.59728		219.89400		875.00000 
 43692.65567		 305.27265			43387.38302		69.17800		324.00000 
 43692.65567		 742.05839			42950.59728		219.89400		875.00000 
 43692.65567		 305.27265			43387.38302		69.17800		324.00000 
 43692.65567		 742.05839			42950.59728		219.89400		875.00000 
 43692.65567		 305.27265			43387.38302		69.17800		324.00000 
 43692.65567		 742.05839			42950.59728		219.89400		875.00000 
 43692.65567		 305.27265			43387.38302		69.17800		324.00000 
 43692.65567		 742.05839			42950.59728		219.89400		875.00000 
 43692.65567		 305.27265			43387.38302		69.17800		324.00000 
 43692.65567		 742.05839			42950.59728		219.89400		875.00000 
 43692.65567		 305.27265			43387.38302		69.17800		324.00000 
 43692.65567		 742.05839			42950.59728		219.89400		875.00000 
 43692.65567		 305.27265			43387.38302		69.17800		324.00000 
 43692.65567		 742.05839			42950.59728		219.89400		875.00000 
 43692.65567		 305.27265			43387.38302		69.17800		324.00000 
 43692.65567		 742.05839			42950.59728		219.89400		875.00000 
 43692.65567		 305.27265			43387.38302		69.17800		324.00000 
 43692.65567		 742.05839			42950.59728		219.89400		875.00000 
 43692.65567		 305.27265			43387.38302		69.17800		324.00000 
 43692.65567		 742.05839			42950.59728		219.89400		875.00000 
 43692.65567		 305.27265			43387.38302		69.17800		324.00000 
 43692.65567		 742.05839			42950.59728		219.89400		875.00000 
 43692.65567		 305.27265			43387.38302		69.17800		324.00000 
 43692.65567		 742.05839			42950.59728		219.89400		875.00000 
 43692.65567		 305.27265			43387.38302		69.17800		324.00000 
 43692.65567		 742.05839			42950.59728		219.89400		875.00000 
 43692.65567		 305.27265			43387.38302		69.17800		324.00000 
 43692.65567		 742.05839			42950.59728		219.89400		875.00000 
 43692.65567		 305.27265			43387.38302		69.17800		324.00000 
 43692.65567		 742.05839			42950.59728		219.89400		875.00000 
 43692.65567		 305.27265			43387.38302		69.17800		324.00000 
 43692.65567		 742.05839			42950.59728		219.89400		875.00000 
 43692.65567		 305.27265			43387.38302		69.17800		324.00000 
 43692.65567		 742.05839			42950.59728		219.89400		875.00000 
 43692.65567		 305.27265			43387.38302		69.17800		324.00000 
 43692.65567		 742.05839			42950.59728		219.89400		875.00000 
 43692.65567		 305.27265			43387.38302		69.17800		324.00000 
 43692.65567		 742.05839			42950.59728		219.89400		875.00000 
 43692.65567		 305.27265			43387.38302		69.17800		324.00000 
 43692.65567		 742.05839			42950.59728		219.89400		875.00000 
 43692.65567		 305.27265			43387.38302		69.17800		324.00000 
 43692.65567		 742.05839			42950.59728		219.89400		875.00000 
 43692.65567		 305.27265			43387.38302		69.17800		324.00000 
 43692.65567		 742.05839			42950.59728		219.89400		875.00000 
 43692.65567		 305.27265			43387.38302		69.17800		324.00000 
 43692.65567		 742.05839			42950.59728		219.89400		875.00000 
 43692.65567		 305.27265			43387.38302		69.17800		324.00000 
 43692.65567		 742.05839			42950.59728		219.89400		875.00000 
 43692.65567		 305.27265			43387.38302		69.17800		324.00000 
 43692.65567		 742.05839			42950.59728		219.89400		875.00000 
 43692.65567		 305.27265			43387.38302		69.17800		324.00000 
 43692.65567		 742.05839			42950.59728		219.89400		875.00000 
 43692.65567		 305.27265			43387.38302		69.17800		324.00000 
 43692.65567		 742.05839			42950.59728		219.89400		875.00000 
 43692.65567		 305.27265			43387.38302		69.17800		324.00000 
 43692.65567		 742.05839			42950.59728		219.89400		875.00000 
 43692.65567		 305.27265			43387.38302		69.17800		324.00000 
 43692.65567		 742.05839			42950.59728		219.89400		875.00000 
 43692.65567		 305.27265			43387.38302		69.17800		324.00000 
 43692.65567		 742.05839			42950.59728		219.89400		875.00000 
 43692.65567		 305.27265			43387.38302		69.17800		324.00000 
 43692.65567		 742.05839			42950.59728		219.89400		875.00000 
 43692.65567		 305.27265			43387.38302		69.17800		324.00000 
 43692.65567		 742.05839			42950.59728		219.89400		875.00000 
 43692.65567		 305.27265			43387.38302		69.17800		324.00000 
 43692.65567		 742.05839			42950.59728		219.89400		875.00000 
 43692.65567		 305.27265			43387.38302		69.17800		324.00000 
 43692.65567		 742.05839			42950.59728		219.89400		875.00000 
 43692.65567		 305.27265			43387.38302		69.17800		324.00000 
 43692.65567		 742.05839			42950.59728		219.89400		875.00000 
 43692.65567		 305.27265			43387.38302		69.17800		324.00000 
 43692.65567		 742.05839			42950.59728		219.48800		875.00000 
 43692.65567		 305.27265			43387.38302		69.17800		324.00000 
 43692.65567		 742.05839			42950.59728		219.48800		875.00000 
 43692.65567		 305.27265			43387.38302		69.17800		324.00000 
 43692.65567		 742.05839			42950.59728		219.48800		875.00000 
 43692.65567		 305.27265			43387.38302		69.17800		324.00000 
 43692.65567		 742.05839			42950.59728		219.48800		875.00000 
 43692.65567		 305.27265			43387.38302		69.17800		324.00000 
 43692.65567		 742.05839			42950.59728		219.48800		875.00000 
 43692.65567		 305.27265			43387.38302		69.17800		324.00000 
 43692.65567		 742.05839			42950.59728		219.48800		875.00000 
 43692.65567		 305.27265			43387.38302		69.17800		324.00000 
 43692.65567		 742.05839			42950.59728		219.48800		875.00000 
 43692.65567		 305.27265			43387.38302		69.17800		324.00000 
 43692.65567		 742.05839			42950.59728		219.48800		875.00000 
 43692.65567		 305.27265			43387.38302		69.17800		324.00000 
 43692.65567		 742.05839			42950.59728		219.48800		875.00000 
 43692.65567		 305.27265			43387.38302		69.17800		324.00000 
 43692.65567		 742.05839			42950.59728		219.48800		875.00000 
 43692.65567		 305.27265			43387.38302		69.17800		324.00000 
 43692.65567		 742.05839			42950.59728		219.48800		875.00000 
 43692.65567		 305.27265			43387.38302		69.17800		324.00000 
 43692.65567		 742.05839			42950.59728		219.48800		875.00000 
 43692.65567		 305.27265			43387.38302		69.17800		324.00000 
 43692.65567		 742.05839			42950.59728		219.48800		875.00000 
 43692.65567		 305.27265			43387.38302		69.17800		324.00000 
 43692.65567		 742.05839			42950.59728		219.48800		875.00000 
 43692.65567		 305.27265			43387.38302		69.17800		324.00000 
 43692.65567		 742.05839			42950.59728		219.48800		875.00000 
 43692.65567		 305.27265			43387.38302		69.17800		324.00000 
 43692.65567		 742.05839			42950.59728		219.48800		875.00000 
 43692.65567		 305.27265			43387.38302		69.17800		324.00000 
 43692.65567		 742.05839			42950.59728		219.48800		875.00000 
 43692.65567		 305.27265			43387.38302		69.17800		324.00000 
 43692.65567		 742.05839			42950.59728		219.48800		875.00000 
 43692.65567		 305.27265			43387.38302		69.17800		324.00000 
 43692.65567		 742.05839			42950.59728		219.48800		875.00000 
 43692.65567		 305.27265			43387.38302		69.17800		324.00000 
 43692.65567		 742.05839			42950.59728		219.48800		875.00000 
 43692.65567		 305.27265			43387.38302		69.17800		324.00000 
 43692.65567		 742.05839			42950.59728		219.48800		875.00000 
 43692.65567		 305.27265			43387.38302		69.17800		324.00000 
 43692.65567		 742.05839			42950.59728		219.48800		875.00000 
 43692.65567		 305.27265			43387.38302		69.17800		324.00000 
 43692.65567		 742.05839			42950.59728		219.48800		875.00000 
 43692.65567		 305.27265			43387.38302		69.17800		324.00000 
 43692.65567		 742.05839			42950.59728		219.48800		875.00000 
 43692.65567		 305.27265			43387.38302		69.17800		324.00000 
 43692.65567		 742.05839			42950.59728		219.48800		875.00000 
 43692.65567		 305.27265			43387.38302		69.17800		324.00000 
 43692.65567		 742.05839			42950.59728		219.48800		875.00000 
 43692.65567		 305.27265			43387.38302		69.17800		324.00000 
 43692.65567		 742.05839			42950.59728		219.48800		875.00000 
 43692.65567		 305.27265			43387.38302		69.17800		324.00000 
 43692.65567		 742.05839			42950.59728		219.48800		875.00000 
 43692.65567		 305.27265			43387.38302		69.17800		324.00000 
 43692.65567		 742.05839			42950.59728		219.48800		875.00000 
 43692.65567		 305.27265			43387.38302		69.17800		324.00000 
 43692.65567		 742.05839			42950.59728		219.48800		875.00000 
 43692.65567		 305.27265			43387.38302		69.17800		324.00000 
 43692.65567		 742.05839			42950.59728		219.48800		875.00000 
 43692.65567		 305.27265			43387.38302		69.17800		324.00000 
 43692.65567		 742.05839			42950.59728		219.48800		875.00000 
 43692.65567		 305.27265			43387.38302		69.17800		324.00000 
 43692.65567		 742.05839			42950.59728		219.48800		875.00000 
 43692.65567		 305.27265			43387.38302		69.17800		324.00000 
 43692.65567		 742.05839			42950.59728		219.48800		875.00000 
 43692.65567		 305.27265			43387.38302		69.17800		324.00000 
 43692.65567		 742.05839			42950.59728		219.48800		875.00000 
 43692.65567		 305.27265			43387.38302		69.17800		324.00000 
 43692.65567		 742.05839			42950.59728		219.48800		875.00000 
 43692.65567		 305.27265			43387.38302		69.17800		324.00000 
 43692.65567		 742.05839			42950.59728		219.48800		875.00000 
 43692.65567		 305.27265			43387.38302		69.17800		324.00000 
 43692.65567		 742.05839			42950.59728		219.48800		875.00000 
 43692.65567		 305.27265			43387.38302		69.17800		324.00000 
 43692.65567		 742.05839			42950.59728		219.48800		875.00000 
 43692.65567		 305.27265			43387.38302		69.17800		324.00000 
 43692.65567		 742.05839			42950.59728		219.48800		875.00000 
 43692.65567		 305.27265			43387.38302		69.17800		324.00000 
 43692.65567		 742.05839			42950.59728		219.48800		875.00000 
 43692.65567		 305.27265			43387.38302		69.17800		324.00000 
 43692.65567		 742.05839			42950.59728		219.48800		875.00000 
 43692.65567		 305.27265			43387.38302		69.17800		324.00000 
 43692.65567		 742.05839			42950.59728		219.48800		875.00000 
 43692.65567		 305.27265			43387.38302		69.17800		324.00000 
 43692.65567		 742.05839			42950.59728		219.48800		875.00000 
 43692.65567		 305.27265			43387.38302		69.17800		324.00000 
 43692.65567		 742.05839			42950.59728		219.48800		875.00000 
 43692.65567		 305.27265			43387.38302		69.17800		324.00000 
 43692.65567		 742.05839			42950.59728		219.48800		875.00000 
 43692.65567		 305.27265			43387.38302		69.17800		324.00000 
 43692.65567		 742.05839			42950.59728		219.48800		875.00000 
 43692.65567		 305.27265			43387.38302		69.17800		324.00000 
 43692.65567		 742.05839			42950.59728		219.48800		875.00000 
 43692.65567		 305.27265			43387.38302		69.17800		324.00000 
 43692.65567		 742.05839			42950.59728		219.48800		875.00000 
 43692.65567		 305.27265			43387.38302		69.17800		324.00000 
 43692.65567		 742.05839			42950.59728		219.48800		875.00000 
 43692.65567		 305.27265			43387.38302		69.17800		324.00000 
 43692.65567		 742.05839			42950.59728		219.48800		875.00000 
 43692.65567		 305.27265			43387.38302		69.17800		324.00000 
 43692.65567		 742.05839			42950.59728		219.48800		875.00000 
 43692.65567		 305.27265			43387.38302		69.17800		324.00000 
 43692.65567		 742.05839			42950.59728		219.48800		875.00000 
 43692.65567		 305.27265			43387.38302		69.17800		324.00000 
 43692.65567		 742.05839			42950.59728		219.48800		875.00000 
 43692.65567		 305.27265			43387.38302		69.17800		324.00000 
 43692.65567		 742.05839			42950.59728		219.48800		875.00000 
 43692.65567		 305.27265			43387.38302		69.17800		324.00000 
 43692.65567		 742.05839			42950.59728		219.48800		875.00000 
 43692.65567		 305.27265			43387.38302		69.17800		324.00000 
 43692.65567		 742.05839			42950.59728		219.48800		875.00000 
 43692.65567		 305.27265			43387.38302		69.17800		324.00000 
 43692.65567		 742.05839			42950.59728		219.48800		875.00000 
 43692.65567		 305.27265			43387.38302		69.17800		324.00000 
 43692.65567		 742.05839			42950.59728		219.06200		875.00000 
 43692.65567		 305.27265			43387.38302		69.17800		324.00000 
 43692.65567		 742.05839			42950.59728		219.06200		875.00000 
 43692.65567		 305.27265			43387.38302		69.17800		324.00000 
 43692.65567		 742.05839			42950.59728		219.06200		875.00000 
 43692.65567		 305.27265			43387.38302		69.17800		324.00000 
 43692.65567		 742.05839			42950.59728		219.06200		875.00000 
 43692.65567		 305.27265			43387.38302		69.17800		324.00000 
 43692.65567		 742.05839			42950.59728		219.06200		875.00000 
 43692.65567		 305.27265			43387.38302		69.17800		324.00000 
 43692.65567		 742.05839			42950.59728		219.06200		875.00000 
 43692.65567		 305.27265			43387.38302		69.17800		324.00000 
 43692.65567		 742.05839			42950.59728		219.06200		875.00000 
 43692.65567		 305.27265			43387.38302		69.17800		324.00000 
 43692.65567		 742.05839			42950.59728		219.06200		875.00000 
 43692.65567		 305.27265			43387.38302		69.17800		324.00000 
 43692.65567		 742.05839			42950.59728		219.06200		875.00000 
 43692.65567		 305.27265			43387.38302		69.17800		324.00000 
 43692.65567		 742.05839			42950.59728		219.06200		875.00000 
 43692.65567		 305.27265			43387.38302		69.17800		324.00000 
 43692.65567		 742.05839			42950.59728		219.06200		875.00000 
 43692.65567		 305.27265			43387.38302		69.17800		324.00000 
 43692.65567		 742.05839			42950.59728		219.06200		875.00000 
 43692.65567		 305.27265			43387.38302		69.17800		324.00000 
 43692.65567		 742.05839			42950.59728		219.06200		875.00000 
 43692.65567		 305.27265			43387.38302		69.17800		324.00000 
 43692.65567		 742.05839			42950.59728		219.06200		875.00000 
 43692.65567		 305.27265			43387.38302		69.17800		324.00000 
 43692.65567		 742.05839			42950.59728		219.06200		875.00000 
 43692.65567		 305.27265			43387.38302		69.17800		324.00000 
 43692.65567		 742.05839			42950.59728		219.06200		875.00000 
 43692.65567		 305.27265			43387.38302		69.17800		324.00000 
 43692.65567		 742.05839			42950.59728		219.06200		875.00000 
 43692.65567		 305.27265			43387.38302		69.17800		324.00000 
 43692.65567		 742.05839			42950.59728		219.06200		875.00000 
 43692.65567		 305.27265			43387.38302		69.17800		324.00000 
 43692.65567		 742.05839			42950.59728		219.06200		875.00000 
 43692.65567		 305.27265			43387.38302		69.17800		324.00000 
 43692.65567		 742.05839			42950.59728		219.06200		875.00000 
 43692.65567		 305.27265			43387.38302		69.17800		324.00000 
 43692.65567		 742.05839			42950.59728		219.06200		875.00000 
 43692.65567		 305.27265			43387.38302		69.17800		324.00000 
 43692.65567		 742.05839			42950.59728		219.06200		875.00000 
 43692.65567		 305.27265			43387.38302		69.17800		324.00000 
 43692.65567		 742.05839			42950.59728		219.06200		875.00000 
 43692.65567		 305.27265			43387.38302		69.17800		324.00000 
 43692.65567		 742.05839			42950.59728		219.06200		875.00000 
 43692.65567		 305.27265			43387.38302		69.17800		324.00000 
 43692.65567		 742.05839			42950.59728		219.06200		875.00000 
 43692.65567		 305.27265			43387.38302		69.17800		324.00000 
 43692.65567		 742.05839			42950.59728		219.06200		875.00000 
 43692.65567		 305.27265			43387.38302		69.17800		324.00000 
 43692.65567		 742.05839			42950.59728		219.06200		875.00000 
 43692.65567		 305.27265			43387.38302		69.17800		324.00000 
 43692.65567		 742.05839			42950.59728		219.06200		875.00000 
 43692.65567		 305.27265			43387.38302		69.17800		324.00000 
 43692.65567		 742.05839			42950.59728		219.06200		875.00000 
 43692.65567		 305.27265			43387.38302		69.17800		324.00000 
 43692.65567		 742.05839			42950.59728		219.06200		875.00000 
 43692.65567		 305.27265			43387.38302		69.17800		324.00000 
 43692.65567		 742.05839			42950.59728		219.06200		875.00000 
 43692.65567		 305.27265			43387.38302		69.17800		324.00000 
 43692.65567		 742.05839			42950.59728		219.06200		875.00000 
 43692.65567		 305.27265			43387.38302		69.17800		324.00000 
 43692.65567		 742.05839			42950.59728		219.06200		875.00000 
 43692.65567		 305.27265			43387.38302		69.17800		324.00000 
 43692.65567		 742.05839			42950.59728		219.06200		875.00000 
 43692.65567		 305.27265			43387.38302		69.17800		324.00000 
 43692.65567		 742.05839			42950.59728		219.06200		875.00000 
 43692.65567		 305.27265			43387.38302		69.17800		324.00000 
 43692.65567		 742.05839			42950.59728		219.06200		875.00000 
 43692.65567		 305.27265			43387.38302		69.17800		324.00000 
 43692.65567		 742.05839			42950.59728		219.06200		875.00000 
 43692.65567		 305.27265			43387.38302		69.17800		324.00000 
 43692.65567		 742.05839			42950.59728		219.06200		875.00000 
 43692.65567		 305.27265			43387.38302		69.17800		324.00000 
 43692.65567		 742.05839			42950.59728		219.06200		875.00000 
 43692.65567		 305.27265			43387.38302		69.17800		324.00000 
 43692.65567		 742.05839			42950.59728		219.06200		875.00000 
 43692.65567		 305.27265			43387.38302		69.17800		324.00000 
 43692.65567		 742.05839			42950.59728		219.06200		875.00000 
 43692.65567		 305.27265			43387.38302		69.17800		324.00000 
 43692.65567		 742.05839			42950.59728		219.06200		875.00000 
 43692.65567		 305.27265			43387.38302		69.17800		324.00000 
 43692.65567		 742.05839			42950.59728		219.06200		875.00000 
 43692.65567		 305.27265			43387.38302		69.17800		324.00000 
 43692.65567		 742.05839			42950.59728		219.06200		875.00000 
 43692.65567		 305.27265			43387.38302		69.17800		324.00000 
 43692.65567		 742.05839			42950.59728		219.06200		875.00000 
 43692.65567		 305.27265			43387.38302		69.17800		324.00000 
 43692.65567		 742.05839			42950.59728		219.06200		875.00000 
 43692.65567		 305.27265			43387.38302		69.17800		324.00000 
 43692.65567		 742.05839			42950.59728		219.06200		875.00000 
 43692.65567		 305.27265			43387.38302		69.17800		324.00000 
 43692.65567		 742.05839			42950.59728		219.06200		875.00000 
 43692.65567		 305.27265			43387.38302		69.17800		324.00000 
 43692.65567		 742.05839			42950.59728		219.06200		875.00000 
 43692.65567		 305.27265			43387.38302		69.17800		324.00000 
 43692.65567		 742.05839			42950.59728		219.06200		875.00000 
 43692.65567		 305.27265			43387.38302		69.17800		324.00000 
 43692.65567		 742.05839			42950.59728		219.06200		875.00000 
 43692.65567		 305.27265			43387.38302		69.17800		324.00000 
 43692.65567		 742.05839			42950.59728		219.06200		875.00000 
 43692.65567		 305.27265			43387.38302		69.17800		324.00000 
 43692.65567		 742.05839			42950.59728		219.06200		875.00000 
 43692.65567		 305.27265			43387.38302		69.17800		324.00000 
 43692.65567		 742.05839			42950.59728		219.06200		875.00000 
 43692.65567		 305.27265			43387.38302		69.17800		324.00000 
 43692.65567		 742.05839			42950.59728		219.06200		875.00000 
 43692.65567		 305.27265			43387.38302		69.17800		324.00000 
 43692.65567		 742.05839			42950.59728		219.06200		875.00000 
 43692.65567		 305.27265			43387.38302		69.17800		324.00000 
 43692.65567		 742.05839			42950.59728		219.06200		875.00000 
 43692.65567		 305.27265			43387.38302		69.17800		324.00000 
 43692.65567		 742.05839			42950.59728		219.06200		875.00000 
 43692.65567		 305.27265			43387.38302		69.17800		324.00000 
 43692.65567		 742.05839			42950.59728		219.06200		875.00000 
 43692.65567		 305.27265			43387.38302		69.17800		324.00000 
 43692.65567		 742.05839			42950.59728		219.06200		875.00000 
 43692.65567		 305.27265			43387.38302		69.17800		324.00000 
 43692.65567		 742.05839			42950.59728		219.06200		875.00000 
 43692.65567		 305.27265			43387.38302		69.17800		324.00000 
 43692.65567		 742.05839			42950.59728		219.06200		875.00000 
 43692.65567		 305.27265			43387.38302		69.17800		324.00000 
 43692.65567		 742.05839			42950.59728		219.06200		875.00000 
 43692.65567		 305.27265			43387.38302		69.17800		324.00000 
 43692.65567		 742.05839			42950.59728		219.06200		875.00000 
 43692.65567		 305.27265			43387.38302		69.17800		324.00000 
 43692.65567		 742.05839			42950.59728		219.06200		875.00000 
 43692.65567		 305.27265			43387.38302		69.17800		324.00000 
 43692.65567		 742.05839			42950.59728		219.06200		875.00000 
 43692.65567		 305.27265			43387.38302		69.17800		324.00000 
 43692.65567		 742.05839			42950.59728		219.06200		875.00000 
 43692.65567		 305.27265			43387.38302		69.17800		324.00000 
 43692.65567		 742.05839			42950.59728		219.06200		875.00000 
 43692.65567		 305.27265			43387.38302		69.17800		324.00000 
 43692.65567		 742.05839			42950.59728		219.06200		875.00000 
 43692.65567		 305.27265			43387.38302		69.17800		324.00000 
 43692.65567		 742.05839			42950.59728		219.06200		875.00000 
 43692.65567		 305.27265			43387.38302		69.17800		324.00000 
 43692.65567		 742.05839			42950.59728		219.06200		875.00000 
 43692.65567		 305.27265			43387.38302		69.17800		324.00000 
 43692.65567		 742.05839			42950.59728		219.06200		875.00000 
 43692.65567		 305.27265			43387.38302		69.17800		324.00000 
 43692.65567		 742.05839			42950.59728		219.06200		875.00000 
 43692.65567		 305.27265			43387.38302		69.17800		324.00000 
 43692.65567		 742.05839			42950.59728		219.06200		875.00000 
 43692.65567		 305.27265			43387.38302		69.17800		324.00000 
 43692.65567		 742.05839			42950.59728		219.06200		875.00000 
 43692.65567		 305.27265			43387.38302		69.17800		324.00000 
 43692.65567		 742.05839			42950.59728		219.06200		875.00000 
 43692.65567		 305.27265			43387.38302		69.17800		324.00000 
 43692.65567		 742.05839			42950.59728		219.06200		875.00000 
 43692.65567		 305.27265			43387.38302		69.17800		324.00000 
 43692.65567		 742.05839			42950.59728		219.06200		875.00000 
 43692.65567		 305.27265			43387.38302		69.17800		324.00000 
 43692.65567		 742.05839			42950.59728		219.06200		875.00000 
 43692.65567		 305.27265			43387.38302		69.17800		324.00000 
 43692.65567		 742.05839			42950.59728		219.06200		875.00000 
 43692.65567		 305.27265			43387.38302		69.17800		324.00000 
 43692.65567		 742.05839			42950.59728		219.06200		875.00000 
 43692.65567		 305.27265			43387.38302		69.17800		324.00000 
 43692.65567		 742.05839			42950.59728		219.06200		875.00000 
 43692.65567		 305.27265			43387.38302		69.17800		324.00000 
 43692.65567		 742.05839			42950.59728		219.06200		875.00000 
 43692.65567		 305.27265			43387.38302		69.17800		324.00000 
 43692.65567		 742.05839			42950.59728		219.06200		875.00000 
 43692.65567		 305.27265			43387.38302		69.17800		324.00000 
 43692.65567		 742.05839			42950.59728		219.06200		875.00000 
 43692.65567		 305.27265			43387.38302		69.17800		324.00000 
 43692.65567		 742.05839			42950.59728		219.06200		875.00000 
 43692.65567		 305.27265			43387.38302		69.17800		324.00000 
 43692.65567		 742.05839			42950.59728		219.06200		875.00000 
 43692.65567		 305.27265			43387.38302		69.17800		324.00000 
 43692.65567		 742.05839			42950.59728		219.06200		875.00000 
 43692.65567		 305.27265			43387.38302		69.17800		324.00000 
 43692.65567		 742.05839			42950.59728		219.06200		875.00000 
 43692.65567		 305.27265			43387.38302		69.17800		324.00000 
 43692.65567		 742.05839			42950.59728		219.06200		875.00000 
 43692.65567		 305.27265			43387.38302		69.17800		324.00000 
 43692.65567		 742.05839			42950.59728		219.06200		875.00000 
 43692.65567		 305.27265			43387.38302		69.17800		324.00000 
 43692.65567		 742.05839			42950.59728		219.06200		875.00000 
 43692.65567		 305.27265			43387.38302		69.17800		324.00000 
 43692.65567		 742.05839			42950.59728		219.06200		875.00000 
 43692.65567		 305.27265			43387.38302		69.17800		324.00000 
 43692.65567		 742.05839			42950.59728		219.06200		875.00000 
 43692.65567		 305.27265			43387.38302		69.17800		324.00000 
 43692.65567		 742.05839			42950.59728		219.06200		875.00000 
 43692.65567		 305.27265			43387.38302		69.17800		324.00000 
 43692.65567		 742.05839			42950.59728		219.06200		875.00000 
 43692.65567		 305.27265			43387.38302		69.17800		324.00000 
 43692.65567		 742.05839			42950.59728		219.06200		875.00000 
 43692.65567		 305.27265			43387.38302		69.17800		324.00000 
 43692.65567		 742.05839			42950.59728		219.06200		875.00000 
 43692.65567		 305.27265			43387.38302		69.17800		324.00000 
 43692.65567		 742.05839			42950.59728		219.06200		875.00000 
 43692.65567		 305.27265			43387.38302		69.17800		324.00000 
 43692.65567		 742.05839			42950.59728		219.06200		875.00000 
 43692.65567		 305.27265			43387.38302		69.17800		324.00000 
 43692.65567		 742.05839			42950.59728		219.06200		875.00000 
 43692.65567		 305.27265			43387.38302		69.17800		324.00000 
 43692.65567		 742.05839			42950.59728		219.06200		875.00000 
 43692.65567		 305.27265			43387.38302		69.17800		324.00000 
 43692.65567		 742.05839			42950.59728		219.06200		875.00000 
 43692.65567		 305.27265			43387.38302		69.17800		324.00000 
 43692.65567		 742.05839			42950.59728		219.06200		875.00000 
 43692.65567		 305.27265			43387.38302		69.17800		324.00000 
 43692.65567		 742.05839			42950.59728		219.06200		875.00000 
 43692.65567		 305.27265			43387.38302		69.17800		324.00000 
 43692.65567		 742.05839			42950.59728		219.06200		875.00000 
 43692.65567		 305.27265			43387.38302		69.17800		324.00000 
 43692.65567		 742.05839			42950.59728		219.06200		875.00000 
 43692.65567		 305.27265			43387.38302		69.17800		324.00000 
 43692.65567		 742.05839			42950.59728		219.06200		875.00000 
 43692.65567		 305.27265			43387.38302		69.17800		324.00000 
 43692.65567		 742.05839			42950.59728		219.06200		875.00000 
 43692.65567		 305.27265			43387.38302		69.17800		324.00000 
 43692.65567		 742.05839			42950.59728		219.06200		875.00000 
 43692.65567		 305.27265			43387.38302		69.17800		324.00000 
 43692.65567		 742.05839			42950.59728		219.06200		875.00000 
 43692.65567		 305.27265			43387.38302		69.17800		324.00000 
 43692.65567		 742.05839			42950.59728		219.06200		875.00000 
 43692.65567		 305.27265			43387.38302		69.17800		324.00000 
 43692.65567		 742.05839			42950.59728		219.06200		875.00000 
 43692.65567		 305.27265			43387.38302		69.17800		324.00000 
 43692.65567		 742.05839			42950.59728		219.06200		875.00000 
 43692.65567		 305.27265			43387.38302		69.17800		324.00000 
 43692.65567		 742.05839			42950.59728		219.06200		875.00000 
 43692.65567		 305.27265			43387.38302		69.17800		324.00000 
 43692.65567		 742.05839			42950.59728		219.06200		875.00000 
 43692.65567		 305.27265			43387.38302		69.17800		324.00000 
 43692.65567		 742.05839			42950.59728		219.06200		875.00000 
 43692.65567		 305.27265			43387.38302		69.17800		324.00000 
 43692.65567		 742.05839			42950.59728		219.06200		875.00000 
 43692.65567		 305.27265			43387.38302		69.17800		324.00000 
 43692.65567		 742.05839			42950.59728		219.06200		875.00000 
 43692.65567		 305.27265			43387.38302		69.17800		324.00000 
 43692.65567		 742.05839			42950.59728		219.06200		875.00000 
 43692.65567		 305.27265			43387.38302		69.17800		324.00000 
 43692.65567		 742.05839			42950.59728		219.06200		875.00000 
 43692.65567		 305.27265			43387.38302		69.17800		324.00000 
 43692.65567		 742.05839			42950.59728		219.06200		875.00000 
 43692.65567		 305.27265			43387.38302		69.17800		324.00000 
 43692.65567		 742.05839			42950.59728		219.06200		875.00000 
 43692.65567		 305.27265			43387.38302		69.17800		324.00000 
 43692.65567		 742.05839			42950.59728		219.06200		875.00000 
 43692.65567		 305.27265			43387.38302		69.17800		324.00000 
 43692.65567		 742.05839			42950.59728		219.06200		875.00000 
 43692.65567		 305.27265			43387.38302		69.17800		324.00000 
 43692.65567		 742.05839			42950.59728		219.06200		875.00000 
 43692.65567		 305.27265			43387.38302		69.17800		324.00000 
 43692.65567		 742.05839			42950.59728		219.06200		875.00000 
 43692.65567		 305.27265			43387.38302		69.17800		324.00000 
 43692.65567		 742.05839			42950.59728		219.06200		875.00000 
 43692.65567		 305.27265			43387.38302		69.17800		324.00000 
 43692.65567		 742.05839			42950.59728		219.06200		875.00000 
 43692.65567		 305.27265			43387.38302		69.17800		324.00000 
 43692.65567		 742.05839			42950.59728		219.06200		875.00000 
 43692.65567		 305.27265			43387.38302		69.17800		324.00000 
 43692.65567		 742.05839			42950.59728		219.06200		875.00000 
 43692.65567		 305.27265			43387.38302		69.17800		324.00000 
 43692.65567		 742.05839			42950.59728		219.06200		875.00000 
 43692.65567		 305.27265			43387.38302		69.17800		324.00000 
 43692.65567		 742.05839			42950.59728		219.06200		875.00000 
 43692.65567		 305.27265			43387.38302		69.17800		324.00000 
 43692.65567		 742.05839			42950.59728		219.06200		875.00000 
 43692.65567		 305.27265			43387.38302		69.17800		324.00000 
 43692.65567		 742.05839			42950.59728		219.06200		875.00000 
 43692.65567		 305.27265			43387.38302		69.17800		324.00000 
 43692.65567		 742.05839			42950.59728		219.06200		875.00000 
 43692.65567		 305.27265			43387.38302		69.17800		324.00000 
 43692.65567		 742.05839			42950.59728		219.06200		875.00000 
 43692.65567		 305.27265			43387.38302		69.17800		324.00000 
 43692.65567		 742.05839			42950.59728		219.06200		875.00000 
 43692.65567		 305.27265			43387.38302		69.17800		324.00000 
 43692.65567		 742.05839			42950.59728		219.06200		875.00000 
 43692.65567		 305.27265			43387.38302		69.17800		324.00000 
 43692.65567		 742.05839			42950.59728		219.06200		875.00000 
 43692.65567		 305.27265			43387.38302		69.17800		324.00000 
 43692.65567		 742.05839			42950.59728		219.06200		875.00000 
 43692.65567		 305.27265			43387.38302		69.17800		324.00000 
 43692.65567		 742.05839			42950.59728		219.06200		875.00000 
 43692.65567		 305.27265			43387.38302		69.17800		324.00000 
 43692.65567		 742.05839			42950.59728		219.06200		875.00000 
 43692.65567		 305.27265			43387.38302		69.17800		324.00000 
 43692.65567		 742.05839			42950.59728		219.06200		875.00000 
 43692.65567		 305.27265			43387.38302		69.17800		324.00000 
 43692.65567		 742.05839			42950.59728		219.06200		875.00000 
 43692.65567		 305.27265			43387.38302		69.17800		324.00000 
 43692.65567		 742.05839			42950.59728		219.06200		875.00000 
 43692.65567		 305.27265			43387.38302		69.17800		324.00000 
 43692.65567		 742.05839			42950.59728		219.06200		875.00000 
 43692.65567		 305.27265			43387.38302		69.17800		324.00000 
 43692.65567		 742.05839			42950.59728		219.06200		875.00000 
 43692.65567		 305.27265			43387.38302		69.17800		324.00000 
 43692.65567		 742.05839			42950.59728		219.06200		875.00000 
 43692.65567		 305.27265			43387.38302		69.17800		324.00000 
 43692.65567		 742.05839			42950.59728		219.06200		875.00000 
 43692.65567		 305.27265			43387.38302		69.17800		324.00000 
 43692.65567		 742.05839			42950.59728		219.06200		875.00000 
 43692.65567		 305.27265			43387.38302		69.17800		324.00000 
 43692.65567		 742.05839			42950.59728		219.06200		875.00000 
 43692.65567		 305.27265			43387.38302		69.17800		324.00000 
 43692.65567		 742.05839			42950.59728		219.06200		875.00000 
 43692.65567		 305.27265			43387.38302		69.17800		324.00000 
 43692.65567		 742.05839			42950.59728		219.06200		875.00000 
 43692.65567		 305.27265			43387.38302		69.17800		324.00000 
 43692.65567		 742.05839			42950.59728		219.06200		875.00000 
 43692.65567		 305.27265			43387.38302		69.17800		324.00000 
 43692.65567		 742.05839			42950.59728		219.06200		875.00000 
 43692.65567		 305.27265			43387.38302		69.17800		324.00000 
 43692.65567		 742.05839			42950.59728		219.06200		875.00000 
 43692.65567		 305.27265			43387.38302		69.17800		324.00000 
 43692.65567		 742.05839			42950.59728		219.06200		875.00000 
 43692.65567		 305.27265			43387.38302		69.17800		324.00000 
 43692.65567		 742.05839			42950.59728		219.06200		875.00000 
 43692.65567		 305.27265			43387.38302		69.17800		324.00000 
 43692.65567		 742.05839			42950.59728		219.06200		875.00000 
 43692.65567		 305.27265			43387.38302		69.17800		324.00000 
 43692.65567		 742.05839			42950.59728		219.06200		875.00000 
 43692.65567		 305.27265			43387.38302		69.17800		324.00000 
 43692.65567		 742.05839			42950.59728		219.06200		875.00000 
 43692.65567		 305.27265			43387.38302		69.17800		324.00000 
 43692.65567		 742.05839			42950.59728		219.06200		875.00000 
 43692.65567		 305.27265			43387.38302		69.17800		324.00000 
 43692.65567		 742.05839			42950.59728		219.06200		875.00000 
 43692.65567		 305.27265			43387.38302		69.17800		324.00000 
 43692.65567		 742.05839			42950.59728		219.06200		875.00000 
 43692.65567		 305.27265			43387.38302		69.17800		324.00000 
 43692.65567		 742.05839			42950.59728		219.06200		875.00000 
 43692.65567		 305.27265			43387.38302		69.17800		324.00000 
 43692.65567		 742.05839			42950.59728		219.06200		875.00000 
 43692.65567		 305.27265			43387.38302		69.17800		324.00000 
 43692.65567		 742.05839			42950.59728		219.06200		875.00000 
 43692.65567		 305.27265			43387.38302		69.17800		324.00000 
 43692.65567		 742.05839			42950.59728		219.06200		875.00000 
 43692.65567		 305.27265			43387.38302		69.17800		324.00000 
 43692.65567		 742.05839			42950.59728		219.06200		875.00000 
 43692.65567		 305.27265			43387.38302		69.17800		324.00000 
 43692.65567		 742.05839			42950.59728		219.06200		875.00000 
 43692.65567		 305.27265			43387.38302		69.17800		324.00000 
 43692.65567		 742.05839			42950.59728		219.06200		875.00000 
 43692.65567		 305.27265			43387.38302		69.17800		324.00000 
 43692.65567		 742.05839			42950.59728		219.06200		875.00000 
 43692.65567		 305.27265			43387.38302		69.17800		324.00000 
 43692.65567		 742.05839			42950.59728		219.06200		875.00000 
 43692.65567		 305.27265			43387.38302		69.17800		324.00000 
 43692.65567		 742.05839			42950.59728		219.06200		875.00000 
 43692.65567		 305.27265			43387.38302		69.17800		324.00000 
 43692.65567		 742.05839			42950.59728		219.06200		875.00000 
 43692.65567		 305.27265			43387.38302		69.17800		324.00000 
 43692.65567		 742.05839			42950.59728		219.06200		875.00000 
 43692.65567		 305.27265			43387.38302		69.17800		324.00000 
 43692.65567		 742.05839			42950.59728		219.06200		875.00000 
 43692.65567		 305.27265			43387.38302		69.17800		324.00000 
 43692.65567		 742.05839			42950.59728		219.06200		875.00000 
 43692.65567		 305.27265			43387.38302		69.17800		324.00000 
 43692.65567		 742.05839			42950.59728		219.06200		875.00000 
 43692.65567		 305.27265			43387.38302		69.17800		324.00000 
 43692.65567		 742.05839			42950.59728		219.06200		875.00000 
 43692.65567		 305.27265			43387.38302		69.17800		324.00000 
 43692.65567		 742.05839			42950.59728		219.06200		875.00000 
 43692.65567		 305.27265			43387.38302		69.17800		324.00000 
 43692.65567		 742.05839			42950.59728		219.06200		875.00000 
 43692.65567		 305.27265			43387.38302		69.17800		324.00000 
 43692.65567		 742.05839			42950.59728		219.06200		875.00000 
 43692.65567		 305.27265			43387.38302		69.17800		324.00000 
 43692.65567		 742.05839			42950.59728		219.06200		875.00000 
 43692.65567		 305.27265			43387.38302		69.17800		324.00000 
 43692.65567		 742.05839			42950.59728		219.06200		875.00000 
 43692.65567		 305.27265			43387.38302		69.17800		324.00000 
 43692.65567		 742.05839			42950.59728		219.06200		875.00000 
 43692.65567		 305.27265			43387.38302		69.17800		324.00000 
 43692.65567		 742.05839			42950.59728		219.06200		875.00000 
 43692.65567		 305.27265			43387.38302		69.17800		324.00000 
 43692.65567		 742.05839			42950.59728		219.06200		875.00000 
 43692.65567		 305.27265			43387.38302		69.17800		324.00000 
 43692.65567		 742.05839			42950.59728		219.06200		875.00000 
 43692.65567		 305.27265			43387.38302		69.17800		324.00000 
 43692.65567		 742.05839			42950.59728		219.06200		875.00000 
 43692.65567		 305.27265			43387.38302		69.17800		324.00000 
 43692.65567		 742.05839			42950.59728		219.06200		875.00000 
 43692.65567		 305.27265			43387.38302		69.17800		324.00000 
 43692.65567		 742.05839			42950.59728		219.06200		875.00000 
 43692.65567		 305.27265			43387.38302		69.17800		324.00000 
 43692.65567		 742.05839			42950.59728		219.06200		875.00000 
 43692.65567		 305.27265			43387.38302		69.17800		324.00000 
 43692.65567		 742.05839			42950.59728		219.06200		875.00000 
 43692.65567		 305.27265			43387.38302		69.17800		324.00000 
 43692.65567		 742.05839			42950.59728		219.06200		875.00000 
 43692.65567		 305.27265			43387.38302		69.17800		324.00000 
 43692.65567		 742.05839			42950.59728		219.06200		875.00000 
 43692.65567		 305.27265			43387.38302		69.17800		324.00000 
 43692.65567		 742.05839			42950.59728		219.06200		875.00000 
 43692.65567		 305.27265			43387.38302		69.17800		324.00000 
 43692.65567		 742.05839			42950.59728		219.06200		875.00000 
 43692.65567		 305.27265			43387.38302		69.17800		324.00000 
 43692.65567		 742.05839			42950.59728		219.06200		875.00000 
 43692.65567		 305.27265			43387.38302		69.17800		324.00000 
 43692.65567		 742.05839			42950.59728		219.06200		875.00000 
 43692.65567		 305.27265			43387.38302		69.17800		324.00000 
 43692.65567		 742.05839			42950.59728		219.06200		875.00000 
 43692.65567		 305.27265			43387.38302		69.17800		324.00000 
 43692.65567		 742.05839			42950.59728		219.06200		875.00000 
 43692.65567		 305.27265			43387.38302		69.17800		324.00000 
 43692.65567		 742.05839			42950.59728		219.06200		875.00000 
 43692.65567		 305.27265			43387.38302		69.17800		324.00000 
 43692.65567		 742.05839			42950.59728		219.06200		875.00000 
 43692.65567		 305.27265			43387.38302		69.17800		324.00000 
 43692.65567		 742.05839			42950.59728		219.06200		875.00000 
 43692.65567		 305.27265			43387.38302		69.17800		324.00000 
 43692.65567		 742.05839			42950.59728		219.06200		875.00000 
 43692.65567		 305.27265			43387.38302		69.17800		324.00000 
 43692.65567		 742.05839			42950.59728		219.06200		875.00000 
 43692.65567		 305.27265			43387.38302		69.17800		324.00000 
 43692.65567		 742.05839			42950.59728		219.06200		875.00000 
 43692.65567		 305.27265			43387.38302		69.17800		324.00000 
 43692.65567		 742.05839			42950.59728		219.06200		875.00000 
 43692.65567		 305.27265			43387.38302		69.17800		324.00000 
 43692.65567		 742.05839			42950.59728		219.06200		875.00000 
 43692.65567		 305.27265			43387.38302		69.17800		324.00000 
 43692.65567		 742.05839			42950.59728		219.06200		875.00000 
 43692.65567		 305.27265			43387.38302		69.17800		324.00000 
 43692.65567		 742.05839			42950.59728		219.06200		875.00000 
 43692.65567		 305.27265			43387.38302		69.17800		324.00000 
 43692.65567		 742.05839			42950.59728		219.06200		875.00000 
 43692.65567		 305.27265			43387.38302		69.17800		324.00000 
 43692.65567		 742.05839			42950.59728		219.06200		875.00000 
 43692.65567		 305.27265			43387.38302		69.17800		324.00000 
 43692.65567		 742.05839			42950.59728		219.06200		875.00000 
 43692.65567		 305.27265			43387.38302		69.17800		324.00000 
 43692.65567		 742.05839			42950.59728		219.06200		875.00000 
 43692.65567		 305.27265			43387.38302		69.17800		324.00000 
 43692.65567		 742.05839			42950.59728		219.06200		875.00000 
 43692.65567		 305.27265			43387.38302		69.17800		324.00000 
 43692.65567		 742.05839			42950.59728		219.06200		875.00000 
 43692.65567		 305.27265			43387.38302		69.17800		324.00000 
 43692.65567		 742.05839			42950.59728		219.06200		875.00000 
 43692.65567		 305.27265			43387.38302		69.17800		324.00000 
 43692.65567		 742.05839			42950.59728		219.06200		875.00000 
 43692.65567		 305.27265			43387.38302		69.17800		324.00000 
 43692.65567		 742.05839			42950.59728		219.06200		875.00000 
 43692.65567		 305.27265			43387.38302		69.17800		324.00000 
 43692.65567		 742.05839			42950.59728		219.06200		875.00000 
 43692.65567		 305.27265			43387.38302		69.17800		324.00000 
 43692.65567		 742.05839			42950.59728		219.06200		875.00000 
 43692.65567		 305.27265			43387.38302		69.17800		324.00000 
 43692.65567		 742.05839			42950.59728		219.06200		875.00000 
 43692.65567		 305.27265			43387.38302		69.17800		324.00000 
 43692.65567		 742.05839			42950.59728		219.06200		875.00000 
 43692.65567		 305.27265			43387.38302		69.17800		324.00000 
 43692.65567		 742.05839			42950.59728		219.06200		875.00000 
 43692.65567		 305.27265			43387.38302		69.17800		324.00000 
 43692.65567		 742.05839			42950.59728		219.06200		875.00000 
 43692.65567		 305.27265			43387.38302		69.17800		324.00000 
 43692.65567		 742.05839			42950.59728		219.06200		875.00000 
 43692.65567		 305.27265			43387.38302		69.17800		324.00000 
 43692.65567		 742.05839			42950.59728		219.06200		875.00000 
 43692.65567		 305.27265			43387.38302		69.17800		324.00000 
 43692.65567		 742.05839			42950.59728		219.06200		875.00000 
 43692.65567		 305.27265			43387.38302		69.17800		324.00000 
 43692.65567		 742.05839			42950.59728		219.06200		875.00000 
 43692.65567		 305.27265			43387.38302		69.17800		324.00000 
 43692.65567		 742.05839			42950.59728		219.06200		875.00000 
 43692.65567		 305.27265			43387.38302		69.17800		324.00000 
 43692.65567		 742.05839			42950.59728		219.06200		875.00000 
 43692.65567		 305.27265			43387.38302		69.17800		324.00000 
 43692.65567		 742.05839			42950.59728		219.06200		875.00000 
 43692.65567		 305.27265			43387.38302		69.17800		324.00000 
 43692.65567		 742.05839			42950.59728		219.06200		875.00000 
 43692.65567		 305.27265			43387.38302		69.17800		324.00000 
 43692.65567		 742.05839			42950.59728		219.06200		875.00000 
 43692.65567		 305.27265			43387.38302		69.17800		324.00000 
 43692.65567		 742.05839			42950.59728		219.06200		875.00000 
 43692.65567		 305.27265			43387.38302		69.17800		324.00000 
 43692.65567		 742.05839			42950.59728		219.06200		875.00000 
 43692.65567		 305.27265			43387.38302		69.17800		324.00000 
 43692.65567		 742.05839			42950.59728		219.06200		875.00000 
 43692.65567		 305.27265			43387.38302		69.17800		324.00000 
 43692.65567		 742.05839			42950.59728		219.06200		875.00000 
 43692.65567		 305.27265			43387.38302		69.17800		324.00000 
 43692.65567		 742.05839			42950.59728		219.06200		875.00000 
 43692.65567		 305.27265			43387.38302		69.17800		324.00000 
 43692.65567		 742.05839			42950.59728		219.06200		875.00000 
 43692.65567		 305.27265			43387.38302		69.17800		324.00000 
 43692.65567		 742.05839			42950.59728		219.06200		875.00000 
 43692.65567		 305.27265			43387.38302		69.17800		324.00000 
 43692.65567		 742.05839			42950.59728		219.06200		875.00000 
 43692.65567		 305.27265			43387.38302		69.17800		324.00000 
 43692.65567		 742.05839			42950.59728		219.06200		875.00000 
 43692.65567		 305.27265			43387.38302		69.17800		324.00000 
 43692.65567		 742.05839			42950.59728		219.06200		875.00000 
 43692.65567		 305.27265			43387.38302		69.17800		324.00000 
 43692.65567		 742.05839			42950.59728		219.06200		875.00000 
 43692.65567		 305.27265			43387.38302		69.17800		324.00000 
 43692.65567		 742.05839			42950.59728		219.06200		875.00000 
 43692.65567		 305.27265			43387.38302		69.17800		324.00000 
 43692.65567		 742.05839			42950.59728		219.06200		875.00000 
 43692.65567		 305.27265			43387.38302		69.17800		324.00000 
 43692.65567		 742.05839			42950.59728		219.06200		875.00000 
 43692.65567		 305.27265			43387.38302		69.17800		324.00000 
 43692.65567		 742.05839			42950.59728		219.06200		875.00000 
 43692.65567		 305.27265			43387.38302		69.17800		324.00000 
 43692.65567		 742.05839			42950.59728		219.06200		875.00000 
 43692.65567		 305.27265			43387.38302		69.17800		324.00000 
 43692.65567		 742.05839			42950.59728		219.06200		875.00000 
 43692.65567		 305.27265			43387.38302		69.17800		324.00000 
 43692.65567		 742.05839			42950.59728		219.06200		875.00000 
 43692.65567		 305.27265			43387.38302		69.17800		324.00000 
 43692.65567		 742.05839			42950.59728		219.06200		875.00000 
 43692.65567		 305.27265			43387.38302		69.17800		324.00000 
 43692.65567		 742.05839			42950.59728		219.06200		875.00000 
 43692.65567		 305.27265			43387.38302		69.17800		324.00000 
 43692.65567		 742.05839			42950.59728		219.06200		875.00000 
 43692.65567		 305.27265			43387.38302		69.17800		324.00000 
 43692.65567		 742.05839			42950.59728		219.06200		875.00000 
 43692.65567		 305.27265			43387.38302		69.17800		324.00000 
 43692.65567		 742.05839			42950.59728		219.06200		875.00000 
 43692.65567		 305.27265			43387.38302		69.17800		324.00000 
 43692.65567		 742.05839			42950.59728		219.06200		875.00000 
 43692.65567		 305.27265			43387.38302		69.17800		324.00000 
 43692.65567		 742.05839			42950.59728		219.06200		875.00000 
 43692.65567		 305.27265			43387.38302		69.17800		324.00000 
 43692.65567		 742.05839			42950.59728		219.06200		875.00000 
 43692.65567		 305.27265			43387.38302		69.17800		324.00000 
 43692.65567		 742.05839			42950.59728		219.06200		875.00000 
 43692.65567		 305.27265			43387.38302		69.17800		324.00000 
 43692.65567		 742.05839			42950.59728		219.06200		875.00000 
 43692.65567		 305.27265			43387.38302		69.17800		324.00000 
 43692.65567		 742.05839			42950.59728		219.06200		875.00000 
 43692.65567		 305.27265			43387.38302		69.17800		324.00000 
 43692.65567		 742.05839			42950.59728		219.06200		875.00000 
 43692.65567		 305.27265			43387.38302		69.17800		324.00000 
 43692.65567		 742.05839			42950.59728		219.06200		875.00000 
 43692.65567		 305.27265			43387.38302		69.17800		324.00000 
 43692.65567		 742.05839			42950.59728		219.06200		875.00000 
 43692.65567		 305.27265			43387.38302		69.17800		324.00000 
 43692.65567		 742.05839			42950.59728		219.06200		875.00000 
 43692.65567		 305.27265			43387.38302		69.17800		324.00000 
 43692.65567		 742.05839			42950.59728		219.06200		875.00000 
 43692.65567		 305.27265			43387.38302		69.17800		324.00000 
 43692.65567		 742.05839			42950.59728		219.06200		875.00000 
 43692.65567		 305.27265			43387.38302		69.17800		324.00000 
 43692.65567		 742.05839			42950.59728		219.06200		875.00000 
 43692.65567		 305.27265			43387.38302		69.17800		324.00000 
 43692.65567		 742.05839			42950.59728		219.06200		875.00000 
 43692.65567		 305.27265			43387.38302		69.17800		324.00000 
 43692.65567		 742.05839			42950.59728		219.06200		875.00000 
 43692.65567		 305.27265			43387.38302		69.17800		324.00000 
 43692.65567		 742.05839			42950.59728		219.06200		875.00000 
 43692.65567		 305.27265			43387.38302		69.17800		324.00000 
 43692.65567		 742.05839			42950.59728		219.06200		875.00000 
 43692.65567		 305.27265			43387.38302		69.17800		324.00000 
 43692.65567		 742.05839			42950.59728		219.06200		875.00000 
 43692.65567		 305.27265			43387.38302		69.17800		324.00000 
 43692.65567		 742.05839			42950.59728		219.06200		875.00000 
 43692.65567		 305.27265			43387.38302		69.17800		324.00000 
 43692.65567		 742.05839			42950.59728		219.06200		875.00000 
 43692.65567		 305.27265			43387.38302		69.17800		324.00000 
 43692.65567		 742.05839			42950.59728		219.06200		875.00000 
 43692.65567		 305.27265			43387.38302		69.17800		324.00000 
 43692.65567		 742.05839			42950.59728		219.06200		875.00000 
 43692.65567		 305.27265			43387.38302		69.17800		324.00000 
 43692.65567		 742.05839			42950.59728		219.06200		875.00000 
 43692.65567		 305.27265			43387.38302		69.17800		324.00000 
 43692.65567		 742.05839			42950.59728		219.06200		875.00000 
 43692.65567		 305.27265			43387.38302		69.17800		324.00000 
 43692.65567		 742.05839			42950.59728		219.06200		875.00000 
 43692.65567		 305.27265			43387.38302		69.17800		324.00000 
 43692.65567		 742.05839			42950.59728		219.06200		875.00000 
 43692.65567		 305.27265			43387.38302		69.17800		324.00000 
 43692.65567		 742.05839			42950.59728		219.06200		875.00000 
 43692.65567		 305.27265			43387.38302		69.17800		324.00000 
 43692.65567		 742.05839			42950.59728		219.06200		875.00000 
 43692.65567		 305.27265			43387.38302		69.17800		324.00000 
 43692.65567		 742.05839			42950.59728		219.06200		875.00000 
 43692.65567		 305.27265			43387.38302		69.17800		324.00000 
 43692.65567		 742.05839			42950.59728		219.06200		875.00000 
 43692.65567		 305.27265			43387.38302		69.17800		324.00000 
 43692.65567		 742.05839			42950.59728		219.06200		875.00000 
 43692.65567		 305.27265			43387.38302		69.17800		324.00000 
 43692.65567		 742.05839			42950.59728		219.06200		875.00000 
 43692.65567		 305.27265			43387.38302		69.17800		324.00000 
 43692.65567		 742.05839			42950.59728		219.06200		875.00000 
 43692.65567		 305.27265			43387.38302		69.17800		324.00000 
 43692.65567		 742.05839			42950.59728		219.06200		875.00000 
 43692.65567		 305.27265			43387.38302		69.17800		324.00000 
 43692.65567		 742.05839			42950.59728		219.06200		875.00000 
 43692.65567		 305.27265			43387.38302		69.17800		324.00000 
 43692.65567		 742.05839			42950.59728		219.06200		875.00000 
 43692.65567		 305.27265			43387.38302		69.17800		324.00000 
 43692.65567		 742.05839			42950.59728		219.06200		875.00000 
 43692.65567		 305.27265			43387.38302		69.65600		324.00000 
 43692.65567		 605.53301			43087.12266		219.06200		875.00000 
 43692.65567		 305.27265			43387.38302		69.65600		324.00000 
 43692.65567		 537.27032			43155.38535		219.06200		875.00000 
 43692.65567		 305.27265			43387.38302		69.65600		324.00000 
 43692.65567		 537.27032			43155.38535		219.06200		875.00000 
 43692.65567		 305.27265			43387.38302		69.65600		324.00000 
 43692.65567		 537.27032			43155.38535		219.06200		875.00000 
 43692.65567		 305.27265			43387.38302		69.65600		324.00000 
 43692.65567		 537.27032			43155.38535		219.06200		875.00000 
 43692.65567		 305.27265			43387.38302		69.65600		324.00000 
 43692.65567		 537.27032			43155.38535		219.06200		875.00000 
 43692.65567		 305.27265			43387.38302		69.65600		324.00000 
 43692.65567		 537.27032			43155.38535		219.06200		875.00000 
 43692.65567		 305.27265			43387.38302		69.65600		324.00000 
 43692.65567		 537.27032			43155.38535		219.06200		875.00000 
 43692.65567		 305.27265			43387.38302		69.65600		324.00000 
 43692.65567		 537.27032			43155.38535		219.06200		875.00000 
 43692.65567		 305.27265			43387.38302		69.65600		324.00000 
 43692.65567		 537.27032			43155.38535		219.06200		875.00000 
 43692.65567		 305.27265			43387.38302		69.65600		324.00000 
 43692.65567		 537.27032			43155.38535		219.06200		875.00000 
 43692.65567		 305.27265			43387.38302		69.65600		324.00000 
 43692.65567		 537.27032			43155.38535		219.06200		875.00000 
 43692.65567		 305.27265			43387.38302		69.65600		324.00000 
 43692.65567		 537.27032			43155.38535		219.06200		875.00000 
 43692.65567		 305.27265			43387.38302		69.65600		324.00000 
 43692.65567		 537.27032			43155.38535		219.06200		875.00000 
 43692.65567		 305.27265			43387.38302		69.65600		324.00000 
 43692.65567		 537.27032			43155.38535		219.06200		875.00000 
 43692.65567		 305.27265			43387.38302		69.65600		324.00000 
 43692.65567		 537.27032			43155.38535		219.06200		875.00000 
 43692.65567		 305.27265			43387.38302		69.65600		324.00000 
 43692.65567		 537.27032			43155.38535		219.06200		875.00000 
 43692.65567		 305.27265			43387.38302		69.65600		324.00000 
 43692.65567		 537.27032			43155.38535		219.06200		875.00000 
 43692.65567		 305.27265			43387.38302		69.65600		324.00000 
 43692.65567		 537.27032			43155.38535		219.06200		875.00000 
 43692.65567		 305.27265			43387.38302		69.65600		324.00000 
 43692.65567		 537.27032			43155.38535		219.06200		875.00000 
 43692.65567		 305.27265			43387.38302		69.65600		324.00000 
 43692.65567		 529.63254			43163.02313		219.06200		875.00000 
 43692.65567		 305.27265			43387.38302		69.65600		324.00000 
 43692.65567		 525.81365			43166.84203		219.06200		875.00000 
 43692.65567		 305.27265			43387.38302		69.65600		324.00000 
 43692.65567		 525.81365			43166.84203		219.06200		875.00000 
 43692.65567		 261.35540			43431.30027		69.65600		324.00000 
 43692.65567		 261.35540			43431.30027		219.06200		875.00000 
 43692.65567		 261.35540			43431.30027		69.65600		324.00000 
