Memory Total (MiB) 	 Memory Used (MiB) 	    Memory Free (MiB) 	 Power Drawed (W) 	 Clocks (Mhz) 	 
 43692.65567		 261.35540			43431.30027		145.21000		692.00000 
 43692.65567		 261.35540			43431.30027		68.00200		324.00000 
 43692.65567		 261.35540			43431.30027		145.21000		692.00000 
 43692.65567		 261.35540			43431.30027		68.00200		324.00000 
 43692.65567		 261.35540			43431.30027		145.21000		692.00000 
 43692.65567		 261.35540			43431.30027		68.00200		324.00000 
 43692.65567		 261.35540			43431.30027		145.21000		692.00000 
 43692.65567		 261.35540			43431.30027		68.00200		324.00000 
 43692.65567		 261.35540			43431.30027		145.21000		692.00000 
 43692.65567		 261.35540			43431.30027		68.00200		324.00000 
 43692.65567		 261.35540			43431.30027		145.21000		692.00000 
 43692.65567		 261.35540			43431.30027		68.00200		324.00000 
 43692.65567		 261.35540			43431.30027		145.21000		692.00000 
 43692.65567		 261.35540			43431.30027		68.00200		324.00000 
 43692.65567		 261.35540			43431.30027		145.21000		692.00000 
 43692.65567		 261.35540			43431.30027		68.00200		324.00000 
 43692.65567		 261.35540			43431.30027		145.21000		692.00000 
 43692.65567		 261.35540			43431.30027		68.00200		324.00000 
 43692.65567		 261.35540			43431.30027		145.21000		692.00000 
 43692.65567		 261.35540			43431.30027		68.00200		324.00000 
 43692.65567		 261.35540			43431.30027		145.21000		692.00000 
 43692.65567		 261.35540			43431.30027		68.00200		324.00000 
 43692.65567		 261.35540			43431.30027		145.21000		692.00000 
 43692.65567		 261.35540			43431.30027		68.00200		324.00000 
 43692.65567		 261.35540			43431.30027		145.21000		692.00000 
 43692.65567		 261.35540			43431.30027		68.00200		324.00000 
 43692.65567		 261.35540			43431.30027		145.21000		692.00000 
 43692.65567		 261.35540			43431.30027		68.00200		324.00000 
 43692.65567		 261.35540			43431.30027		145.21000		692.00000 
 43692.65567		 261.35540			43431.30027		68.00200		324.00000 
 43692.65567		 261.35540			43431.30027		145.21000		692.00000 
 43692.65567		 261.35540			43431.30027		68.00200		324.00000 
 43692.65567		 261.35540			43431.30027		145.21000		692.00000 
 43692.65567		 261.35540			43431.30027		68.00200		324.00000 
 43692.65567		 265.17429			43427.48138		145.21000		692.00000 
 43692.65567		 261.35540			43431.30027		68.00200		324.00000 
 43692.65567		 265.17429			43427.48138		145.21000		692.00000 
 43692.65567		 261.35540			43431.30027		68.00200		324.00000 
 43692.65567		 272.81207			43419.84360		145.21000		692.00000 
 43692.65567		 261.35540			43431.30027		68.00200		324.00000 
 43692.65567		 272.81207			43419.84360		145.21000		692.00000 
 43692.65567		 261.35540			43431.30027		68.00200		324.00000 
 43692.65567		 272.81207			43419.84360		145.21000		692.00000 
 43692.65567		 265.17429			43427.48138		68.00200		324.00000 
 43692.65567		 272.81207			43419.84360		145.21000		692.00000 
 43692.65567		 265.17429			43427.48138		68.00200		324.00000 
 43692.65567		 272.81207			43419.84360		127.40600		692.00000 
 43692.65567		 265.17429			43427.48138		68.00200		324.00000 
 43692.65567		 272.81207			43419.84360		127.40600		692.00000 
 43692.65567		 272.81207			43419.84360		68.00200		324.00000 
 43692.65567		 272.81207			43419.84360		127.40600		692.00000 
 43692.65567		 272.81207			43419.84360		68.00200		324.00000 
 43692.65567		 272.81207			43419.84360		127.40600		692.00000 
 43692.65567		 272.81207			43419.84360		68.00200		324.00000 
 43692.65567		 305.27265			43387.38302		127.40600		692.00000 
 43692.65567		 305.27265			43387.38302		68.00200		324.00000 
 43692.65567		 305.27265			43387.38302		127.40600		692.00000 
 43692.65567		 305.27265			43387.38302		68.00200		324.00000 
 43692.65567		 305.27265			43387.38302		127.40600		692.00000 
 43692.65567		 305.27265			43387.38302		68.00200		324.00000 
 43692.65567		 305.27265			43387.38302		127.40600		692.00000 
 43692.65567		 305.27265			43387.38302		68.00200		324.00000 
 43692.65567		 305.27265			43387.38302		127.40600		692.00000 
 43692.65567		 305.27265			43387.38302		68.00200		324.00000 
 43692.65567		 309.09154			43383.56413		127.40600		692.00000 
 43692.65567		 305.27265			43387.38302		68.00200		324.00000 
 43692.65567		 310.52363			43382.13204		127.40600		692.00000 
 43692.65567		 305.27265			43387.38302		68.00200		324.00000 
 43692.65567		 311.00099			43381.65468		127.40600		692.00000 
 43692.65567		 305.27265			43387.38302		68.00200		324.00000 
 43692.65567		 311.00099			43381.65468		127.40600		692.00000 
 43692.65567		 305.27265			43387.38302		68.00200		324.00000 
 43692.65567		 311.00099			43381.65468		127.40600		692.00000 
 43692.65567		 305.27265			43387.38302		68.00200		324.00000 
 43692.65567		 311.00099			43381.65468		127.40600		692.00000 
 43692.65567		 305.27265			43387.38302		68.00200		324.00000 
 43692.65567		 311.00099			43381.65468		127.40600		692.00000 
 43692.65567		 305.27265			43387.38302		68.00200		324.00000 
 43692.65567		 311.00099			43381.65468		127.40600		692.00000 
 43692.65567		 305.27265			43387.38302		68.00200		324.00000 
 43692.65567		 311.00099			43381.65468		127.40600		692.00000 
 43692.65567		 305.27265			43387.38302		68.00200		324.00000 
 43692.65567		 311.00099			43381.65468		127.40600		692.00000 
 43692.65567		 305.27265			43387.38302		68.00200		324.00000 
 43692.65567		 311.00099			43381.65468		127.40600		692.00000 
 43692.65567		 305.27265			43387.38302		68.00200		324.00000 
 43692.65567		 311.00099			43381.65468		127.40600		692.00000 
 43692.65567		 305.27265			43387.38302		68.00200		324.00000 
 43692.65567		 311.00099			43381.65468		127.40600		692.00000 
 43692.65567		 305.27265			43387.38302		68.00200		324.00000 
 43692.65567		 311.00099			43381.65468		127.40600		692.00000 
 43692.65567		 305.27265			43387.38302		68.00200		324.00000 
 43692.65567		 311.00099			43381.65468		127.40600		692.00000 
 43692.65567		 305.27265			43387.38302		68.00200		324.00000 
 43692.65567		 311.00099			43381.65468		127.40600		692.00000 
 43692.65567		 305.27265			43387.38302		68.00200		324.00000 
 43692.65567		 311.00099			43381.65468		127.40600		692.00000 
 43692.65567		 305.27265			43387.38302		68.00200		324.00000 
 43692.65567		 311.00099			43381.65468		127.40600		692.00000 
 43692.65567		 305.27265			43387.38302		68.00200		324.00000 
 43692.65567		 311.00099			43381.65468		127.40600		692.00000 
 43692.65567		 305.27265			43387.38302		68.00200		324.00000 
 43692.65567		 311.00099			43381.65468		127.40600		692.00000 
 43692.65567		 305.27265			43387.38302		68.00200		324.00000 
 43692.65567		 311.00099			43381.65468		127.40600		692.00000 
 43692.65567		 305.27265			43387.38302		68.00200		324.00000 
 43692.65567		 311.00099			43381.65468		127.40600		692.00000 
 43692.65567		 305.27265			43387.38302		68.00200		324.00000 
 43692.65567		 311.00099			43381.65468		127.40600		692.00000 
 43692.65567		 305.27265			43387.38302		68.00200		324.00000 
 43692.65567		 311.00099			43381.65468		127.40600		692.00000 
 43692.65567		 305.27265			43387.38302		68.00200		324.00000 
 43692.65567		 311.00099			43381.65468		127.40600		692.00000 
 43692.65567		 305.27265			43387.38302		68.00200		324.00000 
 43692.65567		 311.00099			43381.65468		121.09000		692.00000 
 43692.65567		 305.27265			43387.38302		68.00200		324.00000 
 43692.65567		 311.00099			43381.65468		121.09000		692.00000 
 43692.65567		 305.27265			43387.38302		68.00200		324.00000 
 43692.65567		 311.00099			43381.65468		121.09000		692.00000 
 43692.65567		 305.27265			43387.38302		68.00200		324.00000 
 43692.65567		 311.00099			43381.65468		121.09000		692.00000 
 43692.65567		 305.27265			43387.38302		68.00200		324.00000 
 43692.65567		 311.00099			43381.65468		121.09000		692.00000 
 43692.65567		 305.27265			43387.38302		68.00200		324.00000 
 43692.65567		 311.00099			43381.65468		121.09000		692.00000 
 43692.65567		 305.27265			43387.38302		68.00200		324.00000 
 43692.65567		 311.00099			43381.65468		121.09000		692.00000 
 43692.65567		 305.27265			43387.38302		68.00200		324.00000 
 43692.65567		 311.00099			43381.65468		121.09000		692.00000 
 43692.65567		 305.27265			43387.38302		68.00200		324.00000 
 43692.65567		 311.00099			43381.65468		121.09000		692.00000 
 43692.65567		 305.27265			43387.38302		68.00200		324.00000 
 43692.65567		 311.00099			43381.65468		121.09000		692.00000 
 43692.65567		 305.27265			43387.38302		68.00200		324.00000 
 43692.65567		 311.00099			43381.65468		121.09000		692.00000 
 43692.65567		 305.27265			43387.38302		68.00200		324.00000 
 43692.65567		 311.00099			43381.65468		121.09000		692.00000 
 43692.65567		 305.27265			43387.38302		68.00200		324.00000 
 43692.65567		 311.00099			43381.65468		121.09000		692.00000 
 43692.65567		 305.27265			43387.38302		68.00200		324.00000 
 43692.65567		 311.00099			43381.65468		121.09000		692.00000 
 43692.65567		 305.27265			43387.38302		68.00200		324.00000 
 43692.65567		 311.00099			43381.65468		121.09000		692.00000 
 43692.65567		 305.27265			43387.38302		68.00200		324.00000 
 43692.65567		 311.00099			43381.65468		121.09000		692.00000 
 43692.65567		 305.27265			43387.38302		68.00200		324.00000 
 43692.65567		 311.00099			43381.65468		121.09000		692.00000 
 43692.65567		 305.27265			43387.38302		68.00200		324.00000 
 43692.65567		 311.00099			43381.65468		121.09000		692.00000 
 43692.65567		 305.27265			43387.38302		68.00200		324.00000 
 43692.65567		 311.00099			43381.65468		121.09000		692.00000 
 43692.65567		 305.27265			43387.38302		68.00200		324.00000 
 43692.65567		 311.00099			43381.65468		121.09000		692.00000 
 43692.65567		 305.27265			43387.38302		68.00200		324.00000 
 43692.65567		 311.00099			43381.65468		121.09000		692.00000 
 43692.65567		 305.27265			43387.38302		68.00200		324.00000 
 43692.65567		 311.00099			43381.65468		121.09000		692.00000 
 43692.65567		 305.27265			43387.38302		68.00200		324.00000 
 43692.65567		 311.00099			43381.65468		121.09000		692.00000 
 43692.65567		 305.27265			43387.38302		68.00200		324.00000 
 43692.65567		 311.00099			43381.65468		121.09000		692.00000 
 43692.65567		 305.27265			43387.38302		68.00200		324.00000 
 43692.65567		 311.00099			43381.65468		121.09000		692.00000 
 43692.65567		 305.27265			43387.38302		68.00200		324.00000 
 43692.65567		 311.00099			43381.65468		121.09000		692.00000 
 43692.65567		 305.27265			43387.38302		68.00200		324.00000 
 43692.65567		 314.81988			43377.83579		121.09000		692.00000 
 43692.65567		 305.27265			43387.38302		68.00200		324.00000 
 43692.65567		 314.81988			43377.83579		121.09000		692.00000 
 43692.65567		 305.27265			43387.38302		68.00200		324.00000 
 43692.65567		 314.81988			43377.83579		121.09000		692.00000 
 43692.65567		 305.27265			43387.38302		68.00200		324.00000 
 43692.65567		 318.63877			43374.01690		121.09000		692.00000 
 43692.65567		 305.27265			43387.38302		68.00200		324.00000 
 43692.65567		 322.45767			43370.19801		121.09000		692.00000 
 43692.65567		 305.27265			43387.38302		68.00200		324.00000 
 43692.65567		 326.27656			43366.37912		121.09000		692.00000 
 43692.65567		 305.27265			43387.38302		68.00200		324.00000 
 43692.65567		 326.27656			43366.37912		121.09000		692.00000 
 43692.65567		 305.27265			43387.38302		68.00200		324.00000 
 43692.65567		 326.27656			43366.37912		121.09000		692.00000 
 43692.65567		 305.27265			43387.38302		68.00200		324.00000 
 43692.65567		 537.27032			43155.38535		118.34800		692.00000 
 43692.65567		 305.27265			43387.38302		68.00200		324.00000 
 43692.65567		 581.66494			43110.99073		118.34800		692.00000 
 43692.65567		 305.27265			43387.38302		68.00200		324.00000 
 43692.65567		 581.66494			43110.99073		118.34800		692.00000 
 43692.65567		 305.27265			43387.38302		68.00200		324.00000 
 43692.65567		 581.66494			43110.99073		118.34800		692.00000 
 43692.65567		 305.27265			43387.38302		68.00200		324.00000 
 43692.65567		 581.66494			43110.99073		118.34800		692.00000 
 43692.65567		 305.27265			43387.38302		68.00200		324.00000 
 43692.65567		 581.66494			43110.99073		118.34800		692.00000 
 43692.65567		 305.27265			43387.38302		68.00200		324.00000 
 43692.65567		 581.66494			43110.99073		118.34800		692.00000 
 43692.65567		 305.27265			43387.38302		68.00200		324.00000 
 43692.65567		 581.66494			43110.99073		118.34800		692.00000 
 43692.65567		 305.27265			43387.38302		68.00200		324.00000 
 43692.65567		 581.66494			43110.99073		118.34800		692.00000 
 43692.65567		 305.27265			43387.38302		68.00200		324.00000 
 43692.65567		 581.66494			43110.99073		118.34800		692.00000 
 43692.65567		 305.27265			43387.38302		68.00200		324.00000 
 43692.65567		 581.66494			43110.99073		118.34800		692.00000 
 43692.65567		 305.27265			43387.38302		68.00200		324.00000 
 43692.65567		 581.66494			43110.99073		118.34800		692.00000 
 43692.65567		 305.27265			43387.38302		68.00200		324.00000 
 43692.65567		 581.66494			43110.99073		118.34800		692.00000 
 43692.65567		 305.27265			43387.38302		68.00200		324.00000 
 43692.65567		 581.66494			43110.99073		118.34800		692.00000 
 43692.65567		 305.27265			43387.38302		68.00200		324.00000 
 43692.65567		 581.66494			43110.99073		118.34800		692.00000 
 43692.65567		 305.27265			43387.38302		68.00200		324.00000 
 43692.65567		 581.66494			43110.99073		118.34800		692.00000 
 43692.65567		 305.27265			43387.38302		68.00200		324.00000 
 43692.65567		 581.66494			43110.99073		118.34800		692.00000 
 43692.65567		 305.27265			43387.38302		68.00200		324.00000 
 43692.65567		 581.66494			43110.99073		118.34800		692.00000 
 43692.65567		 305.27265			43387.38302		68.00200		324.00000 
 43692.65567		 581.66494			43110.99073		118.34800		692.00000 
 43692.65567		 305.27265			43387.38302		68.00200		324.00000 
 43692.65567		 581.66494			43110.99073		118.34800		692.00000 
 43692.65567		 305.27265			43387.38302		68.00200		324.00000 
 43692.65567		 581.66494			43110.99073		118.34800		692.00000 
 43692.65567		 305.27265			43387.38302		68.00200		324.00000 
 43692.65567		 581.66494			43110.99073		118.34800		692.00000 
 43692.65567		 305.27265			43387.38302		68.00200		324.00000 
 43692.65567		 581.66494			43110.99073		118.34800		692.00000 
 43692.65567		 305.27265			43387.38302		68.00200		324.00000 
 43692.65567		 581.66494			43110.99073		118.34800		692.00000 
 43692.65567		 305.27265			43387.38302		68.00200		324.00000 
 43692.65567		 581.66494			43110.99073		118.34800		692.00000 
 43692.65567		 305.27265			43387.38302		68.00200		324.00000 
 43692.65567		 581.66494			43110.99073		118.34800		692.00000 
 43692.65567		 305.27265			43387.38302		68.00200		324.00000 
 43692.65567		 581.66494			43110.99073		118.34800		692.00000 
 43692.65567		 305.27265			43387.38302		68.00200		324.00000 
 43692.65567		 581.66494			43110.99073		118.34800		692.00000 
 43692.65567		 305.27265			43387.38302		68.00200		324.00000 
 43692.65567		 581.66494			43110.99073		118.34800		692.00000 
 43692.65567		 305.27265			43387.38302		68.00200		324.00000 
 43692.65567		 581.66494			43110.99073		118.34800		692.00000 
 43692.65567		 305.27265			43387.38302		68.00200		324.00000 
 43692.65567		 581.66494			43110.99073		118.34800		692.00000 
 43692.65567		 305.27265			43387.38302		68.00200		324.00000 
 43692.65567		 581.66494			43110.99073		118.34800		692.00000 
 43692.65567		 305.27265			43387.38302		68.00200		324.00000 
 43692.65567		 581.66494			43110.99073		118.34800		692.00000 
 43692.65567		 305.27265			43387.38302		68.00200		324.00000 
 43692.65567		 581.66494			43110.99073		118.34800		692.00000 
 43692.65567		 305.27265			43387.38302		68.00200		324.00000 
 43692.65567		 581.66494			43110.99073		118.34800		692.00000 
 43692.65567		 305.27265			43387.38302		68.00200		324.00000 
 43692.65567		 581.66494			43110.99073		118.34800		692.00000 
 43692.65567		 305.27265			43387.38302		68.00200		324.00000 
 43692.65567		 581.66494			43110.99073		118.34800		692.00000 
 43692.65567		 305.27265			43387.38302		68.00200		324.00000 
 43692.65567		 581.66494			43110.99073		118.34800		692.00000 
 43692.65567		 305.27265			43387.38302		68.00200		324.00000 
 43692.65567		 581.66494			43110.99073		118.34800		692.00000 
 43692.65567		 305.27265			43387.38302		68.00200		324.00000 
 43692.65567		 581.66494			43110.99073		118.34800		692.00000 
 43692.65567		 305.27265			43387.38302		68.00200		324.00000 
 43692.65567		 581.66494			43110.99073		118.34800		692.00000 
 43692.65567		 305.27265			43387.38302		68.00200		324.00000 
 43692.65567		 581.66494			43110.99073		118.34800		692.00000 
 43692.65567		 305.27265			43387.38302		68.00200		324.00000 
 43692.65567		 581.66494			43110.99073		118.34800		692.00000 
 43692.65567		 305.27265			43387.38302		68.00200		324.00000 
 43692.65567		 581.66494			43110.99073		118.34800		692.00000 
 43692.65567		 305.27265			43387.38302		68.00200		324.00000 
 43692.65567		 581.66494			43110.99073		118.34800		692.00000 
 43692.65567		 305.27265			43387.38302		68.00200		324.00000 
 43692.65567		 581.66494			43110.99073		118.34800		692.00000 
 43692.65567		 305.27265			43387.38302		68.00200		324.00000 
 43692.65567		 581.66494			43110.99073		118.34800		692.00000 
 43692.65567		 305.27265			43387.38302		68.00200		324.00000 
 43692.65567		 581.66494			43110.99073		118.34800		692.00000 
 43692.65567		 305.27265			43387.38302		68.00200		324.00000 
 43692.65567		 581.66494			43110.99073		118.34800		692.00000 
 43692.65567		 305.27265			43387.38302		68.00200		324.00000 
 43692.65567		 581.66494			43110.99073		118.34800		692.00000 
 43692.65567		 305.27265			43387.38302		68.00200		324.00000 
 43692.65567		 581.66494			43110.99073		118.34800		692.00000 
 43692.65567		 305.27265			43387.38302		68.00200		324.00000 
 43692.65567		 581.66494			43110.99073		118.34800		692.00000 
 43692.65567		 305.27265			43387.38302		68.00200		324.00000 
 43692.65567		 581.66494			43110.99073		118.34800		692.00000 
 43692.65567		 305.27265			43387.38302		68.00200		324.00000 
 43692.65567		 581.66494			43110.99073		118.34800		692.00000 
 43692.65567		 305.27265			43387.38302		68.00200		324.00000 
 43692.65567		 581.66494			43110.99073		118.34800		692.00000 
 43692.65567		 305.27265			43387.38302		68.00200		324.00000 
 43692.65567		 581.66494			43110.99073		118.34800		692.00000 
 43692.65567		 305.27265			43387.38302		68.00200		324.00000 
 43692.65567		 581.66494			43110.99073		118.34800		692.00000 
 43692.65567		 305.27265			43387.38302		68.00200		324.00000 
 43692.65567		 581.66494			43110.99073		118.34800		692.00000 
 43692.65567		 305.27265			43387.38302		68.00200		324.00000 
 43692.65567		 581.66494			43110.99073		153.23000		692.00000 
 43692.65567		 305.27265			43387.38302		68.00200		324.00000 
 43692.65567		 581.66494			43110.99073		153.23000		692.00000 
 43692.65567		 305.27265			43387.38302		68.00200		324.00000 
 43692.65567		 581.66494			43110.99073		153.23000		692.00000 
 43692.65567		 305.27265			43387.38302		68.00200		324.00000 
 43692.65567		 581.66494			43110.99073		153.23000		692.00000 
 43692.65567		 305.27265			43387.38302		68.00200		324.00000 
 43692.65567		 581.66494			43110.99073		153.23000		692.00000 
 43692.65567		 305.27265			43387.38302		68.00200		324.00000 
 43692.65567		 581.66494			43110.99073		153.23000		692.00000 
 43692.65567		 305.27265			43387.38302		68.00200		324.00000 
 43692.65567		 581.66494			43110.99073		153.23000		692.00000 
 43692.65567		 305.27265			43387.38302		68.00200		324.00000 
 43692.65567		 581.66494			43110.99073		153.23000		692.00000 
 43692.65567		 305.27265			43387.38302		68.00200		324.00000 
 43692.65567		 581.66494			43110.99073		153.23000		692.00000 
 43692.65567		 305.27265			43387.38302		68.00200		324.00000 
 43692.65567		 581.66494			43110.99073		153.23000		692.00000 
 43692.65567		 305.27265			43387.38302		68.00200		324.00000 
 43692.65567		 581.66494			43110.99073		153.23000		692.00000 
 43692.65567		 305.27265			43387.38302		68.00200		324.00000 
 43692.65567		 581.66494			43110.99073		153.23000		692.00000 
 43692.65567		 305.27265			43387.38302		68.00200		324.00000 
 43692.65567		 581.66494			43110.99073		153.23000		692.00000 
 43692.65567		 305.27265			43387.38302		68.00200		324.00000 
 43692.65567		 581.66494			43110.99073		153.23000		692.00000 
 43692.65567		 305.27265			43387.38302		68.00200		324.00000 
 43692.65567		 581.66494			43110.99073		153.23000		692.00000 
 43692.65567		 305.27265			43387.38302		68.00200		324.00000 
 43692.65567		 581.66494			43110.99073		153.23000		692.00000 
 43692.65567		 305.27265			43387.38302		68.00200		324.00000 
 43692.65567		 581.66494			43110.99073		153.23000		692.00000 
 43692.65567		 305.27265			43387.38302		68.00200		324.00000 
 43692.65567		 581.66494			43110.99073		153.23000		692.00000 
 43692.65567		 305.27265			43387.38302		68.00200		324.00000 
 43692.65567		 581.66494			43110.99073		153.23000		692.00000 
 43692.65567		 305.27265			43387.38302		68.00200		324.00000 
 43692.65567		 581.66494			43110.99073		153.23000		692.00000 
 43692.65567		 305.27265			43387.38302		68.00200		324.00000 
 43692.65567		 581.66494			43110.99073		153.23000		692.00000 
 43692.65567		 305.27265			43387.38302		68.00200		324.00000 
 43692.65567		 581.66494			43110.99073		153.23000		692.00000 
 43692.65567		 305.27265			43387.38302		68.00200		324.00000 
 43692.65567		 581.66494			43110.99073		153.23000		692.00000 
 43692.65567		 305.27265			43387.38302		68.00200		324.00000 
 43692.65567		 581.66494			43110.99073		153.23000		692.00000 
 43692.65567		 305.27265			43387.38302		68.00200		324.00000 
 43692.65567		 581.66494			43110.99073		153.23000		692.00000 
 43692.65567		 305.27265			43387.38302		68.00200		324.00000 
 43692.65567		 581.66494			43110.99073		153.23000		692.00000 
 43692.65567		 305.27265			43387.38302		68.00200		324.00000 
 43692.65567		 581.66494			43110.99073		153.23000		692.00000 
 43692.65567		 305.27265			43387.38302		68.00200		324.00000 
 43692.65567		 581.66494			43110.99073		153.23000		692.00000 
 43692.65567		 305.27265			43387.38302		68.00200		324.00000 
 43692.65567		 581.66494			43110.99073		153.23000		692.00000 
 43692.65567		 305.27265			43387.38302		68.00200		324.00000 
 43692.65567		 581.66494			43110.99073		153.23000		692.00000 
 43692.65567		 305.27265			43387.38302		68.00200		324.00000 
 43692.65567		 581.66494			43110.99073		153.23000		692.00000 
 43692.65567		 305.27265			43387.38302		68.00200		324.00000 
 43692.65567		 581.66494			43110.99073		153.23000		692.00000 
 43692.65567		 305.27265			43387.38302		68.00200		324.00000 
 43692.65567		 581.66494			43110.99073		153.23000		692.00000 
 43692.65567		 305.27265			43387.38302		68.00200		324.00000 
 43692.65567		 581.66494			43110.99073		153.23000		692.00000 
 43692.65567		 305.27265			43387.38302		68.00200		324.00000 
 43692.65567		 581.66494			43110.99073		153.23000		692.00000 
 43692.65567		 305.27265			43387.38302		68.00200		324.00000 
 43692.65567		 581.66494			43110.99073		153.23000		692.00000 
 43692.65567		 305.27265			43387.38302		68.00200		324.00000 
 43692.65567		 581.66494			43110.99073		153.23000		692.00000 
 43692.65567		 305.27265			43387.38302		68.00200		324.00000 
 43692.65567		 581.66494			43110.99073		153.23000		692.00000 
 43692.65567		 305.27265			43387.38302		68.00200		324.00000 
 43692.65567		 581.66494			43110.99073		153.23000		692.00000 
 43692.65567		 305.27265			43387.38302		68.00200		324.00000 
 43692.65567		 581.66494			43110.99073		153.23000		771.00000 
 43692.65567		 305.27265			43387.38302		68.00200		324.00000 
 43692.65567		 581.66494			43110.99073		153.23000		771.00000 
 43692.65567		 305.27265			43387.38302		68.00200		324.00000 
 43692.65567		 581.66494			43110.99073		153.23000		771.00000 
 43692.65567		 305.27265			43387.38302		68.00200		324.00000 
 43692.65567		 581.66494			43110.99073		153.23000		771.00000 
 43692.65567		 305.27265			43387.38302		68.00200		324.00000 
 43692.65567		 581.66494			43110.99073		153.23000		771.00000 
 43692.65567		 305.27265			43387.38302		68.00200		324.00000 
 43692.65567		 581.66494			43110.99073		153.23000		771.00000 
 43692.65567		 305.27265			43387.38302		68.00200		324.00000 
 43692.65567		 581.66494			43110.99073		153.23000		771.00000 
 43692.65567		 305.27265			43387.38302		68.00200		324.00000 
 43692.65567		 581.66494			43110.99073		153.23000		771.00000 
 43692.65567		 305.27265			43387.38302		68.00200		324.00000 
 43692.65567		 581.66494			43110.99073		153.23000		771.00000 
 43692.65567		 305.27265			43387.38302		68.00200		324.00000 
 43692.65567		 581.66494			43110.99073		153.23000		771.00000 
 43692.65567		 305.27265			43387.38302		68.00200		324.00000 
 43692.65567		 581.66494			43110.99073		153.23000		771.00000 
 43692.65567		 305.27265			43387.38302		68.00200		324.00000 
 43692.65567		 581.66494			43110.99073		153.23000		771.00000 
 43692.65567		 305.27265			43387.38302		68.00200		324.00000 
 43692.65567		 581.66494			43110.99073		153.23000		771.00000 
 43692.65567		 305.27265			43387.38302		68.00200		324.00000 
 43692.65567		 581.66494			43110.99073		153.23000		771.00000 
 43692.65567		 305.27265			43387.38302		68.00200		324.00000 
 43692.65567		 581.66494			43110.99073		153.23000		771.00000 
 43692.65567		 305.27265			43387.38302		68.00200		324.00000 
 43692.65567		 581.66494			43110.99073		153.23000		771.00000 
 43692.65567		 305.27265			43387.38302		68.00200		324.00000 
 43692.65567		 581.66494			43110.99073		153.23000		771.00000 
 43692.65567		 305.27265			43387.38302		68.00200		324.00000 
 43692.65567		 581.66494			43110.99073		153.23000		771.00000 
 43692.65567		 305.27265			43387.38302		68.00200		324.00000 
 43692.65567		 581.66494			43110.99073		171.89400		771.00000 
 43692.65567		 305.27265			43387.38302		68.00200		324.00000 
 43692.65567		 581.66494			43110.99073		171.89400		771.00000 
 43692.65567		 305.27265			43387.38302		68.00200		324.00000 
 43692.65567		 581.66494			43110.99073		171.89400		771.00000 
 43692.65567		 305.27265			43387.38302		68.00200		324.00000 
 43692.65567		 581.66494			43110.99073		171.89400		771.00000 
 43692.65567		 305.27265			43387.38302		68.00200		324.00000 
 43692.65567		 581.66494			43110.99073		171.89400		771.00000 
 43692.65567		 305.27265			43387.38302		68.00200		324.00000 
 43692.65567		 581.66494			43110.99073		171.89400		771.00000 
 43692.65567		 305.27265			43387.38302		68.00200		324.00000 
 43692.65567		 581.66494			43110.99073		171.89400		771.00000 
 43692.65567		 305.27265			43387.38302		68.00200		324.00000 
 43692.65567		 581.66494			43110.99073		171.89400		771.00000 
 43692.65567		 305.27265			43387.38302		68.00200		324.00000 
 43692.65567		 581.66494			43110.99073		171.89400		771.00000 
 43692.65567		 305.27265			43387.38302		68.00200		324.00000 
 43692.65567		 581.66494			43110.99073		171.89400		771.00000 
 43692.65567		 305.27265			43387.38302		68.00200		324.00000 
 43692.65567		 581.66494			43110.99073		171.89400		771.00000 
 43692.65567		 305.27265			43387.38302		68.00200		324.00000 
 43692.65567		 581.66494			43110.99073		171.89400		771.00000 
 43692.65567		 305.27265			43387.38302		68.00200		324.00000 
 43692.65567		 581.66494			43110.99073		171.89400		771.00000 
 43692.65567		 305.27265			43387.38302		68.00200		324.00000 
 43692.65567		 581.66494			43110.99073		171.89400		771.00000 
 43692.65567		 305.27265			43387.38302		68.00200		324.00000 
 43692.65567		 581.66494			43110.99073		171.89400		771.00000 
 43692.65567		 305.27265			43387.38302		68.00200		324.00000 
 43692.65567		 581.66494			43110.99073		171.89400		771.00000 
 43692.65567		 305.27265			43387.38302		68.00200		324.00000 
 43692.65567		 581.66494			43110.99073		171.89400		771.00000 
 43692.65567		 305.27265			43387.38302		68.00200		324.00000 
 43692.65567		 581.66494			43110.99073		171.89400		771.00000 
 43692.65567		 305.27265			43387.38302		68.00200		324.00000 
 43692.65567		 581.66494			43110.99073		171.89400		771.00000 
 43692.65567		 305.27265			43387.38302		68.00200		324.00000 
 43692.65567		 581.66494			43110.99073		171.89400		771.00000 
 43692.65567		 305.27265			43387.38302		68.00200		324.00000 
 43692.65567		 581.66494			43110.99073		171.89400		771.00000 
 43692.65567		 305.27265			43387.38302		68.00200		324.00000 
 43692.65567		 581.66494			43110.99073		171.89400		771.00000 
 43692.65567		 305.27265			43387.38302		68.00200		324.00000 
 43692.65567		 581.66494			43110.99073		171.89400		771.00000 
 43692.65567		 305.27265			43387.38302		68.00200		324.00000 
 43692.65567		 581.66494			43110.99073		171.89400		771.00000 
 43692.65567		 305.27265			43387.38302		68.00200		324.00000 
 43692.65567		 581.66494			43110.99073		171.89400		771.00000 
 43692.65567		 305.27265			43387.38302		68.00200		324.00000 
 43692.65567		 581.66494			43110.99073		171.89400		771.00000 
 43692.65567		 305.27265			43387.38302		68.00200		324.00000 
 43692.65567		 581.66494			43110.99073		171.89400		771.00000 
 43692.65567		 305.27265			43387.38302		68.00200		324.00000 
 43692.65567		 581.66494			43110.99073		171.89400		771.00000 
 43692.65567		 305.27265			43387.38302		68.00200		324.00000 
 43692.65567		 581.66494			43110.99073		171.89400		771.00000 
 43692.65567		 305.27265			43387.38302		68.00200		324.00000 
 43692.65567		 581.66494			43110.99073		171.89400		771.00000 
 43692.65567		 305.27265			43387.38302		68.00200		324.00000 
 43692.65567		 581.66494			43110.99073		171.89400		771.00000 
 43692.65567		 305.27265			43387.38302		68.00200		324.00000 
 43692.65567		 581.66494			43110.99073		171.89400		771.00000 
 43692.65567		 305.27265			43387.38302		68.00200		324.00000 
 43692.65567		 581.66494			43110.99073		171.89400		771.00000 
 43692.65567		 305.27265			43387.38302		68.00200		324.00000 
 43692.65567		 581.66494			43110.99073		171.89400		771.00000 
 43692.65567		 305.27265			43387.38302		68.00200		324.00000 
 43692.65567		 581.66494			43110.99073		171.89400		771.00000 
 43692.65567		 305.27265			43387.38302		68.00200		324.00000 
 43692.65567		 581.66494			43110.99073		171.89400		771.00000 
 43692.65567		 305.27265			43387.38302		68.00200		324.00000 
 43692.65567		 581.66494			43110.99073		171.89400		771.00000 
 43692.65567		 305.27265			43387.38302		68.00200		324.00000 
 43692.65567		 581.66494			43110.99073		171.89400		771.00000 
 43692.65567		 305.27265			43387.38302		68.00200		324.00000 
 43692.65567		 581.66494			43110.99073		171.89400		771.00000 
 43692.65567		 305.27265			43387.38302		68.00200		324.00000 
 43692.65567		 581.66494			43110.99073		171.89400		771.00000 
 43692.65567		 305.27265			43387.38302		68.00200		324.00000 
 43692.65567		 581.66494			43110.99073		171.89400		771.00000 
 43692.65567		 305.27265			43387.38302		68.00200		324.00000 
 43692.65567		 581.66494			43110.99073		171.89400		771.00000 
 43692.65567		 305.27265			43387.38302		68.00200		324.00000 
 43692.65567		 581.66494			43110.99073		171.89400		771.00000 
 43692.65567		 305.27265			43387.38302		68.00200		324.00000 
 43692.65567		 581.66494			43110.99073		171.89400		771.00000 
 43692.65567		 305.27265			43387.38302		68.00200		324.00000 
 43692.65567		 581.66494			43110.99073		171.89400		771.00000 
 43692.65567		 305.27265			43387.38302		68.00200		324.00000 
 43692.65567		 581.66494			43110.99073		171.89400		771.00000 
 43692.65567		 305.27265			43387.38302		68.00200		324.00000 
 43692.65567		 581.66494			43110.99073		171.89400		771.00000 
 43692.65567		 305.27265			43387.38302		68.00200		324.00000 
 43692.65567		 581.66494			43110.99073		171.89400		771.00000 
 43692.65567		 305.27265			43387.38302		68.00200		324.00000 
 43692.65567		 581.66494			43110.99073		171.89400		771.00000 
 43692.65567		 305.27265			43387.38302		68.00200		324.00000 
 43692.65567		 581.66494			43110.99073		171.89400		771.00000 
 43692.65567		 305.27265			43387.38302		68.00200		324.00000 
 43692.65567		 581.66494			43110.99073		171.89400		771.00000 
 43692.65567		 305.27265			43387.38302		68.00200		324.00000 
 43692.65567		 581.66494			43110.99073		171.89400		771.00000 
 43692.65567		 305.27265			43387.38302		68.00200		324.00000 
 43692.65567		 581.66494			43110.99073		171.89400		771.00000 
 43692.65567		 305.27265			43387.38302		68.00200		324.00000 
 43692.65567		 581.66494			43110.99073		171.89400		771.00000 
 43692.65567		 305.27265			43387.38302		68.00200		324.00000 
 43692.65567		 581.66494			43110.99073		171.89400		771.00000 
 43692.65567		 305.27265			43387.38302		68.00200		324.00000 
 43692.65567		 581.66494			43110.99073		171.89400		771.00000 
 43692.65567		 305.27265			43387.38302		68.00200		324.00000 
 43692.65567		 581.66494			43110.99073		171.89400		771.00000 
 43692.65567		 305.27265			43387.38302		68.00200		324.00000 
 43692.65567		 581.66494			43110.99073		171.89400		771.00000 
 43692.65567		 305.27265			43387.38302		68.00200		324.00000 
 43692.65567		 581.66494			43110.99073		171.89400		771.00000 
 43692.65567		 305.27265			43387.38302		68.00200		324.00000 
 43692.65567		 552.06853			43140.58715		171.89400		771.00000 
 43692.65567		 305.27265			43387.38302		68.00200		324.00000 
 43692.65567		 537.27032			43155.38535		179.62600		771.00000 
 43692.65567		 305.27265			43387.38302		68.00200		324.00000 
 43692.65567		 537.27032			43155.38535		179.62600		771.00000 
 43692.65567		 305.27265			43387.38302		68.00200		324.00000 
 43692.65567		 537.27032			43155.38535		179.62600		771.00000 
 43692.65567		 305.27265			43387.38302		68.00200		324.00000 
 43692.65567		 537.27032			43155.38535		179.62600		771.00000 
 43692.65567		 305.27265			43387.38302		68.00200		324.00000 
 43692.65567		 537.27032			43155.38535		179.62600		771.00000 
 43692.65567		 305.27265			43387.38302		68.00200		324.00000 
 43692.65567		 537.27032			43155.38535		179.62600		771.00000 
 43692.65567		 305.27265			43387.38302		68.00200		324.00000 
 43692.65567		 537.27032			43155.38535		179.62600		771.00000 
 43692.65567		 305.27265			43387.38302		68.00200		324.00000 
 43692.65567		 537.27032			43155.38535		179.62600		771.00000 
 43692.65567		 305.27265			43387.38302		68.00200		324.00000 
 43692.65567		 537.27032			43155.38535		179.62600		771.00000 
 43692.65567		 305.27265			43387.38302		68.00200		324.00000 
 43692.65567		 537.27032			43155.38535		179.62600		771.00000 
 43692.65567		 305.27265			43387.38302		68.00200		324.00000 
 43692.65567		 537.27032			43155.38535		179.62600		771.00000 
 43692.65567		 305.27265			43387.38302		68.00200		324.00000 
 43692.65567		 537.27032			43155.38535		179.62600		771.00000 
 43692.65567		 305.27265			43387.38302		68.00200		324.00000 
 43692.65567		 537.27032			43155.38535		179.62600		771.00000 
 43692.65567		 305.27265			43387.38302		68.00200		324.00000 
 43692.65567		 537.27032			43155.38535		179.62600		771.00000 
 43692.65567		 305.27265			43387.38302		68.00200		324.00000 
 43692.65567		 537.27032			43155.38535		179.62600		771.00000 
 43692.65567		 305.27265			43387.38302		68.00200		324.00000 
 43692.65567		 537.27032			43155.38535		179.62600		771.00000 
 43692.65567		 305.27265			43387.38302		68.00200		324.00000 
 43692.65567		 537.27032			43155.38535		179.62600		875.00000 
 43692.65567		 305.27265			43387.38302		68.00200		324.00000 
 43692.65567		 529.63254			43163.02313		179.62600		875.00000 
 43692.65567		 305.27265			43387.38302		68.00200		324.00000 
 43692.65567		 525.81365			43166.84203		179.62600		875.00000 
 43692.65567		 297.63487			43395.02080		68.00200		324.00000 
 43692.65567		 261.35540			43431.30027		179.62600		875.00000 
 43692.65567		 261.35540			43431.30027		68.00200		324.00000 
