Memory Total (MiB) 	 Memory Used (MiB) 	    Memory Free (MiB) 	 Power Drawed (W) 	 Clocks (Mhz) 	 
 43692.65567		 261.35540			43431.30027		184.60200		875.00000 
 43692.65567		 261.35540			43431.30027		68.58800		324.00000 
 43692.65567		 261.35540			43431.30027		184.60200		875.00000 
 43692.65567		 261.35540			43431.30027		68.58800		324.00000 
 43692.65567		 261.35540			43431.30027		184.60200		875.00000 
 43692.65567		 261.35540			43431.30027		68.58800		324.00000 
 43692.65567		 261.35540			43431.30027		184.60200		875.00000 
 43692.65567		 261.35540			43431.30027		68.58800		324.00000 
 43692.65567		 261.35540			43431.30027		184.60200		875.00000 
 43692.65567		 261.35540			43431.30027		68.58800		324.00000 
 43692.65567		 261.35540			43431.30027		184.60200		875.00000 
 43692.65567		 261.35540			43431.30027		68.58800		324.00000 
 43692.65567		 261.35540			43431.30027		184.60200		875.00000 
 43692.65567		 261.35540			43431.30027		68.58800		324.00000 
 43692.65567		 261.35540			43431.30027		184.60200		875.00000 
 43692.65567		 261.35540			43431.30027		68.58800		324.00000 
 43692.65567		 261.35540			43431.30027		184.60200		875.00000 
 43692.65567		 261.35540			43431.30027		68.58800		324.00000 
 43692.65567		 261.35540			43431.30027		184.60200		875.00000 
 43692.65567		 261.35540			43431.30027		68.58800		324.00000 
 43692.65567		 261.35540			43431.30027		184.60200		875.00000 
 43692.65567		 261.35540			43431.30027		68.58800		324.00000 
 43692.65567		 261.35540			43431.30027		184.60200		875.00000 
 43692.65567		 261.35540			43431.30027		68.58800		324.00000 
 43692.65567		 261.35540			43431.30027		184.60200		875.00000 
 43692.65567		 261.35540			43431.30027		68.58800		324.00000 
 43692.65567		 261.35540			43431.30027		184.60200		875.00000 
 43692.65567		 261.35540			43431.30027		68.58800		324.00000 
 43692.65567		 261.35540			43431.30027		184.60200		875.00000 
 43692.65567		 261.35540			43431.30027		68.58800		324.00000 
 43692.65567		 261.35540			43431.30027		184.60200		875.00000 
 43692.65567		 261.35540			43431.30027		68.58800		324.00000 
 43692.65567		 261.35540			43431.30027		184.60200		875.00000 
 43692.65567		 261.35540			43431.30027		68.58800		324.00000 
 43692.65567		 261.35540			43431.30027		184.60200		875.00000 
 43692.65567		 261.35540			43431.30027		68.58800		324.00000 
 43692.65567		 265.17429			43427.48138		184.60200		875.00000 
 43692.65567		 261.35540			43431.30027		68.58800		324.00000 
 43692.65567		 265.17429			43427.48138		184.60200		875.00000 
 43692.65567		 261.35540			43431.30027		68.58800		324.00000 
 43692.65567		 272.81207			43419.84360		184.60200		875.00000 
 43692.65567		 261.35540			43431.30027		68.58800		324.00000 
 43692.65567		 272.81207			43419.84360		184.60200		875.00000 
 43692.65567		 261.35540			43431.30027		68.58800		324.00000 
 43692.65567		 272.81207			43419.84360		184.60200		875.00000 
 43692.65567		 265.17429			43427.48138		68.58800		324.00000 
 43692.65567		 272.81207			43419.84360		151.69800		875.00000 
 43692.65567		 265.17429			43427.48138		68.58800		324.00000 
 43692.65567		 272.81207			43419.84360		151.69800		875.00000 
 43692.65567		 272.81207			43419.84360		68.58800		324.00000 
 43692.65567		 272.81207			43419.84360		151.69800		875.00000 
 43692.65567		 272.81207			43419.84360		68.58800		324.00000 
 43692.65567		 272.81207			43419.84360		151.69800		875.00000 
 43692.65567		 272.81207			43419.84360		68.58800		324.00000 
 43692.65567		 272.81207			43419.84360		151.69800		875.00000 
 43692.65567		 272.81207			43419.84360		68.58800		324.00000 
 43692.65567		 305.27265			43387.38302		151.69800		875.00000 
 43692.65567		 305.27265			43387.38302		68.58800		324.00000 
 43692.65567		 305.27265			43387.38302		151.69800		875.00000 
 43692.65567		 305.27265			43387.38302		68.58800		324.00000 
 43692.65567		 305.27265			43387.38302		151.69800		875.00000 
 43692.65567		 305.27265			43387.38302		68.58800		324.00000 
 43692.65567		 305.27265			43387.38302		151.69800		875.00000 
 43692.65567		 305.27265			43387.38302		68.58800		324.00000 
 43692.65567		 305.27265			43387.38302		151.69800		875.00000 
 43692.65567		 305.27265			43387.38302		68.58800		324.00000 
 43692.65567		 310.04627			43382.60941		151.69800		875.00000 
 43692.65567		 305.27265			43387.38302		68.58800		324.00000 
 43692.65567		 311.00099			43381.65468		151.69800		875.00000 
 43692.65567		 305.27265			43387.38302		68.58800		324.00000 
 43692.65567		 311.00099			43381.65468		151.69800		875.00000 
 43692.65567		 305.27265			43387.38302		68.58800		324.00000 
 43692.65567		 311.00099			43381.65468		151.69800		875.00000 
 43692.65567		 305.27265			43387.38302		68.58800		324.00000 
 43692.65567		 311.00099			43381.65468		151.69800		875.00000 
 43692.65567		 305.27265			43387.38302		68.58800		324.00000 
 43692.65567		 311.00099			43381.65468		151.69800		875.00000 
 43692.65567		 305.27265			43387.38302		68.58800		324.00000 
 43692.65567		 311.00099			43381.65468		151.69800		875.00000 
 43692.65567		 305.27265			43387.38302		68.58800		324.00000 
 43692.65567		 311.00099			43381.65468		151.69800		875.00000 
 43692.65567		 305.27265			43387.38302		68.58800		324.00000 
 43692.65567		 311.00099			43381.65468		151.69800		875.00000 
 43692.65567		 305.27265			43387.38302		68.58800		324.00000 
 43692.65567		 311.00099			43381.65468		151.69800		875.00000 
 43692.65567		 305.27265			43387.38302		68.58800		324.00000 
 43692.65567		 311.00099			43381.65468		151.69800		875.00000 
 43692.65567		 305.27265			43387.38302		68.58800		324.00000 
 43692.65567		 311.00099			43381.65468		151.69800		875.00000 
 43692.65567		 305.27265			43387.38302		68.58800		324.00000 
 43692.65567		 311.00099			43381.65468		151.69800		875.00000 
 43692.65567		 305.27265			43387.38302		68.58800		324.00000 
 43692.65567		 311.00099			43381.65468		151.69800		875.00000 
 43692.65567		 305.27265			43387.38302		68.58800		324.00000 
 43692.65567		 311.00099			43381.65468		151.69800		875.00000 
 43692.65567		 305.27265			43387.38302		68.58800		324.00000 
 43692.65567		 311.00099			43381.65468		151.69800		875.00000 
 43692.65567		 305.27265			43387.38302		68.58800		324.00000 
 43692.65567		 311.00099			43381.65468		151.69800		875.00000 
 43692.65567		 305.27265			43387.38302		68.58800		324.00000 
 43692.65567		 311.00099			43381.65468		151.69800		875.00000 
 43692.65567		 305.27265			43387.38302		68.58800		324.00000 
 43692.65567		 311.00099			43381.65468		151.69800		875.00000 
 43692.65567		 305.27265			43387.38302		68.58800		324.00000 
 43692.65567		 311.00099			43381.65468		151.69800		875.00000 
 43692.65567		 305.27265			43387.38302		68.58800		324.00000 
 43692.65567		 311.00099			43381.65468		151.69800		875.00000 
 43692.65567		 305.27265			43387.38302		68.58800		324.00000 
 43692.65567		 311.00099			43381.65468		151.69800		875.00000 
 43692.65567		 305.27265			43387.38302		68.58800		324.00000 
 43692.65567		 311.00099			43381.65468		151.69800		875.00000 
 43692.65567		 305.27265			43387.38302		68.58800		324.00000 
 43692.65567		 311.00099			43381.65468		138.65800		875.00000 
 43692.65567		 305.27265			43387.38302		68.58800		324.00000 
 43692.65567		 311.00099			43381.65468		138.65800		875.00000 
 43692.65567		 305.27265			43387.38302		68.58800		324.00000 
 43692.65567		 311.00099			43381.65468		138.65800		875.00000 
 43692.65567		 305.27265			43387.38302		68.58800		324.00000 
 43692.65567		 311.00099			43381.65468		138.65800		875.00000 
 43692.65567		 305.27265			43387.38302		68.58800		324.00000 
 43692.65567		 311.00099			43381.65468		138.65800		875.00000 
 43692.65567		 305.27265			43387.38302		68.58800		324.00000 
 43692.65567		 311.00099			43381.65468		138.65800		875.00000 
 43692.65567		 305.27265			43387.38302		68.58800		324.00000 
 43692.65567		 311.00099			43381.65468		138.65800		875.00000 
 43692.65567		 305.27265			43387.38302		68.58800		324.00000 
 43692.65567		 311.00099			43381.65468		138.65800		875.00000 
 43692.65567		 305.27265			43387.38302		68.58800		324.00000 
 43692.65567		 311.00099			43381.65468		138.65800		875.00000 
 43692.65567		 305.27265			43387.38302		68.58800		324.00000 
 43692.65567		 311.00099			43381.65468		138.65800		875.00000 
 43692.65567		 305.27265			43387.38302		68.58800		324.00000 
 43692.65567		 311.00099			43381.65468		138.65800		875.00000 
 43692.65567		 305.27265			43387.38302		68.58800		324.00000 
 43692.65567		 311.00099			43381.65468		138.65800		875.00000 
 43692.65567		 305.27265			43387.38302		68.58800		324.00000 
 43692.65567		 311.00099			43381.65468		138.65800		875.00000 
 43692.65567		 305.27265			43387.38302		68.58800		324.00000 
 43692.65567		 311.00099			43381.65468		138.65800		875.00000 
 43692.65567		 305.27265			43387.38302		68.58800		324.00000 
 43692.65567		 311.00099			43381.65468		138.65800		875.00000 
 43692.65567		 305.27265			43387.38302		68.58800		324.00000 
 43692.65567		 311.00099			43381.65468		138.65800		875.00000 
 43692.65567		 305.27265			43387.38302		68.58800		324.00000 
 43692.65567		 311.00099			43381.65468		138.65800		875.00000 
 43692.65567		 305.27265			43387.38302		68.58800		324.00000 
 43692.65567		 311.00099			43381.65468		138.65800		875.00000 
 43692.65567		 305.27265			43387.38302		68.58800		324.00000 
 43692.65567		 311.00099			43381.65468		138.65800		875.00000 
 43692.65567		 305.27265			43387.38302		68.58800		324.00000 
 43692.65567		 311.00099			43381.65468		138.65800		875.00000 
 43692.65567		 305.27265			43387.38302		68.58800		324.00000 
 43692.65567		 311.00099			43381.65468		138.65800		875.00000 
 43692.65567		 305.27265			43387.38302		68.58800		324.00000 
 43692.65567		 311.00099			43381.65468		138.65800		875.00000 
 43692.65567		 305.27265			43387.38302		68.58800		324.00000 
 43692.65567		 311.00099			43381.65468		138.65800		875.00000 
 43692.65567		 305.27265			43387.38302		68.58800		324.00000 
 43692.65567		 311.00099			43381.65468		138.65800		875.00000 
 43692.65567		 305.27265			43387.38302		68.58800		324.00000 
 43692.65567		 311.00099			43381.65468		138.65800		875.00000 
 43692.65567		 305.27265			43387.38302		68.58800		324.00000 
 43692.65567		 311.00099			43381.65468		138.65800		875.00000 
 43692.65567		 305.27265			43387.38302		68.58800		324.00000 
 43692.65567		 311.00099			43381.65468		138.65800		875.00000 
 43692.65567		 305.27265			43387.38302		68.58800		324.00000 
 43692.65567		 311.00099			43381.65468		138.65800		875.00000 
 43692.65567		 305.27265			43387.38302		68.58800		324.00000 
 43692.65567		 311.00099			43381.65468		138.65800		875.00000 
 43692.65567		 305.27265			43387.38302		68.58800		324.00000 
 43692.65567		 314.81988			43377.83579		138.65800		875.00000 
 43692.65567		 305.27265			43387.38302		68.58800		324.00000 
 43692.65567		 314.81988			43377.83579		138.65800		875.00000 
 43692.65567		 305.27265			43387.38302		68.58800		324.00000 
 43692.65567		 314.81988			43377.83579		138.65800		875.00000 
 43692.65567		 305.27265			43387.38302		68.58800		324.00000 
 43692.65567		 318.63877			43374.01690		134.44800		875.00000 
 43692.65567		 305.27265			43387.38302		68.58800		324.00000 
 43692.65567		 322.45767			43370.19801		134.44800		875.00000 
 43692.65567		 305.27265			43387.38302		68.58800		324.00000 
 43692.65567		 326.27656			43366.37912		134.44800		875.00000 
 43692.65567		 305.27265			43387.38302		68.58800		324.00000 
 43692.65567		 326.27656			43366.37912		134.44800		875.00000 
 43692.65567		 305.27265			43387.38302		68.58800		324.00000 
 43692.65567		 326.27656			43366.37912		134.44800		875.00000 
 43692.65567		 305.27265			43387.38302		68.58800		324.00000 
 43692.65567		 537.27032			43155.38535		134.44800		875.00000 
 43692.65567		 305.27265			43387.38302		68.58800		324.00000 
 43692.65567		 605.05565			43087.60002		134.44800		875.00000 
 43692.65567		 305.27265			43387.38302		68.58800		324.00000 
 43692.65567		 638.94831			43053.70736		134.44800		875.00000 
 43692.65567		 305.27265			43387.38302		68.58800		324.00000 
 43692.65567		 638.94831			43053.70736		134.44800		875.00000 
 43692.65567		 305.27265			43387.38302		68.58800		324.00000 
 43692.65567		 638.94831			43053.70736		134.44800		875.00000 
 43692.65567		 305.27265			43387.38302		68.58800		324.00000 
 43692.65567		 638.94831			43053.70736		134.44800		875.00000 
 43692.65567		 305.27265			43387.38302		68.58800		324.00000 
 43692.65567		 638.94831			43053.70736		134.44800		875.00000 
 43692.65567		 305.27265			43387.38302		68.58800		324.00000 
 43692.65567		 638.94831			43053.70736		134.44800		875.00000 
 43692.65567		 305.27265			43387.38302		68.58800		324.00000 
 43692.65567		 638.94831			43053.70736		134.44800		875.00000 
 43692.65567		 305.27265			43387.38302		68.58800		324.00000 
 43692.65567		 638.94831			43053.70736		134.44800		875.00000 
 43692.65567		 305.27265			43387.38302		68.58800		324.00000 
 43692.65567		 638.94831			43053.70736		134.44800		875.00000 
 43692.65567		 305.27265			43387.38302		68.58800		324.00000 
 43692.65567		 638.94831			43053.70736		134.44800		875.00000 
 43692.65567		 305.27265			43387.38302		68.58800		324.00000 
 43692.65567		 638.94831			43053.70736		134.44800		875.00000 
 43692.65567		 305.27265			43387.38302		68.58800		324.00000 
 43692.65567		 638.94831			43053.70736		134.44800		875.00000 
 43692.65567		 305.27265			43387.38302		68.58800		324.00000 
 43692.65567		 638.94831			43053.70736		134.44800		875.00000 
 43692.65567		 305.27265			43387.38302		68.58800		324.00000 
 43692.65567		 638.94831			43053.70736		134.44800		875.00000 
 43692.65567		 305.27265			43387.38302		68.58800		324.00000 
 43692.65567		 638.94831			43053.70736		134.44800		875.00000 
 43692.65567		 305.27265			43387.38302		68.58800		324.00000 
 43692.65567		 638.94831			43053.70736		134.44800		875.00000 
 43692.65567		 305.27265			43387.38302		68.58800		324.00000 
 43692.65567		 638.94831			43053.70736		134.44800		875.00000 
 43692.65567		 305.27265			43387.38302		68.58800		324.00000 
 43692.65567		 638.94831			43053.70736		134.44800		875.00000 
 43692.65567		 305.27265			43387.38302		68.58800		324.00000 
 43692.65567		 638.94831			43053.70736		134.44800		875.00000 
 43692.65567		 305.27265			43387.38302		68.58800		324.00000 
 43692.65567		 638.94831			43053.70736		134.44800		875.00000 
 43692.65567		 305.27265			43387.38302		68.58800		324.00000 
 43692.65567		 638.94831			43053.70736		134.44800		875.00000 
 43692.65567		 305.27265			43387.38302		68.58800		324.00000 
 43692.65567		 638.94831			43053.70736		134.44800		875.00000 
 43692.65567		 305.27265			43387.38302		68.58800		324.00000 
 43692.65567		 638.94831			43053.70736		134.44800		875.00000 
 43692.65567		 305.27265			43387.38302		68.58800		324.00000 
 43692.65567		 638.94831			43053.70736		134.44800		875.00000 
 43692.65567		 305.27265			43387.38302		68.58800		324.00000 
 43692.65567		 638.94831			43053.70736		134.44800		875.00000 
 43692.65567		 305.27265			43387.38302		68.58800		324.00000 
 43692.65567		 638.94831			43053.70736		134.44800		875.00000 
 43692.65567		 305.27265			43387.38302		68.58800		324.00000 
 43692.65567		 638.94831			43053.70736		134.44800		875.00000 
 43692.65567		 305.27265			43387.38302		68.58800		324.00000 
 43692.65567		 638.94831			43053.70736		134.44800		875.00000 
 43692.65567		 305.27265			43387.38302		68.58800		324.00000 
 43692.65567		 638.94831			43053.70736		134.44800		875.00000 
 43692.65567		 305.27265			43387.38302		68.58800		324.00000 
 43692.65567		 638.94831			43053.70736		134.44800		875.00000 
 43692.65567		 305.27265			43387.38302		68.58800		324.00000 
 43692.65567		 638.94831			43053.70736		134.44800		875.00000 
 43692.65567		 305.27265			43387.38302		68.58800		324.00000 
 43692.65567		 638.94831			43053.70736		134.44800		875.00000 
 43692.65567		 305.27265			43387.38302		68.58800		324.00000 
 43692.65567		 638.94831			43053.70736		134.44800		875.00000 
 43692.65567		 305.27265			43387.38302		68.58800		324.00000 
 43692.65567		 638.94831			43053.70736		134.44800		875.00000 
 43692.65567		 305.27265			43387.38302		68.58800		324.00000 
 43692.65567		 638.94831			43053.70736		134.44800		875.00000 
 43692.65567		 305.27265			43387.38302		68.58800		324.00000 
 43692.65567		 638.94831			43053.70736		134.44800		875.00000 
 43692.65567		 305.27265			43387.38302		68.58800		324.00000 
 43692.65567		 638.94831			43053.70736		134.44800		875.00000 
 43692.65567		 305.27265			43387.38302		68.58800		324.00000 
 43692.65567		 638.94831			43053.70736		134.44800		875.00000 
 43692.65567		 305.27265			43387.38302		68.58800		324.00000 
 43692.65567		 638.94831			43053.70736		134.44800		875.00000 
 43692.65567		 305.27265			43387.38302		68.58800		324.00000 
 43692.65567		 638.94831			43053.70736		134.44800		875.00000 
 43692.65567		 305.27265			43387.38302		68.58800		324.00000 
 43692.65567		 638.94831			43053.70736		134.44800		875.00000 
 43692.65567		 305.27265			43387.38302		68.58800		324.00000 
 43692.65567		 638.94831			43053.70736		134.44800		875.00000 
 43692.65567		 305.27265			43387.38302		68.58800		324.00000 
 43692.65567		 638.94831			43053.70736		134.44800		875.00000 
 43692.65567		 305.27265			43387.38302		68.58800		324.00000 
 43692.65567		 638.94831			43053.70736		134.44800		875.00000 
 43692.65567		 305.27265			43387.38302		68.58800		324.00000 
 43692.65567		 638.94831			43053.70736		134.44800		875.00000 
 43692.65567		 305.27265			43387.38302		68.58800		324.00000 
 43692.65567		 638.94831			43053.70736		134.44800		875.00000 
 43692.65567		 305.27265			43387.38302		68.58800		324.00000 
 43692.65567		 638.94831			43053.70736		134.44800		875.00000 
 43692.65567		 305.27265			43387.38302		68.58800		324.00000 
 43692.65567		 638.94831			43053.70736		134.44800		875.00000 
 43692.65567		 305.27265			43387.38302		68.58800		324.00000 
 43692.65567		 638.94831			43053.70736		134.44800		875.00000 
 43692.65567		 305.27265			43387.38302		68.58800		324.00000 
 43692.65567		 638.94831			43053.70736		134.44800		875.00000 
 43692.65567		 305.27265			43387.38302		68.58800		324.00000 
 43692.65567		 638.94831			43053.70736		134.44800		875.00000 
 43692.65567		 305.27265			43387.38302		68.58800		324.00000 
 43692.65567		 638.94831			43053.70736		134.44800		875.00000 
 43692.65567		 305.27265			43387.38302		68.58800		324.00000 
 43692.65567		 638.94831			43053.70736		183.69800		875.00000 
 43692.65567		 305.27265			43387.38302		68.58800		324.00000 
 43692.65567		 638.94831			43053.70736		183.69800		875.00000 
 43692.65567		 305.27265			43387.38302		68.58800		324.00000 
 43692.65567		 638.94831			43053.70736		183.69800		875.00000 
 43692.65567		 305.27265			43387.38302		68.58800		324.00000 
 43692.65567		 638.94831			43053.70736		183.69800		875.00000 
 43692.65567		 305.27265			43387.38302		68.58800		324.00000 
 43692.65567		 638.94831			43053.70736		183.69800		875.00000 
 43692.65567		 305.27265			43387.38302		68.58800		324.00000 
 43692.65567		 638.94831			43053.70736		183.69800		875.00000 
 43692.65567		 305.27265			43387.38302		68.58800		324.00000 
 43692.65567		 638.94831			43053.70736		183.69800		875.00000 
 43692.65567		 305.27265			43387.38302		68.58800		324.00000 
 43692.65567		 638.94831			43053.70736		183.69800		875.00000 
 43692.65567		 305.27265			43387.38302		68.58800		324.00000 
 43692.65567		 638.94831			43053.70736		183.69800		875.00000 
 43692.65567		 305.27265			43387.38302		68.58800		324.00000 
 43692.65567		 638.94831			43053.70736		183.69800		875.00000 
 43692.65567		 305.27265			43387.38302		68.58800		324.00000 
 43692.65567		 638.94831			43053.70736		183.69800		875.00000 
 43692.65567		 305.27265			43387.38302		68.58800		324.00000 
 43692.65567		 638.94831			43053.70736		183.69800		875.00000 
 43692.65567		 305.27265			43387.38302		68.58800		324.00000 
 43692.65567		 638.94831			43053.70736		183.69800		875.00000 
 43692.65567		 305.27265			43387.38302		68.58800		324.00000 
 43692.65567		 638.94831			43053.70736		183.69800		875.00000 
 43692.65567		 305.27265			43387.38302		68.58800		324.00000 
 43692.65567		 638.94831			43053.70736		183.69800		875.00000 
 43692.65567		 305.27265			43387.38302		68.58800		324.00000 
 43692.65567		 638.94831			43053.70736		183.69800		875.00000 
 43692.65567		 305.27265			43387.38302		68.58800		324.00000 
 43692.65567		 638.94831			43053.70736		183.69800		875.00000 
 43692.65567		 305.27265			43387.38302		68.58800		324.00000 
 43692.65567		 638.94831			43053.70736		183.69800		875.00000 
 43692.65567		 305.27265			43387.38302		68.58800		324.00000 
 43692.65567		 638.94831			43053.70736		183.69800		875.00000 
 43692.65567		 305.27265			43387.38302		68.58800		324.00000 
 43692.65567		 638.94831			43053.70736		183.69800		875.00000 
 43692.65567		 305.27265			43387.38302		68.58800		324.00000 
 43692.65567		 638.94831			43053.70736		183.69800		875.00000 
 43692.65567		 305.27265			43387.38302		68.58800		324.00000 
 43692.65567		 638.94831			43053.70736		183.69800		875.00000 
 43692.65567		 305.27265			43387.38302		68.58800		324.00000 
 43692.65567		 638.94831			43053.70736		183.69800		875.00000 
 43692.65567		 305.27265			43387.38302		68.58800		324.00000 
 43692.65567		 638.94831			43053.70736		183.69800		875.00000 
 43692.65567		 305.27265			43387.38302		68.58800		324.00000 
 43692.65567		 638.94831			43053.70736		183.69800		875.00000 
 43692.65567		 305.27265			43387.38302		68.58800		324.00000 
 43692.65567		 638.94831			43053.70736		183.69800		875.00000 
 43692.65567		 305.27265			43387.38302		68.58800		324.00000 
 43692.65567		 638.94831			43053.70736		183.69800		875.00000 
 43692.65567		 305.27265			43387.38302		68.58800		324.00000 
 43692.65567		 638.94831			43053.70736		183.69800		875.00000 
 43692.65567		 305.27265			43387.38302		68.58800		324.00000 
 43692.65567		 638.94831			43053.70736		183.69800		875.00000 
 43692.65567		 305.27265			43387.38302		68.58800		324.00000 
 43692.65567		 638.94831			43053.70736		183.69800		875.00000 
 43692.65567		 305.27265			43387.38302		68.58800		324.00000 
 43692.65567		 638.94831			43053.70736		183.69800		875.00000 
 43692.65567		 305.27265			43387.38302		68.58800		324.00000 
 43692.65567		 638.94831			43053.70736		183.69800		875.00000 
 43692.65567		 305.27265			43387.38302		68.58800		324.00000 
 43692.65567		 638.94831			43053.70736		183.69800		875.00000 
 43692.65567		 305.27265			43387.38302		68.58800		324.00000 
 43692.65567		 638.94831			43053.70736		183.69800		875.00000 
 43692.65567		 305.27265			43387.38302		68.58800		324.00000 
 43692.65567		 638.94831			43053.70736		183.69800		875.00000 
 43692.65567		 305.27265			43387.38302		68.58800		324.00000 
 43692.65567		 638.94831			43053.70736		183.69800		875.00000 
 43692.65567		 305.27265			43387.38302		68.58800		324.00000 
 43692.65567		 638.94831			43053.70736		183.69800		875.00000 
 43692.65567		 305.27265			43387.38302		68.58800		324.00000 
 43692.65567		 638.94831			43053.70736		183.69800		875.00000 
 43692.65567		 305.27265			43387.38302		68.58800		324.00000 
 43692.65567		 638.94831			43053.70736		183.69800		875.00000 
 43692.65567		 305.27265			43387.38302		68.58800		324.00000 
 43692.65567		 638.94831			43053.70736		183.69800		875.00000 
 43692.65567		 305.27265			43387.38302		68.58800		324.00000 
 43692.65567		 638.94831			43053.70736		183.69800		875.00000 
 43692.65567		 305.27265			43387.38302		68.58800		324.00000 
 43692.65567		 638.94831			43053.70736		183.69800		875.00000 
 43692.65567		 305.27265			43387.38302		68.58800		324.00000 
 43692.65567		 638.94831			43053.70736		183.69800		875.00000 
 43692.65567		 305.27265			43387.38302		68.58800		324.00000 
 43692.65567		 638.94831			43053.70736		183.69800		875.00000 
 43692.65567		 305.27265			43387.38302		68.58800		324.00000 
 43692.65567		 638.94831			43053.70736		183.69800		875.00000 
 43692.65567		 305.27265			43387.38302		68.58800		324.00000 
 43692.65567		 638.94831			43053.70736		183.69800		875.00000 
 43692.65567		 305.27265			43387.38302		68.58800		324.00000 
 43692.65567		 638.94831			43053.70736		183.69800		875.00000 
 43692.65567		 305.27265			43387.38302		68.58800		324.00000 
 43692.65567		 638.94831			43053.70736		183.69800		875.00000 
 43692.65567		 305.27265			43387.38302		68.58800		324.00000 
 43692.65567		 638.94831			43053.70736		183.69800		875.00000 
 43692.65567		 305.27265			43387.38302		68.58800		324.00000 
 43692.65567		 638.94831			43053.70736		183.69800		875.00000 
 43692.65567		 305.27265			43387.38302		68.58800		324.00000 
 43692.65567		 638.94831			43053.70736		183.69800		875.00000 
 43692.65567		 305.27265			43387.38302		68.58800		324.00000 
 43692.65567		 638.94831			43053.70736		183.69800		875.00000 
 43692.65567		 305.27265			43387.38302		68.58800		324.00000 
 43692.65567		 638.94831			43053.70736		183.69800		875.00000 
 43692.65567		 305.27265			43387.38302		68.58800		324.00000 
 43692.65567		 638.94831			43053.70736		183.69800		875.00000 
 43692.65567		 305.27265			43387.38302		68.58800		324.00000 
 43692.65567		 638.94831			43053.70736		183.69800		875.00000 
 43692.65567		 305.27265			43387.38302		69.17400		324.00000 
 43692.65567		 638.94831			43053.70736		183.69800		875.00000 
 43692.65567		 305.27265			43387.38302		69.17400		324.00000 
 43692.65567		 638.94831			43053.70736		183.69800		875.00000 
 43692.65567		 305.27265			43387.38302		69.17400		324.00000 
 43692.65567		 638.94831			43053.70736		208.03600		875.00000 
 43692.65567		 305.27265			43387.38302		69.17400		324.00000 
 43692.65567		 638.94831			43053.70736		208.03600		875.00000 
 43692.65567		 305.27265			43387.38302		69.17400		324.00000 
 43692.65567		 638.94831			43053.70736		208.03600		875.00000 
 43692.65567		 305.27265			43387.38302		69.17400		324.00000 
 43692.65567		 638.94831			43053.70736		208.03600		875.00000 
 43692.65567		 305.27265			43387.38302		69.17400		324.00000 
 43692.65567		 638.94831			43053.70736		208.03600		875.00000 
 43692.65567		 305.27265			43387.38302		69.17400		324.00000 
 43692.65567		 638.94831			43053.70736		208.03600		875.00000 
 43692.65567		 305.27265			43387.38302		69.17400		324.00000 
 43692.65567		 638.94831			43053.70736		208.03600		875.00000 
 43692.65567		 305.27265			43387.38302		69.17400		324.00000 
 43692.65567		 638.94831			43053.70736		208.03600		875.00000 
 43692.65567		 305.27265			43387.38302		69.17400		324.00000 
 43692.65567		 638.94831			43053.70736		208.03600		875.00000 
 43692.65567		 305.27265			43387.38302		69.17400		324.00000 
 43692.65567		 638.94831			43053.70736		208.03600		875.00000 
 43692.65567		 305.27265			43387.38302		69.17400		324.00000 
 43692.65567		 638.94831			43053.70736		208.03600		875.00000 
 43692.65567		 305.27265			43387.38302		69.17400		324.00000 
 43692.65567		 638.94831			43053.70736		208.03600		875.00000 
 43692.65567		 305.27265			43387.38302		69.17400		324.00000 
 43692.65567		 638.94831			43053.70736		208.03600		875.00000 
 43692.65567		 305.27265			43387.38302		69.17400		324.00000 
 43692.65567		 638.94831			43053.70736		208.03600		875.00000 
 43692.65567		 305.27265			43387.38302		69.17400		324.00000 
 43692.65567		 638.94831			43053.70736		208.03600		875.00000 
 43692.65567		 305.27265			43387.38302		69.17400		324.00000 
 43692.65567		 638.94831			43053.70736		208.03600		875.00000 
 43692.65567		 305.27265			43387.38302		69.17400		324.00000 
 43692.65567		 638.94831			43053.70736		208.03600		875.00000 
 43692.65567		 305.27265			43387.38302		69.17400		324.00000 
 43692.65567		 638.94831			43053.70736		208.03600		875.00000 
 43692.65567		 305.27265			43387.38302		69.17400		324.00000 
 43692.65567		 638.94831			43053.70736		208.03600		875.00000 
 43692.65567		 305.27265			43387.38302		69.17400		324.00000 
 43692.65567		 638.94831			43053.70736		208.03600		875.00000 
 43692.65567		 305.27265			43387.38302		69.17400		324.00000 
 43692.65567		 638.94831			43053.70736		208.03600		875.00000 
 43692.65567		 305.27265			43387.38302		69.17400		324.00000 
 43692.65567		 638.94831			43053.70736		208.03600		875.00000 
 43692.65567		 305.27265			43387.38302		69.17400		324.00000 
 43692.65567		 638.94831			43053.70736		208.03600		875.00000 
 43692.65567		 305.27265			43387.38302		69.17400		324.00000 
 43692.65567		 638.94831			43053.70736		208.03600		875.00000 
 43692.65567		 305.27265			43387.38302		69.17400		324.00000 
 43692.65567		 638.94831			43053.70736		208.03600		875.00000 
 43692.65567		 305.27265			43387.38302		69.17400		324.00000 
 43692.65567		 638.94831			43053.70736		208.03600		875.00000 
 43692.65567		 305.27265			43387.38302		69.17400		324.00000 
 43692.65567		 638.94831			43053.70736		208.03600		875.00000 
 43692.65567		 305.27265			43387.38302		69.17400		324.00000 
 43692.65567		 638.94831			43053.70736		208.03600		875.00000 
 43692.65567		 305.27265			43387.38302		69.17400		324.00000 
 43692.65567		 638.94831			43053.70736		208.03600		875.00000 
 43692.65567		 305.27265			43387.38302		69.17400		324.00000 
 43692.65567		 638.94831			43053.70736		208.03600		875.00000 
 43692.65567		 305.27265			43387.38302		69.17400		324.00000 
 43692.65567		 638.94831			43053.70736		208.03600		875.00000 
 43692.65567		 305.27265			43387.38302		69.17400		324.00000 
 43692.65567		 638.94831			43053.70736		208.03600		875.00000 
 43692.65567		 305.27265			43387.38302		69.17400		324.00000 
 43692.65567		 638.94831			43053.70736		208.03600		875.00000 
 43692.65567		 305.27265			43387.38302		69.17400		324.00000 
 43692.65567		 638.94831			43053.70736		208.03600		875.00000 
 43692.65567		 305.27265			43387.38302		69.17400		324.00000 
 43692.65567		 638.94831			43053.70736		208.03600		875.00000 
 43692.65567		 305.27265			43387.38302		69.17400		324.00000 
 43692.65567		 638.94831			43053.70736		208.03600		875.00000 
 43692.65567		 305.27265			43387.38302		69.17400		324.00000 
 43692.65567		 638.94831			43053.70736		208.03600		875.00000 
 43692.65567		 305.27265			43387.38302		69.17400		324.00000 
 43692.65567		 638.94831			43053.70736		208.03600		875.00000 
 43692.65567		 305.27265			43387.38302		69.17400		324.00000 
 43692.65567		 638.94831			43053.70736		208.03600		875.00000 
 43692.65567		 305.27265			43387.38302		69.17400		324.00000 
 43692.65567		 638.94831			43053.70736		208.03600		875.00000 
 43692.65567		 305.27265			43387.38302		69.17400		324.00000 
 43692.65567		 638.94831			43053.70736		208.03600		875.00000 
 43692.65567		 305.27265			43387.38302		69.17400		324.00000 
 43692.65567		 638.94831			43053.70736		208.03600		875.00000 
 43692.65567		 305.27265			43387.38302		69.17400		324.00000 
 43692.65567		 638.94831			43053.70736		208.03600		875.00000 
 43692.65567		 305.27265			43387.38302		69.17400		324.00000 
 43692.65567		 638.94831			43053.70736		208.03600		875.00000 
 43692.65567		 305.27265			43387.38302		69.17400		324.00000 
 43692.65567		 638.94831			43053.70736		208.03600		875.00000 
 43692.65567		 305.27265			43387.38302		69.17400		324.00000 
 43692.65567		 638.94831			43053.70736		208.03600		875.00000 
 43692.65567		 305.27265			43387.38302		69.17400		324.00000 
 43692.65567		 638.94831			43053.70736		208.03600		875.00000 
 43692.65567		 305.27265			43387.38302		69.17400		324.00000 
 43692.65567		 638.94831			43053.70736		208.03600		875.00000 
 43692.65567		 305.27265			43387.38302		69.17400		324.00000 
 43692.65567		 638.94831			43053.70736		208.03600		875.00000 
 43692.65567		 305.27265			43387.38302		69.17400		324.00000 
 43692.65567		 638.94831			43053.70736		208.03600		875.00000 
 43692.65567		 305.27265			43387.38302		69.17400		324.00000 
 43692.65567		 638.94831			43053.70736		208.03600		875.00000 
 43692.65567		 305.27265			43387.38302		69.17400		324.00000 
 43692.65567		 638.94831			43053.70736		208.03600		875.00000 
 43692.65567		 305.27265			43387.38302		69.17400		324.00000 
 43692.65567		 638.94831			43053.70736		208.03600		875.00000 
 43692.65567		 305.27265			43387.38302		69.17400		324.00000 
 43692.65567		 638.94831			43053.70736		208.03600		875.00000 
 43692.65567		 305.27265			43387.38302		69.17400		324.00000 
 43692.65567		 638.94831			43053.70736		208.03600		875.00000 
 43692.65567		 305.27265			43387.38302		69.17400		324.00000 
 43692.65567		 638.94831			43053.70736		217.97000		875.00000 
 43692.65567		 305.27265			43387.38302		69.17400		324.00000 
 43692.65567		 638.94831			43053.70736		217.97000		875.00000 
 43692.65567		 305.27265			43387.38302		69.17400		324.00000 
 43692.65567		 638.94831			43053.70736		217.97000		875.00000 
 43692.65567		 305.27265			43387.38302		69.17400		324.00000 
 43692.65567		 638.94831			43053.70736		217.97000		875.00000 
 43692.65567		 305.27265			43387.38302		69.17400		324.00000 
 43692.65567		 638.94831			43053.70736		217.97000		875.00000 
 43692.65567		 305.27265			43387.38302		69.17400		324.00000 
 43692.65567		 638.94831			43053.70736		217.97000		875.00000 
 43692.65567		 305.27265			43387.38302		69.17400		324.00000 
 43692.65567		 638.94831			43053.70736		217.97000		875.00000 
 43692.65567		 305.27265			43387.38302		69.17400		324.00000 
 43692.65567		 638.94831			43053.70736		217.97000		875.00000 
 43692.65567		 305.27265			43387.38302		69.17400		324.00000 
 43692.65567		 638.94831			43053.70736		217.97000		875.00000 
 43692.65567		 305.27265			43387.38302		69.17400		324.00000 
 43692.65567		 638.94831			43053.70736		217.97000		875.00000 
 43692.65567		 305.27265			43387.38302		69.17400		324.00000 
 43692.65567		 638.94831			43053.70736		217.97000		875.00000 
 43692.65567		 305.27265			43387.38302		69.17400		324.00000 
 43692.65567		 638.94831			43053.70736		217.97000		875.00000 
 43692.65567		 305.27265			43387.38302		69.17400		324.00000 
 43692.65567		 638.94831			43053.70736		217.97000		875.00000 
 43692.65567		 305.27265			43387.38302		69.17400		324.00000 
 43692.65567		 638.94831			43053.70736		217.97000		875.00000 
 43692.65567		 305.27265			43387.38302		69.17400		324.00000 
 43692.65567		 638.94831			43053.70736		217.97000		875.00000 
 43692.65567		 305.27265			43387.38302		69.17400		324.00000 
 43692.65567		 638.94831			43053.70736		217.97000		875.00000 
 43692.65567		 305.27265			43387.38302		69.17400		324.00000 
 43692.65567		 638.94831			43053.70736		217.97000		875.00000 
 43692.65567		 305.27265			43387.38302		69.17400		324.00000 
 43692.65567		 638.94831			43053.70736		217.97000		875.00000 
 43692.65567		 305.27265			43387.38302		69.17400		324.00000 
 43692.65567		 638.94831			43053.70736		217.97000		875.00000 
 43692.65567		 305.27265			43387.38302		69.17400		324.00000 
 43692.65567		 638.94831			43053.70736		217.97000		875.00000 
 43692.65567		 305.27265			43387.38302		69.17400		324.00000 
 43692.65567		 638.94831			43053.70736		217.97000		875.00000 
 43692.65567		 305.27265			43387.38302		69.17400		324.00000 
 43692.65567		 638.94831			43053.70736		217.97000		875.00000 
 43692.65567		 305.27265			43387.38302		69.17400		324.00000 
 43692.65567		 638.94831			43053.70736		217.97000		875.00000 
 43692.65567		 305.27265			43387.38302		69.17400		324.00000 
 43692.65567		 638.94831			43053.70736		217.97000		875.00000 
 43692.65567		 305.27265			43387.38302		69.17400		324.00000 
 43692.65567		 638.94831			43053.70736		217.97000		875.00000 
 43692.65567		 305.27265			43387.38302		69.17400		324.00000 
 43692.65567		 638.94831			43053.70736		217.97000		875.00000 
 43692.65567		 305.27265			43387.38302		69.17400		324.00000 
 43692.65567		 638.94831			43053.70736		217.97000		875.00000 
 43692.65567		 305.27265			43387.38302		69.17400		324.00000 
 43692.65567		 638.94831			43053.70736		217.97000		875.00000 
 43692.65567		 305.27265			43387.38302		69.17400		324.00000 
 43692.65567		 638.94831			43053.70736		217.97000		875.00000 
 43692.65567		 305.27265			43387.38302		69.17400		324.00000 
 43692.65567		 638.94831			43053.70736		217.97000		875.00000 
 43692.65567		 305.27265			43387.38302		69.17400		324.00000 
 43692.65567		 638.94831			43053.70736		217.97000		875.00000 
 43692.65567		 305.27265			43387.38302		69.17400		324.00000 
 43692.65567		 638.94831			43053.70736		217.97000		875.00000 
 43692.65567		 305.27265			43387.38302		69.17400		324.00000 
 43692.65567		 638.94831			43053.70736		217.97000		875.00000 
 43692.65567		 305.27265			43387.38302		69.17400		324.00000 
 43692.65567		 638.94831			43053.70736		217.97000		875.00000 
 43692.65567		 305.27265			43387.38302		69.17400		324.00000 
 43692.65567		 638.94831			43053.70736		217.97000		875.00000 
 43692.65567		 305.27265			43387.38302		69.17400		324.00000 
 43692.65567		 638.94831			43053.70736		217.97000		875.00000 
 43692.65567		 305.27265			43387.38302		69.17400		324.00000 
 43692.65567		 638.94831			43053.70736		217.97000		875.00000 
 43692.65567		 305.27265			43387.38302		69.17400		324.00000 
 43692.65567		 638.94831			43053.70736		217.97000		875.00000 
 43692.65567		 305.27265			43387.38302		69.17400		324.00000 
 43692.65567		 638.94831			43053.70736		217.97000		875.00000 
 43692.65567		 305.27265			43387.38302		69.17400		324.00000 
 43692.65567		 638.94831			43053.70736		217.97000		875.00000 
 43692.65567		 305.27265			43387.38302		69.17400		324.00000 
 43692.65567		 638.94831			43053.70736		217.97000		875.00000 
 43692.65567		 305.27265			43387.38302		69.17400		324.00000 
 43692.65567		 638.94831			43053.70736		217.97000		875.00000 
 43692.65567		 305.27265			43387.38302		69.17400		324.00000 
 43692.65567		 638.94831			43053.70736		217.97000		875.00000 
 43692.65567		 305.27265			43387.38302		69.17400		324.00000 
 43692.65567		 638.94831			43053.70736		217.97000		875.00000 
 43692.65567		 305.27265			43387.38302		69.17400		324.00000 
 43692.65567		 638.94831			43053.70736		217.97000		875.00000 
 43692.65567		 305.27265			43387.38302		69.17400		324.00000 
 43692.65567		 638.94831			43053.70736		217.97000		875.00000 
 43692.65567		 305.27265			43387.38302		69.17400		324.00000 
 43692.65567		 638.94831			43053.70736		217.97000		875.00000 
 43692.65567		 305.27265			43387.38302		69.17400		324.00000 
 43692.65567		 638.94831			43053.70736		217.97000		875.00000 
 43692.65567		 305.27265			43387.38302		69.17400		324.00000 
 43692.65567		 638.94831			43053.70736		217.97000		875.00000 
 43692.65567		 305.27265			43387.38302		69.17400		324.00000 
 43692.65567		 638.94831			43053.70736		217.97000		875.00000 
 43692.65567		 305.27265			43387.38302		69.17400		324.00000 
 43692.65567		 638.94831			43053.70736		217.97000		875.00000 
 43692.65567		 305.27265			43387.38302		69.17400		324.00000 
 43692.65567		 638.94831			43053.70736		217.97000		875.00000 
 43692.65567		 305.27265			43387.38302		69.17400		324.00000 
 43692.65567		 638.94831			43053.70736		217.97000		875.00000 
 43692.65567		 305.27265			43387.38302		69.17400		324.00000 
 43692.65567		 638.94831			43053.70736		217.97000		875.00000 
 43692.65567		 305.27265			43387.38302		69.17400		324.00000 
 43692.65567		 638.94831			43053.70736		217.97000		875.00000 
 43692.65567		 305.27265			43387.38302		69.17400		324.00000 
 43692.65567		 638.94831			43053.70736		217.97000		875.00000 
 43692.65567		 305.27265			43387.38302		69.17400		324.00000 
 43692.65567		 638.94831			43053.70736		217.97000		875.00000 
 43692.65567		 305.27265			43387.38302		69.17400		324.00000 
 43692.65567		 638.94831			43053.70736		217.97000		875.00000 
 43692.65567		 305.27265			43387.38302		69.17400		324.00000 
 43692.65567		 638.94831			43053.70736		217.97000		875.00000 
 43692.65567		 305.27265			43387.38302		69.17400		324.00000 
 43692.65567		 638.94831			43053.70736		217.97000		875.00000 
 43692.65567		 305.27265			43387.38302		69.17400		324.00000 
 43692.65567		 638.94831			43053.70736		217.97000		875.00000 
 43692.65567		 305.27265			43387.38302		69.17400		324.00000 
 43692.65567		 638.94831			43053.70736		221.43000		875.00000 
 43692.65567		 305.27265			43387.38302		69.17400		324.00000 
 43692.65567		 638.94831			43053.70736		221.43000		875.00000 
 43692.65567		 305.27265			43387.38302		69.17400		324.00000 
 43692.65567		 638.94831			43053.70736		221.43000		875.00000 
 43692.65567		 305.27265			43387.38302		69.17400		324.00000 
 43692.65567		 638.94831			43053.70736		221.43000		875.00000 
 43692.65567		 305.27265			43387.38302		69.17400		324.00000 
 43692.65567		 638.94831			43053.70736		221.43000		875.00000 
 43692.65567		 305.27265			43387.38302		69.17400		324.00000 
 43692.65567		 638.94831			43053.70736		221.43000		875.00000 
 43692.65567		 305.27265			43387.38302		69.17400		324.00000 
 43692.65567		 638.94831			43053.70736		221.43000		875.00000 
 43692.65567		 305.27265			43387.38302		69.17400		324.00000 
 43692.65567		 638.94831			43053.70736		221.43000		875.00000 
 43692.65567		 305.27265			43387.38302		69.17400		324.00000 
 43692.65567		 638.94831			43053.70736		221.43000		875.00000 
 43692.65567		 305.27265			43387.38302		69.17400		324.00000 
 43692.65567		 638.94831			43053.70736		221.43000		875.00000 
 43692.65567		 305.27265			43387.38302		69.17400		324.00000 
 43692.65567		 638.94831			43053.70736		221.43000		875.00000 
 43692.65567		 305.27265			43387.38302		69.17400		324.00000 
 43692.65567		 638.94831			43053.70736		221.43000		875.00000 
 43692.65567		 305.27265			43387.38302		69.17400		324.00000 
 43692.65567		 638.94831			43053.70736		221.43000		875.00000 
 43692.65567		 305.27265			43387.38302		69.17400		324.00000 
 43692.65567		 638.94831			43053.70736		221.43000		875.00000 
 43692.65567		 305.27265			43387.38302		69.17400		324.00000 
 43692.65567		 638.94831			43053.70736		221.43000		875.00000 
 43692.65567		 305.27265			43387.38302		69.17400		324.00000 
 43692.65567		 638.94831			43053.70736		221.43000		875.00000 
 43692.65567		 305.27265			43387.38302		69.17400		324.00000 
 43692.65567		 638.94831			43053.70736		221.43000		875.00000 
 43692.65567		 305.27265			43387.38302		69.17400		324.00000 
 43692.65567		 638.94831			43053.70736		221.43000		875.00000 
 43692.65567		 305.27265			43387.38302		69.17400		324.00000 
 43692.65567		 638.94831			43053.70736		221.43000		875.00000 
 43692.65567		 305.27265			43387.38302		69.17400		324.00000 
 43692.65567		 638.94831			43053.70736		221.43000		875.00000 
 43692.65567		 305.27265			43387.38302		69.17400		324.00000 
 43692.65567		 638.94831			43053.70736		221.43000		875.00000 
 43692.65567		 305.27265			43387.38302		69.17400		324.00000 
 43692.65567		 638.94831			43053.70736		221.43000		875.00000 
 43692.65567		 305.27265			43387.38302		69.17400		324.00000 
 43692.65567		 638.94831			43053.70736		221.43000		875.00000 
 43692.65567		 305.27265			43387.38302		69.17400		324.00000 
 43692.65567		 638.94831			43053.70736		221.43000		875.00000 
 43692.65567		 305.27265			43387.38302		69.17400		324.00000 
 43692.65567		 638.94831			43053.70736		221.43000		875.00000 
 43692.65567		 305.27265			43387.38302		69.17400		324.00000 
 43692.65567		 638.94831			43053.70736		221.43000		875.00000 
 43692.65567		 305.27265			43387.38302		69.17400		324.00000 
 43692.65567		 638.94831			43053.70736		221.43000		875.00000 
 43692.65567		 305.27265			43387.38302		69.17400		324.00000 
 43692.65567		 638.94831			43053.70736		221.43000		875.00000 
 43692.65567		 305.27265			43387.38302		69.17400		324.00000 
 43692.65567		 638.94831			43053.70736		221.43000		875.00000 
 43692.65567		 305.27265			43387.38302		69.17400		324.00000 
 43692.65567		 638.94831			43053.70736		221.43000		875.00000 
 43692.65567		 305.27265			43387.38302		69.17400		324.00000 
 43692.65567		 638.94831			43053.70736		221.43000		875.00000 
 43692.65567		 305.27265			43387.38302		69.17400		324.00000 
 43692.65567		 638.94831			43053.70736		221.43000		875.00000 
 43692.65567		 305.27265			43387.38302		69.17400		324.00000 
 43692.65567		 638.94831			43053.70736		221.43000		875.00000 
 43692.65567		 305.27265			43387.38302		69.17400		324.00000 
 43692.65567		 638.94831			43053.70736		221.43000		875.00000 
 43692.65567		 305.27265			43387.38302		69.17400		324.00000 
 43692.65567		 638.94831			43053.70736		221.43000		875.00000 
 43692.65567		 305.27265			43387.38302		69.17400		324.00000 
 43692.65567		 638.94831			43053.70736		221.43000		875.00000 
 43692.65567		 305.27265			43387.38302		69.17400		324.00000 
 43692.65567		 638.94831			43053.70736		221.43000		875.00000 
 43692.65567		 305.27265			43387.38302		69.17400		324.00000 
 43692.65567		 638.94831			43053.70736		221.43000		875.00000 
 43692.65567		 305.27265			43387.38302		69.17400		324.00000 
 43692.65567		 638.94831			43053.70736		221.43000		875.00000 
 43692.65567		 305.27265			43387.38302		69.17400		324.00000 
 43692.65567		 638.94831			43053.70736		221.43000		875.00000 
 43692.65567		 305.27265			43387.38302		69.17400		324.00000 
 43692.65567		 638.94831			43053.70736		221.43000		875.00000 
 43692.65567		 305.27265			43387.38302		69.17400		324.00000 
 43692.65567		 638.94831			43053.70736		221.43000		875.00000 
 43692.65567		 305.27265			43387.38302		69.17400		324.00000 
 43692.65567		 638.94831			43053.70736		221.43000		875.00000 
 43692.65567		 305.27265			43387.38302		69.17400		324.00000 
 43692.65567		 638.94831			43053.70736		221.43000		875.00000 
 43692.65567		 305.27265			43387.38302		69.17400		324.00000 
 43692.65567		 638.94831			43053.70736		221.43000		875.00000 
 43692.65567		 305.27265			43387.38302		69.17400		324.00000 
 43692.65567		 638.94831			43053.70736		221.43000		875.00000 
 43692.65567		 305.27265			43387.38302		69.17400		324.00000 
 43692.65567		 638.94831			43053.70736		221.43000		875.00000 
 43692.65567		 305.27265			43387.38302		69.17400		324.00000 
 43692.65567		 638.94831			43053.70736		221.43000		875.00000 
 43692.65567		 305.27265			43387.38302		69.17400		324.00000 
 43692.65567		 638.94831			43053.70736		221.43000		875.00000 
 43692.65567		 305.27265			43387.38302		69.17400		324.00000 
 43692.65567		 638.94831			43053.70736		221.43000		875.00000 
 43692.65567		 305.27265			43387.38302		69.17400		324.00000 
 43692.65567		 638.94831			43053.70736		221.43000		875.00000 
 43692.65567		 305.27265			43387.38302		69.17400		324.00000 
 43692.65567		 638.94831			43053.70736		221.43000		875.00000 
 43692.65567		 305.27265			43387.38302		69.17400		324.00000 
 43692.65567		 638.94831			43053.70736		221.43000		875.00000 
 43692.65567		 305.27265			43387.38302		69.17400		324.00000 
 43692.65567		 638.94831			43053.70736		221.43000		875.00000 
 43692.65567		 305.27265			43387.38302		69.17400		324.00000 
 43692.65567		 638.94831			43053.70736		222.22800		875.00000 
 43692.65567		 305.27265			43387.38302		69.17400		324.00000 
 43692.65567		 638.94831			43053.70736		222.22800		875.00000 
 43692.65567		 305.27265			43387.38302		69.17400		324.00000 
 43692.65567		 638.94831			43053.70736		222.22800		875.00000 
 43692.65567		 305.27265			43387.38302		69.17400		324.00000 
 43692.65567		 638.94831			43053.70736		222.22800		875.00000 
 43692.65567		 305.27265			43387.38302		69.17400		324.00000 
 43692.65567		 638.94831			43053.70736		222.22800		875.00000 
 43692.65567		 305.27265			43387.38302		69.17400		324.00000 
 43692.65567		 638.94831			43053.70736		222.22800		875.00000 
 43692.65567		 305.27265			43387.38302		69.17400		324.00000 
 43692.65567		 638.94831			43053.70736		222.22800		875.00000 
 43692.65567		 305.27265			43387.38302		69.17400		324.00000 
 43692.65567		 638.94831			43053.70736		222.22800		875.00000 
 43692.65567		 305.27265			43387.38302		69.17400		324.00000 
 43692.65567		 638.94831			43053.70736		222.22800		875.00000 
 43692.65567		 305.27265			43387.38302		69.17400		324.00000 
 43692.65567		 638.94831			43053.70736		222.22800		875.00000 
 43692.65567		 305.27265			43387.38302		69.17400		324.00000 
 43692.65567		 638.94831			43053.70736		222.22800		875.00000 
 43692.65567		 305.27265			43387.38302		69.17400		324.00000 
 43692.65567		 638.94831			43053.70736		222.22800		875.00000 
 43692.65567		 305.27265			43387.38302		69.17400		324.00000 
 43692.65567		 638.94831			43053.70736		222.22800		875.00000 
 43692.65567		 305.27265			43387.38302		69.17400		324.00000 
 43692.65567		 638.94831			43053.70736		222.22800		875.00000 
 43692.65567		 305.27265			43387.38302		69.17400		324.00000 
 43692.65567		 638.94831			43053.70736		222.22800		875.00000 
 43692.65567		 305.27265			43387.38302		69.17400		324.00000 
 43692.65567		 638.94831			43053.70736		222.22800		875.00000 
 43692.65567		 305.27265			43387.38302		69.17400		324.00000 
 43692.65567		 638.94831			43053.70736		222.22800		875.00000 
 43692.65567		 305.27265			43387.38302		69.17400		324.00000 
 43692.65567		 638.94831			43053.70736		222.22800		875.00000 
 43692.65567		 305.27265			43387.38302		69.17400		324.00000 
 43692.65567		 638.94831			43053.70736		222.22800		875.00000 
 43692.65567		 305.27265			43387.38302		69.17400		324.00000 
 43692.65567		 638.94831			43053.70736		222.22800		875.00000 
 43692.65567		 305.27265			43387.38302		69.17400		324.00000 
 43692.65567		 638.94831			43053.70736		222.22800		875.00000 
 43692.65567		 305.27265			43387.38302		69.17400		324.00000 
 43692.65567		 638.94831			43053.70736		222.22800		875.00000 
 43692.65567		 305.27265			43387.38302		69.17400		324.00000 
 43692.65567		 638.94831			43053.70736		222.22800		875.00000 
 43692.65567		 305.27265			43387.38302		69.17400		324.00000 
 43692.65567		 638.94831			43053.70736		222.22800		875.00000 
 43692.65567		 305.27265			43387.38302		69.17400		324.00000 
 43692.65567		 638.94831			43053.70736		222.22800		875.00000 
 43692.65567		 305.27265			43387.38302		69.17400		324.00000 
 43692.65567		 638.94831			43053.70736		222.22800		875.00000 
 43692.65567		 305.27265			43387.38302		69.17400		324.00000 
 43692.65567		 638.94831			43053.70736		222.22800		875.00000 
 43692.65567		 305.27265			43387.38302		69.17400		324.00000 
 43692.65567		 638.94831			43053.70736		222.22800		875.00000 
 43692.65567		 305.27265			43387.38302		69.17400		324.00000 
 43692.65567		 638.94831			43053.70736		222.22800		875.00000 
 43692.65567		 305.27265			43387.38302		69.17400		324.00000 
 43692.65567		 638.94831			43053.70736		222.22800		875.00000 
 43692.65567		 305.27265			43387.38302		69.17400		324.00000 
 43692.65567		 638.94831			43053.70736		222.22800		875.00000 
 43692.65567		 305.27265			43387.38302		69.17400		324.00000 
 43692.65567		 638.94831			43053.70736		222.22800		875.00000 
 43692.65567		 305.27265			43387.38302		69.17400		324.00000 
 43692.65567		 638.94831			43053.70736		222.22800		875.00000 
 43692.65567		 305.27265			43387.38302		69.17400		324.00000 
 43692.65567		 638.94831			43053.70736		222.22800		875.00000 
 43692.65567		 305.27265			43387.38302		69.17400		324.00000 
 43692.65567		 638.94831			43053.70736		222.22800		875.00000 
 43692.65567		 305.27265			43387.38302		69.17400		324.00000 
 43692.65567		 638.94831			43053.70736		222.22800		875.00000 
 43692.65567		 305.27265			43387.38302		69.17400		324.00000 
 43692.65567		 638.94831			43053.70736		222.22800		875.00000 
 43692.65567		 305.27265			43387.38302		69.17400		324.00000 
 43692.65567		 638.94831			43053.70736		222.22800		875.00000 
 43692.65567		 305.27265			43387.38302		69.17400		324.00000 
 43692.65567		 638.94831			43053.70736		222.22800		875.00000 
 43692.65567		 305.27265			43387.38302		69.17400		324.00000 
 43692.65567		 638.94831			43053.70736		222.22800		875.00000 
 43692.65567		 305.27265			43387.38302		69.17400		324.00000 
 43692.65567		 638.94831			43053.70736		222.22800		875.00000 
 43692.65567		 305.27265			43387.38302		69.17400		324.00000 
 43692.65567		 638.94831			43053.70736		222.22800		875.00000 
 43692.65567		 305.27265			43387.38302		69.17400		324.00000 
 43692.65567		 638.94831			43053.70736		222.22800		875.00000 
 43692.65567		 305.27265			43387.38302		69.17400		324.00000 
 43692.65567		 638.94831			43053.70736		222.22800		875.00000 
 43692.65567		 305.27265			43387.38302		69.17400		324.00000 
 43692.65567		 638.94831			43053.70736		222.22800		875.00000 
 43692.65567		 305.27265			43387.38302		69.17400		324.00000 
 43692.65567		 638.94831			43053.70736		222.22800		875.00000 
 43692.65567		 305.27265			43387.38302		69.17400		324.00000 
 43692.65567		 638.94831			43053.70736		222.22800		875.00000 
 43692.65567		 305.27265			43387.38302		69.17400		324.00000 
 43692.65567		 638.94831			43053.70736		222.22800		875.00000 
 43692.65567		 305.27265			43387.38302		69.17400		324.00000 
 43692.65567		 638.94831			43053.70736		222.22800		875.00000 
 43692.65567		 305.27265			43387.38302		69.17400		324.00000 
 43692.65567		 638.94831			43053.70736		222.22800		875.00000 
 43692.65567		 305.27265			43387.38302		69.17400		324.00000 
 43692.65567		 638.94831			43053.70736		222.22800		875.00000 
 43692.65567		 305.27265			43387.38302		69.17400		324.00000 
 43692.65567		 638.94831			43053.70736		222.22800		875.00000 
 43692.65567		 305.27265			43387.38302		69.17400		324.00000 
 43692.65567		 638.94831			43053.70736		222.22800		875.00000 
 43692.65567		 305.27265			43387.38302		69.17400		324.00000 
 43692.65567		 638.94831			43053.70736		222.22800		875.00000 
 43692.65567		 305.27265			43387.38302		69.17400		324.00000 
 43692.65567		 638.94831			43053.70736		222.22800		875.00000 
 43692.65567		 305.27265			43387.38302		69.17400		324.00000 
 43692.65567		 638.94831			43053.70736		222.22800		875.00000 
 43692.65567		 305.27265			43387.38302		69.17400		324.00000 
 43692.65567		 638.94831			43053.70736		222.22800		875.00000 
 43692.65567		 305.27265			43387.38302		69.17400		324.00000 
 43692.65567		 638.94831			43053.70736		222.22800		875.00000 
 43692.65567		 305.27265			43387.38302		69.17400		324.00000 
 43692.65567		 638.94831			43053.70736		222.22800		875.00000 
 43692.65567		 305.27265			43387.38302		69.17400		324.00000 
 43692.65567		 638.94831			43053.70736		222.22800		875.00000 
 43692.65567		 305.27265			43387.38302		69.17400		324.00000 
 43692.65567		 638.94831			43053.70736		222.22800		875.00000 
 43692.65567		 305.27265			43387.38302		69.17400		324.00000 
 43692.65567		 571.16299			43121.49269		221.10000		875.00000 
 43692.65567		 305.27265			43387.38302		69.17400		324.00000 
 43692.65567		 537.27032			43155.38535		221.10000		875.00000 
 43692.65567		 305.27265			43387.38302		69.17400		324.00000 
 43692.65567		 537.27032			43155.38535		221.10000		875.00000 
 43692.65567		 305.27265			43387.38302		69.17400		324.00000 
 43692.65567		 537.27032			43155.38535		221.10000		875.00000 
 43692.65567		 305.27265			43387.38302		69.17400		324.00000 
 43692.65567		 537.27032			43155.38535		221.10000		875.00000 
 43692.65567		 305.27265			43387.38302		69.17400		324.00000 
 43692.65567		 537.27032			43155.38535		221.10000		875.00000 
 43692.65567		 305.27265			43387.38302		69.17400		324.00000 
 43692.65567		 537.27032			43155.38535		221.10000		875.00000 
 43692.65567		 305.27265			43387.38302		69.17400		324.00000 
 43692.65567		 537.27032			43155.38535		221.10000		875.00000 
 43692.65567		 305.27265			43387.38302		69.17400		324.00000 
 43692.65567		 537.27032			43155.38535		221.10000		875.00000 
 43692.65567		 305.27265			43387.38302		69.17400		324.00000 
 43692.65567		 537.27032			43155.38535		221.10000		875.00000 
 43692.65567		 305.27265			43387.38302		69.17400		324.00000 
 43692.65567		 537.27032			43155.38535		221.10000		875.00000 
 43692.65567		 305.27265			43387.38302		69.17400		324.00000 
 43692.65567		 537.27032			43155.38535		221.10000		875.00000 
 43692.65567		 305.27265			43387.38302		69.17400		324.00000 
 43692.65567		 537.27032			43155.38535		221.10000		875.00000 
 43692.65567		 305.27265			43387.38302		69.17400		324.00000 
 43692.65567		 537.27032			43155.38535		221.10000		875.00000 
 43692.65567		 305.27265			43387.38302		69.17400		324.00000 
 43692.65567		 537.27032			43155.38535		221.10000		875.00000 
 43692.65567		 305.27265			43387.38302		69.17400		324.00000 
 43692.65567		 537.27032			43155.38535		221.10000		875.00000 
 43692.65567		 305.27265			43387.38302		69.17400		324.00000 
 43692.65567		 537.27032			43155.38535		221.10000		875.00000 
 43692.65567		 305.27265			43387.38302		69.17400		324.00000 
 43692.65567		 537.27032			43155.38535		221.10000		875.00000 
 43692.65567		 305.27265			43387.38302		69.17400		324.00000 
 43692.65567		 537.27032			43155.38535		221.10000		875.00000 
 43692.65567		 305.27265			43387.38302		69.17400		324.00000 
 43692.65567		 537.27032			43155.38535		221.10000		875.00000 
 43692.65567		 305.27265			43387.38302		69.17400		324.00000 
 43692.65567		 537.27032			43155.38535		221.10000		875.00000 
 43692.65567		 305.27265			43387.38302		69.17400		324.00000 
 43692.65567		 529.63254			43163.02313		221.10000		875.00000 
 43692.65567		 305.27265			43387.38302		69.17400		324.00000 
 43692.65567		 525.81365			43166.84203		221.10000		875.00000 
 43692.65567		 297.63487			43395.02080		69.17400		324.00000 
 43692.65567		 261.35540			43431.30027		221.10000		875.00000 
 43692.65567		 261.35540			43431.30027		69.17400		324.00000 
