Memory Total (MiB) 	 Memory Used (MiB) 	    Memory Free (MiB) 	 Power Drawed (W) 	 Clocks (Mhz) 	 
 43692.65567		 261.35540			43431.30027		185.03200		875.00000 
 43692.65567		 261.35540			43431.30027		65.60600		324.00000 
 43692.65567		 261.35540			43431.30027		185.03200		875.00000 
 43692.65567		 261.35540			43431.30027		65.60600		324.00000 
 43692.65567		 261.35540			43431.30027		185.03200		875.00000 
 43692.65567		 261.35540			43431.30027		65.60600		324.00000 
 43692.65567		 261.35540			43431.30027		185.03200		875.00000 
 43692.65567		 261.35540			43431.30027		65.60600		324.00000 
 43692.65567		 261.35540			43431.30027		185.03200		875.00000 
 43692.65567		 261.35540			43431.30027		65.60600		324.00000 
 43692.65567		 261.35540			43431.30027		185.03200		875.00000 
 43692.65567		 261.35540			43431.30027		65.60600		324.00000 
 43692.65567		 261.35540			43431.30027		185.03200		875.00000 
 43692.65567		 261.35540			43431.30027		65.60600		324.00000 
 43692.65567		 261.35540			43431.30027		185.03200		875.00000 
 43692.65567		 261.35540			43431.30027		65.60600		324.00000 
 43692.65567		 261.35540			43431.30027		185.03200		875.00000 
 43692.65567		 261.35540			43431.30027		65.60600		324.00000 
 43692.65567		 261.35540			43431.30027		185.03200		875.00000 
 43692.65567		 261.35540			43431.30027		65.60600		324.00000 
 43692.65567		 261.35540			43431.30027		185.03200		875.00000 
 43692.65567		 261.35540			43431.30027		65.60600		324.00000 
 43692.65567		 261.35540			43431.30027		185.03200		875.00000 
 43692.65567		 261.35540			43431.30027		65.60600		324.00000 
 43692.65567		 261.35540			43431.30027		185.03200		875.00000 
 43692.65567		 261.35540			43431.30027		65.60600		324.00000 
 43692.65567		 261.35540			43431.30027		185.03200		875.00000 
 43692.65567		 261.35540			43431.30027		65.60600		324.00000 
 43692.65567		 261.35540			43431.30027		185.03200		875.00000 
 43692.65567		 261.35540			43431.30027		65.60600		324.00000 
 43692.65567		 261.35540			43431.30027		185.03200		875.00000 
 43692.65567		 261.35540			43431.30027		65.60600		324.00000 
 43692.65567		 261.35540			43431.30027		185.03200		875.00000 
 43692.65567		 261.35540			43431.30027		65.60600		324.00000 
 43692.65567		 261.35540			43431.30027		185.03200		875.00000 
 43692.65567		 261.35540			43431.30027		65.60600		324.00000 
 43692.65567		 261.35540			43431.30027		185.03200		875.00000 
 43692.65567		 261.35540			43431.30027		65.60600		324.00000 
 43692.65567		 265.17429			43427.48138		185.03200		875.00000 
 43692.65567		 261.35540			43431.30027		65.60600		324.00000 
 43692.65567		 272.81207			43419.84360		185.03200		875.00000 
 43692.65567		 261.35540			43431.30027		65.60600		324.00000 
 43692.65567		 272.81207			43419.84360		185.03200		875.00000 
 43692.65567		 261.35540			43431.30027		65.60600		324.00000 
 43692.65567		 272.81207			43419.84360		185.03200		875.00000 
 43692.65567		 265.17429			43427.48138		65.60600		324.00000 
 43692.65567		 272.81207			43419.84360		185.03200		875.00000 
 43692.65567		 265.17429			43427.48138		65.60600		324.00000 
 43692.65567		 272.81207			43419.84360		151.95000		875.00000 
 43692.65567		 265.17429			43427.48138		65.60600		324.00000 
 43692.65567		 272.81207			43419.84360		151.95000		875.00000 
 43692.65567		 272.81207			43419.84360		65.60600		324.00000 
 43692.65567		 272.81207			43419.84360		151.95000		875.00000 
 43692.65567		 272.81207			43419.84360		65.60600		324.00000 
 43692.65567		 272.81207			43419.84360		151.95000		875.00000 
 43692.65567		 272.81207			43419.84360		65.60600		324.00000 
 43692.65567		 305.27265			43387.38302		151.95000		875.00000 
 43692.65567		 305.27265			43387.38302		65.60600		324.00000 
 43692.65567		 305.27265			43387.38302		151.95000		875.00000 
 43692.65567		 305.27265			43387.38302		65.60600		324.00000 
 43692.65567		 305.27265			43387.38302		151.95000		875.00000 
 43692.65567		 305.27265			43387.38302		65.60600		324.00000 
 43692.65567		 305.27265			43387.38302		151.95000		875.00000 
 43692.65567		 305.27265			43387.38302		65.60600		324.00000 
 43692.65567		 305.27265			43387.38302		151.95000		875.00000 
 43692.65567		 305.27265			43387.38302		65.60600		324.00000 
 43692.65567		 309.56891			43383.08677		151.95000		875.00000 
 43692.65567		 305.27265			43387.38302		65.60600		324.00000 
 43692.65567		 311.00099			43381.65468		151.95000		875.00000 
 43692.65567		 305.27265			43387.38302		65.60600		324.00000 
 43692.65567		 311.00099			43381.65468		151.95000		875.00000 
 43692.65567		 305.27265			43387.38302		65.60600		324.00000 
 43692.65567		 311.00099			43381.65468		151.95000		875.00000 
 43692.65567		 305.27265			43387.38302		65.60600		324.00000 
 43692.65567		 311.00099			43381.65468		151.95000		875.00000 
 43692.65567		 305.27265			43387.38302		65.60600		324.00000 
 43692.65567		 311.00099			43381.65468		151.95000		875.00000 
 43692.65567		 305.27265			43387.38302		65.60600		324.00000 
 43692.65567		 311.00099			43381.65468		151.95000		875.00000 
 43692.65567		 305.27265			43387.38302		65.60600		324.00000 
 43692.65567		 311.00099			43381.65468		151.95000		875.00000 
 43692.65567		 305.27265			43387.38302		65.60600		324.00000 
 43692.65567		 311.00099			43381.65468		151.95000		875.00000 
 43692.65567		 305.27265			43387.38302		65.60600		324.00000 
 43692.65567		 311.00099			43381.65468		151.95000		875.00000 
 43692.65567		 305.27265			43387.38302		65.60600		324.00000 
 43692.65567		 311.00099			43381.65468		151.95000		875.00000 
 43692.65567		 305.27265			43387.38302		65.60600		324.00000 
 43692.65567		 311.00099			43381.65468		151.95000		875.00000 
 43692.65567		 305.27265			43387.38302		65.60600		324.00000 
 43692.65567		 311.00099			43381.65468		151.95000		875.00000 
 43692.65567		 305.27265			43387.38302		65.60600		324.00000 
 43692.65567		 311.00099			43381.65468		151.95000		875.00000 
 43692.65567		 305.27265			43387.38302		65.60600		324.00000 
 43692.65567		 311.00099			43381.65468		151.95000		875.00000 
 43692.65567		 305.27265			43387.38302		65.60600		324.00000 
 43692.65567		 311.00099			43381.65468		151.95000		875.00000 
 43692.65567		 305.27265			43387.38302		65.60600		324.00000 
 43692.65567		 311.00099			43381.65468		151.95000		875.00000 
 43692.65567		 305.27265			43387.38302		65.60600		324.00000 
 43692.65567		 311.00099			43381.65468		151.95000		875.00000 
 43692.65567		 305.27265			43387.38302		65.60600		324.00000 
 43692.65567		 311.00099			43381.65468		151.95000		875.00000 
 43692.65567		 305.27265			43387.38302		65.60600		324.00000 
 43692.65567		 311.00099			43381.65468		151.95000		875.00000 
 43692.65567		 305.27265			43387.38302		65.60600		324.00000 
 43692.65567		 311.00099			43381.65468		151.95000		875.00000 
 43692.65567		 305.27265			43387.38302		65.60600		324.00000 
 43692.65567		 311.00099			43381.65468		151.95000		875.00000 
 43692.65567		 305.27265			43387.38302		65.60600		324.00000 
 43692.65567		 311.00099			43381.65468		151.95000		875.00000 
 43692.65567		 305.27265			43387.38302		65.60600		324.00000 
 43692.65567		 311.00099			43381.65468		138.48800		875.00000 
 43692.65567		 305.27265			43387.38302		65.60600		324.00000 
 43692.65567		 311.00099			43381.65468		138.48800		875.00000 
 43692.65567		 305.27265			43387.38302		65.60600		324.00000 
 43692.65567		 311.00099			43381.65468		138.48800		875.00000 
 43692.65567		 305.27265			43387.38302		65.60600		324.00000 
 43692.65567		 311.00099			43381.65468		138.48800		875.00000 
 43692.65567		 305.27265			43387.38302		65.60600		324.00000 
 43692.65567		 311.00099			43381.65468		138.48800		875.00000 
 43692.65567		 305.27265			43387.38302		65.60600		324.00000 
 43692.65567		 311.00099			43381.65468		138.48800		875.00000 
 43692.65567		 305.27265			43387.38302		65.60600		324.00000 
 43692.65567		 311.00099			43381.65468		138.48800		875.00000 
 43692.65567		 305.27265			43387.38302		65.60600		324.00000 
 43692.65567		 311.00099			43381.65468		138.48800		875.00000 
 43692.65567		 305.27265			43387.38302		65.60600		324.00000 
 43692.65567		 311.00099			43381.65468		138.48800		875.00000 
 43692.65567		 305.27265			43387.38302		65.60600		324.00000 
 43692.65567		 311.00099			43381.65468		138.48800		875.00000 
 43692.65567		 305.27265			43387.38302		65.60600		324.00000 
 43692.65567		 311.00099			43381.65468		138.48800		875.00000 
 43692.65567		 305.27265			43387.38302		65.60600		324.00000 
 43692.65567		 311.00099			43381.65468		138.48800		875.00000 
 43692.65567		 305.27265			43387.38302		65.60600		324.00000 
 43692.65567		 311.00099			43381.65468		138.48800		875.00000 
 43692.65567		 305.27265			43387.38302		65.60600		324.00000 
 43692.65567		 311.00099			43381.65468		138.48800		875.00000 
 43692.65567		 305.27265			43387.38302		65.60600		324.00000 
 43692.65567		 311.00099			43381.65468		138.48800		875.00000 
 43692.65567		 305.27265			43387.38302		65.60600		324.00000 
 43692.65567		 311.00099			43381.65468		138.48800		875.00000 
 43692.65567		 305.27265			43387.38302		65.60600		324.00000 
 43692.65567		 311.00099			43381.65468		138.48800		875.00000 
 43692.65567		 305.27265			43387.38302		65.60600		324.00000 
 43692.65567		 311.00099			43381.65468		138.48800		875.00000 
 43692.65567		 305.27265			43387.38302		65.60600		324.00000 
 43692.65567		 311.00099			43381.65468		138.48800		875.00000 
 43692.65567		 305.27265			43387.38302		65.60600		324.00000 
 43692.65567		 311.00099			43381.65468		138.48800		875.00000 
 43692.65567		 305.27265			43387.38302		65.60600		324.00000 
 43692.65567		 311.00099			43381.65468		138.48800		875.00000 
 43692.65567		 305.27265			43387.38302		65.60600		324.00000 
 43692.65567		 311.00099			43381.65468		138.48800		875.00000 
 43692.65567		 305.27265			43387.38302		65.60600		324.00000 
 43692.65567		 311.00099			43381.65468		138.48800		875.00000 
 43692.65567		 305.27265			43387.38302		65.60600		324.00000 
 43692.65567		 311.00099			43381.65468		138.48800		875.00000 
 43692.65567		 305.27265			43387.38302		65.60600		324.00000 
 43692.65567		 311.00099			43381.65468		138.48800		875.00000 
 43692.65567		 305.27265			43387.38302		65.60600		324.00000 
 43692.65567		 311.00099			43381.65468		138.48800		875.00000 
 43692.65567		 305.27265			43387.38302		65.60600		324.00000 
 43692.65567		 311.00099			43381.65468		138.48800		875.00000 
 43692.65567		 305.27265			43387.38302		65.60600		324.00000 
 43692.65567		 311.00099			43381.65468		138.48800		875.00000 
 43692.65567		 305.27265			43387.38302		65.60600		324.00000 
 43692.65567		 311.00099			43381.65468		138.48800		875.00000 
 43692.65567		 305.27265			43387.38302		65.60600		324.00000 
 43692.65567		 311.00099			43381.65468		138.48800		875.00000 
 43692.65567		 305.27265			43387.38302		65.60600		324.00000 
 43692.65567		 314.81988			43377.83579		138.48800		875.00000 
 43692.65567		 305.27265			43387.38302		65.60600		324.00000 
 43692.65567		 314.81988			43377.83579		138.48800		875.00000 
 43692.65567		 305.27265			43387.38302		65.60600		324.00000 
 43692.65567		 314.81988			43377.83579		133.37000		875.00000 
 43692.65567		 305.27265			43387.38302		65.60600		324.00000 
 43692.65567		 318.63877			43374.01690		133.37000		875.00000 
 43692.65567		 305.27265			43387.38302		65.60600		324.00000 
 43692.65567		 322.45767			43370.19801		133.37000		875.00000 
 43692.65567		 305.27265			43387.38302		65.60600		324.00000 
 43692.65567		 326.27656			43366.37912		133.37000		875.00000 
 43692.65567		 305.27265			43387.38302		65.60600		324.00000 
 43692.65567		 326.27656			43366.37912		133.37000		875.00000 
 43692.65567		 305.27265			43387.38302		65.60600		324.00000 
 43692.65567		 326.27656			43366.37912		133.37000		875.00000 
 43692.65567		 305.27265			43387.38302		65.60600		324.00000 
 43692.65567		 537.27032			43155.38535		133.37000		875.00000 
 43692.65567		 305.27265			43387.38302		65.60600		324.00000 
 43692.65567		 582.14230			43110.51337		133.37000		875.00000 
 43692.65567		 305.27265			43387.38302		65.60600		324.00000 
 43692.65567		 604.57829			43088.07738		133.37000		875.00000 
 43692.65567		 305.27265			43387.38302		65.60600		324.00000 
 43692.65567		 604.57829			43088.07738		133.37000		875.00000 
 43692.65567		 305.27265			43387.38302		65.60600		324.00000 
 43692.65567		 604.57829			43088.07738		133.37000		875.00000 
 43692.65567		 305.27265			43387.38302		65.60600		324.00000 
 43692.65567		 604.57829			43088.07738		133.37000		875.00000 
 43692.65567		 305.27265			43387.38302		65.60600		324.00000 
 43692.65567		 604.57829			43088.07738		133.37000		875.00000 
 43692.65567		 305.27265			43387.38302		65.60600		324.00000 
 43692.65567		 604.57829			43088.07738		133.37000		875.00000 
 43692.65567		 305.27265			43387.38302		65.60600		324.00000 
 43692.65567		 604.57829			43088.07738		133.37000		875.00000 
 43692.65567		 305.27265			43387.38302		65.60600		324.00000 
 43692.65567		 604.57829			43088.07738		133.37000		875.00000 
 43692.65567		 305.27265			43387.38302		65.60600		324.00000 
 43692.65567		 604.57829			43088.07738		133.37000		875.00000 
 43692.65567		 305.27265			43387.38302		65.60600		324.00000 
 43692.65567		 604.57829			43088.07738		133.37000		875.00000 
 43692.65567		 305.27265			43387.38302		65.60600		324.00000 
 43692.65567		 604.57829			43088.07738		133.37000		875.00000 
 43692.65567		 305.27265			43387.38302		65.60600		324.00000 
 43692.65567		 604.57829			43088.07738		133.37000		875.00000 
 43692.65567		 305.27265			43387.38302		65.60600		324.00000 
 43692.65567		 604.57829			43088.07738		133.37000		875.00000 
 43692.65567		 305.27265			43387.38302		65.60600		324.00000 
 43692.65567		 604.57829			43088.07738		133.37000		875.00000 
 43692.65567		 305.27265			43387.38302		65.60600		324.00000 
 43692.65567		 604.57829			43088.07738		133.37000		875.00000 
 43692.65567		 305.27265			43387.38302		65.60600		324.00000 
 43692.65567		 604.57829			43088.07738		133.37000		875.00000 
 43692.65567		 305.27265			43387.38302		65.60600		324.00000 
 43692.65567		 604.57829			43088.07738		133.37000		875.00000 
 43692.65567		 305.27265			43387.38302		65.60600		324.00000 
 43692.65567		 604.57829			43088.07738		133.37000		875.00000 
 43692.65567		 305.27265			43387.38302		65.60600		324.00000 
 43692.65567		 604.57829			43088.07738		133.37000		875.00000 
 43692.65567		 305.27265			43387.38302		65.60600		324.00000 
 43692.65567		 604.57829			43088.07738		133.37000		875.00000 
 43692.65567		 305.27265			43387.38302		65.60600		324.00000 
 43692.65567		 604.57829			43088.07738		133.37000		875.00000 
 43692.65567		 305.27265			43387.38302		65.60600		324.00000 
 43692.65567		 604.57829			43088.07738		133.37000		875.00000 
 43692.65567		 305.27265			43387.38302		65.60600		324.00000 
 43692.65567		 604.57829			43088.07738		133.37000		875.00000 
 43692.65567		 305.27265			43387.38302		65.60600		324.00000 
 43692.65567		 604.57829			43088.07738		133.37000		875.00000 
 43692.65567		 305.27265			43387.38302		65.60600		324.00000 
 43692.65567		 604.57829			43088.07738		133.37000		875.00000 
 43692.65567		 305.27265			43387.38302		65.60600		324.00000 
 43692.65567		 604.57829			43088.07738		133.37000		875.00000 
 43692.65567		 305.27265			43387.38302		65.60600		324.00000 
 43692.65567		 604.57829			43088.07738		133.37000		875.00000 
 43692.65567		 305.27265			43387.38302		65.60600		324.00000 
 43692.65567		 604.57829			43088.07738		133.37000		875.00000 
 43692.65567		 305.27265			43387.38302		65.60600		324.00000 
 43692.65567		 604.57829			43088.07738		133.37000		875.00000 
 43692.65567		 305.27265			43387.38302		65.60600		324.00000 
 43692.65567		 604.57829			43088.07738		133.37000		875.00000 
 43692.65567		 305.27265			43387.38302		65.60600		324.00000 
 43692.65567		 604.57829			43088.07738		133.37000		875.00000 
 43692.65567		 305.27265			43387.38302		65.60600		324.00000 
 43692.65567		 604.57829			43088.07738		133.37000		875.00000 
 43692.65567		 305.27265			43387.38302		65.60600		324.00000 
 43692.65567		 604.57829			43088.07738		133.37000		875.00000 
 43692.65567		 305.27265			43387.38302		65.60600		324.00000 
 43692.65567		 604.57829			43088.07738		133.37000		875.00000 
 43692.65567		 305.27265			43387.38302		65.60600		324.00000 
 43692.65567		 604.57829			43088.07738		133.37000		875.00000 
 43692.65567		 305.27265			43387.38302		65.60600		324.00000 
 43692.65567		 604.57829			43088.07738		133.37000		875.00000 
 43692.65567		 305.27265			43387.38302		65.60600		324.00000 
 43692.65567		 604.57829			43088.07738		133.37000		875.00000 
 43692.65567		 305.27265			43387.38302		65.60600		324.00000 
 43692.65567		 604.57829			43088.07738		133.37000		875.00000 
 43692.65567		 305.27265			43387.38302		65.60600		324.00000 
 43692.65567		 604.57829			43088.07738		133.37000		875.00000 
 43692.65567		 305.27265			43387.38302		65.60600		324.00000 
 43692.65567		 604.57829			43088.07738		133.37000		875.00000 
 43692.65567		 305.27265			43387.38302		65.60600		324.00000 
 43692.65567		 604.57829			43088.07738		133.37000		875.00000 
 43692.65567		 305.27265			43387.38302		65.60600		324.00000 
 43692.65567		 604.57829			43088.07738		133.37000		875.00000 
 43692.65567		 305.27265			43387.38302		65.60600		324.00000 
 43692.65567		 604.57829			43088.07738		133.37000		875.00000 
 43692.65567		 305.27265			43387.38302		65.60600		324.00000 
 43692.65567		 604.57829			43088.07738		133.37000		875.00000 
 43692.65567		 305.27265			43387.38302		65.60600		324.00000 
 43692.65567		 604.57829			43088.07738		133.37000		875.00000 
 43692.65567		 305.27265			43387.38302		65.60600		324.00000 
 43692.65567		 604.57829			43088.07738		133.37000		875.00000 
 43692.65567		 305.27265			43387.38302		65.60600		324.00000 
 43692.65567		 604.57829			43088.07738		133.37000		875.00000 
 43692.65567		 305.27265			43387.38302		65.60600		324.00000 
 43692.65567		 604.57829			43088.07738		133.37000		875.00000 
 43692.65567		 305.27265			43387.38302		65.60600		324.00000 
 43692.65567		 604.57829			43088.07738		133.37000		875.00000 
 43692.65567		 305.27265			43387.38302		65.60600		324.00000 
 43692.65567		 604.57829			43088.07738		133.37000		875.00000 
 43692.65567		 305.27265			43387.38302		65.60600		324.00000 
 43692.65567		 604.57829			43088.07738		133.37000		875.00000 
 43692.65567		 305.27265			43387.38302		65.60600		324.00000 
 43692.65567		 604.57829			43088.07738		133.37000		875.00000 
 43692.65567		 305.27265			43387.38302		65.60600		324.00000 
 43692.65567		 604.57829			43088.07738		133.37000		875.00000 
 43692.65567		 305.27265			43387.38302		65.60600		324.00000 
 43692.65567		 604.57829			43088.07738		133.37000		875.00000 
 43692.65567		 305.27265			43387.38302		65.60600		324.00000 
 43692.65567		 604.57829			43088.07738		180.28800		875.00000 
 43692.65567		 305.27265			43387.38302		65.60600		324.00000 
 43692.65567		 604.57829			43088.07738		180.28800		875.00000 
 43692.65567		 305.27265			43387.38302		65.60600		324.00000 
 43692.65567		 604.57829			43088.07738		180.28800		875.00000 
 43692.65567		 305.27265			43387.38302		65.60600		324.00000 
 43692.65567		 604.57829			43088.07738		180.28800		875.00000 
 43692.65567		 305.27265			43387.38302		65.60600		324.00000 
 43692.65567		 604.57829			43088.07738		180.28800		875.00000 
 43692.65567		 305.27265			43387.38302		65.60600		324.00000 
 43692.65567		 604.57829			43088.07738		180.28800		875.00000 
 43692.65567		 305.27265			43387.38302		65.60600		324.00000 
 43692.65567		 604.57829			43088.07738		180.28800		875.00000 
 43692.65567		 305.27265			43387.38302		65.60600		324.00000 
 43692.65567		 604.57829			43088.07738		180.28800		875.00000 
 43692.65567		 305.27265			43387.38302		65.60600		324.00000 
 43692.65567		 604.57829			43088.07738		180.28800		875.00000 
 43692.65567		 305.27265			43387.38302		65.60600		324.00000 
 43692.65567		 604.57829			43088.07738		180.28800		875.00000 
 43692.65567		 305.27265			43387.38302		65.60600		324.00000 
 43692.65567		 604.57829			43088.07738		180.28800		875.00000 
 43692.65567		 305.27265			43387.38302		65.60600		324.00000 
 43692.65567		 604.57829			43088.07738		180.28800		875.00000 
 43692.65567		 305.27265			43387.38302		65.60600		324.00000 
 43692.65567		 604.57829			43088.07738		180.28800		875.00000 
 43692.65567		 305.27265			43387.38302		65.60600		324.00000 
 43692.65567		 604.57829			43088.07738		180.28800		875.00000 
 43692.65567		 305.27265			43387.38302		65.60600		324.00000 
 43692.65567		 604.57829			43088.07738		180.28800		875.00000 
 43692.65567		 305.27265			43387.38302		65.60600		324.00000 
 43692.65567		 604.57829			43088.07738		180.28800		875.00000 
 43692.65567		 305.27265			43387.38302		65.60600		324.00000 
 43692.65567		 604.57829			43088.07738		180.28800		875.00000 
 43692.65567		 305.27265			43387.38302		65.60600		324.00000 
 43692.65567		 604.57829			43088.07738		180.28800		875.00000 
 43692.65567		 305.27265			43387.38302		65.60600		324.00000 
 43692.65567		 604.57829			43088.07738		180.28800		875.00000 
 43692.65567		 305.27265			43387.38302		65.60600		324.00000 
 43692.65567		 604.57829			43088.07738		180.28800		875.00000 
 43692.65567		 305.27265			43387.38302		65.60600		324.00000 
 43692.65567		 604.57829			43088.07738		180.28800		875.00000 
 43692.65567		 305.27265			43387.38302		65.60600		324.00000 
 43692.65567		 604.57829			43088.07738		180.28800		875.00000 
 43692.65567		 305.27265			43387.38302		65.60600		324.00000 
 43692.65567		 604.57829			43088.07738		180.28800		875.00000 
 43692.65567		 305.27265			43387.38302		65.60600		324.00000 
 43692.65567		 604.57829			43088.07738		180.28800		875.00000 
 43692.65567		 305.27265			43387.38302		65.60600		324.00000 
 43692.65567		 604.57829			43088.07738		180.28800		875.00000 
 43692.65567		 305.27265			43387.38302		65.60600		324.00000 
 43692.65567		 604.57829			43088.07738		180.28800		875.00000 
 43692.65567		 305.27265			43387.38302		65.60600		324.00000 
 43692.65567		 604.57829			43088.07738		180.28800		875.00000 
 43692.65567		 305.27265			43387.38302		65.60600		324.00000 
 43692.65567		 604.57829			43088.07738		180.28800		875.00000 
 43692.65567		 305.27265			43387.38302		65.60600		324.00000 
 43692.65567		 604.57829			43088.07738		180.28800		875.00000 
 43692.65567		 305.27265			43387.38302		68.10600		324.00000 
 43692.65567		 604.57829			43088.07738		180.28800		875.00000 
 43692.65567		 305.27265			43387.38302		68.10600		324.00000 
 43692.65567		 604.57829			43088.07738		180.28800		875.00000 
 43692.65567		 305.27265			43387.38302		68.10600		324.00000 
 43692.65567		 604.57829			43088.07738		180.28800		875.00000 
 43692.65567		 305.27265			43387.38302		68.10600		324.00000 
 43692.65567		 604.57829			43088.07738		180.28800		875.00000 
 43692.65567		 305.27265			43387.38302		68.10600		324.00000 
 43692.65567		 604.57829			43088.07738		180.28800		875.00000 
 43692.65567		 305.27265			43387.38302		68.10600		324.00000 
 43692.65567		 604.57829			43088.07738		180.28800		875.00000 
 43692.65567		 305.27265			43387.38302		68.10600		324.00000 
 43692.65567		 604.57829			43088.07738		180.28800		875.00000 
 43692.65567		 305.27265			43387.38302		68.10600		324.00000 
 43692.65567		 604.57829			43088.07738		180.28800		875.00000 
 43692.65567		 305.27265			43387.38302		68.10600		324.00000 
 43692.65567		 604.57829			43088.07738		180.28800		875.00000 
 43692.65567		 305.27265			43387.38302		68.10600		324.00000 
 43692.65567		 604.57829			43088.07738		180.28800		875.00000 
 43692.65567		 305.27265			43387.38302		68.10600		324.00000 
 43692.65567		 604.57829			43088.07738		180.28800		875.00000 
 43692.65567		 305.27265			43387.38302		68.10600		324.00000 
 43692.65567		 604.57829			43088.07738		180.28800		875.00000 
 43692.65567		 305.27265			43387.38302		68.10600		324.00000 
 43692.65567		 604.57829			43088.07738		180.28800		875.00000 
 43692.65567		 305.27265			43387.38302		68.10600		324.00000 
 43692.65567		 604.57829			43088.07738		180.28800		875.00000 
 43692.65567		 305.27265			43387.38302		68.10600		324.00000 
 43692.65567		 604.57829			43088.07738		180.28800		875.00000 
 43692.65567		 305.27265			43387.38302		68.10600		324.00000 
 43692.65567		 604.57829			43088.07738		180.28800		875.00000 
 43692.65567		 305.27265			43387.38302		68.10600		324.00000 
 43692.65567		 604.57829			43088.07738		180.28800		875.00000 
 43692.65567		 305.27265			43387.38302		68.10600		324.00000 
 43692.65567		 604.57829			43088.07738		180.28800		875.00000 
 43692.65567		 305.27265			43387.38302		68.10600		324.00000 
 43692.65567		 604.57829			43088.07738		180.28800		875.00000 
 43692.65567		 305.27265			43387.38302		68.10600		324.00000 
 43692.65567		 604.57829			43088.07738		180.28800		875.00000 
 43692.65567		 305.27265			43387.38302		68.10600		324.00000 
 43692.65567		 604.57829			43088.07738		180.28800		875.00000 
 43692.65567		 305.27265			43387.38302		68.10600		324.00000 
 43692.65567		 604.57829			43088.07738		180.28800		875.00000 
 43692.65567		 305.27265			43387.38302		68.10600		324.00000 
 43692.65567		 604.57829			43088.07738		180.28800		875.00000 
 43692.65567		 305.27265			43387.38302		68.10600		324.00000 
 43692.65567		 604.57829			43088.07738		180.28800		875.00000 
 43692.65567		 305.27265			43387.38302		68.10600		324.00000 
 43692.65567		 604.57829			43088.07738		180.28800		875.00000 
 43692.65567		 305.27265			43387.38302		68.10600		324.00000 
 43692.65567		 604.57829			43088.07738		180.28800		875.00000 
 43692.65567		 305.27265			43387.38302		68.10600		324.00000 
 43692.65567		 604.57829			43088.07738		180.28800		875.00000 
 43692.65567		 305.27265			43387.38302		68.10600		324.00000 
 43692.65567		 604.57829			43088.07738		180.28800		875.00000 
 43692.65567		 305.27265			43387.38302		68.10600		324.00000 
 43692.65567		 604.57829			43088.07738		180.28800		875.00000 
 43692.65567		 305.27265			43387.38302		68.10600		324.00000 
 43692.65567		 604.57829			43088.07738		180.28800		875.00000 
 43692.65567		 305.27265			43387.38302		68.10600		324.00000 
 43692.65567		 604.57829			43088.07738		180.28800		875.00000 
 43692.65567		 305.27265			43387.38302		68.10600		324.00000 
 43692.65567		 604.57829			43088.07738		180.28800		875.00000 
 43692.65567		 305.27265			43387.38302		68.10600		324.00000 
 43692.65567		 604.57829			43088.07738		180.28800		875.00000 
 43692.65567		 305.27265			43387.38302		68.10600		324.00000 
 43692.65567		 604.57829			43088.07738		204.87000		875.00000 
 43692.65567		 305.27265			43387.38302		68.10600		324.00000 
 43692.65567		 604.57829			43088.07738		204.87000		875.00000 
 43692.65567		 305.27265			43387.38302		68.10600		324.00000 
 43692.65567		 604.57829			43088.07738		204.87000		875.00000 
 43692.65567		 305.27265			43387.38302		68.10600		324.00000 
 43692.65567		 604.57829			43088.07738		204.87000		875.00000 
 43692.65567		 305.27265			43387.38302		68.10600		324.00000 
 43692.65567		 604.57829			43088.07738		204.87000		875.00000 
 43692.65567		 305.27265			43387.38302		68.10600		324.00000 
 43692.65567		 604.57829			43088.07738		204.87000		875.00000 
 43692.65567		 305.27265			43387.38302		68.10600		324.00000 
 43692.65567		 604.57829			43088.07738		204.87000		875.00000 
 43692.65567		 305.27265			43387.38302		68.10600		324.00000 
 43692.65567		 604.57829			43088.07738		204.87000		875.00000 
 43692.65567		 305.27265			43387.38302		68.10600		324.00000 
 43692.65567		 604.57829			43088.07738		204.87000		875.00000 
 43692.65567		 305.27265			43387.38302		68.10600		324.00000 
 43692.65567		 604.57829			43088.07738		204.87000		875.00000 
 43692.65567		 305.27265			43387.38302		68.10600		324.00000 
 43692.65567		 604.57829			43088.07738		204.87000		875.00000 
 43692.65567		 305.27265			43387.38302		68.10600		324.00000 
 43692.65567		 604.57829			43088.07738		204.87000		875.00000 
 43692.65567		 305.27265			43387.38302		68.10600		324.00000 
 43692.65567		 604.57829			43088.07738		204.87000		875.00000 
 43692.65567		 305.27265			43387.38302		68.10600		324.00000 
 43692.65567		 604.57829			43088.07738		204.87000		875.00000 
 43692.65567		 305.27265			43387.38302		68.10600		324.00000 
 43692.65567		 604.57829			43088.07738		204.87000		875.00000 
 43692.65567		 305.27265			43387.38302		68.10600		324.00000 
 43692.65567		 604.57829			43088.07738		204.87000		875.00000 
 43692.65567		 305.27265			43387.38302		68.10600		324.00000 
 43692.65567		 604.57829			43088.07738		204.87000		875.00000 
 43692.65567		 305.27265			43387.38302		68.10600		324.00000 
 43692.65567		 604.57829			43088.07738		204.87000		875.00000 
 43692.65567		 305.27265			43387.38302		68.10600		324.00000 
 43692.65567		 604.57829			43088.07738		204.87000		875.00000 
 43692.65567		 305.27265			43387.38302		68.10600		324.00000 
 43692.65567		 604.57829			43088.07738		204.87000		875.00000 
 43692.65567		 305.27265			43387.38302		68.10600		324.00000 
 43692.65567		 604.57829			43088.07738		204.87000		875.00000 
 43692.65567		 305.27265			43387.38302		68.10600		324.00000 
 43692.65567		 604.57829			43088.07738		204.87000		875.00000 
 43692.65567		 305.27265			43387.38302		68.10600		324.00000 
 43692.65567		 604.57829			43088.07738		204.87000		875.00000 
 43692.65567		 305.27265			43387.38302		68.10600		324.00000 
 43692.65567		 604.57829			43088.07738		204.87000		875.00000 
 43692.65567		 305.27265			43387.38302		68.10600		324.00000 
 43692.65567		 604.57829			43088.07738		204.87000		875.00000 
 43692.65567		 305.27265			43387.38302		68.10600		324.00000 
 43692.65567		 604.57829			43088.07738		204.87000		875.00000 
 43692.65567		 305.27265			43387.38302		68.10600		324.00000 
 43692.65567		 604.57829			43088.07738		204.87000		875.00000 
 43692.65567		 305.27265			43387.38302		68.10600		324.00000 
 43692.65567		 604.57829			43088.07738		204.87000		875.00000 
 43692.65567		 305.27265			43387.38302		68.10600		324.00000 
 43692.65567		 604.57829			43088.07738		204.87000		875.00000 
 43692.65567		 305.27265			43387.38302		68.10600		324.00000 
 43692.65567		 604.57829			43088.07738		204.87000		875.00000 
 43692.65567		 305.27265			43387.38302		68.10600		324.00000 
 43692.65567		 604.57829			43088.07738		204.87000		875.00000 
 43692.65567		 305.27265			43387.38302		68.10600		324.00000 
 43692.65567		 604.57829			43088.07738		204.87000		875.00000 
 43692.65567		 305.27265			43387.38302		68.10600		324.00000 
 43692.65567		 604.57829			43088.07738		204.87000		875.00000 
 43692.65567		 305.27265			43387.38302		68.10600		324.00000 
 43692.65567		 604.57829			43088.07738		204.87000		875.00000 
 43692.65567		 305.27265			43387.38302		68.10600		324.00000 
 43692.65567		 604.57829			43088.07738		204.87000		875.00000 
 43692.65567		 305.27265			43387.38302		68.10600		324.00000 
 43692.65567		 604.57829			43088.07738		204.87000		875.00000 
 43692.65567		 305.27265			43387.38302		68.10600		324.00000 
 43692.65567		 604.57829			43088.07738		204.87000		875.00000 
 43692.65567		 305.27265			43387.38302		68.10600		324.00000 
 43692.65567		 604.57829			43088.07738		204.87000		875.00000 
 43692.65567		 305.27265			43387.38302		68.10600		324.00000 
 43692.65567		 604.57829			43088.07738		204.87000		875.00000 
 43692.65567		 305.27265			43387.38302		68.10600		324.00000 
 43692.65567		 604.57829			43088.07738		204.87000		875.00000 
 43692.65567		 305.27265			43387.38302		68.10600		324.00000 
 43692.65567		 604.57829			43088.07738		204.87000		875.00000 
 43692.65567		 305.27265			43387.38302		68.10600		324.00000 
 43692.65567		 604.57829			43088.07738		204.87000		875.00000 
 43692.65567		 305.27265			43387.38302		68.10600		324.00000 
 43692.65567		 604.57829			43088.07738		204.87000		875.00000 
 43692.65567		 305.27265			43387.38302		68.10600		324.00000 
 43692.65567		 604.57829			43088.07738		204.87000		875.00000 
 43692.65567		 305.27265			43387.38302		68.10600		324.00000 
 43692.65567		 604.57829			43088.07738		204.87000		875.00000 
 43692.65567		 305.27265			43387.38302		68.10600		324.00000 
 43692.65567		 604.57829			43088.07738		204.87000		875.00000 
 43692.65567		 305.27265			43387.38302		68.10600		324.00000 
 43692.65567		 604.57829			43088.07738		204.87000		875.00000 
 43692.65567		 305.27265			43387.38302		68.10600		324.00000 
 43692.65567		 604.57829			43088.07738		204.87000		875.00000 
 43692.65567		 305.27265			43387.38302		68.10600		324.00000 
 43692.65567		 604.57829			43088.07738		204.87000		875.00000 
 43692.65567		 305.27265			43387.38302		68.10600		324.00000 
 43692.65567		 604.57829			43088.07738		204.87000		875.00000 
 43692.65567		 305.27265			43387.38302		68.10600		324.00000 
 43692.65567		 604.57829			43088.07738		204.87000		875.00000 
 43692.65567		 305.27265			43387.38302		68.10600		324.00000 
 43692.65567		 604.57829			43088.07738		204.87000		875.00000 
 43692.65567		 305.27265			43387.38302		68.10600		324.00000 
 43692.65567		 604.57829			43088.07738		204.87000		875.00000 
 43692.65567		 305.27265			43387.38302		68.10600		324.00000 
 43692.65567		 604.57829			43088.07738		204.87000		875.00000 
 43692.65567		 305.27265			43387.38302		68.10600		324.00000 
 43692.65567		 604.57829			43088.07738		204.87000		875.00000 
 43692.65567		 305.27265			43387.38302		68.10600		324.00000 
 43692.65567		 604.57829			43088.07738		204.87000		875.00000 
 43692.65567		 305.27265			43387.38302		68.10600		324.00000 
 43692.65567		 604.57829			43088.07738		204.87000		875.00000 
 43692.65567		 305.27265			43387.38302		68.10600		324.00000 
 43692.65567		 604.57829			43088.07738		204.87000		875.00000 
 43692.65567		 305.27265			43387.38302		68.10600		324.00000 
 43692.65567		 604.57829			43088.07738		204.87000		875.00000 
 43692.65567		 305.27265			43387.38302		68.10600		324.00000 
 43692.65567		 604.57829			43088.07738		204.87000		875.00000 
 43692.65567		 305.27265			43387.38302		68.10600		324.00000 
 43692.65567		 604.57829			43088.07738		204.87000		875.00000 
 43692.65567		 305.27265			43387.38302		68.10600		324.00000 
 43692.65567		 604.57829			43088.07738		204.87000		875.00000 
 43692.65567		 305.27265			43387.38302		68.10600		324.00000 
 43692.65567		 604.57829			43088.07738		204.87000		875.00000 
 43692.65567		 305.27265			43387.38302		68.10600		324.00000 
 43692.65567		 604.57829			43088.07738		204.87000		875.00000 
 43692.65567		 305.27265			43387.38302		68.10600		324.00000 
 43692.65567		 604.57829			43088.07738		214.09400		875.00000 
 43692.65567		 305.27265			43387.38302		68.10600		324.00000 
 43692.65567		 604.57829			43088.07738		214.09400		875.00000 
 43692.65567		 305.27265			43387.38302		68.10600		324.00000 
 43692.65567		 604.57829			43088.07738		214.09400		875.00000 
 43692.65567		 305.27265			43387.38302		68.10600		324.00000 
 43692.65567		 604.57829			43088.07738		214.09400		875.00000 
 43692.65567		 305.27265			43387.38302		68.10600		324.00000 
 43692.65567		 604.57829			43088.07738		214.09400		875.00000 
 43692.65567		 305.27265			43387.38302		68.10600		324.00000 
 43692.65567		 604.57829			43088.07738		214.09400		875.00000 
 43692.65567		 305.27265			43387.38302		68.10600		324.00000 
 43692.65567		 604.57829			43088.07738		214.09400		875.00000 
 43692.65567		 305.27265			43387.38302		68.10600		324.00000 
 43692.65567		 604.57829			43088.07738		214.09400		875.00000 
 43692.65567		 305.27265			43387.38302		68.10600		324.00000 
 43692.65567		 604.57829			43088.07738		214.09400		875.00000 
 43692.65567		 305.27265			43387.38302		68.10600		324.00000 
 43692.65567		 604.57829			43088.07738		214.09400		875.00000 
 43692.65567		 305.27265			43387.38302		68.10600		324.00000 
 43692.65567		 604.57829			43088.07738		214.09400		875.00000 
 43692.65567		 305.27265			43387.38302		68.10600		324.00000 
 43692.65567		 604.57829			43088.07738		214.09400		875.00000 
 43692.65567		 305.27265			43387.38302		68.10600		324.00000 
 43692.65567		 604.57829			43088.07738		214.09400		875.00000 
 43692.65567		 305.27265			43387.38302		68.10600		324.00000 
 43692.65567		 604.57829			43088.07738		214.09400		875.00000 
 43692.65567		 305.27265			43387.38302		68.10600		324.00000 
 43692.65567		 604.57829			43088.07738		214.09400		875.00000 
 43692.65567		 305.27265			43387.38302		68.10600		324.00000 
 43692.65567		 604.57829			43088.07738		214.09400		875.00000 
 43692.65567		 305.27265			43387.38302		68.10600		324.00000 
 43692.65567		 604.57829			43088.07738		214.09400		875.00000 
 43692.65567		 305.27265			43387.38302		68.10600		324.00000 
 43692.65567		 604.57829			43088.07738		214.09400		875.00000 
 43692.65567		 305.27265			43387.38302		68.10600		324.00000 
 43692.65567		 604.57829			43088.07738		214.09400		875.00000 
 43692.65567		 305.27265			43387.38302		68.10600		324.00000 
 43692.65567		 604.57829			43088.07738		214.09400		875.00000 
 43692.65567		 305.27265			43387.38302		68.10600		324.00000 
 43692.65567		 604.57829			43088.07738		214.09400		875.00000 
 43692.65567		 305.27265			43387.38302		68.10600		324.00000 
 43692.65567		 604.57829			43088.07738		214.09400		875.00000 
 43692.65567		 305.27265			43387.38302		68.10600		324.00000 
 43692.65567		 604.57829			43088.07738		214.09400		875.00000 
 43692.65567		 305.27265			43387.38302		68.10600		324.00000 
 43692.65567		 604.57829			43088.07738		214.09400		875.00000 
 43692.65567		 305.27265			43387.38302		68.10600		324.00000 
 43692.65567		 604.57829			43088.07738		214.09400		875.00000 
 43692.65567		 305.27265			43387.38302		68.10600		324.00000 
 43692.65567		 604.57829			43088.07738		214.09400		875.00000 
 43692.65567		 305.27265			43387.38302		68.10600		324.00000 
 43692.65567		 604.57829			43088.07738		214.09400		875.00000 
 43692.65567		 305.27265			43387.38302		68.10600		324.00000 
 43692.65567		 604.57829			43088.07738		214.09400		875.00000 
 43692.65567		 305.27265			43387.38302		68.10600		324.00000 
 43692.65567		 604.57829			43088.07738		214.09400		875.00000 
 43692.65567		 305.27265			43387.38302		68.10600		324.00000 
 43692.65567		 604.57829			43088.07738		214.09400		875.00000 
 43692.65567		 305.27265			43387.38302		68.10600		324.00000 
 43692.65567		 604.57829			43088.07738		214.09400		875.00000 
 43692.65567		 305.27265			43387.38302		68.10600		324.00000 
 43692.65567		 604.57829			43088.07738		214.09400		875.00000 
 43692.65567		 305.27265			43387.38302		68.10600		324.00000 
 43692.65567		 604.57829			43088.07738		214.09400		875.00000 
 43692.65567		 305.27265			43387.38302		68.10600		324.00000 
 43692.65567		 604.57829			43088.07738		214.09400		875.00000 
 43692.65567		 305.27265			43387.38302		68.10600		324.00000 
 43692.65567		 604.57829			43088.07738		214.09400		875.00000 
 43692.65567		 305.27265			43387.38302		68.10600		324.00000 
 43692.65567		 604.57829			43088.07738		214.09400		875.00000 
 43692.65567		 305.27265			43387.38302		68.10600		324.00000 
 43692.65567		 604.57829			43088.07738		214.09400		875.00000 
 43692.65567		 305.27265			43387.38302		68.10600		324.00000 
 43692.65567		 604.57829			43088.07738		214.09400		875.00000 
 43692.65567		 305.27265			43387.38302		68.10600		324.00000 
 43692.65567		 604.57829			43088.07738		214.09400		875.00000 
 43692.65567		 305.27265			43387.38302		68.10600		324.00000 
 43692.65567		 604.57829			43088.07738		214.09400		875.00000 
 43692.65567		 305.27265			43387.38302		68.10600		324.00000 
 43692.65567		 604.57829			43088.07738		214.09400		875.00000 
 43692.65567		 305.27265			43387.38302		68.10600		324.00000 
 43692.65567		 604.57829			43088.07738		214.09400		875.00000 
 43692.65567		 305.27265			43387.38302		68.10600		324.00000 
 43692.65567		 604.57829			43088.07738		214.09400		875.00000 
 43692.65567		 305.27265			43387.38302		68.10600		324.00000 
 43692.65567		 604.57829			43088.07738		214.09400		875.00000 
 43692.65567		 305.27265			43387.38302		68.10600		324.00000 
 43692.65567		 604.57829			43088.07738		214.09400		875.00000 
 43692.65567		 305.27265			43387.38302		68.10600		324.00000 
 43692.65567		 604.57829			43088.07738		214.09400		875.00000 
 43692.65567		 305.27265			43387.38302		68.10600		324.00000 
 43692.65567		 604.57829			43088.07738		214.09400		875.00000 
 43692.65567		 305.27265			43387.38302		68.10600		324.00000 
 43692.65567		 604.57829			43088.07738		214.09400		875.00000 
 43692.65567		 305.27265			43387.38302		68.10600		324.00000 
 43692.65567		 604.57829			43088.07738		214.09400		875.00000 
 43692.65567		 305.27265			43387.38302		68.10600		324.00000 
 43692.65567		 604.57829			43088.07738		214.09400		875.00000 
 43692.65567		 305.27265			43387.38302		68.10600		324.00000 
 43692.65567		 604.57829			43088.07738		214.09400		875.00000 
 43692.65567		 305.27265			43387.38302		68.10600		324.00000 
 43692.65567		 604.57829			43088.07738		214.09400		875.00000 
 43692.65567		 305.27265			43387.38302		68.10600		324.00000 
 43692.65567		 604.57829			43088.07738		214.09400		875.00000 
 43692.65567		 305.27265			43387.38302		68.10600		324.00000 
 43692.65567		 604.57829			43088.07738		214.09400		875.00000 
 43692.65567		 305.27265			43387.38302		68.10600		324.00000 
 43692.65567		 604.57829			43088.07738		214.09400		875.00000 
 43692.65567		 305.27265			43387.38302		68.10600		324.00000 
 43692.65567		 604.57829			43088.07738		214.09400		875.00000 
 43692.65567		 305.27265			43387.38302		68.10600		324.00000 
 43692.65567		 604.57829			43088.07738		214.09400		875.00000 
 43692.65567		 305.27265			43387.38302		68.10600		324.00000 
 43692.65567		 604.57829			43088.07738		214.09400		875.00000 
 43692.65567		 305.27265			43387.38302		68.10600		324.00000 
 43692.65567		 604.57829			43088.07738		214.09400		875.00000 
 43692.65567		 305.27265			43387.38302		68.10600		324.00000 
 43692.65567		 604.57829			43088.07738		214.09400		875.00000 
 43692.65567		 305.27265			43387.38302		68.10600		324.00000 
 43692.65567		 604.57829			43088.07738		214.09400		875.00000 
 43692.65567		 305.27265			43387.38302		68.10600		324.00000 
 43692.65567		 604.57829			43088.07738		214.09400		875.00000 
 43692.65567		 305.27265			43387.38302		68.10600		324.00000 
 43692.65567		 604.57829			43088.07738		214.09400		875.00000 
 43692.65567		 305.27265			43387.38302		68.10600		324.00000 
 43692.65567		 604.57829			43088.07738		214.09400		875.00000 
 43692.65567		 305.27265			43387.38302		68.10600		324.00000 
 43692.65567		 604.57829			43088.07738		214.09400		875.00000 
 43692.65567		 305.27265			43387.38302		68.10600		324.00000 
 43692.65567		 604.57829			43088.07738		214.09400		875.00000 
 43692.65567		 305.27265			43387.38302		68.10600		324.00000 
 43692.65567		 604.57829			43088.07738		214.09400		875.00000 
 43692.65567		 305.27265			43387.38302		68.10600		324.00000 
 43692.65567		 604.57829			43088.07738		218.13000		875.00000 
 43692.65567		 305.27265			43387.38302		68.10600		324.00000 
 43692.65567		 604.57829			43088.07738		218.13000		875.00000 
 43692.65567		 305.27265			43387.38302		68.10600		324.00000 
 43692.65567		 604.57829			43088.07738		218.13000		875.00000 
 43692.65567		 305.27265			43387.38302		68.10600		324.00000 
 43692.65567		 604.57829			43088.07738		218.13000		875.00000 
 43692.65567		 305.27265			43387.38302		68.10600		324.00000 
 43692.65567		 604.57829			43088.07738		218.13000		875.00000 
 43692.65567		 305.27265			43387.38302		68.10600		324.00000 
 43692.65567		 604.57829			43088.07738		218.13000		875.00000 
 43692.65567		 305.27265			43387.38302		68.10600		324.00000 
 43692.65567		 604.57829			43088.07738		218.13000		875.00000 
 43692.65567		 305.27265			43387.38302		68.10600		324.00000 
 43692.65567		 604.57829			43088.07738		218.13000		875.00000 
 43692.65567		 305.27265			43387.38302		68.10600		324.00000 
 43692.65567		 604.57829			43088.07738		218.13000		875.00000 
 43692.65567		 305.27265			43387.38302		68.10600		324.00000 
 43692.65567		 604.57829			43088.07738		218.13000		875.00000 
 43692.65567		 305.27265			43387.38302		68.10600		324.00000 
 43692.65567		 604.57829			43088.07738		218.13000		875.00000 
 43692.65567		 305.27265			43387.38302		68.10600		324.00000 
 43692.65567		 582.14230			43110.51337		218.13000		875.00000 
 43692.65567		 305.27265			43387.38302		68.10600		324.00000 
 43692.65567		 537.27032			43155.38535		218.13000		875.00000 
 43692.65567		 305.27265			43387.38302		68.10600		324.00000 
 43692.65567		 537.27032			43155.38535		218.13000		875.00000 
 43692.65567		 305.27265			43387.38302		68.10600		324.00000 
 43692.65567		 537.27032			43155.38535		218.13000		875.00000 
 43692.65567		 305.27265			43387.38302		68.10600		324.00000 
 43692.65567		 537.27032			43155.38535		218.13000		875.00000 
 43692.65567		 305.27265			43387.38302		68.10600		324.00000 
 43692.65567		 537.27032			43155.38535		218.13000		875.00000 
 43692.65567		 305.27265			43387.38302		68.10600		324.00000 
 43692.65567		 537.27032			43155.38535		218.13000		875.00000 
 43692.65567		 305.27265			43387.38302		68.10600		324.00000 
 43692.65567		 537.27032			43155.38535		218.13000		875.00000 
 43692.65567		 305.27265			43387.38302		68.10600		324.00000 
 43692.65567		 537.27032			43155.38535		218.13000		875.00000 
 43692.65567		 305.27265			43387.38302		68.10600		324.00000 
 43692.65567		 537.27032			43155.38535		218.13000		875.00000 
 43692.65567		 305.27265			43387.38302		68.10600		324.00000 
 43692.65567		 537.27032			43155.38535		218.13000		875.00000 
 43692.65567		 305.27265			43387.38302		68.10600		324.00000 
 43692.65567		 537.27032			43155.38535		218.13000		875.00000 
 43692.65567		 305.27265			43387.38302		68.10600		324.00000 
 43692.65567		 537.27032			43155.38535		218.13000		875.00000 
 43692.65567		 305.27265			43387.38302		68.10600		324.00000 
 43692.65567		 537.27032			43155.38535		218.13000		875.00000 
 43692.65567		 305.27265			43387.38302		68.10600		324.00000 
 43692.65567		 537.27032			43155.38535		218.13000		875.00000 
 43692.65567		 305.27265			43387.38302		68.10600		324.00000 
 43692.65567		 537.27032			43155.38535		218.13000		875.00000 
 43692.65567		 305.27265			43387.38302		68.10600		324.00000 
 43692.65567		 537.27032			43155.38535		218.13000		875.00000 
 43692.65567		 305.27265			43387.38302		68.10600		324.00000 
 43692.65567		 537.27032			43155.38535		218.13000		875.00000 
 43692.65567		 305.27265			43387.38302		68.10600		324.00000 
 43692.65567		 537.27032			43155.38535		218.13000		875.00000 
 43692.65567		 305.27265			43387.38302		68.10600		324.00000 
 43692.65567		 537.27032			43155.38535		218.13000		875.00000 
 43692.65567		 305.27265			43387.38302		68.10600		324.00000 
 43692.65567		 537.27032			43155.38535		218.13000		875.00000 
 43692.65567		 305.27265			43387.38302		68.10600		324.00000 
 43692.65567		 529.63254			43163.02313		218.13000		875.00000 
 43692.65567		 305.27265			43387.38302		68.10600		324.00000 
 43692.65567		 525.81365			43166.84203		218.13000		875.00000 
 43692.65567		 305.27265			43387.38302		68.10600		324.00000 
 43692.65567		 525.81365			43166.84203		218.13000		875.00000 
 43692.65567		 261.35540			43431.30027		68.10600		324.00000 
 43692.65567		 261.35540			43431.30027		218.13000		875.00000 
 43692.65567		 261.35540			43431.30027		68.10600		324.00000 
