Memory Total (MiB) 	 Memory Used (MiB) 	    Memory Free (MiB) 	 Power Drawed (W) 	 Clocks (Mhz) 	 
 43692.65567		 261.35540			43431.30027		175.75400		875.00000 
 43692.65567		 261.35540			43431.30027		69.64400		324.00000 
 43692.65567		 261.35540			43431.30027		175.75400		875.00000 
 43692.65567		 261.35540			43431.30027		69.64400		324.00000 
 43692.65567		 261.35540			43431.30027		175.75400		875.00000 
 43692.65567		 261.35540			43431.30027		69.64400		324.00000 
 43692.65567		 261.35540			43431.30027		175.75400		875.00000 
 43692.65567		 261.35540			43431.30027		69.64400		324.00000 
 43692.65567		 261.35540			43431.30027		175.75400		875.00000 
 43692.65567		 261.35540			43431.30027		69.64400		324.00000 
 43692.65567		 261.35540			43431.30027		175.75400		875.00000 
 43692.65567		 261.35540			43431.30027		69.64400		324.00000 
 43692.65567		 261.35540			43431.30027		175.75400		875.00000 
 43692.65567		 261.35540			43431.30027		69.64400		324.00000 
 43692.65567		 261.35540			43431.30027		175.75400		875.00000 
 43692.65567		 261.35540			43431.30027		69.64400		324.00000 
 43692.65567		 261.35540			43431.30027		175.75400		875.00000 
 43692.65567		 261.35540			43431.30027		69.64400		324.00000 
 43692.65567		 261.35540			43431.30027		175.75400		875.00000 
 43692.65567		 261.35540			43431.30027		69.64400		324.00000 
 43692.65567		 261.35540			43431.30027		175.75400		875.00000 
 43692.65567		 261.35540			43431.30027		69.64400		324.00000 
 43692.65567		 261.35540			43431.30027		175.75400		875.00000 
 43692.65567		 261.35540			43431.30027		69.64400		324.00000 
 43692.65567		 261.35540			43431.30027		175.75400		875.00000 
 43692.65567		 261.35540			43431.30027		69.64400		324.00000 
 43692.65567		 261.35540			43431.30027		175.75400		875.00000 
 43692.65567		 261.35540			43431.30027		69.64400		324.00000 
 43692.65567		 261.35540			43431.30027		175.75400		875.00000 
 43692.65567		 261.35540			43431.30027		69.64400		324.00000 
 43692.65567		 261.35540			43431.30027		175.75400		875.00000 
 43692.65567		 261.35540			43431.30027		69.64400		324.00000 
 43692.65567		 261.35540			43431.30027		175.75400		875.00000 
 43692.65567		 261.35540			43431.30027		69.64400		324.00000 
 43692.65567		 261.35540			43431.30027		175.75400		875.00000 
 43692.65567		 261.35540			43431.30027		69.64400		324.00000 
 43692.65567		 265.17429			43427.48138		175.75400		875.00000 
 43692.65567		 261.35540			43431.30027		69.64400		324.00000 
 43692.65567		 272.81207			43419.84360		175.75400		875.00000 
 43692.65567		 261.35540			43431.30027		69.64400		324.00000 
 43692.65567		 272.81207			43419.84360		175.75400		875.00000 
 43692.65567		 261.35540			43431.30027		69.64400		324.00000 
 43692.65567		 272.81207			43419.84360		175.75400		875.00000 
 43692.65567		 265.17429			43427.48138		69.64400		324.00000 
 43692.65567		 272.81207			43419.84360		175.75400		875.00000 
 43692.65567		 265.17429			43427.48138		69.64400		324.00000 
 43692.65567		 272.81207			43419.84360		175.75400		875.00000 
 43692.65567		 272.81207			43419.84360		69.64400		324.00000 
 43692.65567		 272.81207			43419.84360		175.75400		875.00000 
 43692.65567		 272.81207			43419.84360		69.64400		324.00000 
 43692.65567		 272.81207			43419.84360		175.75400		875.00000 
 43692.65567		 272.81207			43419.84360		69.64400		324.00000 
 43692.65567		 272.81207			43419.84360		175.75400		875.00000 
 43692.65567		 305.27265			43387.38302		69.64400		324.00000 
 43692.65567		 305.27265			43387.38302		175.75400		875.00000 
 43692.65567		 305.27265			43387.38302		69.64400		324.00000 
 43692.65567		 305.27265			43387.38302		175.75400		875.00000 
 43692.65567		 305.27265			43387.38302		69.64400		324.00000 
 43692.65567		 305.27265			43387.38302		175.75400		875.00000 
 43692.65567		 305.27265			43387.38302		69.64400		324.00000 
 43692.65567		 305.27265			43387.38302		149.06200		875.00000 
 43692.65567		 305.27265			43387.38302		69.64400		324.00000 
 43692.65567		 309.09154			43383.56413		149.06200		875.00000 
 43692.65567		 305.27265			43387.38302		69.64400		324.00000 
 43692.65567		 310.52363			43382.13204		149.06200		875.00000 
 43692.65567		 305.27265			43387.38302		69.64400		324.00000 
 43692.65567		 311.00099			43381.65468		149.06200		875.00000 
 43692.65567		 305.27265			43387.38302		69.64400		324.00000 
 43692.65567		 311.00099			43381.65468		149.06200		875.00000 
 43692.65567		 305.27265			43387.38302		69.64400		324.00000 
 43692.65567		 311.00099			43381.65468		149.06200		875.00000 
 43692.65567		 305.27265			43387.38302		69.64400		324.00000 
 43692.65567		 311.00099			43381.65468		149.06200		875.00000 
 43692.65567		 305.27265			43387.38302		69.64400		324.00000 
 43692.65567		 311.00099			43381.65468		149.06200		875.00000 
 43692.65567		 305.27265			43387.38302		69.64400		324.00000 
 43692.65567		 311.00099			43381.65468		149.06200		875.00000 
 43692.65567		 305.27265			43387.38302		69.64400		324.00000 
 43692.65567		 311.00099			43381.65468		149.06200		875.00000 
 43692.65567		 305.27265			43387.38302		69.64400		324.00000 
 43692.65567		 311.00099			43381.65468		149.06200		875.00000 
 43692.65567		 305.27265			43387.38302		69.64400		324.00000 
 43692.65567		 311.00099			43381.65468		149.06200		875.00000 
 43692.65567		 305.27265			43387.38302		69.64400		324.00000 
 43692.65567		 311.00099			43381.65468		149.06200		875.00000 
 43692.65567		 305.27265			43387.38302		69.64400		324.00000 
 43692.65567		 311.00099			43381.65468		149.06200		875.00000 
 43692.65567		 305.27265			43387.38302		69.64400		324.00000 
 43692.65567		 311.00099			43381.65468		149.06200		875.00000 
 43692.65567		 305.27265			43387.38302		69.64400		324.00000 
 43692.65567		 311.00099			43381.65468		149.06200		875.00000 
 43692.65567		 305.27265			43387.38302		69.64400		324.00000 
 43692.65567		 311.00099			43381.65468		149.06200		875.00000 
 43692.65567		 305.27265			43387.38302		69.64400		324.00000 
 43692.65567		 311.00099			43381.65468		149.06200		875.00000 
 43692.65567		 305.27265			43387.38302		69.64400		324.00000 
 43692.65567		 311.00099			43381.65468		149.06200		875.00000 
 43692.65567		 305.27265			43387.38302		69.64400		324.00000 
 43692.65567		 311.00099			43381.65468		149.06200		875.00000 
 43692.65567		 305.27265			43387.38302		69.64400		324.00000 
 43692.65567		 311.00099			43381.65468		149.06200		875.00000 
 43692.65567		 305.27265			43387.38302		69.64400		324.00000 
 43692.65567		 311.00099			43381.65468		149.06200		875.00000 
 43692.65567		 305.27265			43387.38302		69.64400		324.00000 
 43692.65567		 311.00099			43381.65468		149.06200		875.00000 
 43692.65567		 305.27265			43387.38302		69.64400		324.00000 
 43692.65567		 311.00099			43381.65468		149.06200		875.00000 
 43692.65567		 305.27265			43387.38302		69.64400		324.00000 
 43692.65567		 311.00099			43381.65468		149.06200		875.00000 
 43692.65567		 305.27265			43387.38302		69.64400		324.00000 
 43692.65567		 311.00099			43381.65468		149.06200		875.00000 
 43692.65567		 305.27265			43387.38302		69.64400		324.00000 
 43692.65567		 311.00099			43381.65468		149.06200		875.00000 
 43692.65567		 305.27265			43387.38302		69.64400		324.00000 
 43692.65567		 311.00099			43381.65468		149.06200		875.00000 
 43692.65567		 305.27265			43387.38302		69.64400		324.00000 
 43692.65567		 311.00099			43381.65468		149.06200		875.00000 
 43692.65567		 305.27265			43387.38302		69.64400		324.00000 
 43692.65567		 311.00099			43381.65468		149.06200		875.00000 
 43692.65567		 305.27265			43387.38302		69.64400		324.00000 
 43692.65567		 311.00099			43381.65468		149.06200		875.00000 
 43692.65567		 305.27265			43387.38302		69.64400		324.00000 
 43692.65567		 311.00099			43381.65468		149.06200		875.00000 
 43692.65567		 305.27265			43387.38302		69.64400		324.00000 
 43692.65567		 311.00099			43381.65468		138.09000		875.00000 
 43692.65567		 305.27265			43387.38302		69.64400		324.00000 
 43692.65567		 311.00099			43381.65468		138.09000		875.00000 
 43692.65567		 305.27265			43387.38302		69.64400		324.00000 
 43692.65567		 311.00099			43381.65468		138.09000		875.00000 
 43692.65567		 305.27265			43387.38302		69.64400		324.00000 
 43692.65567		 311.00099			43381.65468		138.09000		875.00000 
 43692.65567		 305.27265			43387.38302		69.64400		324.00000 
 43692.65567		 311.00099			43381.65468		138.09000		875.00000 
 43692.65567		 305.27265			43387.38302		69.64400		324.00000 
 43692.65567		 311.00099			43381.65468		138.09000		875.00000 
 43692.65567		 305.27265			43387.38302		69.64400		324.00000 
 43692.65567		 311.00099			43381.65468		138.09000		875.00000 
 43692.65567		 305.27265			43387.38302		69.64400		324.00000 
 43692.65567		 311.00099			43381.65468		138.09000		875.00000 
 43692.65567		 305.27265			43387.38302		69.64400		324.00000 
 43692.65567		 311.00099			43381.65468		138.09000		875.00000 
 43692.65567		 305.27265			43387.38302		69.64400		324.00000 
 43692.65567		 311.00099			43381.65468		138.09000		875.00000 
 43692.65567		 305.27265			43387.38302		69.64400		324.00000 
 43692.65567		 311.00099			43381.65468		138.09000		875.00000 
 43692.65567		 305.27265			43387.38302		69.64400		324.00000 
 43692.65567		 311.00099			43381.65468		138.09000		875.00000 
 43692.65567		 305.27265			43387.38302		69.64400		324.00000 
 43692.65567		 311.00099			43381.65468		138.09000		875.00000 
 43692.65567		 305.27265			43387.38302		69.64400		324.00000 
 43692.65567		 311.00099			43381.65468		138.09000		875.00000 
 43692.65567		 305.27265			43387.38302		69.64400		324.00000 
 43692.65567		 311.00099			43381.65468		138.09000		875.00000 
 43692.65567		 305.27265			43387.38302		69.64400		324.00000 
 43692.65567		 311.00099			43381.65468		138.09000		875.00000 
 43692.65567		 305.27265			43387.38302		69.64400		324.00000 
 43692.65567		 311.00099			43381.65468		138.09000		875.00000 
 43692.65567		 305.27265			43387.38302		69.64400		324.00000 
 43692.65567		 311.00099			43381.65468		138.09000		875.00000 
 43692.65567		 305.27265			43387.38302		69.64400		324.00000 
 43692.65567		 311.00099			43381.65468		138.09000		875.00000 
 43692.65567		 305.27265			43387.38302		69.64400		324.00000 
 43692.65567		 311.00099			43381.65468		138.09000		875.00000 
 43692.65567		 305.27265			43387.38302		69.64400		324.00000 
 43692.65567		 311.00099			43381.65468		138.09000		875.00000 
 43692.65567		 305.27265			43387.38302		69.64400		324.00000 
 43692.65567		 311.00099			43381.65468		138.09000		875.00000 
 43692.65567		 305.27265			43387.38302		65.13400		324.00000 
 43692.65567		 314.81988			43377.83579		138.09000		875.00000 
 43692.65567		 305.27265			43387.38302		65.13400		324.00000 
 43692.65567		 314.81988			43377.83579		138.09000		875.00000 
 43692.65567		 305.27265			43387.38302		65.13400		324.00000 
 43692.65567		 318.63877			43374.01690		138.09000		875.00000 
 43692.65567		 305.27265			43387.38302		65.13400		324.00000 
 43692.65567		 322.45767			43370.19801		138.09000		875.00000 
 43692.65567		 305.27265			43387.38302		65.13400		324.00000 
 43692.65567		 326.27656			43366.37912		138.09000		875.00000 
 43692.65567		 305.27265			43387.38302		65.13400		324.00000 
 43692.65567		 326.27656			43366.37912		138.09000		875.00000 
 43692.65567		 305.27265			43387.38302		65.13400		324.00000 
 43692.65567		 326.27656			43366.37912		138.09000		875.00000 
 43692.65567		 305.27265			43387.38302		65.13400		324.00000 
 43692.65567		 537.27032			43155.38535		138.09000		875.00000 
 43692.65567		 305.27265			43387.38302		65.13400		324.00000 
 43692.65567		 605.05565			43087.60002		138.09000		875.00000 
 43692.65567		 305.27265			43387.38302		65.13400		324.00000 
 43692.65567		 740.62630			42952.02937		138.09000		875.00000 
 43692.65567		 305.27265			43387.38302		65.13400		324.00000 
 43692.65567		 740.62630			42952.02937		138.09000		875.00000 
 43692.65567		 305.27265			43387.38302		65.13400		324.00000 
 43692.65567		 740.62630			42952.02937		137.74200		875.00000 
 43692.65567		 305.27265			43387.38302		65.13400		324.00000 
 43692.65567		 740.62630			42952.02937		137.74200		875.00000 
 43692.65567		 305.27265			43387.38302		65.13400		324.00000 
 43692.65567		 740.62630			42952.02937		137.74200		875.00000 
 43692.65567		 305.27265			43387.38302		65.13400		324.00000 
 43692.65567		 740.62630			42952.02937		137.74200		875.00000 
 43692.65567		 305.27265			43387.38302		65.13400		324.00000 
 43692.65567		 740.62630			42952.02937		137.74200		875.00000 
 43692.65567		 305.27265			43387.38302		65.13400		324.00000 
 43692.65567		 740.62630			42952.02937		137.74200		875.00000 
 43692.65567		 305.27265			43387.38302		65.13400		324.00000 
 43692.65567		 740.62630			42952.02937		137.74200		875.00000 
 43692.65567		 305.27265			43387.38302		65.13400		324.00000 
 43692.65567		 740.62630			42952.02937		137.74200		875.00000 
 43692.65567		 305.27265			43387.38302		65.13400		324.00000 
 43692.65567		 740.62630			42952.02937		137.74200		875.00000 
 43692.65567		 305.27265			43387.38302		65.13400		324.00000 
 43692.65567		 740.62630			42952.02937		137.74200		875.00000 
 43692.65567		 305.27265			43387.38302		65.13400		324.00000 
 43692.65567		 740.62630			42952.02937		137.74200		875.00000 
 43692.65567		 305.27265			43387.38302		65.13400		324.00000 
 43692.65567		 740.62630			42952.02937		137.74200		875.00000 
 43692.65567		 305.27265			43387.38302		65.13400		324.00000 
 43692.65567		 740.62630			42952.02937		137.74200		875.00000 
 43692.65567		 305.27265			43387.38302		65.13400		324.00000 
 43692.65567		 740.62630			42952.02937		137.74200		875.00000 
 43692.65567		 305.27265			43387.38302		65.13400		324.00000 
 43692.65567		 740.62630			42952.02937		137.74200		875.00000 
 43692.65567		 305.27265			43387.38302		65.13400		324.00000 
 43692.65567		 740.62630			42952.02937		137.74200		875.00000 
 43692.65567		 305.27265			43387.38302		65.13400		324.00000 
 43692.65567		 740.62630			42952.02937		137.74200		875.00000 
 43692.65567		 305.27265			43387.38302		65.13400		324.00000 
 43692.65567		 740.62630			42952.02937		137.74200		875.00000 
 43692.65567		 305.27265			43387.38302		65.13400		324.00000 
 43692.65567		 740.62630			42952.02937		137.74200		875.00000 
 43692.65567		 305.27265			43387.38302		65.13400		324.00000 
 43692.65567		 740.62630			42952.02937		137.74200		875.00000 
 43692.65567		 305.27265			43387.38302		65.13400		324.00000 
 43692.65567		 740.62630			42952.02937		137.74200		875.00000 
 43692.65567		 305.27265			43387.38302		65.13400		324.00000 
 43692.65567		 740.62630			42952.02937		137.74200		875.00000 
 43692.65567		 305.27265			43387.38302		65.13400		324.00000 
 43692.65567		 740.62630			42952.02937		137.74200		875.00000 
 43692.65567		 305.27265			43387.38302		65.13400		324.00000 
 43692.65567		 740.62630			42952.02937		137.74200		875.00000 
 43692.65567		 305.27265			43387.38302		65.13400		324.00000 
 43692.65567		 740.62630			42952.02937		137.74200		875.00000 
 43692.65567		 305.27265			43387.38302		65.13400		324.00000 
 43692.65567		 740.62630			42952.02937		137.74200		875.00000 
 43692.65567		 305.27265			43387.38302		65.13400		324.00000 
 43692.65567		 740.62630			42952.02937		137.74200		875.00000 
 43692.65567		 305.27265			43387.38302		65.13400		324.00000 
 43692.65567		 740.62630			42952.02937		137.74200		875.00000 
 43692.65567		 305.27265			43387.38302		65.13400		324.00000 
 43692.65567		 740.62630			42952.02937		137.74200		875.00000 
 43692.65567		 305.27265			43387.38302		65.13400		324.00000 
 43692.65567		 740.62630			42952.02937		137.74200		875.00000 
 43692.65567		 305.27265			43387.38302		65.13400		324.00000 
 43692.65567		 740.62630			42952.02937		137.74200		875.00000 
 43692.65567		 305.27265			43387.38302		65.13400		324.00000 
 43692.65567		 740.62630			42952.02937		137.74200		875.00000 
 43692.65567		 305.27265			43387.38302		65.13400		324.00000 
 43692.65567		 740.62630			42952.02937		137.74200		875.00000 
 43692.65567		 305.27265			43387.38302		65.13400		324.00000 
 43692.65567		 740.62630			42952.02937		137.74200		875.00000 
 43692.65567		 305.27265			43387.38302		65.13400		324.00000 
 43692.65567		 740.62630			42952.02937		137.74200		875.00000 
 43692.65567		 305.27265			43387.38302		65.13400		324.00000 
 43692.65567		 740.62630			42952.02937		137.74200		875.00000 
 43692.65567		 305.27265			43387.38302		65.13400		324.00000 
 43692.65567		 740.62630			42952.02937		137.74200		875.00000 
 43692.65567		 305.27265			43387.38302		65.13400		324.00000 
 43692.65567		 740.62630			42952.02937		137.74200		875.00000 
 43692.65567		 305.27265			43387.38302		65.13400		324.00000 
 43692.65567		 740.62630			42952.02937		137.74200		875.00000 
 43692.65567		 305.27265			43387.38302		65.13400		324.00000 
 43692.65567		 740.62630			42952.02937		137.74200		875.00000 
 43692.65567		 305.27265			43387.38302		65.13400		324.00000 
 43692.65567		 740.62630			42952.02937		137.74200		875.00000 
 43692.65567		 305.27265			43387.38302		65.13400		324.00000 
 43692.65567		 740.62630			42952.02937		137.74200		875.00000 
 43692.65567		 305.27265			43387.38302		65.13400		324.00000 
 43692.65567		 740.62630			42952.02937		137.74200		875.00000 
 43692.65567		 305.27265			43387.38302		65.13400		324.00000 
 43692.65567		 740.62630			42952.02937		137.74200		875.00000 
 43692.65567		 305.27265			43387.38302		65.13400		324.00000 
 43692.65567		 740.62630			42952.02937		137.74200		875.00000 
 43692.65567		 305.27265			43387.38302		65.13400		324.00000 
 43692.65567		 740.62630			42952.02937		137.74200		875.00000 
 43692.65567		 305.27265			43387.38302		65.13400		324.00000 
 43692.65567		 740.62630			42952.02937		137.74200		875.00000 
 43692.65567		 305.27265			43387.38302		65.13400		324.00000 
 43692.65567		 740.62630			42952.02937		137.74200		875.00000 
 43692.65567		 305.27265			43387.38302		65.13400		324.00000 
 43692.65567		 740.62630			42952.02937		137.74200		875.00000 
 43692.65567		 305.27265			43387.38302		65.13400		324.00000 
 43692.65567		 740.62630			42952.02937		137.74200		875.00000 
 43692.65567		 305.27265			43387.38302		65.13400		324.00000 
 43692.65567		 740.62630			42952.02937		137.74200		875.00000 
 43692.65567		 305.27265			43387.38302		65.13400		324.00000 
 43692.65567		 740.62630			42952.02937		137.74200		875.00000 
 43692.65567		 305.27265			43387.38302		65.13400		324.00000 
 43692.65567		 740.62630			42952.02937		137.74200		875.00000 
 43692.65567		 305.27265			43387.38302		65.13400		324.00000 
 43692.65567		 740.62630			42952.02937		137.74200		875.00000 
 43692.65567		 305.27265			43387.38302		65.13400		324.00000 
 43692.65567		 740.62630			42952.02937		137.74200		875.00000 
 43692.65567		 305.27265			43387.38302		65.13400		324.00000 
 43692.65567		 740.62630			42952.02937		137.74200		875.00000 
 43692.65567		 305.27265			43387.38302		65.13400		324.00000 
 43692.65567		 740.62630			42952.02937		137.74200		875.00000 
 43692.65567		 305.27265			43387.38302		65.13400		324.00000 
 43692.65567		 740.62630			42952.02937		137.74200		875.00000 
 43692.65567		 305.27265			43387.38302		65.13400		324.00000 
 43692.65567		 740.62630			42952.02937		137.74200		875.00000 
 43692.65567		 305.27265			43387.38302		65.13400		324.00000 
 43692.65567		 740.62630			42952.02937		137.74200		875.00000 
 43692.65567		 305.27265			43387.38302		65.13400		324.00000 
 43692.65567		 740.62630			42952.02937		137.74200		875.00000 
 43692.65567		 305.27265			43387.38302		65.13400		324.00000 
 43692.65567		 740.62630			42952.02937		137.74200		875.00000 
 43692.65567		 305.27265			43387.38302		65.13400		324.00000 
 43692.65567		 740.62630			42952.02937		137.74200		875.00000 
 43692.65567		 305.27265			43387.38302		65.13400		324.00000 
 43692.65567		 740.62630			42952.02937		137.74200		875.00000 
 43692.65567		 305.27265			43387.38302		65.13400		324.00000 
 43692.65567		 740.62630			42952.02937		137.74200		875.00000 
 43692.65567		 305.27265			43387.38302		65.13400		324.00000 
 43692.65567		 740.62630			42952.02937		188.97600		875.00000 
 43692.65567		 305.27265			43387.38302		65.13400		324.00000 
 43692.65567		 740.62630			42952.02937		188.97600		875.00000 
 43692.65567		 305.27265			43387.38302		65.13400		324.00000 
 43692.65567		 740.62630			42952.02937		188.97600		875.00000 
 43692.65567		 305.27265			43387.38302		65.13400		324.00000 
 43692.65567		 740.62630			42952.02937		188.97600		875.00000 
 43692.65567		 305.27265			43387.38302		65.13400		324.00000 
 43692.65567		 740.62630			42952.02937		188.97600		875.00000 
 43692.65567		 305.27265			43387.38302		65.13400		324.00000 
 43692.65567		 740.62630			42952.02937		188.97600		875.00000 
 43692.65567		 305.27265			43387.38302		65.13400		324.00000 
 43692.65567		 740.62630			42952.02937		188.97600		875.00000 
 43692.65567		 305.27265			43387.38302		65.13400		324.00000 
 43692.65567		 740.62630			42952.02937		188.97600		875.00000 
 43692.65567		 305.27265			43387.38302		65.13400		324.00000 
 43692.65567		 740.62630			42952.02937		188.97600		875.00000 
 43692.65567		 305.27265			43387.38302		65.13400		324.00000 
 43692.65567		 740.62630			42952.02937		188.97600		875.00000 
 43692.65567		 305.27265			43387.38302		65.13400		324.00000 
 43692.65567		 740.62630			42952.02937		188.97600		875.00000 
 43692.65567		 305.27265			43387.38302		65.13400		324.00000 
 43692.65567		 740.62630			42952.02937		188.97600		875.00000 
 43692.65567		 305.27265			43387.38302		65.13400		324.00000 
 43692.65567		 740.62630			42952.02937		188.97600		875.00000 
 43692.65567		 305.27265			43387.38302		65.13400		324.00000 
 43692.65567		 740.62630			42952.02937		188.97600		875.00000 
 43692.65567		 305.27265			43387.38302		65.13400		324.00000 
 43692.65567		 740.62630			42952.02937		188.97600		875.00000 
 43692.65567		 305.27265			43387.38302		65.13400		324.00000 
 43692.65567		 740.62630			42952.02937		188.97600		875.00000 
 43692.65567		 305.27265			43387.38302		65.13400		324.00000 
 43692.65567		 740.62630			42952.02937		188.97600		875.00000 
 43692.65567		 305.27265			43387.38302		65.13400		324.00000 
 43692.65567		 740.62630			42952.02937		188.97600		875.00000 
 43692.65567		 305.27265			43387.38302		65.13400		324.00000 
 43692.65567		 740.62630			42952.02937		188.97600		875.00000 
 43692.65567		 305.27265			43387.38302		65.13400		324.00000 
 43692.65567		 740.62630			42952.02937		188.97600		875.00000 
 43692.65567		 305.27265			43387.38302		65.13400		324.00000 
 43692.65567		 740.62630			42952.02937		188.97600		875.00000 
 43692.65567		 305.27265			43387.38302		65.13400		324.00000 
 43692.65567		 740.62630			42952.02937		188.97600		875.00000 
 43692.65567		 305.27265			43387.38302		65.13400		324.00000 
 43692.65567		 740.62630			42952.02937		188.97600		875.00000 
 43692.65567		 305.27265			43387.38302		65.13400		324.00000 
 43692.65567		 740.62630			42952.02937		188.97600		875.00000 
 43692.65567		 305.27265			43387.38302		65.13400		324.00000 
 43692.65567		 740.62630			42952.02937		188.97600		875.00000 
 43692.65567		 305.27265			43387.38302		65.13400		324.00000 
 43692.65567		 740.62630			42952.02937		188.97600		875.00000 
 43692.65567		 305.27265			43387.38302		65.13400		324.00000 
 43692.65567		 740.62630			42952.02937		188.97600		875.00000 
 43692.65567		 305.27265			43387.38302		65.13400		324.00000 
 43692.65567		 740.62630			42952.02937		188.97600		875.00000 
 43692.65567		 305.27265			43387.38302		65.13400		324.00000 
 43692.65567		 740.62630			42952.02937		188.97600		875.00000 
 43692.65567		 305.27265			43387.38302		65.13400		324.00000 
 43692.65567		 740.62630			42952.02937		188.97600		875.00000 
 43692.65567		 305.27265			43387.38302		65.13400		324.00000 
 43692.65567		 740.62630			42952.02937		188.97600		875.00000 
 43692.65567		 305.27265			43387.38302		65.13400		324.00000 
 43692.65567		 740.62630			42952.02937		188.97600		875.00000 
 43692.65567		 305.27265			43387.38302		65.13400		324.00000 
 43692.65567		 740.62630			42952.02937		188.97600		875.00000 
 43692.65567		 305.27265			43387.38302		65.13400		324.00000 
 43692.65567		 740.62630			42952.02937		188.97600		875.00000 
 43692.65567		 305.27265			43387.38302		65.13400		324.00000 
 43692.65567		 740.62630			42952.02937		188.97600		875.00000 
 43692.65567		 305.27265			43387.38302		65.13400		324.00000 
 43692.65567		 740.62630			42952.02937		188.97600		875.00000 
 43692.65567		 305.27265			43387.38302		65.13400		324.00000 
 43692.65567		 740.62630			42952.02937		188.97600		875.00000 
 43692.65567		 305.27265			43387.38302		65.13400		324.00000 
 43692.65567		 740.62630			42952.02937		188.97600		875.00000 
 43692.65567		 305.27265			43387.38302		65.13400		324.00000 
 43692.65567		 740.62630			42952.02937		188.97600		875.00000 
 43692.65567		 305.27265			43387.38302		65.13400		324.00000 
 43692.65567		 740.62630			42952.02937		188.97600		875.00000 
 43692.65567		 305.27265			43387.38302		65.13400		324.00000 
 43692.65567		 740.62630			42952.02937		188.97600		875.00000 
 43692.65567		 305.27265			43387.38302		65.13400		324.00000 
 43692.65567		 740.62630			42952.02937		188.97600		875.00000 
 43692.65567		 305.27265			43387.38302		65.13400		324.00000 
 43692.65567		 740.62630			42952.02937		188.97600		875.00000 
 43692.65567		 305.27265			43387.38302		65.13400		324.00000 
 43692.65567		 740.62630			42952.02937		188.97600		875.00000 
 43692.65567		 305.27265			43387.38302		65.13400		324.00000 
 43692.65567		 740.62630			42952.02937		188.97600		875.00000 
 43692.65567		 305.27265			43387.38302		65.13400		324.00000 
 43692.65567		 740.62630			42952.02937		188.97600		875.00000 
 43692.65567		 305.27265			43387.38302		65.13400		324.00000 
 43692.65567		 740.62630			42952.02937		188.97600		875.00000 
 43692.65567		 305.27265			43387.38302		65.13400		324.00000 
 43692.65567		 740.62630			42952.02937		188.97600		875.00000 
 43692.65567		 305.27265			43387.38302		65.13400		324.00000 
 43692.65567		 740.62630			42952.02937		188.97600		875.00000 
 43692.65567		 305.27265			43387.38302		65.13400		324.00000 
 43692.65567		 740.62630			42952.02937		188.97600		875.00000 
 43692.65567		 305.27265			43387.38302		65.13400		324.00000 
 43692.65567		 740.62630			42952.02937		188.97600		875.00000 
 43692.65567		 305.27265			43387.38302		65.13400		324.00000 
 43692.65567		 740.62630			42952.02937		188.97600		875.00000 
 43692.65567		 305.27265			43387.38302		65.13400		324.00000 
 43692.65567		 740.62630			42952.02937		188.97600		875.00000 
 43692.65567		 305.27265			43387.38302		65.13400		324.00000 
 43692.65567		 740.62630			42952.02937		188.97600		875.00000 
 43692.65567		 305.27265			43387.38302		65.13400		324.00000 
 43692.65567		 740.62630			42952.02937		188.97600		875.00000 
 43692.65567		 305.27265			43387.38302		65.13400		324.00000 
 43692.65567		 740.62630			42952.02937		188.97600		875.00000 
 43692.65567		 305.27265			43387.38302		65.13400		324.00000 
 43692.65567		 740.62630			42952.02937		188.97600		875.00000 
 43692.65567		 305.27265			43387.38302		65.13400		324.00000 
 43692.65567		 740.62630			42952.02937		188.97600		875.00000 
 43692.65567		 305.27265			43387.38302		65.13400		324.00000 
 43692.65567		 740.62630			42952.02937		188.97600		875.00000 
 43692.65567		 305.27265			43387.38302		65.13400		324.00000 
 43692.65567		 740.62630			42952.02937		188.97600		875.00000 
 43692.65567		 305.27265			43387.38302		65.13400		324.00000 
 43692.65567		 740.62630			42952.02937		188.97600		875.00000 
 43692.65567		 305.27265			43387.38302		65.13400		324.00000 
 43692.65567		 740.62630			42952.02937		188.97600		875.00000 
 43692.65567		 305.27265			43387.38302		65.13400		324.00000 
 43692.65567		 740.62630			42952.02937		188.97600		875.00000 
 43692.65567		 305.27265			43387.38302		65.13400		324.00000 
 43692.65567		 740.62630			42952.02937		188.97600		875.00000 
 43692.65567		 305.27265			43387.38302		65.13400		324.00000 
 43692.65567		 740.62630			42952.02937		208.68600		875.00000 
 43692.65567		 305.27265			43387.38302		65.13400		324.00000 
 43692.65567		 740.62630			42952.02937		208.68600		875.00000 
 43692.65567		 305.27265			43387.38302		65.13400		324.00000 
 43692.65567		 740.62630			42952.02937		208.68600		875.00000 
 43692.65567		 305.27265			43387.38302		65.13400		324.00000 
 43692.65567		 740.62630			42952.02937		208.68600		875.00000 
 43692.65567		 305.27265			43387.38302		65.13400		324.00000 
 43692.65567		 740.62630			42952.02937		208.68600		875.00000 
 43692.65567		 305.27265			43387.38302		65.13400		324.00000 
 43692.65567		 740.62630			42952.02937		208.68600		875.00000 
 43692.65567		 305.27265			43387.38302		65.13400		324.00000 
 43692.65567		 740.62630			42952.02937		208.68600		875.00000 
 43692.65567		 305.27265			43387.38302		65.13400		324.00000 
 43692.65567		 740.62630			42952.02937		208.68600		875.00000 
 43692.65567		 305.27265			43387.38302		65.13400		324.00000 
 43692.65567		 740.62630			42952.02937		208.68600		875.00000 
 43692.65567		 305.27265			43387.38302		65.13400		324.00000 
 43692.65567		 740.62630			42952.02937		208.68600		875.00000 
 43692.65567		 305.27265			43387.38302		65.13400		324.00000 
 43692.65567		 740.62630			42952.02937		208.68600		875.00000 
 43692.65567		 305.27265			43387.38302		65.13400		324.00000 
 43692.65567		 740.62630			42952.02937		208.68600		875.00000 
 43692.65567		 305.27265			43387.38302		65.13400		324.00000 
 43692.65567		 740.62630			42952.02937		208.68600		875.00000 
 43692.65567		 305.27265			43387.38302		65.13400		324.00000 
 43692.65567		 740.62630			42952.02937		208.68600		875.00000 
 43692.65567		 305.27265			43387.38302		65.13400		324.00000 
 43692.65567		 740.62630			42952.02937		208.68600		875.00000 
 43692.65567		 305.27265			43387.38302		65.13400		324.00000 
 43692.65567		 740.62630			42952.02937		208.68600		875.00000 
 43692.65567		 305.27265			43387.38302		65.13400		324.00000 
 43692.65567		 740.62630			42952.02937		208.68600		875.00000 
 43692.65567		 305.27265			43387.38302		65.13400		324.00000 
 43692.65567		 740.62630			42952.02937		208.68600		875.00000 
 43692.65567		 305.27265			43387.38302		65.13400		324.00000 
 43692.65567		 740.62630			42952.02937		208.68600		875.00000 
 43692.65567		 305.27265			43387.38302		65.13400		324.00000 
 43692.65567		 740.62630			42952.02937		208.68600		875.00000 
 43692.65567		 305.27265			43387.38302		65.13400		324.00000 
 43692.65567		 740.62630			42952.02937		208.68600		875.00000 
 43692.65567		 305.27265			43387.38302		65.13400		324.00000 
 43692.65567		 740.62630			42952.02937		208.68600		875.00000 
 43692.65567		 305.27265			43387.38302		65.13400		324.00000 
 43692.65567		 740.62630			42952.02937		208.68600		875.00000 
 43692.65567		 305.27265			43387.38302		65.13400		324.00000 
 43692.65567		 740.62630			42952.02937		208.68600		875.00000 
 43692.65567		 305.27265			43387.38302		65.13400		324.00000 
 43692.65567		 740.62630			42952.02937		208.68600		875.00000 
 43692.65567		 305.27265			43387.38302		65.13400		324.00000 
 43692.65567		 740.62630			42952.02937		208.68600		875.00000 
 43692.65567		 305.27265			43387.38302		65.13400		324.00000 
 43692.65567		 740.62630			42952.02937		208.68600		875.00000 
 43692.65567		 305.27265			43387.38302		65.13400		324.00000 
 43692.65567		 740.62630			42952.02937		208.68600		875.00000 
 43692.65567		 305.27265			43387.38302		65.13400		324.00000 
 43692.65567		 740.62630			42952.02937		208.68600		875.00000 
 43692.65567		 305.27265			43387.38302		65.13400		324.00000 
 43692.65567		 740.62630			42952.02937		208.68600		875.00000 
 43692.65567		 305.27265			43387.38302		65.13400		324.00000 
 43692.65567		 740.62630			42952.02937		208.68600		875.00000 
 43692.65567		 305.27265			43387.38302		65.13400		324.00000 
 43692.65567		 740.62630			42952.02937		208.68600		875.00000 
 43692.65567		 305.27265			43387.38302		65.13400		324.00000 
 43692.65567		 740.62630			42952.02937		208.68600		875.00000 
 43692.65567		 305.27265			43387.38302		65.13400		324.00000 
 43692.65567		 740.62630			42952.02937		208.68600		875.00000 
 43692.65567		 305.27265			43387.38302		65.13400		324.00000 
 43692.65567		 740.62630			42952.02937		208.68600		875.00000 
 43692.65567		 305.27265			43387.38302		65.13400		324.00000 
 43692.65567		 740.62630			42952.02937		208.68600		875.00000 
 43692.65567		 305.27265			43387.38302		65.13400		324.00000 
 43692.65567		 740.62630			42952.02937		208.68600		875.00000 
 43692.65567		 305.27265			43387.38302		65.13400		324.00000 
 43692.65567		 740.62630			42952.02937		208.68600		875.00000 
 43692.65567		 305.27265			43387.38302		65.13400		324.00000 
 43692.65567		 740.62630			42952.02937		208.68600		875.00000 
 43692.65567		 305.27265			43387.38302		65.13400		324.00000 
 43692.65567		 740.62630			42952.02937		208.68600		875.00000 
 43692.65567		 305.27265			43387.38302		65.13400		324.00000 
 43692.65567		 740.62630			42952.02937		208.68600		875.00000 
 43692.65567		 305.27265			43387.38302		65.13400		324.00000 
 43692.65567		 740.62630			42952.02937		208.68600		875.00000 
 43692.65567		 305.27265			43387.38302		65.13400		324.00000 
 43692.65567		 740.62630			42952.02937		208.68600		875.00000 
 43692.65567		 305.27265			43387.38302		65.13400		324.00000 
 43692.65567		 740.62630			42952.02937		208.68600		875.00000 
 43692.65567		 305.27265			43387.38302		65.13400		324.00000 
 43692.65567		 740.62630			42952.02937		208.68600		875.00000 
 43692.65567		 305.27265			43387.38302		65.13400		324.00000 
 43692.65567		 740.62630			42952.02937		208.68600		875.00000 
 43692.65567		 305.27265			43387.38302		65.13400		324.00000 
 43692.65567		 740.62630			42952.02937		208.68600		875.00000 
 43692.65567		 305.27265			43387.38302		65.13400		324.00000 
 43692.65567		 740.62630			42952.02937		208.68600		875.00000 
 43692.65567		 305.27265			43387.38302		65.13400		324.00000 
 43692.65567		 740.62630			42952.02937		208.68600		875.00000 
 43692.65567		 305.27265			43387.38302		65.13400		324.00000 
 43692.65567		 740.62630			42952.02937		208.68600		875.00000 
 43692.65567		 305.27265			43387.38302		65.13400		324.00000 
 43692.65567		 740.62630			42952.02937		208.68600		875.00000 
 43692.65567		 305.27265			43387.38302		65.13400		324.00000 
 43692.65567		 740.62630			42952.02937		208.68600		875.00000 
 43692.65567		 305.27265			43387.38302		65.13400		324.00000 
 43692.65567		 740.62630			42952.02937		208.68600		875.00000 
 43692.65567		 305.27265			43387.38302		65.13400		324.00000 
 43692.65567		 740.62630			42952.02937		208.68600		875.00000 
 43692.65567		 305.27265			43387.38302		65.13400		324.00000 
 43692.65567		 740.62630			42952.02937		208.68600		875.00000 
 43692.65567		 305.27265			43387.38302		65.13400		324.00000 
 43692.65567		 740.62630			42952.02937		208.68600		875.00000 
 43692.65567		 305.27265			43387.38302		65.13400		324.00000 
 43692.65567		 740.62630			42952.02937		208.68600		875.00000 
 43692.65567		 305.27265			43387.38302		65.13400		324.00000 
 43692.65567		 740.62630			42952.02937		208.68600		875.00000 
 43692.65567		 305.27265			43387.38302		65.13400		324.00000 
 43692.65567		 740.62630			42952.02937		208.68600		875.00000 
 43692.65567		 305.27265			43387.38302		65.13400		324.00000 
 43692.65567		 740.62630			42952.02937		208.68600		875.00000 
 43692.65567		 305.27265			43387.38302		65.13400		324.00000 
 43692.65567		 740.62630			42952.02937		208.68600		875.00000 
 43692.65567		 305.27265			43387.38302		65.13400		324.00000 
 43692.65567		 740.62630			42952.02937		208.68600		875.00000 
 43692.65567		 305.27265			43387.38302		65.13400		324.00000 
 43692.65567		 740.62630			42952.02937		208.68600		875.00000 
 43692.65567		 305.27265			43387.38302		65.13400		324.00000 
 43692.65567		 740.62630			42952.02937		208.68600		875.00000 
 43692.65567		 305.27265			43387.38302		65.13400		324.00000 
 43692.65567		 740.62630			42952.02937		216.57200		875.00000 
 43692.65567		 305.27265			43387.38302		65.13400		324.00000 
 43692.65567		 740.62630			42952.02937		216.57200		875.00000 
 43692.65567		 305.27265			43387.38302		65.13400		324.00000 
 43692.65567		 740.62630			42952.02937		216.57200		875.00000 
 43692.65567		 305.27265			43387.38302		65.13400		324.00000 
 43692.65567		 740.62630			42952.02937		216.57200		875.00000 
 43692.65567		 305.27265			43387.38302		65.13400		324.00000 
 43692.65567		 740.62630			42952.02937		216.57200		875.00000 
 43692.65567		 305.27265			43387.38302		65.13400		324.00000 
 43692.65567		 740.62630			42952.02937		216.57200		875.00000 
 43692.65567		 305.27265			43387.38302		65.13400		324.00000 
 43692.65567		 740.62630			42952.02937		216.57200		875.00000 
 43692.65567		 305.27265			43387.38302		65.13400		324.00000 
 43692.65567		 740.62630			42952.02937		216.57200		875.00000 
 43692.65567		 305.27265			43387.38302		65.13400		324.00000 
 43692.65567		 740.62630			42952.02937		216.57200		875.00000 
 43692.65567		 305.27265			43387.38302		65.13400		324.00000 
 43692.65567		 740.62630			42952.02937		216.57200		875.00000 
 43692.65567		 305.27265			43387.38302		65.13400		324.00000 
 43692.65567		 740.62630			42952.02937		216.57200		875.00000 
 43692.65567		 305.27265			43387.38302		65.13400		324.00000 
 43692.65567		 740.62630			42952.02937		216.57200		875.00000 
 43692.65567		 305.27265			43387.38302		65.13400		324.00000 
 43692.65567		 740.62630			42952.02937		216.57200		875.00000 
 43692.65567		 305.27265			43387.38302		65.13400		324.00000 
 43692.65567		 740.62630			42952.02937		216.57200		875.00000 
 43692.65567		 305.27265			43387.38302		65.13400		324.00000 
 43692.65567		 740.62630			42952.02937		216.57200		875.00000 
 43692.65567		 305.27265			43387.38302		65.13400		324.00000 
 43692.65567		 740.62630			42952.02937		216.57200		875.00000 
 43692.65567		 305.27265			43387.38302		65.13400		324.00000 
 43692.65567		 740.62630			42952.02937		216.57200		875.00000 
 43692.65567		 305.27265			43387.38302		65.13400		324.00000 
 43692.65567		 740.62630			42952.02937		216.57200		875.00000 
 43692.65567		 305.27265			43387.38302		65.13400		324.00000 
 43692.65567		 740.62630			42952.02937		216.57200		875.00000 
 43692.65567		 305.27265			43387.38302		65.13400		324.00000 
 43692.65567		 740.62630			42952.02937		216.57200		875.00000 
 43692.65567		 305.27265			43387.38302		65.13400		324.00000 
 43692.65567		 740.62630			42952.02937		216.57200		875.00000 
 43692.65567		 305.27265			43387.38302		65.13400		324.00000 
 43692.65567		 740.62630			42952.02937		216.57200		875.00000 
 43692.65567		 305.27265			43387.38302		65.13400		324.00000 
 43692.65567		 740.62630			42952.02937		216.57200		875.00000 
 43692.65567		 305.27265			43387.38302		65.13400		324.00000 
 43692.65567		 740.62630			42952.02937		216.57200		875.00000 
 43692.65567		 305.27265			43387.38302		65.13400		324.00000 
 43692.65567		 740.62630			42952.02937		216.57200		875.00000 
 43692.65567		 305.27265			43387.38302		65.13400		324.00000 
 43692.65567		 740.62630			42952.02937		216.57200		875.00000 
 43692.65567		 305.27265			43387.38302		65.13400		324.00000 
 43692.65567		 740.62630			42952.02937		216.57200		875.00000 
 43692.65567		 305.27265			43387.38302		65.13400		324.00000 
 43692.65567		 740.62630			42952.02937		216.57200		875.00000 
 43692.65567		 305.27265			43387.38302		65.13400		324.00000 
 43692.65567		 740.62630			42952.02937		216.57200		875.00000 
 43692.65567		 305.27265			43387.38302		65.13400		324.00000 
 43692.65567		 740.62630			42952.02937		216.57200		875.00000 
 43692.65567		 305.27265			43387.38302		65.13400		324.00000 
 43692.65567		 740.62630			42952.02937		216.57200		875.00000 
 43692.65567		 305.27265			43387.38302		65.13400		324.00000 
 43692.65567		 740.62630			42952.02937		216.57200		875.00000 
 43692.65567		 305.27265			43387.38302		65.13400		324.00000 
 43692.65567		 740.62630			42952.02937		216.57200		875.00000 
 43692.65567		 305.27265			43387.38302		65.13400		324.00000 
 43692.65567		 740.62630			42952.02937		216.57200		875.00000 
 43692.65567		 305.27265			43387.38302		65.13400		324.00000 
 43692.65567		 740.62630			42952.02937		216.57200		875.00000 
 43692.65567		 305.27265			43387.38302		65.13400		324.00000 
 43692.65567		 740.62630			42952.02937		216.57200		875.00000 
 43692.65567		 305.27265			43387.38302		65.13400		324.00000 
 43692.65567		 740.62630			42952.02937		216.57200		875.00000 
 43692.65567		 305.27265			43387.38302		65.13400		324.00000 
 43692.65567		 740.62630			42952.02937		216.57200		875.00000 
 43692.65567		 305.27265			43387.38302		65.13400		324.00000 
 43692.65567		 740.62630			42952.02937		216.57200		875.00000 
 43692.65567		 305.27265			43387.38302		65.13400		324.00000 
 43692.65567		 740.62630			42952.02937		216.57200		875.00000 
 43692.65567		 305.27265			43387.38302		65.13400		324.00000 
 43692.65567		 740.62630			42952.02937		216.57200		875.00000 
 43692.65567		 305.27265			43387.38302		65.13400		324.00000 
 43692.65567		 740.62630			42952.02937		216.57200		875.00000 
 43692.65567		 305.27265			43387.38302		65.13400		324.00000 
 43692.65567		 740.62630			42952.02937		216.57200		875.00000 
 43692.65567		 305.27265			43387.38302		65.13400		324.00000 
 43692.65567		 740.62630			42952.02937		216.57200		875.00000 
 43692.65567		 305.27265			43387.38302		65.13400		324.00000 
 43692.65567		 740.62630			42952.02937		216.57200		875.00000 
 43692.65567		 305.27265			43387.38302		65.13400		324.00000 
 43692.65567		 740.62630			42952.02937		216.57200		875.00000 
 43692.65567		 305.27265			43387.38302		65.13400		324.00000 
 43692.65567		 740.62630			42952.02937		216.57200		875.00000 
 43692.65567		 305.27265			43387.38302		65.13400		324.00000 
 43692.65567		 740.62630			42952.02937		216.57200		875.00000 
 43692.65567		 305.27265			43387.38302		65.13400		324.00000 
 43692.65567		 740.62630			42952.02937		216.57200		875.00000 
 43692.65567		 305.27265			43387.38302		65.13400		324.00000 
 43692.65567		 740.62630			42952.02937		216.57200		875.00000 
 43692.65567		 305.27265			43387.38302		65.13400		324.00000 
 43692.65567		 740.62630			42952.02937		216.57200		875.00000 
 43692.65567		 305.27265			43387.38302		65.13400		324.00000 
 43692.65567		 740.62630			42952.02937		216.57200		875.00000 
 43692.65567		 305.27265			43387.38302		65.13400		324.00000 
 43692.65567		 740.62630			42952.02937		216.57200		875.00000 
 43692.65567		 305.27265			43387.38302		65.13400		324.00000 
 43692.65567		 740.62630			42952.02937		216.57200		875.00000 
 43692.65567		 305.27265			43387.38302		65.13400		324.00000 
 43692.65567		 740.62630			42952.02937		216.57200		875.00000 
 43692.65567		 305.27265			43387.38302		65.13400		324.00000 
 43692.65567		 740.62630			42952.02937		216.57200		875.00000 
 43692.65567		 305.27265			43387.38302		65.13400		324.00000 
 43692.65567		 740.62630			42952.02937		216.57200		875.00000 
 43692.65567		 305.27265			43387.38302		65.13400		324.00000 
 43692.65567		 740.62630			42952.02937		216.57200		875.00000 
 43692.65567		 305.27265			43387.38302		65.13400		324.00000 
 43692.65567		 740.62630			42952.02937		216.57200		875.00000 
 43692.65567		 305.27265			43387.38302		65.13400		324.00000 
 43692.65567		 740.62630			42952.02937		216.57200		875.00000 
 43692.65567		 305.27265			43387.38302		65.13400		324.00000 
 43692.65567		 740.62630			42952.02937		216.57200		875.00000 
 43692.65567		 305.27265			43387.38302		65.13400		324.00000 
 43692.65567		 740.62630			42952.02937		216.57200		875.00000 
 43692.65567		 305.27265			43387.38302		65.13400		324.00000 
 43692.65567		 740.62630			42952.02937		216.57200		875.00000 
 43692.65567		 305.27265			43387.38302		65.13400		324.00000 
 43692.65567		 740.62630			42952.02937		216.57200		875.00000 
 43692.65567		 305.27265			43387.38302		65.13400		324.00000 
 43692.65567		 740.62630			42952.02937		218.89200		875.00000 
 43692.65567		 305.27265			43387.38302		65.13400		324.00000 
 43692.65567		 740.62630			42952.02937		218.89200		875.00000 
 43692.65567		 305.27265			43387.38302		65.13400		324.00000 
 43692.65567		 740.62630			42952.02937		218.89200		875.00000 
 43692.65567		 305.27265			43387.38302		65.13400		324.00000 
 43692.65567		 740.62630			42952.02937		218.89200		875.00000 
 43692.65567		 305.27265			43387.38302		65.13400		324.00000 
 43692.65567		 740.62630			42952.02937		218.89200		875.00000 
 43692.65567		 305.27265			43387.38302		65.13400		324.00000 
 43692.65567		 740.62630			42952.02937		218.89200		875.00000 
 43692.65567		 305.27265			43387.38302		65.13400		324.00000 
 43692.65567		 740.62630			42952.02937		218.89200		875.00000 
 43692.65567		 305.27265			43387.38302		65.13400		324.00000 
 43692.65567		 740.62630			42952.02937		218.89200		875.00000 
 43692.65567		 305.27265			43387.38302		65.13400		324.00000 
 43692.65567		 740.62630			42952.02937		218.89200		875.00000 
 43692.65567		 305.27265			43387.38302		65.13400		324.00000 
 43692.65567		 740.62630			42952.02937		218.89200		875.00000 
 43692.65567		 305.27265			43387.38302		65.13400		324.00000 
 43692.65567		 740.62630			42952.02937		218.89200		875.00000 
 43692.65567		 305.27265			43387.38302		65.13400		324.00000 
 43692.65567		 740.62630			42952.02937		218.89200		875.00000 
 43692.65567		 305.27265			43387.38302		65.13400		324.00000 
 43692.65567		 740.62630			42952.02937		218.89200		875.00000 
 43692.65567		 305.27265			43387.38302		65.13400		324.00000 
 43692.65567		 740.62630			42952.02937		218.89200		875.00000 
 43692.65567		 305.27265			43387.38302		65.13400		324.00000 
 43692.65567		 740.62630			42952.02937		218.89200		875.00000 
 43692.65567		 305.27265			43387.38302		65.13400		324.00000 
 43692.65567		 740.62630			42952.02937		218.89200		875.00000 
 43692.65567		 305.27265			43387.38302		65.13400		324.00000 
 43692.65567		 740.62630			42952.02937		218.89200		875.00000 
 43692.65567		 305.27265			43387.38302		65.13400		324.00000 
 43692.65567		 740.62630			42952.02937		218.89200		875.00000 
 43692.65567		 305.27265			43387.38302		65.13400		324.00000 
 43692.65567		 740.62630			42952.02937		218.89200		875.00000 
 43692.65567		 305.27265			43387.38302		65.13400		324.00000 
 43692.65567		 740.62630			42952.02937		218.89200		875.00000 
 43692.65567		 305.27265			43387.38302		65.13400		324.00000 
 43692.65567		 740.62630			42952.02937		218.89200		875.00000 
 43692.65567		 305.27265			43387.38302		65.13400		324.00000 
 43692.65567		 740.62630			42952.02937		218.89200		875.00000 
 43692.65567		 305.27265			43387.38302		65.13400		324.00000 
 43692.65567		 740.62630			42952.02937		218.89200		875.00000 
 43692.65567		 305.27265			43387.38302		65.13400		324.00000 
 43692.65567		 740.62630			42952.02937		218.89200		875.00000 
 43692.65567		 305.27265			43387.38302		65.13400		324.00000 
 43692.65567		 740.62630			42952.02937		218.89200		875.00000 
 43692.65567		 305.27265			43387.38302		65.13400		324.00000 
 43692.65567		 740.62630			42952.02937		218.89200		875.00000 
 43692.65567		 305.27265			43387.38302		65.13400		324.00000 
 43692.65567		 740.62630			42952.02937		218.89200		875.00000 
 43692.65567		 305.27265			43387.38302		65.13400		324.00000 
 43692.65567		 740.62630			42952.02937		218.89200		875.00000 
 43692.65567		 305.27265			43387.38302		65.13400		324.00000 
 43692.65567		 740.62630			42952.02937		218.89200		875.00000 
 43692.65567		 305.27265			43387.38302		65.13400		324.00000 
 43692.65567		 740.62630			42952.02937		218.89200		875.00000 
 43692.65567		 305.27265			43387.38302		65.13400		324.00000 
 43692.65567		 740.62630			42952.02937		218.89200		875.00000 
 43692.65567		 305.27265			43387.38302		65.13400		324.00000 
 43692.65567		 740.62630			42952.02937		218.89200		875.00000 
 43692.65567		 305.27265			43387.38302		65.13400		324.00000 
 43692.65567		 740.62630			42952.02937		218.89200		875.00000 
 43692.65567		 305.27265			43387.38302		65.13400		324.00000 
 43692.65567		 740.62630			42952.02937		218.89200		875.00000 
 43692.65567		 305.27265			43387.38302		65.13400		324.00000 
 43692.65567		 740.62630			42952.02937		218.89200		875.00000 
 43692.65567		 305.27265			43387.38302		65.13400		324.00000 
 43692.65567		 740.62630			42952.02937		218.89200		875.00000 
 43692.65567		 305.27265			43387.38302		65.13400		324.00000 
 43692.65567		 740.62630			42952.02937		218.89200		875.00000 
 43692.65567		 305.27265			43387.38302		65.13400		324.00000 
 43692.65567		 740.62630			42952.02937		218.89200		875.00000 
 43692.65567		 305.27265			43387.38302		65.13400		324.00000 
 43692.65567		 740.62630			42952.02937		218.89200		875.00000 
 43692.65567		 305.27265			43387.38302		65.13400		324.00000 
 43692.65567		 740.62630			42952.02937		218.89200		875.00000 
 43692.65567		 305.27265			43387.38302		65.13400		324.00000 
 43692.65567		 740.62630			42952.02937		218.89200		875.00000 
 43692.65567		 305.27265			43387.38302		65.13400		324.00000 
 43692.65567		 740.62630			42952.02937		218.89200		875.00000 
 43692.65567		 305.27265			43387.38302		65.13400		324.00000 
 43692.65567		 740.62630			42952.02937		218.89200		875.00000 
 43692.65567		 305.27265			43387.38302		65.13400		324.00000 
 43692.65567		 740.62630			42952.02937		218.89200		875.00000 
 43692.65567		 305.27265			43387.38302		65.13400		324.00000 
 43692.65567		 740.62630			42952.02937		218.89200		875.00000 
 43692.65567		 305.27265			43387.38302		65.13400		324.00000 
 43692.65567		 740.62630			42952.02937		218.89200		875.00000 
 43692.65567		 305.27265			43387.38302		65.13400		324.00000 
 43692.65567		 740.62630			42952.02937		218.89200		875.00000 
 43692.65567		 305.27265			43387.38302		65.13400		324.00000 
 43692.65567		 740.62630			42952.02937		218.89200		875.00000 
 43692.65567		 305.27265			43387.38302		65.13400		324.00000 
 43692.65567		 740.62630			42952.02937		218.89200		875.00000 
 43692.65567		 305.27265			43387.38302		65.13400		324.00000 
 43692.65567		 740.62630			42952.02937		218.89200		875.00000 
 43692.65567		 305.27265			43387.38302		65.13400		324.00000 
 43692.65567		 740.62630			42952.02937		218.89200		875.00000 
 43692.65567		 305.27265			43387.38302		65.13400		324.00000 
 43692.65567		 740.62630			42952.02937		218.89200		875.00000 
 43692.65567		 305.27265			43387.38302		65.13400		324.00000 
 43692.65567		 740.62630			42952.02937		218.89200		875.00000 
 43692.65567		 305.27265			43387.38302		65.13400		324.00000 
 43692.65567		 740.62630			42952.02937		218.89200		875.00000 
 43692.65567		 305.27265			43387.38302		65.13400		324.00000 
 43692.65567		 740.62630			42952.02937		218.89200		875.00000 
 43692.65567		 305.27265			43387.38302		65.13400		324.00000 
 43692.65567		 740.62630			42952.02937		218.89200		875.00000 
 43692.65567		 305.27265			43387.38302		65.13400		324.00000 
 43692.65567		 740.62630			42952.02937		218.89200		875.00000 
 43692.65567		 305.27265			43387.38302		65.13400		324.00000 
 43692.65567		 740.62630			42952.02937		218.89200		875.00000 
 43692.65567		 305.27265			43387.38302		65.13400		324.00000 
 43692.65567		 740.62630			42952.02937		218.89200		875.00000 
 43692.65567		 305.27265			43387.38302		65.13400		324.00000 
 43692.65567		 740.62630			42952.02937		218.89200		875.00000 
 43692.65567		 305.27265			43387.38302		65.13400		324.00000 
 43692.65567		 740.62630			42952.02937		218.89200		875.00000 
 43692.65567		 305.27265			43387.38302		65.13400		324.00000 
 43692.65567		 740.62630			42952.02937		218.89200		875.00000 
 43692.65567		 305.27265			43387.38302		65.13400		324.00000 
 43692.65567		 740.62630			42952.02937		218.89200		875.00000 
 43692.65567		 305.27265			43387.38302		65.13400		324.00000 
 43692.65567		 740.62630			42952.02937		218.89200		875.00000 
 43692.65567		 305.27265			43387.38302		65.13400		324.00000 
 43692.65567		 740.62630			42952.02937		219.66200		875.00000 
 43692.65567		 305.27265			43387.38302		65.13400		324.00000 
 43692.65567		 740.62630			42952.02937		219.66200		875.00000 
 43692.65567		 305.27265			43387.38302		65.13400		324.00000 
 43692.65567		 740.62630			42952.02937		219.66200		875.00000 
 43692.65567		 305.27265			43387.38302		65.13400		324.00000 
 43692.65567		 740.62630			42952.02937		219.66200		875.00000 
 43692.65567		 305.27265			43387.38302		65.13400		324.00000 
 43692.65567		 740.62630			42952.02937		219.66200		875.00000 
 43692.65567		 305.27265			43387.38302		65.13400		324.00000 
 43692.65567		 740.62630			42952.02937		219.66200		875.00000 
 43692.65567		 305.27265			43387.38302		65.13400		324.00000 
 43692.65567		 740.62630			42952.02937		219.66200		875.00000 
 43692.65567		 305.27265			43387.38302		65.13400		324.00000 
 43692.65567		 740.62630			42952.02937		219.66200		875.00000 
 43692.65567		 305.27265			43387.38302		65.13400		324.00000 
 43692.65567		 740.62630			42952.02937		219.66200		875.00000 
 43692.65567		 305.27265			43387.38302		65.13400		324.00000 
 43692.65567		 740.62630			42952.02937		219.66200		875.00000 
 43692.65567		 305.27265			43387.38302		65.13400		324.00000 
 43692.65567		 740.62630			42952.02937		219.66200		875.00000 
 43692.65567		 305.27265			43387.38302		65.13400		324.00000 
 43692.65567		 740.62630			42952.02937		219.66200		875.00000 
 43692.65567		 305.27265			43387.38302		65.13400		324.00000 
 43692.65567		 740.62630			42952.02937		219.66200		875.00000 
 43692.65567		 305.27265			43387.38302		65.13400		324.00000 
 43692.65567		 740.62630			42952.02937		219.66200		875.00000 
 43692.65567		 305.27265			43387.38302		65.13400		324.00000 
 43692.65567		 740.62630			42952.02937		219.66200		875.00000 
 43692.65567		 305.27265			43387.38302		65.13400		324.00000 
 43692.65567		 740.62630			42952.02937		219.66200		875.00000 
 43692.65567		 305.27265			43387.38302		65.13400		324.00000 
 43692.65567		 740.62630			42952.02937		219.66200		875.00000 
 43692.65567		 305.27265			43387.38302		65.13400		324.00000 
 43692.65567		 740.62630			42952.02937		219.66200		875.00000 
 43692.65567		 305.27265			43387.38302		65.13400		324.00000 
 43692.65567		 740.62630			42952.02937		219.66200		875.00000 
 43692.65567		 305.27265			43387.38302		65.13400		324.00000 
 43692.65567		 740.62630			42952.02937		219.66200		875.00000 
 43692.65567		 305.27265			43387.38302		65.13400		324.00000 
 43692.65567		 740.62630			42952.02937		219.66200		875.00000 
 43692.65567		 305.27265			43387.38302		65.13400		324.00000 
 43692.65567		 740.62630			42952.02937		219.66200		875.00000 
 43692.65567		 305.27265			43387.38302		65.13400		324.00000 
 43692.65567		 740.62630			42952.02937		219.66200		875.00000 
 43692.65567		 305.27265			43387.38302		65.13400		324.00000 
 43692.65567		 740.62630			42952.02937		219.66200		875.00000 
 43692.65567		 305.27265			43387.38302		65.13400		324.00000 
 43692.65567		 740.62630			42952.02937		219.66200		875.00000 
 43692.65567		 305.27265			43387.38302		65.13400		324.00000 
 43692.65567		 740.62630			42952.02937		219.66200		875.00000 
 43692.65567		 305.27265			43387.38302		65.13400		324.00000 
 43692.65567		 740.62630			42952.02937		219.66200		875.00000 
 43692.65567		 305.27265			43387.38302		65.13400		324.00000 
 43692.65567		 740.62630			42952.02937		219.66200		875.00000 
 43692.65567		 305.27265			43387.38302		65.13400		324.00000 
 43692.65567		 740.62630			42952.02937		219.66200		875.00000 
 43692.65567		 305.27265			43387.38302		65.13400		324.00000 
 43692.65567		 740.62630			42952.02937		219.66200		875.00000 
 43692.65567		 305.27265			43387.38302		65.13400		324.00000 
 43692.65567		 740.62630			42952.02937		219.66200		875.00000 
 43692.65567		 305.27265			43387.38302		65.13400		324.00000 
 43692.65567		 740.62630			42952.02937		219.66200		875.00000 
 43692.65567		 305.27265			43387.38302		65.13400		324.00000 
 43692.65567		 740.62630			42952.02937		219.66200		875.00000 
 43692.65567		 305.27265			43387.38302		65.13400		324.00000 
 43692.65567		 740.62630			42952.02937		219.66200		875.00000 
 43692.65567		 305.27265			43387.38302		65.13400		324.00000 
 43692.65567		 740.62630			42952.02937		219.66200		875.00000 
 43692.65567		 305.27265			43387.38302		65.13400		324.00000 
 43692.65567		 740.62630			42952.02937		219.66200		875.00000 
 43692.65567		 305.27265			43387.38302		65.13400		324.00000 
 43692.65567		 740.62630			42952.02937		219.66200		875.00000 
 43692.65567		 305.27265			43387.38302		65.13400		324.00000 
 43692.65567		 740.62630			42952.02937		219.66200		875.00000 
 43692.65567		 305.27265			43387.38302		65.13400		324.00000 
 43692.65567		 740.62630			42952.02937		219.66200		875.00000 
 43692.65567		 305.27265			43387.38302		65.13400		324.00000 
 43692.65567		 740.62630			42952.02937		219.66200		875.00000 
 43692.65567		 305.27265			43387.38302		65.13400		324.00000 
 43692.65567		 740.62630			42952.02937		219.66200		875.00000 
 43692.65567		 305.27265			43387.38302		65.13400		324.00000 
 43692.65567		 740.62630			42952.02937		219.66200		875.00000 
 43692.65567		 305.27265			43387.38302		65.13400		324.00000 
 43692.65567		 740.62630			42952.02937		219.66200		875.00000 
 43692.65567		 305.27265			43387.38302		65.13400		324.00000 
 43692.65567		 740.62630			42952.02937		219.66200		875.00000 
 43692.65567		 305.27265			43387.38302		65.13400		324.00000 
 43692.65567		 740.62630			42952.02937		219.66200		875.00000 
 43692.65567		 305.27265			43387.38302		65.13400		324.00000 
 43692.65567		 740.62630			42952.02937		219.66200		875.00000 
 43692.65567		 305.27265			43387.38302		65.13400		324.00000 
 43692.65567		 740.62630			42952.02937		219.66200		875.00000 
 43692.65567		 305.27265			43387.38302		65.13400		324.00000 
 43692.65567		 740.62630			42952.02937		219.66200		875.00000 
 43692.65567		 305.27265			43387.38302		65.13400		324.00000 
 43692.65567		 740.62630			42952.02937		219.66200		875.00000 
 43692.65567		 305.27265			43387.38302		65.13400		324.00000 
 43692.65567		 740.62630			42952.02937		219.66200		875.00000 
 43692.65567		 305.27265			43387.38302		65.13400		324.00000 
 43692.65567		 740.62630			42952.02937		219.66200		875.00000 
 43692.65567		 305.27265			43387.38302		65.13400		324.00000 
 43692.65567		 740.62630			42952.02937		219.66200		875.00000 
 43692.65567		 305.27265			43387.38302		65.13400		324.00000 
 43692.65567		 740.62630			42952.02937		219.66200		875.00000 
 43692.65567		 305.27265			43387.38302		65.13400		324.00000 
 43692.65567		 740.62630			42952.02937		219.66200		875.00000 
 43692.65567		 305.27265			43387.38302		65.13400		324.00000 
 43692.65567		 740.62630			42952.02937		219.66200		875.00000 
 43692.65567		 305.27265			43387.38302		65.13400		324.00000 
 43692.65567		 740.62630			42952.02937		219.66200		875.00000 
 43692.65567		 305.27265			43387.38302		65.13400		324.00000 
 43692.65567		 740.62630			42952.02937		219.66200		875.00000 
 43692.65567		 305.27265			43387.38302		65.13400		324.00000 
 43692.65567		 740.62630			42952.02937		219.66200		875.00000 
 43692.65567		 305.27265			43387.38302		65.13400		324.00000 
 43692.65567		 740.62630			42952.02937		219.66200		875.00000 
 43692.65567		 305.27265			43387.38302		65.13400		324.00000 
 43692.65567		 740.62630			42952.02937		219.66200		875.00000 
 43692.65567		 305.27265			43387.38302		65.13400		324.00000 
 43692.65567		 740.62630			42952.02937		219.66200		875.00000 
 43692.65567		 305.27265			43387.38302		65.13400		324.00000 
 43692.65567		 740.62630			42952.02937		219.66200		875.00000 
 43692.65567		 305.27265			43387.38302		65.13400		324.00000 
 43692.65567		 740.62630			42952.02937		219.66200		875.00000 
 43692.65567		 305.27265			43387.38302		65.13400		324.00000 
 43692.65567		 740.62630			42952.02937		219.66200		875.00000 
 43692.65567		 305.27265			43387.38302		65.13400		324.00000 
 43692.65567		 740.62630			42952.02937		219.66200		875.00000 
 43692.65567		 305.27265			43387.38302		65.13400		324.00000 
 43692.65567		 740.62630			42952.02937		219.06200		875.00000 
 43692.65567		 305.27265			43387.38302		65.13400		324.00000 
 43692.65567		 740.62630			42952.02937		219.06200		875.00000 
 43692.65567		 305.27265			43387.38302		65.13400		324.00000 
 43692.65567		 740.62630			42952.02937		219.06200		875.00000 
 43692.65567		 305.27265			43387.38302		65.13400		324.00000 
 43692.65567		 740.62630			42952.02937		219.06200		875.00000 
 43692.65567		 305.27265			43387.38302		65.13400		324.00000 
 43692.65567		 740.62630			42952.02937		219.06200		875.00000 
 43692.65567		 305.27265			43387.38302		65.13400		324.00000 
 43692.65567		 740.62630			42952.02937		219.06200		875.00000 
 43692.65567		 305.27265			43387.38302		65.13400		324.00000 
 43692.65567		 740.62630			42952.02937		219.06200		875.00000 
 43692.65567		 305.27265			43387.38302		65.13400		324.00000 
 43692.65567		 740.62630			42952.02937		219.06200		875.00000 
 43692.65567		 305.27265			43387.38302		65.13400		324.00000 
 43692.65567		 740.62630			42952.02937		219.06200		875.00000 
 43692.65567		 305.27265			43387.38302		65.13400		324.00000 
 43692.65567		 740.62630			42952.02937		219.06200		875.00000 
 43692.65567		 305.27265			43387.38302		65.13400		324.00000 
 43692.65567		 740.62630			42952.02937		219.06200		875.00000 
 43692.65567		 305.27265			43387.38302		65.13400		324.00000 
 43692.65567		 740.62630			42952.02937		219.06200		875.00000 
 43692.65567		 305.27265			43387.38302		65.13400		324.00000 
 43692.65567		 740.62630			42952.02937		219.06200		875.00000 
 43692.65567		 305.27265			43387.38302		65.13400		324.00000 
 43692.65567		 740.62630			42952.02937		219.06200		875.00000 
 43692.65567		 305.27265			43387.38302		65.13400		324.00000 
 43692.65567		 740.62630			42952.02937		219.06200		875.00000 
 43692.65567		 305.27265			43387.38302		65.13400		324.00000 
 43692.65567		 740.62630			42952.02937		219.06200		875.00000 
 43692.65567		 305.27265			43387.38302		65.13400		324.00000 
 43692.65567		 740.62630			42952.02937		219.06200		875.00000 
 43692.65567		 305.27265			43387.38302		65.13400		324.00000 
 43692.65567		 740.62630			42952.02937		219.06200		875.00000 
 43692.65567		 305.27265			43387.38302		65.13400		324.00000 
 43692.65567		 740.62630			42952.02937		219.06200		875.00000 
 43692.65567		 305.27265			43387.38302		65.13400		324.00000 
 43692.65567		 740.62630			42952.02937		219.06200		875.00000 
 43692.65567		 305.27265			43387.38302		65.13400		324.00000 
 43692.65567		 740.62630			42952.02937		219.06200		875.00000 
 43692.65567		 305.27265			43387.38302		65.13400		324.00000 
 43692.65567		 740.62630			42952.02937		219.06200		875.00000 
 43692.65567		 305.27265			43387.38302		65.13400		324.00000 
 43692.65567		 740.62630			42952.02937		219.06200		875.00000 
 43692.65567		 305.27265			43387.38302		65.13400		324.00000 
 43692.65567		 740.62630			42952.02937		219.06200		875.00000 
 43692.65567		 305.27265			43387.38302		65.13400		324.00000 
 43692.65567		 740.62630			42952.02937		219.06200		875.00000 
 43692.65567		 305.27265			43387.38302		65.13400		324.00000 
 43692.65567		 740.62630			42952.02937		219.06200		875.00000 
 43692.65567		 305.27265			43387.38302		65.13400		324.00000 
 43692.65567		 740.62630			42952.02937		219.06200		875.00000 
 43692.65567		 305.27265			43387.38302		65.13400		324.00000 
 43692.65567		 740.62630			42952.02937		219.06200		875.00000 
 43692.65567		 305.27265			43387.38302		65.13400		324.00000 
 43692.65567		 740.62630			42952.02937		219.06200		875.00000 
 43692.65567		 305.27265			43387.38302		65.13400		324.00000 
 43692.65567		 740.62630			42952.02937		219.06200		875.00000 
 43692.65567		 305.27265			43387.38302		65.13400		324.00000 
 43692.65567		 740.62630			42952.02937		219.06200		875.00000 
 43692.65567		 305.27265			43387.38302		65.13400		324.00000 
 43692.65567		 740.62630			42952.02937		219.06200		875.00000 
 43692.65567		 305.27265			43387.38302		65.13400		324.00000 
 43692.65567		 740.62630			42952.02937		219.06200		875.00000 
 43692.65567		 305.27265			43387.38302		65.13400		324.00000 
 43692.65567		 740.62630			42952.02937		219.06200		875.00000 
 43692.65567		 305.27265			43387.38302		65.13400		324.00000 
 43692.65567		 740.62630			42952.02937		219.06200		875.00000 
 43692.65567		 305.27265			43387.38302		65.13400		324.00000 
 43692.65567		 740.62630			42952.02937		219.06200		875.00000 
 43692.65567		 305.27265			43387.38302		65.13400		324.00000 
 43692.65567		 740.62630			42952.02937		219.06200		875.00000 
 43692.65567		 305.27265			43387.38302		65.13400		324.00000 
 43692.65567		 740.62630			42952.02937		219.06200		875.00000 
 43692.65567		 305.27265			43387.38302		65.13400		324.00000 
 43692.65567		 740.62630			42952.02937		219.06200		875.00000 
 43692.65567		 305.27265			43387.38302		65.13400		324.00000 
 43692.65567		 740.62630			42952.02937		219.06200		875.00000 
 43692.65567		 305.27265			43387.38302		65.13400		324.00000 
 43692.65567		 740.62630			42952.02937		219.06200		875.00000 
 43692.65567		 305.27265			43387.38302		65.13400		324.00000 
 43692.65567		 740.62630			42952.02937		219.06200		875.00000 
 43692.65567		 305.27265			43387.38302		65.13400		324.00000 
 43692.65567		 740.62630			42952.02937		219.06200		875.00000 
 43692.65567		 305.27265			43387.38302		65.13400		324.00000 
 43692.65567		 740.62630			42952.02937		219.06200		875.00000 
 43692.65567		 305.27265			43387.38302		65.13400		324.00000 
 43692.65567		 740.62630			42952.02937		219.06200		875.00000 
 43692.65567		 305.27265			43387.38302		65.13400		324.00000 
 43692.65567		 740.62630			42952.02937		219.06200		875.00000 
 43692.65567		 305.27265			43387.38302		65.13400		324.00000 
 43692.65567		 740.62630			42952.02937		219.06200		875.00000 
 43692.65567		 305.27265			43387.38302		65.13400		324.00000 
 43692.65567		 740.62630			42952.02937		219.06200		875.00000 
 43692.65567		 305.27265			43387.38302		65.13400		324.00000 
 43692.65567		 740.62630			42952.02937		219.06200		875.00000 
 43692.65567		 305.27265			43387.38302		65.13400		324.00000 
 43692.65567		 740.62630			42952.02937		219.06200		875.00000 
 43692.65567		 305.27265			43387.38302		65.13400		324.00000 
 43692.65567		 740.62630			42952.02937		219.06200		875.00000 
 43692.65567		 305.27265			43387.38302		65.13400		324.00000 
 43692.65567		 740.62630			42952.02937		219.06200		875.00000 
 43692.65567		 305.27265			43387.38302		65.13400		324.00000 
 43692.65567		 740.62630			42952.02937		219.06200		875.00000 
 43692.65567		 305.27265			43387.38302		65.13400		324.00000 
 43692.65567		 740.62630			42952.02937		219.06200		875.00000 
 43692.65567		 305.27265			43387.38302		65.13400		324.00000 
 43692.65567		 740.62630			42952.02937		219.06200		875.00000 
 43692.65567		 305.27265			43387.38302		65.13400		324.00000 
 43692.65567		 740.62630			42952.02937		219.06200		875.00000 
 43692.65567		 305.27265			43387.38302		65.13400		324.00000 
 43692.65567		 740.62630			42952.02937		219.06200		875.00000 
 43692.65567		 305.27265			43387.38302		65.13400		324.00000 
 43692.65567		 740.62630			42952.02937		219.06200		875.00000 
 43692.65567		 305.27265			43387.38302		65.13400		324.00000 
 43692.65567		 740.62630			42952.02937		219.06200		875.00000 
 43692.65567		 305.27265			43387.38302		65.13400		324.00000 
 43692.65567		 740.62630			42952.02937		219.06200		875.00000 
 43692.65567		 305.27265			43387.38302		65.13400		324.00000 
 43692.65567		 740.62630			42952.02937		219.06200		875.00000 
 43692.65567		 305.27265			43387.38302		65.13400		324.00000 
 43692.65567		 740.62630			42952.02937		219.06200		875.00000 
 43692.65567		 305.27265			43387.38302		65.13400		324.00000 
 43692.65567		 740.62630			42952.02937		219.06200		875.00000 
 43692.65567		 305.27265			43387.38302		65.13400		324.00000 
 43692.65567		 740.62630			42952.02937		219.06200		875.00000 
 43692.65567		 305.27265			43387.38302		65.13400		324.00000 
 43692.65567		 740.62630			42952.02937		219.06200		875.00000 
 43692.65567		 305.27265			43387.38302		65.13400		324.00000 
 43692.65567		 740.62630			42952.02937		219.06200		875.00000 
 43692.65567		 305.27265			43387.38302		65.13400		324.00000 
 43692.65567		 740.62630			42952.02937		219.06200		875.00000 
 43692.65567		 305.27265			43387.38302		65.13400		324.00000 
 43692.65567		 740.62630			42952.02937		219.06200		875.00000 
 43692.65567		 305.27265			43387.38302		65.13400		324.00000 
 43692.65567		 740.62630			42952.02937		219.06200		875.00000 
 43692.65567		 305.27265			43387.38302		65.13400		324.00000 
 43692.65567		 740.62630			42952.02937		219.06200		875.00000 
 43692.65567		 305.27265			43387.38302		65.13400		324.00000 
 43692.65567		 740.62630			42952.02937		219.06200		875.00000 
 43692.65567		 305.27265			43387.38302		65.13400		324.00000 
 43692.65567		 740.62630			42952.02937		219.06200		875.00000 
 43692.65567		 305.27265			43387.38302		65.13400		324.00000 
 43692.65567		 740.62630			42952.02937		219.06200		875.00000 
 43692.65567		 305.27265			43387.38302		65.13400		324.00000 
 43692.65567		 740.62630			42952.02937		219.06200		875.00000 
 43692.65567		 305.27265			43387.38302		65.13400		324.00000 
 43692.65567		 740.62630			42952.02937		219.06200		875.00000 
 43692.65567		 305.27265			43387.38302		65.13400		324.00000 
 43692.65567		 740.62630			42952.02937		219.06200		875.00000 
 43692.65567		 305.27265			43387.38302		65.13400		324.00000 
 43692.65567		 740.62630			42952.02937		219.06200		875.00000 
 43692.65567		 305.27265			43387.38302		65.13400		324.00000 
 43692.65567		 740.62630			42952.02937		219.06200		875.00000 
 43692.65567		 305.27265			43387.38302		65.13400		324.00000 
 43692.65567		 740.62630			42952.02937		219.06200		875.00000 
 43692.65567		 305.27265			43387.38302		65.13400		324.00000 
 43692.65567		 740.62630			42952.02937		219.06200		875.00000 
 43692.65567		 305.27265			43387.38302		65.13400		324.00000 
 43692.65567		 740.62630			42952.02937		219.06200		875.00000 
 43692.65567		 305.27265			43387.38302		65.13400		324.00000 
 43692.65567		 740.62630			42952.02937		219.06200		875.00000 
 43692.65567		 305.27265			43387.38302		65.13400		324.00000 
 43692.65567		 740.62630			42952.02937		219.06200		875.00000 
 43692.65567		 305.27265			43387.38302		65.13400		324.00000 
 43692.65567		 740.62630			42952.02937		219.06200		875.00000 
 43692.65567		 305.27265			43387.38302		65.13400		324.00000 
 43692.65567		 740.62630			42952.02937		219.06200		875.00000 
 43692.65567		 305.27265			43387.38302		65.13400		324.00000 
 43692.65567		 740.62630			42952.02937		219.06200		875.00000 
 43692.65567		 305.27265			43387.38302		65.13400		324.00000 
 43692.65567		 740.62630			42952.02937		219.06200		875.00000 
 43692.65567		 305.27265			43387.38302		65.13400		324.00000 
 43692.65567		 740.62630			42952.02937		219.06200		875.00000 
 43692.65567		 305.27265			43387.38302		65.13400		324.00000 
 43692.65567		 740.62630			42952.02937		219.06200		875.00000 
 43692.65567		 305.27265			43387.38302		65.13400		324.00000 
 43692.65567		 740.62630			42952.02937		219.06200		875.00000 
 43692.65567		 305.27265			43387.38302		65.13400		324.00000 
 43692.65567		 740.62630			42952.02937		219.06200		875.00000 
 43692.65567		 305.27265			43387.38302		65.13400		324.00000 
 43692.65567		 740.62630			42952.02937		219.06200		875.00000 
 43692.65567		 305.27265			43387.38302		65.13400		324.00000 
 43692.65567		 740.62630			42952.02937		219.06200		875.00000 
 43692.65567		 305.27265			43387.38302		65.13400		324.00000 
 43692.65567		 740.62630			42952.02937		219.06200		875.00000 
 43692.65567		 305.27265			43387.38302		65.13400		324.00000 
 43692.65567		 740.62630			42952.02937		219.06200		875.00000 
 43692.65567		 305.27265			43387.38302		65.13400		324.00000 
 43692.65567		 740.62630			42952.02937		219.06200		875.00000 
 43692.65567		 305.27265			43387.38302		65.13400		324.00000 
 43692.65567		 740.62630			42952.02937		219.06200		875.00000 
 43692.65567		 305.27265			43387.38302		65.13400		324.00000 
 43692.65567		 740.62630			42952.02937		219.06200		875.00000 
 43692.65567		 305.27265			43387.38302		65.13400		324.00000 
 43692.65567		 740.62630			42952.02937		219.06200		875.00000 
 43692.65567		 305.27265			43387.38302		65.13400		324.00000 
 43692.65567		 740.62630			42952.02937		219.06200		875.00000 
 43692.65567		 305.27265			43387.38302		65.13400		324.00000 
 43692.65567		 740.62630			42952.02937		219.06200		875.00000 
 43692.65567		 305.27265			43387.38302		65.13400		324.00000 
 43692.65567		 740.62630			42952.02937		219.06200		875.00000 
 43692.65567		 305.27265			43387.38302		65.13400		324.00000 
 43692.65567		 740.62630			42952.02937		219.06200		875.00000 
 43692.65567		 305.27265			43387.38302		65.13400		324.00000 
 43692.65567		 740.62630			42952.02937		219.06200		875.00000 
 43692.65567		 305.27265			43387.38302		65.13400		324.00000 
 43692.65567		 740.62630			42952.02937		219.06200		875.00000 
 43692.65567		 305.27265			43387.38302		65.13400		324.00000 
 43692.65567		 740.62630			42952.02937		219.06200		875.00000 
 43692.65567		 305.27265			43387.38302		65.13400		324.00000 
 43692.65567		 740.62630			42952.02937		219.06200		875.00000 
 43692.65567		 305.27265			43387.38302		65.13400		324.00000 
 43692.65567		 740.62630			42952.02937		219.06200		875.00000 
 43692.65567		 305.27265			43387.38302		65.13400		324.00000 
 43692.65567		 740.62630			42952.02937		219.06200		875.00000 
 43692.65567		 305.27265			43387.38302		65.13400		324.00000 
 43692.65567		 740.62630			42952.02937		219.06200		875.00000 
 43692.65567		 305.27265			43387.38302		65.13400		324.00000 
 43692.65567		 740.62630			42952.02937		219.06200		875.00000 
 43692.65567		 305.27265			43387.38302		65.13400		324.00000 
 43692.65567		 740.62630			42952.02937		219.06200		875.00000 
 43692.65567		 305.27265			43387.38302		65.13400		324.00000 
 43692.65567		 740.62630			42952.02937		219.06200		875.00000 
 43692.65567		 305.27265			43387.38302		65.13400		324.00000 
 43692.65567		 740.62630			42952.02937		219.06200		875.00000 
 43692.65567		 305.27265			43387.38302		65.13400		324.00000 
 43692.65567		 740.62630			42952.02937		219.06200		875.00000 
 43692.65567		 305.27265			43387.38302		65.13400		324.00000 
 43692.65567		 740.62630			42952.02937		219.06200		875.00000 
 43692.65567		 305.27265			43387.38302		65.13400		324.00000 
 43692.65567		 740.62630			42952.02937		219.06200		875.00000 
 43692.65567		 305.27265			43387.38302		65.13400		324.00000 
 43692.65567		 740.62630			42952.02937		219.06200		875.00000 
 43692.65567		 305.27265			43387.38302		65.13400		324.00000 
 43692.65567		 740.62630			42952.02937		219.06200		875.00000 
 43692.65567		 305.27265			43387.38302		65.13400		324.00000 
 43692.65567		 740.62630			42952.02937		219.06200		875.00000 
 43692.65567		 305.27265			43387.38302		65.13400		324.00000 
 43692.65567		 740.62630			42952.02937		219.06200		875.00000 
 43692.65567		 305.27265			43387.38302		65.13400		324.00000 
 43692.65567		 740.62630			42952.02937		219.06200		875.00000 
 43692.65567		 305.27265			43387.38302		65.13400		324.00000 
 43692.65567		 740.62630			42952.02937		219.06200		875.00000 
 43692.65567		 305.27265			43387.38302		65.13400		324.00000 
 43692.65567		 740.62630			42952.02937		219.06200		875.00000 
 43692.65567		 305.27265			43387.38302		65.13400		324.00000 
 43692.65567		 740.62630			42952.02937		219.06200		875.00000 
 43692.65567		 305.27265			43387.38302		65.13400		324.00000 
 43692.65567		 740.62630			42952.02937		219.06200		875.00000 
 43692.65567		 305.27265			43387.38302		65.13400		324.00000 
 43692.65567		 740.62630			42952.02937		219.06200		875.00000 
 43692.65567		 305.27265			43387.38302		65.13400		324.00000 
 43692.65567		 740.62630			42952.02937		219.06200		875.00000 
 43692.65567		 305.27265			43387.38302		65.13400		324.00000 
 43692.65567		 740.62630			42952.02937		219.06200		875.00000 
 43692.65567		 305.27265			43387.38302		65.13400		324.00000 
 43692.65567		 740.62630			42952.02937		219.06200		875.00000 
 43692.65567		 305.27265			43387.38302		65.13400		324.00000 
 43692.65567		 740.62630			42952.02937		219.06200		875.00000 
 43692.65567		 305.27265			43387.38302		65.13400		324.00000 
 43692.65567		 740.62630			42952.02937		219.06200		875.00000 
 43692.65567		 305.27265			43387.38302		65.13400		324.00000 
 43692.65567		 740.62630			42952.02937		219.06200		875.00000 
 43692.65567		 305.27265			43387.38302		65.13400		324.00000 
 43692.65567		 740.62630			42952.02937		219.06200		875.00000 
 43692.65567		 305.27265			43387.38302		65.13400		324.00000 
 43692.65567		 740.62630			42952.02937		219.06200		875.00000 
 43692.65567		 305.27265			43387.38302		65.13400		324.00000 
 43692.65567		 740.62630			42952.02937		219.06200		875.00000 
 43692.65567		 305.27265			43387.38302		65.13400		324.00000 
 43692.65567		 740.62630			42952.02937		219.06200		875.00000 
 43692.65567		 305.27265			43387.38302		65.13400		324.00000 
 43692.65567		 740.62630			42952.02937		219.06200		875.00000 
 43692.65567		 305.27265			43387.38302		65.13400		324.00000 
 43692.65567		 740.62630			42952.02937		219.06200		875.00000 
 43692.65567		 305.27265			43387.38302		65.13400		324.00000 
 43692.65567		 740.62630			42952.02937		219.06200		875.00000 
 43692.65567		 305.27265			43387.38302		65.13400		324.00000 
 43692.65567		 740.62630			42952.02937		219.06200		875.00000 
 43692.65567		 305.27265			43387.38302		65.13400		324.00000 
 43692.65567		 740.62630			42952.02937		219.06200		875.00000 
 43692.65567		 305.27265			43387.38302		65.13400		324.00000 
 43692.65567		 740.62630			42952.02937		219.06200		875.00000 
 43692.65567		 305.27265			43387.38302		65.13400		324.00000 
 43692.65567		 740.62630			42952.02937		219.06200		875.00000 
 43692.65567		 305.27265			43387.38302		65.13400		324.00000 
 43692.65567		 740.62630			42952.02937		219.06200		875.00000 
 43692.65567		 305.27265			43387.38302		65.13400		324.00000 
 43692.65567		 740.62630			42952.02937		219.06200		875.00000 
 43692.65567		 305.27265			43387.38302		65.13400		324.00000 
 43692.65567		 740.62630			42952.02937		219.06200		875.00000 
 43692.65567		 305.27265			43387.38302		65.13400		324.00000 
 43692.65567		 740.62630			42952.02937		219.06200		875.00000 
 43692.65567		 305.27265			43387.38302		65.13400		324.00000 
 43692.65567		 740.62630			42952.02937		219.06200		875.00000 
 43692.65567		 305.27265			43387.38302		65.13400		324.00000 
 43692.65567		 740.62630			42952.02937		219.06200		875.00000 
 43692.65567		 305.27265			43387.38302		65.13400		324.00000 
 43692.65567		 740.62630			42952.02937		219.06200		875.00000 
 43692.65567		 305.27265			43387.38302		65.13400		324.00000 
 43692.65567		 740.62630			42952.02937		219.06200		875.00000 
 43692.65567		 305.27265			43387.38302		65.13400		324.00000 
 43692.65567		 740.62630			42952.02937		219.06200		875.00000 
 43692.65567		 305.27265			43387.38302		65.13400		324.00000 
 43692.65567		 740.62630			42952.02937		219.06200		875.00000 
 43692.65567		 305.27265			43387.38302		65.13400		324.00000 
 43692.65567		 740.62630			42952.02937		219.06200		875.00000 
 43692.65567		 305.27265			43387.38302		65.13400		324.00000 
 43692.65567		 740.62630			42952.02937		219.06200		875.00000 
 43692.65567		 305.27265			43387.38302		65.13400		324.00000 
 43692.65567		 740.62630			42952.02937		219.06200		875.00000 
 43692.65567		 305.27265			43387.38302		65.13400		324.00000 
 43692.65567		 740.62630			42952.02937		219.06200		875.00000 
 43692.65567		 305.27265			43387.38302		65.13400		324.00000 
 43692.65567		 740.62630			42952.02937		219.06200		875.00000 
 43692.65567		 305.27265			43387.38302		65.13400		324.00000 
 43692.65567		 740.62630			42952.02937		219.06200		875.00000 
 43692.65567		 305.27265			43387.38302		65.13400		324.00000 
 43692.65567		 740.62630			42952.02937		219.06200		875.00000 
 43692.65567		 305.27265			43387.38302		65.13400		324.00000 
 43692.65567		 740.62630			42952.02937		219.06200		875.00000 
 43692.65567		 305.27265			43387.38302		65.13400		324.00000 
 43692.65567		 740.62630			42952.02937		219.06200		875.00000 
 43692.65567		 305.27265			43387.38302		65.13400		324.00000 
 43692.65567		 740.62630			42952.02937		219.06200		875.00000 
 43692.65567		 305.27265			43387.38302		65.13400		324.00000 
 43692.65567		 740.62630			42952.02937		219.06200		875.00000 
 43692.65567		 305.27265			43387.38302		65.13400		324.00000 
 43692.65567		 740.62630			42952.02937		219.06200		875.00000 
 43692.65567		 305.27265			43387.38302		65.13400		324.00000 
 43692.65567		 740.62630			42952.02937		219.06200		875.00000 
 43692.65567		 305.27265			43387.38302		65.13400		324.00000 
 43692.65567		 740.62630			42952.02937		219.06200		875.00000 
 43692.65567		 305.27265			43387.38302		65.13400		324.00000 
 43692.65567		 740.62630			42952.02937		219.06200		875.00000 
 43692.65567		 305.27265			43387.38302		65.13400		324.00000 
 43692.65567		 740.62630			42952.02937		219.06200		875.00000 
 43692.65567		 305.27265			43387.38302		65.13400		324.00000 
 43692.65567		 740.62630			42952.02937		219.06200		875.00000 
 43692.65567		 305.27265			43387.38302		65.13400		324.00000 
 43692.65567		 740.62630			42952.02937		219.06200		875.00000 
 43692.65567		 305.27265			43387.38302		65.13400		324.00000 
 43692.65567		 740.62630			42952.02937		219.06200		875.00000 
 43692.65567		 305.27265			43387.38302		65.13400		324.00000 
 43692.65567		 740.62630			42952.02937		219.06200		875.00000 
 43692.65567		 305.27265			43387.38302		65.13400		324.00000 
 43692.65567		 740.62630			42952.02937		219.06200		875.00000 
 43692.65567		 305.27265			43387.38302		65.13400		324.00000 
 43692.65567		 740.62630			42952.02937		219.06200		875.00000 
 43692.65567		 305.27265			43387.38302		65.13400		324.00000 
 43692.65567		 740.62630			42952.02937		219.06200		875.00000 
 43692.65567		 305.27265			43387.38302		65.13400		324.00000 
 43692.65567		 740.62630			42952.02937		219.06200		875.00000 
 43692.65567		 305.27265			43387.38302		65.13400		324.00000 
 43692.65567		 740.62630			42952.02937		219.06200		875.00000 
 43692.65567		 305.27265			43387.38302		65.13400		324.00000 
 43692.65567		 740.62630			42952.02937		219.06200		875.00000 
 43692.65567		 305.27265			43387.38302		65.13400		324.00000 
 43692.65567		 740.62630			42952.02937		219.06200		875.00000 
 43692.65567		 305.27265			43387.38302		65.13400		324.00000 
 43692.65567		 740.62630			42952.02937		219.06200		875.00000 
 43692.65567		 305.27265			43387.38302		65.13400		324.00000 
 43692.65567		 740.62630			42952.02937		219.06200		875.00000 
 43692.65567		 305.27265			43387.38302		65.13400		324.00000 
 43692.65567		 740.62630			42952.02937		219.06200		875.00000 
 43692.65567		 305.27265			43387.38302		65.13400		324.00000 
 43692.65567		 740.62630			42952.02937		219.06200		875.00000 
 43692.65567		 305.27265			43387.38302		65.13400		324.00000 
 43692.65567		 740.62630			42952.02937		219.06200		875.00000 
 43692.65567		 305.27265			43387.38302		65.13400		324.00000 
 43692.65567		 740.62630			42952.02937		219.06200		875.00000 
 43692.65567		 305.27265			43387.38302		65.13400		324.00000 
 43692.65567		 740.62630			42952.02937		219.06200		875.00000 
 43692.65567		 305.27265			43387.38302		65.13400		324.00000 
 43692.65567		 740.62630			42952.02937		219.06200		875.00000 
 43692.65567		 305.27265			43387.38302		65.13400		324.00000 
 43692.65567		 740.62630			42952.02937		219.06200		875.00000 
 43692.65567		 305.27265			43387.38302		65.13400		324.00000 
 43692.65567		 740.62630			42952.02937		219.06200		875.00000 
 43692.65567		 305.27265			43387.38302		65.13400		324.00000 
 43692.65567		 740.62630			42952.02937		219.06200		875.00000 
 43692.65567		 305.27265			43387.38302		65.13400		324.00000 
 43692.65567		 740.62630			42952.02937		219.06200		875.00000 
 43692.65567		 305.27265			43387.38302		65.13400		324.00000 
 43692.65567		 740.62630			42952.02937		219.06200		875.00000 
 43692.65567		 305.27265			43387.38302		65.13400		324.00000 
 43692.65567		 740.62630			42952.02937		219.06200		875.00000 
 43692.65567		 305.27265			43387.38302		65.13400		324.00000 
 43692.65567		 740.62630			42952.02937		219.06200		875.00000 
 43692.65567		 305.27265			43387.38302		65.13400		324.00000 
 43692.65567		 740.62630			42952.02937		219.06200		875.00000 
 43692.65567		 305.27265			43387.38302		65.13400		324.00000 
 43692.65567		 740.62630			42952.02937		219.06200		875.00000 
 43692.65567		 305.27265			43387.38302		65.13400		324.00000 
 43692.65567		 740.62630			42952.02937		219.06200		875.00000 
 43692.65567		 305.27265			43387.38302		65.13400		324.00000 
 43692.65567		 740.62630			42952.02937		219.06200		875.00000 
 43692.65567		 305.27265			43387.38302		65.13400		324.00000 
 43692.65567		 740.62630			42952.02937		219.06200		875.00000 
 43692.65567		 305.27265			43387.38302		65.13400		324.00000 
 43692.65567		 740.62630			42952.02937		219.06200		875.00000 
 43692.65567		 305.27265			43387.38302		65.13400		324.00000 
 43692.65567		 740.62630			42952.02937		219.06200		875.00000 
 43692.65567		 305.27265			43387.38302		65.13400		324.00000 
 43692.65567		 740.62630			42952.02937		219.06200		875.00000 
 43692.65567		 305.27265			43387.38302		65.13400		324.00000 
 43692.65567		 740.62630			42952.02937		219.06200		875.00000 
 43692.65567		 305.27265			43387.38302		65.13400		324.00000 
 43692.65567		 740.62630			42952.02937		219.06200		875.00000 
 43692.65567		 305.27265			43387.38302		65.13400		324.00000 
 43692.65567		 740.62630			42952.02937		219.06200		875.00000 
 43692.65567		 305.27265			43387.38302		65.13400		324.00000 
 43692.65567		 740.62630			42952.02937		219.06200		875.00000 
 43692.65567		 305.27265			43387.38302		65.13400		324.00000 
 43692.65567		 740.62630			42952.02937		219.06200		875.00000 
 43692.65567		 305.27265			43387.38302		65.13400		324.00000 
 43692.65567		 740.62630			42952.02937		219.06200		875.00000 
 43692.65567		 305.27265			43387.38302		65.13400		324.00000 
 43692.65567		 740.62630			42952.02937		219.06200		875.00000 
 43692.65567		 305.27265			43387.38302		65.13400		324.00000 
 43692.65567		 740.62630			42952.02937		219.06200		875.00000 
 43692.65567		 305.27265			43387.38302		65.13400		324.00000 
 43692.65567		 740.62630			42952.02937		219.06200		875.00000 
 43692.65567		 305.27265			43387.38302		65.13400		324.00000 
 43692.65567		 740.62630			42952.02937		219.06200		875.00000 
 43692.65567		 305.27265			43387.38302		65.13400		324.00000 
 43692.65567		 740.62630			42952.02937		219.06200		875.00000 
 43692.65567		 305.27265			43387.38302		65.13400		324.00000 
 43692.65567		 740.62630			42952.02937		219.06200		875.00000 
 43692.65567		 305.27265			43387.38302		65.13400		324.00000 
 43692.65567		 740.62630			42952.02937		219.06200		875.00000 
 43692.65567		 305.27265			43387.38302		65.13400		324.00000 
 43692.65567		 740.62630			42952.02937		219.06200		875.00000 
 43692.65567		 305.27265			43387.38302		65.13400		324.00000 
 43692.65567		 740.62630			42952.02937		219.06200		875.00000 
 43692.65567		 305.27265			43387.38302		65.13400		324.00000 
 43692.65567		 740.62630			42952.02937		219.06200		875.00000 
 43692.65567		 305.27265			43387.38302		65.13400		324.00000 
 43692.65567		 740.62630			42952.02937		219.06200		875.00000 
 43692.65567		 305.27265			43387.38302		65.13400		324.00000 
 43692.65567		 740.62630			42952.02937		219.06200		875.00000 
 43692.65567		 305.27265			43387.38302		65.13400		324.00000 
 43692.65567		 740.62630			42952.02937		219.06200		875.00000 
 43692.65567		 305.27265			43387.38302		65.13400		324.00000 
 43692.65567		 740.62630			42952.02937		219.06200		875.00000 
 43692.65567		 305.27265			43387.38302		65.13400		324.00000 
 43692.65567		 740.62630			42952.02937		219.06200		875.00000 
 43692.65567		 305.27265			43387.38302		65.13400		324.00000 
 43692.65567		 740.62630			42952.02937		219.06200		875.00000 
 43692.65567		 305.27265			43387.38302		65.13400		324.00000 
 43692.65567		 740.62630			42952.02937		219.06200		875.00000 
 43692.65567		 305.27265			43387.38302		65.13400		324.00000 
 43692.65567		 740.62630			42952.02937		219.06200		875.00000 
 43692.65567		 305.27265			43387.38302		65.13400		324.00000 
 43692.65567		 740.62630			42952.02937		219.06200		875.00000 
 43692.65567		 305.27265			43387.38302		65.13400		324.00000 
 43692.65567		 740.62630			42952.02937		219.06200		875.00000 
 43692.65567		 305.27265			43387.38302		65.13400		324.00000 
 43692.65567		 740.62630			42952.02937		219.06200		875.00000 
 43692.65567		 305.27265			43387.38302		65.13400		324.00000 
 43692.65567		 740.62630			42952.02937		219.06200		875.00000 
 43692.65567		 305.27265			43387.38302		65.13400		324.00000 
 43692.65567		 740.62630			42952.02937		219.06200		875.00000 
 43692.65567		 305.27265			43387.38302		65.13400		324.00000 
 43692.65567		 740.62630			42952.02937		219.06200		875.00000 
 43692.65567		 305.27265			43387.38302		65.13400		324.00000 
 43692.65567		 740.62630			42952.02937		219.06200		875.00000 
 43692.65567		 305.27265			43387.38302		65.13400		324.00000 
 43692.65567		 740.62630			42952.02937		219.06200		875.00000 
 43692.65567		 305.27265			43387.38302		65.13400		324.00000 
 43692.65567		 740.62630			42952.02937		219.06200		875.00000 
 43692.65567		 305.27265			43387.38302		65.13400		324.00000 
 43692.65567		 740.62630			42952.02937		219.06200		875.00000 
 43692.65567		 305.27265			43387.38302		65.13400		324.00000 
 43692.65567		 740.62630			42952.02937		219.06200		875.00000 
 43692.65567		 305.27265			43387.38302		65.13400		324.00000 
 43692.65567		 740.62630			42952.02937		219.06200		875.00000 
 43692.65567		 305.27265			43387.38302		65.13400		324.00000 
 43692.65567		 740.62630			42952.02937		219.06200		875.00000 
 43692.65567		 305.27265			43387.38302		65.13400		324.00000 
 43692.65567		 740.62630			42952.02937		219.06200		875.00000 
 43692.65567		 305.27265			43387.38302		65.13400		324.00000 
 43692.65567		 740.62630			42952.02937		219.06200		875.00000 
 43692.65567		 305.27265			43387.38302		65.13400		324.00000 
 43692.65567		 740.62630			42952.02937		219.06200		875.00000 
 43692.65567		 305.27265			43387.38302		65.13400		324.00000 
 43692.65567		 740.62630			42952.02937		219.06200		875.00000 
 43692.65567		 305.27265			43387.38302		65.13400		324.00000 
 43692.65567		 740.62630			42952.02937		219.06200		875.00000 
 43692.65567		 305.27265			43387.38302		65.13400		324.00000 
 43692.65567		 740.62630			42952.02937		219.06200		875.00000 
 43692.65567		 305.27265			43387.38302		65.13400		324.00000 
 43692.65567		 740.62630			42952.02937		219.06200		875.00000 
 43692.65567		 305.27265			43387.38302		65.13400		324.00000 
 43692.65567		 740.62630			42952.02937		219.06200		875.00000 
 43692.65567		 305.27265			43387.38302		65.13400		324.00000 
 43692.65567		 740.62630			42952.02937		219.06200		875.00000 
 43692.65567		 305.27265			43387.38302		65.13400		324.00000 
 43692.65567		 740.62630			42952.02937		219.06200		875.00000 
 43692.65567		 305.27265			43387.38302		65.13400		324.00000 
 43692.65567		 740.62630			42952.02937		219.06200		875.00000 
 43692.65567		 305.27265			43387.38302		65.13400		324.00000 
 43692.65567		 740.62630			42952.02937		219.06200		875.00000 
 43692.65567		 305.27265			43387.38302		65.13400		324.00000 
 43692.65567		 740.62630			42952.02937		219.06200		875.00000 
 43692.65567		 305.27265			43387.38302		65.13400		324.00000 
 43692.65567		 740.62630			42952.02937		219.06200		875.00000 
 43692.65567		 305.27265			43387.38302		65.13400		324.00000 
 43692.65567		 740.62630			42952.02937		219.06200		875.00000 
 43692.65567		 305.27265			43387.38302		65.13400		324.00000 
 43692.65567		 740.62630			42952.02937		219.06200		875.00000 
 43692.65567		 305.27265			43387.38302		65.13400		324.00000 
 43692.65567		 740.62630			42952.02937		219.06200		875.00000 
 43692.65567		 305.27265			43387.38302		65.13400		324.00000 
 43692.65567		 740.62630			42952.02937		219.06200		875.00000 
 43692.65567		 305.27265			43387.38302		65.13400		324.00000 
 43692.65567		 740.62630			42952.02937		219.06200		875.00000 
 43692.65567		 305.27265			43387.38302		65.13400		324.00000 
 43692.65567		 740.62630			42952.02937		219.06200		875.00000 
 43692.65567		 305.27265			43387.38302		65.13400		324.00000 
 43692.65567		 740.62630			42952.02937		219.06200		875.00000 
 43692.65567		 305.27265			43387.38302		70.74000		324.00000 
 43692.65567		 740.62630			42952.02937		219.06200		875.00000 
 43692.65567		 305.27265			43387.38302		70.74000		324.00000 
 43692.65567		 740.62630			42952.02937		219.06200		875.00000 
 43692.65567		 305.27265			43387.38302		70.74000		324.00000 
 43692.65567		 740.62630			42952.02937		219.06200		875.00000 
 43692.65567		 305.27265			43387.38302		70.74000		324.00000 
 43692.65567		 740.62630			42952.02937		219.06200		875.00000 
 43692.65567		 305.27265			43387.38302		70.74000		324.00000 
 43692.65567		 740.62630			42952.02937		219.06200		875.00000 
 43692.65567		 305.27265			43387.38302		70.74000		324.00000 
 43692.65567		 740.62630			42952.02937		219.06200		875.00000 
 43692.65567		 305.27265			43387.38302		70.74000		324.00000 
 43692.65567		 740.62630			42952.02937		219.06200		875.00000 
 43692.65567		 305.27265			43387.38302		70.74000		324.00000 
 43692.65567		 740.62630			42952.02937		219.06200		875.00000 
 43692.65567		 305.27265			43387.38302		70.74000		324.00000 
 43692.65567		 740.62630			42952.02937		219.06200		875.00000 
 43692.65567		 305.27265			43387.38302		70.74000		324.00000 
 43692.65567		 740.62630			42952.02937		219.06200		875.00000 
 43692.65567		 305.27265			43387.38302		70.74000		324.00000 
 43692.65567		 740.62630			42952.02937		219.06200		875.00000 
 43692.65567		 305.27265			43387.38302		70.74000		324.00000 
 43692.65567		 740.62630			42952.02937		219.06200		875.00000 
 43692.65567		 305.27265			43387.38302		70.74000		324.00000 
 43692.65567		 740.62630			42952.02937		219.06200		875.00000 
 43692.65567		 305.27265			43387.38302		70.74000		324.00000 
 43692.65567		 740.62630			42952.02937		219.06200		875.00000 
 43692.65567		 305.27265			43387.38302		70.74000		324.00000 
 43692.65567		 740.62630			42952.02937		219.06200		875.00000 
 43692.65567		 305.27265			43387.38302		70.74000		324.00000 
 43692.65567		 740.62630			42952.02937		219.06200		875.00000 
 43692.65567		 305.27265			43387.38302		70.74000		324.00000 
 43692.65567		 740.62630			42952.02937		219.06200		875.00000 
 43692.65567		 305.27265			43387.38302		70.74000		324.00000 
 43692.65567		 740.62630			42952.02937		219.06200		875.00000 
 43692.65567		 305.27265			43387.38302		70.74000		324.00000 
 43692.65567		 740.62630			42952.02937		219.06200		875.00000 
 43692.65567		 305.27265			43387.38302		70.74000		324.00000 
 43692.65567		 740.62630			42952.02937		219.06200		875.00000 
 43692.65567		 305.27265			43387.38302		70.74000		324.00000 
 43692.65567		 740.62630			42952.02937		219.06200		875.00000 
 43692.65567		 305.27265			43387.38302		70.74000		324.00000 
 43692.65567		 740.62630			42952.02937		219.06200		875.00000 
 43692.65567		 305.27265			43387.38302		70.74000		324.00000 
 43692.65567		 740.62630			42952.02937		219.06200		875.00000 
 43692.65567		 305.27265			43387.38302		70.74000		324.00000 
 43692.65567		 740.62630			42952.02937		219.06200		875.00000 
 43692.65567		 305.27265			43387.38302		70.74000		324.00000 
 43692.65567		 740.62630			42952.02937		219.06200		875.00000 
 43692.65567		 305.27265			43387.38302		70.74000		324.00000 
 43692.65567		 740.62630			42952.02937		219.06200		875.00000 
 43692.65567		 305.27265			43387.38302		70.74000		324.00000 
 43692.65567		 740.62630			42952.02937		219.06200		875.00000 
 43692.65567		 305.27265			43387.38302		70.74000		324.00000 
 43692.65567		 740.62630			42952.02937		219.06200		875.00000 
 43692.65567		 305.27265			43387.38302		70.74000		324.00000 
 43692.65567		 740.62630			42952.02937		219.06200		875.00000 
 43692.65567		 305.27265			43387.38302		70.74000		324.00000 
 43692.65567		 740.62630			42952.02937		219.06200		875.00000 
 43692.65567		 305.27265			43387.38302		70.74000		324.00000 
 43692.65567		 740.62630			42952.02937		219.06200		875.00000 
 43692.65567		 305.27265			43387.38302		70.74000		324.00000 
 43692.65567		 740.62630			42952.02937		219.06200		875.00000 
 43692.65567		 305.27265			43387.38302		70.74000		324.00000 
 43692.65567		 740.62630			42952.02937		219.06200		875.00000 
 43692.65567		 305.27265			43387.38302		70.74000		324.00000 
 43692.65567		 740.62630			42952.02937		219.06200		875.00000 
 43692.65567		 305.27265			43387.38302		70.74000		324.00000 
 43692.65567		 740.62630			42952.02937		219.06200		875.00000 
 43692.65567		 305.27265			43387.38302		70.74000		324.00000 
 43692.65567		 740.62630			42952.02937		219.06200		875.00000 
 43692.65567		 305.27265			43387.38302		70.74000		324.00000 
 43692.65567		 740.62630			42952.02937		219.06200		875.00000 
 43692.65567		 305.27265			43387.38302		70.74000		324.00000 
 43692.65567		 740.62630			42952.02937		219.06200		875.00000 
 43692.65567		 305.27265			43387.38302		70.74000		324.00000 
 43692.65567		 740.62630			42952.02937		219.06200		875.00000 
 43692.65567		 305.27265			43387.38302		70.74000		324.00000 
 43692.65567		 740.62630			42952.02937		219.06200		875.00000 
 43692.65567		 305.27265			43387.38302		70.74000		324.00000 
 43692.65567		 740.62630			42952.02937		219.06200		875.00000 
 43692.65567		 305.27265			43387.38302		70.74000		324.00000 
 43692.65567		 740.62630			42952.02937		219.06200		875.00000 
 43692.65567		 305.27265			43387.38302		70.74000		324.00000 
 43692.65567		 740.62630			42952.02937		219.06200		875.00000 
 43692.65567		 305.27265			43387.38302		70.74000		324.00000 
 43692.65567		 740.62630			42952.02937		219.06200		875.00000 
 43692.65567		 305.27265			43387.38302		70.74000		324.00000 
 43692.65567		 740.62630			42952.02937		219.06200		875.00000 
 43692.65567		 305.27265			43387.38302		70.74000		324.00000 
 43692.65567		 740.62630			42952.02937		219.06200		875.00000 
 43692.65567		 305.27265			43387.38302		70.74000		324.00000 
 43692.65567		 740.62630			42952.02937		219.06200		875.00000 
 43692.65567		 305.27265			43387.38302		70.74000		324.00000 
 43692.65567		 740.62630			42952.02937		219.06200		875.00000 
 43692.65567		 305.27265			43387.38302		70.74000		324.00000 
 43692.65567		 740.62630			42952.02937		219.06200		875.00000 
 43692.65567		 305.27265			43387.38302		70.74000		324.00000 
 43692.65567		 740.62630			42952.02937		219.06200		875.00000 
 43692.65567		 305.27265			43387.38302		70.74000		324.00000 
 43692.65567		 740.62630			42952.02937		219.06200		875.00000 
 43692.65567		 305.27265			43387.38302		70.74000		324.00000 
 43692.65567		 740.62630			42952.02937		219.06200		875.00000 
 43692.65567		 305.27265			43387.38302		70.74000		324.00000 
 43692.65567		 740.62630			42952.02937		219.06200		875.00000 
 43692.65567		 305.27265			43387.38302		70.74000		324.00000 
 43692.65567		 740.62630			42952.02937		219.06200		875.00000 
 43692.65567		 305.27265			43387.38302		70.74000		324.00000 
 43692.65567		 740.62630			42952.02937		219.06200		875.00000 
 43692.65567		 305.27265			43387.38302		70.74000		324.00000 
 43692.65567		 740.62630			42952.02937		219.06200		875.00000 
 43692.65567		 305.27265			43387.38302		70.74000		324.00000 
 43692.65567		 740.62630			42952.02937		219.06200		875.00000 
 43692.65567		 305.27265			43387.38302		70.74000		324.00000 
 43692.65567		 740.62630			42952.02937		219.06200		875.00000 
 43692.65567		 305.27265			43387.38302		70.74000		324.00000 
 43692.65567		 740.62630			42952.02937		219.06200		875.00000 
 43692.65567		 305.27265			43387.38302		70.74000		324.00000 
 43692.65567		 740.62630			42952.02937		219.06200		875.00000 
 43692.65567		 305.27265			43387.38302		70.74000		324.00000 
 43692.65567		 740.62630			42952.02937		219.06200		875.00000 
 43692.65567		 305.27265			43387.38302		70.74000		324.00000 
 43692.65567		 740.62630			42952.02937		219.06200		875.00000 
 43692.65567		 305.27265			43387.38302		70.74000		324.00000 
 43692.65567		 740.62630			42952.02937		219.06200		875.00000 
 43692.65567		 305.27265			43387.38302		70.74000		324.00000 
 43692.65567		 740.62630			42952.02937		219.06200		875.00000 
 43692.65567		 305.27265			43387.38302		70.74000		324.00000 
 43692.65567		 740.62630			42952.02937		219.06200		875.00000 
 43692.65567		 305.27265			43387.38302		70.74000		324.00000 
 43692.65567		 740.62630			42952.02937		219.06200		875.00000 
 43692.65567		 305.27265			43387.38302		70.74000		324.00000 
 43692.65567		 740.62630			42952.02937		219.06200		875.00000 
 43692.65567		 305.27265			43387.38302		70.74000		324.00000 
 43692.65567		 740.62630			42952.02937		219.06200		875.00000 
 43692.65567		 305.27265			43387.38302		70.74000		324.00000 
 43692.65567		 740.62630			42952.02937		219.06200		875.00000 
 43692.65567		 305.27265			43387.38302		70.74000		324.00000 
 43692.65567		 740.62630			42952.02937		219.06200		875.00000 
 43692.65567		 305.27265			43387.38302		70.74000		324.00000 
 43692.65567		 740.62630			42952.02937		219.06200		875.00000 
 43692.65567		 305.27265			43387.38302		70.74000		324.00000 
 43692.65567		 740.62630			42952.02937		219.06200		875.00000 
 43692.65567		 305.27265			43387.38302		70.74000		324.00000 
 43692.65567		 740.62630			42952.02937		219.06200		875.00000 
 43692.65567		 305.27265			43387.38302		70.74000		324.00000 
 43692.65567		 740.62630			42952.02937		219.06200		875.00000 
 43692.65567		 305.27265			43387.38302		70.74000		324.00000 
 43692.65567		 740.62630			42952.02937		219.06200		875.00000 
 43692.65567		 305.27265			43387.38302		70.74000		324.00000 
 43692.65567		 740.62630			42952.02937		219.06200		875.00000 
 43692.65567		 305.27265			43387.38302		70.74000		324.00000 
 43692.65567		 740.62630			42952.02937		219.06200		875.00000 
 43692.65567		 305.27265			43387.38302		70.74000		324.00000 
 43692.65567		 740.62630			42952.02937		219.06200		875.00000 
 43692.65567		 305.27265			43387.38302		70.74000		324.00000 
 43692.65567		 740.62630			42952.02937		219.06200		875.00000 
 43692.65567		 305.27265			43387.38302		70.74000		324.00000 
 43692.65567		 740.62630			42952.02937		219.06200		875.00000 
 43692.65567		 305.27265			43387.38302		70.74000		324.00000 
 43692.65567		 740.62630			42952.02937		219.06200		875.00000 
 43692.65567		 305.27265			43387.38302		70.74000		324.00000 
 43692.65567		 740.62630			42952.02937		219.06200		875.00000 
 43692.65567		 305.27265			43387.38302		70.74000		324.00000 
 43692.65567		 740.62630			42952.02937		219.06200		875.00000 
 43692.65567		 305.27265			43387.38302		70.74000		324.00000 
 43692.65567		 740.62630			42952.02937		219.06200		875.00000 
 43692.65567		 305.27265			43387.38302		70.74000		324.00000 
 43692.65567		 740.62630			42952.02937		219.06200		875.00000 
 43692.65567		 305.27265			43387.38302		70.74000		324.00000 
 43692.65567		 740.62630			42952.02937		219.06200		875.00000 
 43692.65567		 305.27265			43387.38302		70.74000		324.00000 
 43692.65567		 740.62630			42952.02937		219.06200		875.00000 
 43692.65567		 305.27265			43387.38302		70.74000		324.00000 
 43692.65567		 740.62630			42952.02937		219.06200		875.00000 
 43692.65567		 305.27265			43387.38302		70.74000		324.00000 
 43692.65567		 740.62630			42952.02937		219.06200		875.00000 
 43692.65567		 305.27265			43387.38302		70.74000		324.00000 
 43692.65567		 740.62630			42952.02937		219.06200		875.00000 
 43692.65567		 305.27265			43387.38302		70.74000		324.00000 
 43692.65567		 740.62630			42952.02937		219.06200		875.00000 
 43692.65567		 305.27265			43387.38302		70.74000		324.00000 
 43692.65567		 740.62630			42952.02937		219.06200		875.00000 
 43692.65567		 305.27265			43387.38302		70.74000		324.00000 
 43692.65567		 740.62630			42952.02937		219.06200		875.00000 
 43692.65567		 305.27265			43387.38302		70.74000		324.00000 
 43692.65567		 740.62630			42952.02937		219.06200		875.00000 
 43692.65567		 305.27265			43387.38302		70.74000		324.00000 
 43692.65567		 740.62630			42952.02937		219.06200		875.00000 
 43692.65567		 305.27265			43387.38302		70.74000		324.00000 
 43692.65567		 740.62630			42952.02937		219.06200		875.00000 
 43692.65567		 305.27265			43387.38302		70.74000		324.00000 
 43692.65567		 740.62630			42952.02937		219.06200		875.00000 
 43692.65567		 305.27265			43387.38302		70.74000		324.00000 
 43692.65567		 740.62630			42952.02937		219.06200		875.00000 
 43692.65567		 305.27265			43387.38302		70.74000		324.00000 
 43692.65567		 740.62630			42952.02937		219.06200		875.00000 
 43692.65567		 305.27265			43387.38302		70.74000		324.00000 
 43692.65567		 740.62630			42952.02937		219.06200		875.00000 
 43692.65567		 305.27265			43387.38302		70.74000		324.00000 
 43692.65567		 740.62630			42952.02937		219.06200		875.00000 
 43692.65567		 305.27265			43387.38302		70.74000		324.00000 
 43692.65567		 740.62630			42952.02937		219.06200		875.00000 
 43692.65567		 305.27265			43387.38302		70.74000		324.00000 
 43692.65567		 740.62630			42952.02937		219.06200		875.00000 
 43692.65567		 305.27265			43387.38302		70.74000		324.00000 
 43692.65567		 672.84098			43019.81470		219.06200		875.00000 
 43692.65567		 305.27265			43387.38302		70.74000		324.00000 
 43692.65567		 605.05565			43087.60002		219.06200		875.00000 
 43692.65567		 305.27265			43387.38302		70.74000		324.00000 
 43692.65567		 537.27032			43155.38535		219.06200		875.00000 
 43692.65567		 305.27265			43387.38302		70.74000		324.00000 
 43692.65567		 537.27032			43155.38535		219.06200		875.00000 
 43692.65567		 305.27265			43387.38302		70.74000		324.00000 
 43692.65567		 537.27032			43155.38535		219.06200		875.00000 
 43692.65567		 305.27265			43387.38302		70.74000		324.00000 
 43692.65567		 537.27032			43155.38535		219.06200		875.00000 
 43692.65567		 305.27265			43387.38302		70.74000		324.00000 
 43692.65567		 537.27032			43155.38535		219.06200		875.00000 
 43692.65567		 305.27265			43387.38302		70.74000		324.00000 
 43692.65567		 537.27032			43155.38535		219.06200		875.00000 
 43692.65567		 305.27265			43387.38302		70.74000		324.00000 
 43692.65567		 537.27032			43155.38535		219.06200		875.00000 
 43692.65567		 305.27265			43387.38302		70.74000		324.00000 
 43692.65567		 537.27032			43155.38535		219.06200		875.00000 
 43692.65567		 305.27265			43387.38302		70.74000		324.00000 
 43692.65567		 537.27032			43155.38535		219.06200		875.00000 
 43692.65567		 305.27265			43387.38302		70.74000		324.00000 
 43692.65567		 537.27032			43155.38535		219.06200		875.00000 
 43692.65567		 305.27265			43387.38302		70.74000		324.00000 
 43692.65567		 537.27032			43155.38535		219.06200		875.00000 
 43692.65567		 305.27265			43387.38302		70.74000		324.00000 
 43692.65567		 537.27032			43155.38535		219.06200		875.00000 
 43692.65567		 305.27265			43387.38302		70.74000		324.00000 
 43692.65567		 537.27032			43155.38535		219.06200		875.00000 
 43692.65567		 305.27265			43387.38302		70.74000		324.00000 
 43692.65567		 537.27032			43155.38535		219.06200		875.00000 
 43692.65567		 305.27265			43387.38302		70.74000		324.00000 
 43692.65567		 537.27032			43155.38535		219.06200		875.00000 
 43692.65567		 305.27265			43387.38302		70.74000		324.00000 
 43692.65567		 537.27032			43155.38535		219.06200		875.00000 
 43692.65567		 305.27265			43387.38302		70.74000		324.00000 
 43692.65567		 537.27032			43155.38535		192.98800		875.00000 
 43692.65567		 305.27265			43387.38302		70.74000		324.00000 
 43692.65567		 537.27032			43155.38535		192.98800		875.00000 
 43692.65567		 305.27265			43387.38302		70.74000		324.00000 
 43692.65567		 537.27032			43155.38535		192.98800		875.00000 
 43692.65567		 305.27265			43387.38302		70.74000		324.00000 
 43692.65567		 537.27032			43155.38535		192.98800		875.00000 
 43692.65567		 305.27265			43387.38302		70.74000		324.00000 
 43692.65567		 537.27032			43155.38535		192.98800		875.00000 
 43692.65567		 305.27265			43387.38302		70.74000		324.00000 
 43692.65567		 525.81365			43166.84203		192.98800		875.00000 
 43692.65567		 305.27265			43387.38302		70.74000		324.00000 
 43692.65567		 525.81365			43166.84203		192.98800		875.00000 
 43692.65567		 261.35540			43431.30027		70.74000		324.00000 
 43692.65567		 261.35540			43431.30027		192.98800		875.00000 
 43692.65567		 261.35540			43431.30027		70.74000		324.00000 
