Memory Total (MiB) 	 Memory Used (MiB) 	    Memory Free (MiB) 	 Power Drawed (W) 	 Clocks (Mhz) 	 
 43692.65567		 261.35540			43431.30027		175.75400		875.00000 
 43692.65567		 261.35540			43431.30027		68.20000		324.00000 
 43692.65567		 261.35540			43431.30027		175.75400		875.00000 
 43692.65567		 261.35540			43431.30027		68.20000		324.00000 
 43692.65567		 261.35540			43431.30027		175.75400		875.00000 
 43692.65567		 261.35540			43431.30027		68.20000		324.00000 
 43692.65567		 261.35540			43431.30027		175.75400		875.00000 
 43692.65567		 261.35540			43431.30027		68.20000		324.00000 
 43692.65567		 261.35540			43431.30027		175.75400		875.00000 
 43692.65567		 261.35540			43431.30027		68.20000		324.00000 
 43692.65567		 261.35540			43431.30027		175.75400		875.00000 
 43692.65567		 261.35540			43431.30027		68.20000		324.00000 
 43692.65567		 261.35540			43431.30027		175.75400		875.00000 
 43692.65567		 261.35540			43431.30027		68.20000		324.00000 
 43692.65567		 261.35540			43431.30027		175.75400		875.00000 
 43692.65567		 261.35540			43431.30027		68.20000		324.00000 
 43692.65567		 261.35540			43431.30027		175.75400		875.00000 
 43692.65567		 261.35540			43431.30027		68.20000		324.00000 
 43692.65567		 261.35540			43431.30027		175.75400		875.00000 
 43692.65567		 261.35540			43431.30027		68.20000		324.00000 
 43692.65567		 261.35540			43431.30027		175.75400		875.00000 
 43692.65567		 261.35540			43431.30027		68.20000		324.00000 
 43692.65567		 261.35540			43431.30027		175.75400		875.00000 
 43692.65567		 261.35540			43431.30027		68.20000		324.00000 
 43692.65567		 261.35540			43431.30027		175.75400		875.00000 
 43692.65567		 261.35540			43431.30027		68.20000		324.00000 
 43692.65567		 261.35540			43431.30027		175.75400		875.00000 
 43692.65567		 261.35540			43431.30027		68.20000		324.00000 
 43692.65567		 261.35540			43431.30027		175.75400		875.00000 
 43692.65567		 261.35540			43431.30027		68.20000		324.00000 
 43692.65567		 261.35540			43431.30027		175.75400		875.00000 
 43692.65567		 261.35540			43431.30027		68.20000		324.00000 
 43692.65567		 261.35540			43431.30027		175.75400		875.00000 
 43692.65567		 261.35540			43431.30027		68.20000		324.00000 
 43692.65567		 261.35540			43431.30027		175.75400		875.00000 
 43692.65567		 261.35540			43431.30027		68.20000		324.00000 
 43692.65567		 261.35540			43431.30027		175.75400		875.00000 
 43692.65567		 261.35540			43431.30027		68.20000		324.00000 
 43692.65567		 265.17429			43427.48138		175.75400		875.00000 
 43692.65567		 261.35540			43431.30027		68.20000		324.00000 
 43692.65567		 272.81207			43419.84360		175.75400		875.00000 
 43692.65567		 261.35540			43431.30027		68.20000		324.00000 
 43692.65567		 272.81207			43419.84360		175.75400		875.00000 
 43692.65567		 261.35540			43431.30027		68.20000		324.00000 
 43692.65567		 272.81207			43419.84360		175.75400		875.00000 
 43692.65567		 265.17429			43427.48138		68.20000		324.00000 
 43692.65567		 272.81207			43419.84360		175.75400		875.00000 
 43692.65567		 265.17429			43427.48138		68.20000		324.00000 
 43692.65567		 272.81207			43419.84360		148.09800		875.00000 
 43692.65567		 265.17429			43427.48138		68.20000		324.00000 
 43692.65567		 272.81207			43419.84360		148.09800		875.00000 
 43692.65567		 272.81207			43419.84360		68.20000		324.00000 
 43692.65567		 272.81207			43419.84360		148.09800		875.00000 
 43692.65567		 272.81207			43419.84360		68.20000		324.00000 
 43692.65567		 272.81207			43419.84360		148.09800		875.00000 
 43692.65567		 272.81207			43419.84360		68.20000		324.00000 
 43692.65567		 305.27265			43387.38302		148.09800		875.00000 
 43692.65567		 305.27265			43387.38302		68.20000		324.00000 
 43692.65567		 305.27265			43387.38302		148.09800		875.00000 
 43692.65567		 305.27265			43387.38302		68.20000		324.00000 
 43692.65567		 305.27265			43387.38302		148.09800		875.00000 
 43692.65567		 305.27265			43387.38302		68.20000		324.00000 
 43692.65567		 305.27265			43387.38302		148.09800		875.00000 
 43692.65567		 305.27265			43387.38302		68.20000		324.00000 
 43692.65567		 305.27265			43387.38302		148.09800		875.00000 
 43692.65567		 305.27265			43387.38302		68.20000		324.00000 
 43692.65567		 309.56891			43383.08677		148.09800		875.00000 
 43692.65567		 305.27265			43387.38302		68.20000		324.00000 
 43692.65567		 311.00099			43381.65468		148.09800		875.00000 
 43692.65567		 305.27265			43387.38302		68.20000		324.00000 
 43692.65567		 311.00099			43381.65468		148.09800		875.00000 
 43692.65567		 305.27265			43387.38302		68.20000		324.00000 
 43692.65567		 311.00099			43381.65468		148.09800		875.00000 
 43692.65567		 305.27265			43387.38302		68.20000		324.00000 
 43692.65567		 311.00099			43381.65468		148.09800		875.00000 
 43692.65567		 305.27265			43387.38302		68.20000		324.00000 
 43692.65567		 311.00099			43381.65468		148.09800		875.00000 
 43692.65567		 305.27265			43387.38302		68.20000		324.00000 
 43692.65567		 311.00099			43381.65468		148.09800		875.00000 
 43692.65567		 305.27265			43387.38302		68.20000		324.00000 
 43692.65567		 311.00099			43381.65468		148.09800		875.00000 
 43692.65567		 305.27265			43387.38302		68.20000		324.00000 
 43692.65567		 311.00099			43381.65468		148.09800		875.00000 
 43692.65567		 305.27265			43387.38302		68.20000		324.00000 
 43692.65567		 311.00099			43381.65468		148.09800		875.00000 
 43692.65567		 305.27265			43387.38302		68.20000		324.00000 
 43692.65567		 311.00099			43381.65468		148.09800		875.00000 
 43692.65567		 305.27265			43387.38302		68.20000		324.00000 
 43692.65567		 311.00099			43381.65468		148.09800		875.00000 
 43692.65567		 305.27265			43387.38302		68.20000		324.00000 
 43692.65567		 311.00099			43381.65468		148.09800		875.00000 
 43692.65567		 305.27265			43387.38302		68.20000		324.00000 
 43692.65567		 311.00099			43381.65468		148.09800		875.00000 
 43692.65567		 305.27265			43387.38302		68.20000		324.00000 
 43692.65567		 311.00099			43381.65468		148.09800		875.00000 
 43692.65567		 305.27265			43387.38302		68.20000		324.00000 
 43692.65567		 311.00099			43381.65468		148.09800		875.00000 
 43692.65567		 305.27265			43387.38302		68.20000		324.00000 
 43692.65567		 311.00099			43381.65468		148.09800		875.00000 
 43692.65567		 305.27265			43387.38302		68.20000		324.00000 
 43692.65567		 311.00099			43381.65468		148.09800		875.00000 
 43692.65567		 305.27265			43387.38302		68.20000		324.00000 
 43692.65567		 311.00099			43381.65468		148.09800		875.00000 
 43692.65567		 305.27265			43387.38302		68.20000		324.00000 
 43692.65567		 311.00099			43381.65468		148.09800		875.00000 
 43692.65567		 305.27265			43387.38302		68.20000		324.00000 
 43692.65567		 311.00099			43381.65468		148.09800		875.00000 
 43692.65567		 305.27265			43387.38302		68.20000		324.00000 
 43692.65567		 311.00099			43381.65468		148.09800		875.00000 
 43692.65567		 305.27265			43387.38302		68.20000		324.00000 
 43692.65567		 311.00099			43381.65468		148.09800		875.00000 
 43692.65567		 305.27265			43387.38302		68.20000		324.00000 
 43692.65567		 311.00099			43381.65468		148.09800		875.00000 
 43692.65567		 305.27265			43387.38302		68.20000		324.00000 
 43692.65567		 311.00099			43381.65468		148.09800		875.00000 
 43692.65567		 305.27265			43387.38302		68.20000		324.00000 
 43692.65567		 311.00099			43381.65468		148.09800		875.00000 
 43692.65567		 305.27265			43387.38302		68.20000		324.00000 
 43692.65567		 311.00099			43381.65468		138.68600		875.00000 
 43692.65567		 305.27265			43387.38302		68.20000		324.00000 
 43692.65567		 311.00099			43381.65468		138.68600		875.00000 
 43692.65567		 305.27265			43387.38302		68.20000		324.00000 
 43692.65567		 311.00099			43381.65468		138.68600		875.00000 
 43692.65567		 305.27265			43387.38302		68.20000		324.00000 
 43692.65567		 311.00099			43381.65468		138.68600		875.00000 
 43692.65567		 305.27265			43387.38302		68.20000		324.00000 
 43692.65567		 311.00099			43381.65468		138.68600		875.00000 
 43692.65567		 305.27265			43387.38302		68.20000		324.00000 
 43692.65567		 311.00099			43381.65468		138.68600		875.00000 
 43692.65567		 305.27265			43387.38302		68.20000		324.00000 
 43692.65567		 311.00099			43381.65468		138.68600		875.00000 
 43692.65567		 305.27265			43387.38302		68.20000		324.00000 
 43692.65567		 311.00099			43381.65468		138.68600		875.00000 
 43692.65567		 305.27265			43387.38302		68.20000		324.00000 
 43692.65567		 311.00099			43381.65468		138.68600		875.00000 
 43692.65567		 305.27265			43387.38302		68.20000		324.00000 
 43692.65567		 311.00099			43381.65468		138.68600		875.00000 
 43692.65567		 305.27265			43387.38302		68.20000		324.00000 
 43692.65567		 311.00099			43381.65468		138.68600		875.00000 
 43692.65567		 305.27265			43387.38302		68.20000		324.00000 
 43692.65567		 311.00099			43381.65468		138.68600		875.00000 
 43692.65567		 305.27265			43387.38302		68.20000		324.00000 
 43692.65567		 311.00099			43381.65468		138.68600		875.00000 
 43692.65567		 305.27265			43387.38302		68.20000		324.00000 
 43692.65567		 311.00099			43381.65468		138.68600		875.00000 
 43692.65567		 305.27265			43387.38302		68.20000		324.00000 
 43692.65567		 311.00099			43381.65468		138.68600		875.00000 
 43692.65567		 305.27265			43387.38302		68.20000		324.00000 
 43692.65567		 311.00099			43381.65468		138.68600		875.00000 
 43692.65567		 305.27265			43387.38302		68.20000		324.00000 
 43692.65567		 311.00099			43381.65468		138.68600		875.00000 
 43692.65567		 305.27265			43387.38302		68.20000		324.00000 
 43692.65567		 311.00099			43381.65468		138.68600		875.00000 
 43692.65567		 305.27265			43387.38302		68.20000		324.00000 
 43692.65567		 311.00099			43381.65468		138.68600		875.00000 
 43692.65567		 305.27265			43387.38302		68.20000		324.00000 
 43692.65567		 311.00099			43381.65468		138.68600		875.00000 
 43692.65567		 305.27265			43387.38302		68.20000		324.00000 
 43692.65567		 311.00099			43381.65468		138.68600		875.00000 
 43692.65567		 305.27265			43387.38302		68.20000		324.00000 
 43692.65567		 311.00099			43381.65468		138.68600		875.00000 
 43692.65567		 305.27265			43387.38302		68.20000		324.00000 
 43692.65567		 311.00099			43381.65468		138.68600		875.00000 
 43692.65567		 305.27265			43387.38302		68.20000		324.00000 
 43692.65567		 311.00099			43381.65468		138.68600		875.00000 
 43692.65567		 305.27265			43387.38302		68.20000		324.00000 
 43692.65567		 311.00099			43381.65468		138.68600		875.00000 
 43692.65567		 305.27265			43387.38302		68.20000		324.00000 
 43692.65567		 314.81988			43377.83579		138.68600		875.00000 
 43692.65567		 305.27265			43387.38302		68.20000		324.00000 
 43692.65567		 314.81988			43377.83579		138.68600		875.00000 
 43692.65567		 305.27265			43387.38302		68.20000		324.00000 
 43692.65567		 314.81988			43377.83579		138.68600		875.00000 
 43692.65567		 305.27265			43387.38302		68.20000		324.00000 
 43692.65567		 318.63877			43374.01690		138.68600		875.00000 
 43692.65567		 305.27265			43387.38302		68.20000		324.00000 
 43692.65567		 322.45767			43370.19801		138.68600		875.00000 
 43692.65567		 305.27265			43387.38302		68.20000		324.00000 
 43692.65567		 326.27656			43366.37912		138.68600		875.00000 
 43692.65567		 305.27265			43387.38302		68.20000		324.00000 
 43692.65567		 326.27656			43366.37912		138.68600		875.00000 
 43692.65567		 305.27265			43387.38302		68.20000		324.00000 
 43692.65567		 537.27032			43155.38535		134.07200		875.00000 
 43692.65567		 305.27265			43387.38302		68.20000		324.00000 
 43692.65567		 537.27032			43155.38535		134.07200		875.00000 
 43692.65567		 305.27265			43387.38302		68.20000		324.00000 
 43692.65567		 889.56308			42803.09259		134.07200		875.00000 
 43692.65567		 305.27265			43387.38302		68.20000		324.00000 
 43692.65567		 889.56308			42803.09259		134.07200		875.00000 
 43692.65567		 305.27265			43387.38302		68.20000		324.00000 
 43692.65567		 889.56308			42803.09259		134.07200		875.00000 
 43692.65567		 305.27265			43387.38302		68.20000		324.00000 
 43692.65567		 889.56308			42803.09259		134.07200		875.00000 
 43692.65567		 305.27265			43387.38302		68.20000		324.00000 
 43692.65567		 889.56308			42803.09259		134.07200		875.00000 
 43692.65567		 305.27265			43387.38302		68.20000		324.00000 
 43692.65567		 889.56308			42803.09259		134.07200		875.00000 
 43692.65567		 305.27265			43387.38302		68.20000		324.00000 
 43692.65567		 889.56308			42803.09259		134.07200		875.00000 
 43692.65567		 305.27265			43387.38302		68.20000		324.00000 
 43692.65567		 889.56308			42803.09259		134.07200		875.00000 
 43692.65567		 305.27265			43387.38302		68.20000		324.00000 
 43692.65567		 889.56308			42803.09259		134.07200		875.00000 
 43692.65567		 305.27265			43387.38302		68.20000		324.00000 
 43692.65567		 889.56308			42803.09259		134.07200		875.00000 
 43692.65567		 305.27265			43387.38302		68.20000		324.00000 
 43692.65567		 889.56308			42803.09259		134.07200		875.00000 
 43692.65567		 305.27265			43387.38302		68.20000		324.00000 
 43692.65567		 889.56308			42803.09259		134.07200		875.00000 
 43692.65567		 305.27265			43387.38302		68.20000		324.00000 
 43692.65567		 889.56308			42803.09259		134.07200		875.00000 
 43692.65567		 305.27265			43387.38302		68.20000		324.00000 
 43692.65567		 889.56308			42803.09259		134.07200		875.00000 
 43692.65567		 305.27265			43387.38302		68.20000		324.00000 
 43692.65567		 889.56308			42803.09259		134.07200		875.00000 
 43692.65567		 305.27265			43387.38302		68.20000		324.00000 
 43692.65567		 889.56308			42803.09259		134.07200		875.00000 
 43692.65567		 305.27265			43387.38302		68.20000		324.00000 
 43692.65567		 889.56308			42803.09259		134.07200		875.00000 
 43692.65567		 305.27265			43387.38302		68.20000		324.00000 
 43692.65567		 889.56308			42803.09259		134.07200		875.00000 
 43692.65567		 305.27265			43387.38302		68.20000		324.00000 
 43692.65567		 889.56308			42803.09259		134.07200		875.00000 
 43692.65567		 305.27265			43387.38302		68.20000		324.00000 
 43692.65567		 889.56308			42803.09259		134.07200		875.00000 
 43692.65567		 305.27265			43387.38302		68.20000		324.00000 
 43692.65567		 889.56308			42803.09259		134.07200		875.00000 
 43692.65567		 305.27265			43387.38302		68.20000		324.00000 
 43692.65567		 889.56308			42803.09259		134.07200		875.00000 
 43692.65567		 305.27265			43387.38302		68.20000		324.00000 
 43692.65567		 889.56308			42803.09259		134.07200		875.00000 
 43692.65567		 305.27265			43387.38302		68.20000		324.00000 
 43692.65567		 889.56308			42803.09259		134.07200		875.00000 
 43692.65567		 305.27265			43387.38302		68.20000		324.00000 
 43692.65567		 889.56308			42803.09259		134.07200		875.00000 
 43692.65567		 305.27265			43387.38302		68.20000		324.00000 
 43692.65567		 889.56308			42803.09259		134.07200		875.00000 
 43692.65567		 305.27265			43387.38302		68.20000		324.00000 
 43692.65567		 889.56308			42803.09259		134.07200		875.00000 
 43692.65567		 305.27265			43387.38302		68.20000		324.00000 
 43692.65567		 889.56308			42803.09259		134.07200		875.00000 
 43692.65567		 305.27265			43387.38302		68.20000		324.00000 
 43692.65567		 889.56308			42803.09259		134.07200		875.00000 
 43692.65567		 305.27265			43387.38302		68.20000		324.00000 
 43692.65567		 889.56308			42803.09259		134.07200		875.00000 
 43692.65567		 305.27265			43387.38302		68.20000		324.00000 
 43692.65567		 889.56308			42803.09259		134.07200		875.00000 
 43692.65567		 305.27265			43387.38302		68.20000		324.00000 
 43692.65567		 889.56308			42803.09259		134.07200		875.00000 
 43692.65567		 305.27265			43387.38302		68.20000		324.00000 
 43692.65567		 889.56308			42803.09259		134.07200		875.00000 
 43692.65567		 305.27265			43387.38302		68.20000		324.00000 
 43692.65567		 889.56308			42803.09259		134.07200		875.00000 
 43692.65567		 305.27265			43387.38302		68.20000		324.00000 
 43692.65567		 889.56308			42803.09259		134.07200		875.00000 
 43692.65567		 305.27265			43387.38302		68.20000		324.00000 
 43692.65567		 889.56308			42803.09259		134.07200		875.00000 
 43692.65567		 305.27265			43387.38302		68.20000		324.00000 
 43692.65567		 889.56308			42803.09259		134.07200		875.00000 
 43692.65567		 305.27265			43387.38302		68.20000		324.00000 
 43692.65567		 889.56308			42803.09259		134.07200		875.00000 
 43692.65567		 305.27265			43387.38302		68.20000		324.00000 
 43692.65567		 889.56308			42803.09259		134.07200		875.00000 
 43692.65567		 305.27265			43387.38302		68.20000		324.00000 
 43692.65567		 889.56308			42803.09259		134.07200		875.00000 
 43692.65567		 305.27265			43387.38302		68.20000		324.00000 
 43692.65567		 889.56308			42803.09259		134.07200		875.00000 
 43692.65567		 305.27265			43387.38302		68.20000		324.00000 
 43692.65567		 889.56308			42803.09259		134.07200		875.00000 
 43692.65567		 305.27265			43387.38302		68.20000		324.00000 
 43692.65567		 889.56308			42803.09259		134.07200		875.00000 
 43692.65567		 305.27265			43387.38302		68.20000		324.00000 
 43692.65567		 889.56308			42803.09259		134.07200		875.00000 
 43692.65567		 305.27265			43387.38302		68.20000		324.00000 
 43692.65567		 889.56308			42803.09259		134.07200		875.00000 
 43692.65567		 305.27265			43387.38302		68.20000		324.00000 
 43692.65567		 889.56308			42803.09259		134.07200		875.00000 
 43692.65567		 305.27265			43387.38302		68.20000		324.00000 
 43692.65567		 889.56308			42803.09259		134.07200		875.00000 
 43692.65567		 305.27265			43387.38302		68.20000		324.00000 
 43692.65567		 889.56308			42803.09259		134.07200		875.00000 
 43692.65567		 305.27265			43387.38302		68.20000		324.00000 
 43692.65567		 889.56308			42803.09259		134.07200		875.00000 
 43692.65567		 305.27265			43387.38302		68.20000		324.00000 
 43692.65567		 889.56308			42803.09259		134.07200		875.00000 
 43692.65567		 305.27265			43387.38302		68.20000		324.00000 
 43692.65567		 889.56308			42803.09259		134.07200		875.00000 
 43692.65567		 305.27265			43387.38302		68.20000		324.00000 
 43692.65567		 889.56308			42803.09259		134.07200		875.00000 
 43692.65567		 305.27265			43387.38302		68.20000		324.00000 
 43692.65567		 889.56308			42803.09259		134.07200		875.00000 
 43692.65567		 305.27265			43387.38302		68.20000		324.00000 
 43692.65567		 889.56308			42803.09259		134.07200		875.00000 
 43692.65567		 305.27265			43387.38302		68.20000		324.00000 
 43692.65567		 889.56308			42803.09259		134.07200		875.00000 
 43692.65567		 305.27265			43387.38302		68.20000		324.00000 
 43692.65567		 889.56308			42803.09259		134.07200		875.00000 
 43692.65567		 305.27265			43387.38302		68.20000		324.00000 
 43692.65567		 889.56308			42803.09259		134.07200		875.00000 
 43692.65567		 305.27265			43387.38302		68.20000		324.00000 
 43692.65567		 889.56308			42803.09259		134.07200		875.00000 
 43692.65567		 305.27265			43387.38302		68.20000		324.00000 
 43692.65567		 889.56308			42803.09259		134.07200		875.00000 
 43692.65567		 305.27265			43387.38302		68.20000		324.00000 
 43692.65567		 889.56308			42803.09259		134.07200		875.00000 
 43692.65567		 305.27265			43387.38302		68.20000		324.00000 
 43692.65567		 889.56308			42803.09259		134.07200		875.00000 
 43692.65567		 305.27265			43387.38302		68.20000		324.00000 
 43692.65567		 889.56308			42803.09259		187.58000		875.00000 
 43692.65567		 305.27265			43387.38302		68.20000		324.00000 
 43692.65567		 889.56308			42803.09259		187.58000		875.00000 
 43692.65567		 305.27265			43387.38302		68.20000		324.00000 
 43692.65567		 889.56308			42803.09259		187.58000		875.00000 
 43692.65567		 305.27265			43387.38302		68.20000		324.00000 
 43692.65567		 889.56308			42803.09259		187.58000		875.00000 
 43692.65567		 305.27265			43387.38302		68.20000		324.00000 
 43692.65567		 889.56308			42803.09259		187.58000		875.00000 
 43692.65567		 305.27265			43387.38302		68.20000		324.00000 
 43692.65567		 889.56308			42803.09259		187.58000		875.00000 
 43692.65567		 305.27265			43387.38302		68.20000		324.00000 
 43692.65567		 889.56308			42803.09259		187.58000		875.00000 
 43692.65567		 305.27265			43387.38302		68.20000		324.00000 
 43692.65567		 889.56308			42803.09259		187.58000		875.00000 
 43692.65567		 305.27265			43387.38302		68.20000		324.00000 
 43692.65567		 889.56308			42803.09259		187.58000		875.00000 
 43692.65567		 305.27265			43387.38302		68.20000		324.00000 
 43692.65567		 889.56308			42803.09259		187.58000		875.00000 
 43692.65567		 305.27265			43387.38302		68.20000		324.00000 
 43692.65567		 889.56308			42803.09259		187.58000		875.00000 
 43692.65567		 305.27265			43387.38302		68.20000		324.00000 
 43692.65567		 889.56308			42803.09259		187.58000		875.00000 
 43692.65567		 305.27265			43387.38302		68.20000		324.00000 
 43692.65567		 889.56308			42803.09259		187.58000		875.00000 
 43692.65567		 305.27265			43387.38302		68.20000		324.00000 
 43692.65567		 889.56308			42803.09259		187.58000		875.00000 
 43692.65567		 305.27265			43387.38302		68.20000		324.00000 
 43692.65567		 889.56308			42803.09259		187.58000		875.00000 
 43692.65567		 305.27265			43387.38302		68.20000		324.00000 
 43692.65567		 889.56308			42803.09259		187.58000		875.00000 
 43692.65567		 305.27265			43387.38302		68.20000		324.00000 
 43692.65567		 889.56308			42803.09259		187.58000		875.00000 
 43692.65567		 305.27265			43387.38302		68.20000		324.00000 
 43692.65567		 889.56308			42803.09259		187.58000		875.00000 
 43692.65567		 305.27265			43387.38302		68.20000		324.00000 
 43692.65567		 889.56308			42803.09259		187.58000		875.00000 
 43692.65567		 305.27265			43387.38302		68.20000		324.00000 
 43692.65567		 889.56308			42803.09259		187.58000		875.00000 
 43692.65567		 305.27265			43387.38302		68.20000		324.00000 
 43692.65567		 889.56308			42803.09259		187.58000		875.00000 
 43692.65567		 305.27265			43387.38302		68.20000		324.00000 
 43692.65567		 889.56308			42803.09259		187.58000		875.00000 
 43692.65567		 305.27265			43387.38302		68.20000		324.00000 
 43692.65567		 889.56308			42803.09259		187.58000		875.00000 
 43692.65567		 305.27265			43387.38302		68.20000		324.00000 
 43692.65567		 889.56308			42803.09259		187.58000		875.00000 
 43692.65567		 305.27265			43387.38302		68.20000		324.00000 
 43692.65567		 889.56308			42803.09259		187.58000		875.00000 
 43692.65567		 305.27265			43387.38302		68.20000		324.00000 
 43692.65567		 889.56308			42803.09259		187.58000		875.00000 
 43692.65567		 305.27265			43387.38302		68.20000		324.00000 
 43692.65567		 889.56308			42803.09259		187.58000		875.00000 
 43692.65567		 305.27265			43387.38302		68.20000		324.00000 
 43692.65567		 889.56308			42803.09259		187.58000		875.00000 
 43692.65567		 305.27265			43387.38302		68.20000		324.00000 
 43692.65567		 889.56308			42803.09259		187.58000		875.00000 
 43692.65567		 305.27265			43387.38302		68.20000		324.00000 
 43692.65567		 889.56308			42803.09259		187.58000		875.00000 
 43692.65567		 305.27265			43387.38302		68.20000		324.00000 
 43692.65567		 889.56308			42803.09259		187.58000		875.00000 
 43692.65567		 305.27265			43387.38302		68.20000		324.00000 
 43692.65567		 889.56308			42803.09259		187.58000		875.00000 
 43692.65567		 305.27265			43387.38302		68.20000		324.00000 
 43692.65567		 889.56308			42803.09259		187.58000		875.00000 
 43692.65567		 305.27265			43387.38302		68.20000		324.00000 
 43692.65567		 889.56308			42803.09259		187.58000		875.00000 
 43692.65567		 305.27265			43387.38302		68.20000		324.00000 
 43692.65567		 889.56308			42803.09259		187.58000		875.00000 
 43692.65567		 305.27265			43387.38302		68.20000		324.00000 
 43692.65567		 889.56308			42803.09259		187.58000		875.00000 
 43692.65567		 305.27265			43387.38302		68.20000		324.00000 
 43692.65567		 889.56308			42803.09259		187.58000		875.00000 
 43692.65567		 305.27265			43387.38302		68.20000		324.00000 
 43692.65567		 889.56308			42803.09259		187.58000		875.00000 
 43692.65567		 305.27265			43387.38302		68.20000		324.00000 
 43692.65567		 889.56308			42803.09259		187.58000		875.00000 
 43692.65567		 305.27265			43387.38302		68.20000		324.00000 
 43692.65567		 889.56308			42803.09259		187.58000		875.00000 
 43692.65567		 305.27265			43387.38302		68.20000		324.00000 
 43692.65567		 889.56308			42803.09259		187.58000		875.00000 
 43692.65567		 305.27265			43387.38302		68.20000		324.00000 
 43692.65567		 889.56308			42803.09259		187.58000		875.00000 
 43692.65567		 305.27265			43387.38302		68.20000		324.00000 
 43692.65567		 889.56308			42803.09259		187.58000		875.00000 
 43692.65567		 305.27265			43387.38302		68.20000		324.00000 
 43692.65567		 889.56308			42803.09259		187.58000		875.00000 
 43692.65567		 305.27265			43387.38302		68.20000		324.00000 
 43692.65567		 889.56308			42803.09259		187.58000		875.00000 
 43692.65567		 305.27265			43387.38302		68.20000		324.00000 
 43692.65567		 889.56308			42803.09259		187.58000		875.00000 
 43692.65567		 305.27265			43387.38302		68.20000		324.00000 
 43692.65567		 889.56308			42803.09259		187.58000		875.00000 
 43692.65567		 305.27265			43387.38302		68.20000		324.00000 
 43692.65567		 889.56308			42803.09259		187.58000		875.00000 
 43692.65567		 305.27265			43387.38302		68.20000		324.00000 
 43692.65567		 889.56308			42803.09259		187.58000		875.00000 
 43692.65567		 305.27265			43387.38302		68.20000		324.00000 
 43692.65567		 889.56308			42803.09259		187.58000		875.00000 
 43692.65567		 305.27265			43387.38302		68.20000		324.00000 
 43692.65567		 889.56308			42803.09259		187.58000		875.00000 
 43692.65567		 305.27265			43387.38302		68.20000		324.00000 
 43692.65567		 889.56308			42803.09259		187.58000		875.00000 
 43692.65567		 305.27265			43387.38302		68.20000		324.00000 
 43692.65567		 889.56308			42803.09259		187.58000		875.00000 
 43692.65567		 305.27265			43387.38302		68.20000		324.00000 
 43692.65567		 889.56308			42803.09259		187.58000		875.00000 
 43692.65567		 305.27265			43387.38302		68.20000		324.00000 
 43692.65567		 889.56308			42803.09259		187.58000		875.00000 
 43692.65567		 305.27265			43387.38302		68.20000		324.00000 
 43692.65567		 889.56308			42803.09259		187.58000		875.00000 
 43692.65567		 305.27265			43387.38302		68.20000		324.00000 
 43692.65567		 889.56308			42803.09259		187.58000		875.00000 
 43692.65567		 305.27265			43387.38302		68.20000		324.00000 
 43692.65567		 889.56308			42803.09259		187.58000		875.00000 
 43692.65567		 305.27265			43387.38302		68.20000		324.00000 
 43692.65567		 889.56308			42803.09259		187.58000		875.00000 
 43692.65567		 305.27265			43387.38302		68.20000		324.00000 
 43692.65567		 889.56308			42803.09259		187.58000		875.00000 
 43692.65567		 305.27265			43387.38302		68.20000		324.00000 
 43692.65567		 889.56308			42803.09259		187.58000		875.00000 
 43692.65567		 305.27265			43387.38302		68.20000		324.00000 
 43692.65567		 889.56308			42803.09259		187.58000		875.00000 
 43692.65567		 305.27265			43387.38302		68.20000		324.00000 
 43692.65567		 889.56308			42803.09259		187.58000		875.00000 
 43692.65567		 305.27265			43387.38302		68.20000		324.00000 
 43692.65567		 889.56308			42803.09259		187.58000		875.00000 
 43692.65567		 305.27265			43387.38302		68.20000		324.00000 
 43692.65567		 889.56308			42803.09259		187.58000		875.00000 
 43692.65567		 305.27265			43387.38302		68.20000		324.00000 
 43692.65567		 889.56308			42803.09259		211.55400		875.00000 
 43692.65567		 305.27265			43387.38302		68.20000		324.00000 
 43692.65567		 889.56308			42803.09259		211.55400		875.00000 
 43692.65567		 305.27265			43387.38302		68.20000		324.00000 
 43692.65567		 889.56308			42803.09259		211.55400		875.00000 
 43692.65567		 305.27265			43387.38302		68.20000		324.00000 
 43692.65567		 889.56308			42803.09259		211.55400		875.00000 
 43692.65567		 305.27265			43387.38302		68.20000		324.00000 
 43692.65567		 889.56308			42803.09259		211.55400		875.00000 
 43692.65567		 305.27265			43387.38302		68.20000		324.00000 
 43692.65567		 889.56308			42803.09259		211.55400		875.00000 
 43692.65567		 305.27265			43387.38302		68.20000		324.00000 
 43692.65567		 889.56308			42803.09259		211.55400		875.00000 
 43692.65567		 305.27265			43387.38302		68.20000		324.00000 
 43692.65567		 889.56308			42803.09259		211.55400		875.00000 
 43692.65567		 305.27265			43387.38302		68.20000		324.00000 
 43692.65567		 889.56308			42803.09259		211.55400		875.00000 
 43692.65567		 305.27265			43387.38302		68.20000		324.00000 
 43692.65567		 889.56308			42803.09259		211.55400		875.00000 
 43692.65567		 305.27265			43387.38302		68.20000		324.00000 
 43692.65567		 889.56308			42803.09259		211.55400		875.00000 
 43692.65567		 305.27265			43387.38302		68.20000		324.00000 
 43692.65567		 889.56308			42803.09259		211.55400		875.00000 
 43692.65567		 305.27265			43387.38302		68.20000		324.00000 
 43692.65567		 889.56308			42803.09259		211.55400		875.00000 
 43692.65567		 305.27265			43387.38302		68.20000		324.00000 
 43692.65567		 889.56308			42803.09259		211.55400		875.00000 
 43692.65567		 305.27265			43387.38302		68.20000		324.00000 
 43692.65567		 889.56308			42803.09259		211.55400		875.00000 
 43692.65567		 305.27265			43387.38302		68.20000		324.00000 
 43692.65567		 889.56308			42803.09259		211.55400		875.00000 
 43692.65567		 305.27265			43387.38302		68.20000		324.00000 
 43692.65567		 889.56308			42803.09259		211.55400		875.00000 
 43692.65567		 305.27265			43387.38302		68.20000		324.00000 
 43692.65567		 889.56308			42803.09259		211.55400		875.00000 
 43692.65567		 305.27265			43387.38302		68.20000		324.00000 
 43692.65567		 889.56308			42803.09259		211.55400		875.00000 
 43692.65567		 305.27265			43387.38302		68.20000		324.00000 
 43692.65567		 889.56308			42803.09259		211.55400		875.00000 
 43692.65567		 305.27265			43387.38302		68.20000		324.00000 
 43692.65567		 889.56308			42803.09259		211.55400		875.00000 
 43692.65567		 305.27265			43387.38302		68.20000		324.00000 
 43692.65567		 889.56308			42803.09259		211.55400		875.00000 
 43692.65567		 305.27265			43387.38302		68.20000		324.00000 
 43692.65567		 889.56308			42803.09259		211.55400		875.00000 
 43692.65567		 305.27265			43387.38302		68.20000		324.00000 
 43692.65567		 889.56308			42803.09259		211.55400		875.00000 
 43692.65567		 305.27265			43387.38302		68.20000		324.00000 
 43692.65567		 889.56308			42803.09259		211.55400		875.00000 
 43692.65567		 305.27265			43387.38302		68.20000		324.00000 
 43692.65567		 889.56308			42803.09259		211.55400		875.00000 
 43692.65567		 305.27265			43387.38302		68.20000		324.00000 
 43692.65567		 889.56308			42803.09259		211.55400		875.00000 
 43692.65567		 305.27265			43387.38302		68.20000		324.00000 
 43692.65567		 889.56308			42803.09259		211.55400		875.00000 
 43692.65567		 305.27265			43387.38302		68.20000		324.00000 
 43692.65567		 889.56308			42803.09259		211.55400		875.00000 
 43692.65567		 305.27265			43387.38302		68.20000		324.00000 
 43692.65567		 889.56308			42803.09259		211.55400		875.00000 
 43692.65567		 305.27265			43387.38302		68.20000		324.00000 
 43692.65567		 889.56308			42803.09259		211.55400		875.00000 
 43692.65567		 305.27265			43387.38302		68.20000		324.00000 
 43692.65567		 889.56308			42803.09259		211.55400		875.00000 
 43692.65567		 305.27265			43387.38302		68.20000		324.00000 
 43692.65567		 889.56308			42803.09259		211.55400		875.00000 
 43692.65567		 305.27265			43387.38302		68.20000		324.00000 
 43692.65567		 889.56308			42803.09259		211.55400		875.00000 
 43692.65567		 305.27265			43387.38302		68.20000		324.00000 
 43692.65567		 889.56308			42803.09259		211.55400		875.00000 
 43692.65567		 305.27265			43387.38302		68.20000		324.00000 
 43692.65567		 889.56308			42803.09259		211.55400		875.00000 
 43692.65567		 305.27265			43387.38302		68.20000		324.00000 
 43692.65567		 889.56308			42803.09259		211.55400		875.00000 
 43692.65567		 305.27265			43387.38302		68.20000		324.00000 
 43692.65567		 889.56308			42803.09259		211.55400		875.00000 
 43692.65567		 305.27265			43387.38302		68.20000		324.00000 
 43692.65567		 889.56308			42803.09259		211.55400		875.00000 
 43692.65567		 305.27265			43387.38302		68.20000		324.00000 
 43692.65567		 889.56308			42803.09259		211.55400		875.00000 
 43692.65567		 305.27265			43387.38302		68.20000		324.00000 
 43692.65567		 889.56308			42803.09259		211.55400		875.00000 
 43692.65567		 305.27265			43387.38302		68.20000		324.00000 
 43692.65567		 889.56308			42803.09259		211.55400		875.00000 
 43692.65567		 305.27265			43387.38302		68.20000		324.00000 
 43692.65567		 889.56308			42803.09259		211.55400		875.00000 
 43692.65567		 305.27265			43387.38302		68.20000		324.00000 
 43692.65567		 889.56308			42803.09259		211.55400		875.00000 
 43692.65567		 305.27265			43387.38302		68.20000		324.00000 
 43692.65567		 889.56308			42803.09259		211.55400		875.00000 
 43692.65567		 305.27265			43387.38302		69.65600		324.00000 
 43692.65567		 889.56308			42803.09259		211.55400		875.00000 
 43692.65567		 305.27265			43387.38302		69.65600		324.00000 
 43692.65567		 889.56308			42803.09259		211.55400		875.00000 
 43692.65567		 305.27265			43387.38302		69.65600		324.00000 
 43692.65567		 889.56308			42803.09259		211.55400		875.00000 
 43692.65567		 305.27265			43387.38302		69.65600		324.00000 
 43692.65567		 889.56308			42803.09259		211.55400		875.00000 
 43692.65567		 305.27265			43387.38302		69.65600		324.00000 
 43692.65567		 889.56308			42803.09259		211.55400		875.00000 
 43692.65567		 305.27265			43387.38302		69.65600		324.00000 
 43692.65567		 889.56308			42803.09259		211.55400		875.00000 
 43692.65567		 305.27265			43387.38302		69.65600		324.00000 
 43692.65567		 889.56308			42803.09259		211.55400		875.00000 
 43692.65567		 305.27265			43387.38302		69.65600		324.00000 
 43692.65567		 889.56308			42803.09259		211.55400		875.00000 
 43692.65567		 305.27265			43387.38302		69.65600		324.00000 
 43692.65567		 889.56308			42803.09259		211.55400		875.00000 
 43692.65567		 305.27265			43387.38302		69.65600		324.00000 
 43692.65567		 889.56308			42803.09259		211.55400		875.00000 
 43692.65567		 305.27265			43387.38302		69.65600		324.00000 
 43692.65567		 889.56308			42803.09259		211.55400		875.00000 
 43692.65567		 305.27265			43387.38302		69.65600		324.00000 
 43692.65567		 889.56308			42803.09259		211.55400		875.00000 
 43692.65567		 305.27265			43387.38302		69.65600		324.00000 
 43692.65567		 889.56308			42803.09259		211.55400		875.00000 
 43692.65567		 305.27265			43387.38302		69.65600		324.00000 
 43692.65567		 889.56308			42803.09259		211.55400		875.00000 
 43692.65567		 305.27265			43387.38302		69.65600		324.00000 
 43692.65567		 889.56308			42803.09259		211.55400		875.00000 
 43692.65567		 305.27265			43387.38302		69.65600		324.00000 
 43692.65567		 889.56308			42803.09259		211.55400		875.00000 
 43692.65567		 305.27265			43387.38302		69.65600		324.00000 
 43692.65567		 889.56308			42803.09259		219.52400		875.00000 
 43692.65567		 305.27265			43387.38302		69.65600		324.00000 
 43692.65567		 889.56308			42803.09259		219.52400		875.00000 
 43692.65567		 305.27265			43387.38302		69.65600		324.00000 
 43692.65567		 889.56308			42803.09259		219.52400		875.00000 
 43692.65567		 305.27265			43387.38302		69.65600		324.00000 
 43692.65567		 889.56308			42803.09259		219.52400		875.00000 
 43692.65567		 305.27265			43387.38302		69.65600		324.00000 
 43692.65567		 889.56308			42803.09259		219.52400		875.00000 
 43692.65567		 305.27265			43387.38302		69.65600		324.00000 
 43692.65567		 889.56308			42803.09259		219.52400		875.00000 
 43692.65567		 305.27265			43387.38302		69.65600		324.00000 
 43692.65567		 889.56308			42803.09259		219.52400		875.00000 
 43692.65567		 305.27265			43387.38302		69.65600		324.00000 
 43692.65567		 889.56308			42803.09259		219.52400		875.00000 
 43692.65567		 305.27265			43387.38302		69.65600		324.00000 
 43692.65567		 889.56308			42803.09259		219.52400		875.00000 
 43692.65567		 305.27265			43387.38302		69.65600		324.00000 
 43692.65567		 889.56308			42803.09259		219.52400		875.00000 
 43692.65567		 305.27265			43387.38302		69.65600		324.00000 
 43692.65567		 889.56308			42803.09259		219.52400		875.00000 
 43692.65567		 305.27265			43387.38302		69.65600		324.00000 
 43692.65567		 889.56308			42803.09259		219.52400		875.00000 
 43692.65567		 305.27265			43387.38302		69.65600		324.00000 
 43692.65567		 889.56308			42803.09259		219.52400		875.00000 
 43692.65567		 305.27265			43387.38302		69.65600		324.00000 
 43692.65567		 889.56308			42803.09259		219.52400		875.00000 
 43692.65567		 305.27265			43387.38302		69.65600		324.00000 
 43692.65567		 889.56308			42803.09259		219.52400		875.00000 
 43692.65567		 305.27265			43387.38302		69.65600		324.00000 
 43692.65567		 889.56308			42803.09259		219.52400		875.00000 
 43692.65567		 305.27265			43387.38302		69.65600		324.00000 
 43692.65567		 889.56308			42803.09259		219.52400		875.00000 
 43692.65567		 305.27265			43387.38302		69.65600		324.00000 
 43692.65567		 889.56308			42803.09259		219.52400		875.00000 
 43692.65567		 305.27265			43387.38302		69.65600		324.00000 
 43692.65567		 889.56308			42803.09259		219.52400		875.00000 
 43692.65567		 305.27265			43387.38302		69.65600		324.00000 
 43692.65567		 889.56308			42803.09259		219.52400		875.00000 
 43692.65567		 305.27265			43387.38302		69.65600		324.00000 
 43692.65567		 889.56308			42803.09259		219.52400		875.00000 
 43692.65567		 305.27265			43387.38302		69.65600		324.00000 
 43692.65567		 889.56308			42803.09259		219.52400		875.00000 
 43692.65567		 305.27265			43387.38302		69.65600		324.00000 
 43692.65567		 889.56308			42803.09259		219.52400		875.00000 
 43692.65567		 305.27265			43387.38302		69.65600		324.00000 
 43692.65567		 889.56308			42803.09259		219.52400		875.00000 
 43692.65567		 305.27265			43387.38302		69.65600		324.00000 
 43692.65567		 889.56308			42803.09259		219.52400		875.00000 
 43692.65567		 305.27265			43387.38302		69.65600		324.00000 
 43692.65567		 889.56308			42803.09259		219.52400		875.00000 
 43692.65567		 305.27265			43387.38302		69.65600		324.00000 
 43692.65567		 889.56308			42803.09259		219.52400		875.00000 
 43692.65567		 305.27265			43387.38302		69.65600		324.00000 
 43692.65567		 889.56308			42803.09259		219.52400		875.00000 
 43692.65567		 305.27265			43387.38302		69.65600		324.00000 
 43692.65567		 889.56308			42803.09259		219.52400		875.00000 
 43692.65567		 305.27265			43387.38302		69.65600		324.00000 
 43692.65567		 889.56308			42803.09259		219.52400		875.00000 
 43692.65567		 305.27265			43387.38302		69.65600		324.00000 
 43692.65567		 889.56308			42803.09259		219.52400		875.00000 
 43692.65567		 305.27265			43387.38302		69.65600		324.00000 
 43692.65567		 889.56308			42803.09259		219.52400		875.00000 
 43692.65567		 305.27265			43387.38302		69.65600		324.00000 
 43692.65567		 889.56308			42803.09259		219.52400		875.00000 
 43692.65567		 305.27265			43387.38302		69.65600		324.00000 
 43692.65567		 889.56308			42803.09259		219.52400		875.00000 
 43692.65567		 305.27265			43387.38302		69.65600		324.00000 
 43692.65567		 889.56308			42803.09259		219.52400		875.00000 
 43692.65567		 305.27265			43387.38302		69.65600		324.00000 
 43692.65567		 889.56308			42803.09259		219.52400		875.00000 
 43692.65567		 305.27265			43387.38302		69.65600		324.00000 
 43692.65567		 889.56308			42803.09259		219.52400		875.00000 
 43692.65567		 305.27265			43387.38302		69.65600		324.00000 
 43692.65567		 889.56308			42803.09259		219.52400		875.00000 
 43692.65567		 305.27265			43387.38302		69.65600		324.00000 
 43692.65567		 889.56308			42803.09259		219.52400		875.00000 
 43692.65567		 305.27265			43387.38302		69.65600		324.00000 
 43692.65567		 889.56308			42803.09259		219.52400		875.00000 
 43692.65567		 305.27265			43387.38302		69.65600		324.00000 
 43692.65567		 889.56308			42803.09259		219.52400		875.00000 
 43692.65567		 305.27265			43387.38302		69.65600		324.00000 
 43692.65567		 889.56308			42803.09259		219.52400		875.00000 
 43692.65567		 305.27265			43387.38302		69.65600		324.00000 
 43692.65567		 889.56308			42803.09259		219.52400		875.00000 
 43692.65567		 305.27265			43387.38302		69.65600		324.00000 
 43692.65567		 889.56308			42803.09259		219.52400		875.00000 
 43692.65567		 305.27265			43387.38302		69.65600		324.00000 
 43692.65567		 889.56308			42803.09259		219.52400		875.00000 
 43692.65567		 305.27265			43387.38302		69.65600		324.00000 
 43692.65567		 889.56308			42803.09259		219.52400		875.00000 
 43692.65567		 305.27265			43387.38302		69.65600		324.00000 
 43692.65567		 889.56308			42803.09259		219.52400		875.00000 
 43692.65567		 305.27265			43387.38302		69.65600		324.00000 
 43692.65567		 889.56308			42803.09259		219.52400		875.00000 
 43692.65567		 305.27265			43387.38302		69.65600		324.00000 
 43692.65567		 889.56308			42803.09259		219.52400		875.00000 
 43692.65567		 305.27265			43387.38302		69.65600		324.00000 
 43692.65567		 889.56308			42803.09259		219.52400		875.00000 
 43692.65567		 305.27265			43387.38302		69.65600		324.00000 
 43692.65567		 889.56308			42803.09259		219.52400		875.00000 
 43692.65567		 305.27265			43387.38302		69.65600		324.00000 
 43692.65567		 889.56308			42803.09259		219.52400		875.00000 
 43692.65567		 305.27265			43387.38302		69.65600		324.00000 
 43692.65567		 889.56308			42803.09259		219.52400		875.00000 
 43692.65567		 305.27265			43387.38302		69.65600		324.00000 
 43692.65567		 889.56308			42803.09259		219.52400		875.00000 
 43692.65567		 305.27265			43387.38302		69.65600		324.00000 
 43692.65567		 889.56308			42803.09259		219.52400		875.00000 
 43692.65567		 305.27265			43387.38302		69.65600		324.00000 
 43692.65567		 889.56308			42803.09259		219.52400		875.00000 
 43692.65567		 305.27265			43387.38302		69.65600		324.00000 
 43692.65567		 889.56308			42803.09259		219.52400		875.00000 
 43692.65567		 305.27265			43387.38302		69.65600		324.00000 
 43692.65567		 889.56308			42803.09259		219.52400		875.00000 
 43692.65567		 305.27265			43387.38302		69.65600		324.00000 
 43692.65567		 889.56308			42803.09259		219.52400		875.00000 
 43692.65567		 305.27265			43387.38302		69.65600		324.00000 
 43692.65567		 889.56308			42803.09259		219.52400		875.00000 
 43692.65567		 305.27265			43387.38302		69.65600		324.00000 
 43692.65567		 889.56308			42803.09259		219.52400		875.00000 
 43692.65567		 305.27265			43387.38302		69.65600		324.00000 
 43692.65567		 889.56308			42803.09259		219.52400		875.00000 
 43692.65567		 305.27265			43387.38302		69.65600		324.00000 
 43692.65567		 889.56308			42803.09259		219.52400		875.00000 
 43692.65567		 305.27265			43387.38302		69.65600		324.00000 
 43692.65567		 889.56308			42803.09259		219.52400		875.00000 
 43692.65567		 305.27265			43387.38302		69.65600		324.00000 
 43692.65567		 889.56308			42803.09259		219.52400		875.00000 
 43692.65567		 305.27265			43387.38302		69.65600		324.00000 
 43692.65567		 889.56308			42803.09259		222.46200		875.00000 
 43692.65567		 305.27265			43387.38302		69.65600		324.00000 
 43692.65567		 889.56308			42803.09259		222.46200		875.00000 
 43692.65567		 305.27265			43387.38302		69.65600		324.00000 
 43692.65567		 889.56308			42803.09259		222.46200		875.00000 
 43692.65567		 305.27265			43387.38302		69.65600		324.00000 
 43692.65567		 889.56308			42803.09259		222.46200		875.00000 
 43692.65567		 305.27265			43387.38302		69.65600		324.00000 
 43692.65567		 889.56308			42803.09259		222.46200		875.00000 
 43692.65567		 305.27265			43387.38302		69.65600		324.00000 
 43692.65567		 889.56308			42803.09259		222.46200		875.00000 
 43692.65567		 305.27265			43387.38302		69.65600		324.00000 
 43692.65567		 889.56308			42803.09259		222.46200		875.00000 
 43692.65567		 305.27265			43387.38302		69.65600		324.00000 
 43692.65567		 889.56308			42803.09259		222.46200		875.00000 
 43692.65567		 305.27265			43387.38302		69.65600		324.00000 
 43692.65567		 889.56308			42803.09259		222.46200		875.00000 
 43692.65567		 305.27265			43387.38302		69.65600		324.00000 
 43692.65567		 889.56308			42803.09259		222.46200		875.00000 
 43692.65567		 305.27265			43387.38302		69.65600		324.00000 
 43692.65567		 889.56308			42803.09259		222.46200		875.00000 
 43692.65567		 305.27265			43387.38302		69.65600		324.00000 
 43692.65567		 889.56308			42803.09259		222.46200		875.00000 
 43692.65567		 305.27265			43387.38302		69.65600		324.00000 
 43692.65567		 889.56308			42803.09259		222.46200		875.00000 
 43692.65567		 305.27265			43387.38302		69.65600		324.00000 
 43692.65567		 889.56308			42803.09259		222.46200		875.00000 
 43692.65567		 305.27265			43387.38302		69.65600		324.00000 
 43692.65567		 889.56308			42803.09259		222.46200		875.00000 
 43692.65567		 305.27265			43387.38302		69.65600		324.00000 
 43692.65567		 889.56308			42803.09259		222.46200		875.00000 
 43692.65567		 305.27265			43387.38302		69.65600		324.00000 
 43692.65567		 889.56308			42803.09259		222.46200		875.00000 
 43692.65567		 305.27265			43387.38302		69.65600		324.00000 
 43692.65567		 889.56308			42803.09259		222.46200		875.00000 
 43692.65567		 305.27265			43387.38302		69.65600		324.00000 
 43692.65567		 889.56308			42803.09259		222.46200		875.00000 
 43692.65567		 305.27265			43387.38302		69.65600		324.00000 
 43692.65567		 889.56308			42803.09259		222.46200		875.00000 
 43692.65567		 305.27265			43387.38302		69.65600		324.00000 
 43692.65567		 889.56308			42803.09259		222.46200		875.00000 
 43692.65567		 305.27265			43387.38302		69.65600		324.00000 
 43692.65567		 889.56308			42803.09259		222.46200		875.00000 
 43692.65567		 305.27265			43387.38302		69.65600		324.00000 
 43692.65567		 889.56308			42803.09259		222.46200		875.00000 
 43692.65567		 305.27265			43387.38302		69.65600		324.00000 
 43692.65567		 889.56308			42803.09259		222.46200		875.00000 
 43692.65567		 305.27265			43387.38302		69.65600		324.00000 
 43692.65567		 889.56308			42803.09259		222.46200		875.00000 
 43692.65567		 305.27265			43387.38302		69.65600		324.00000 
 43692.65567		 889.56308			42803.09259		222.46200		875.00000 
 43692.65567		 305.27265			43387.38302		69.65600		324.00000 
 43692.65567		 889.56308			42803.09259		222.46200		875.00000 
 43692.65567		 305.27265			43387.38302		69.65600		324.00000 
 43692.65567		 889.56308			42803.09259		222.46200		875.00000 
 43692.65567		 305.27265			43387.38302		69.65600		324.00000 
 43692.65567		 889.56308			42803.09259		222.46200		875.00000 
 43692.65567		 305.27265			43387.38302		69.65600		324.00000 
 43692.65567		 889.56308			42803.09259		222.46200		875.00000 
 43692.65567		 305.27265			43387.38302		69.65600		324.00000 
 43692.65567		 889.56308			42803.09259		222.46200		875.00000 
 43692.65567		 305.27265			43387.38302		69.65600		324.00000 
 43692.65567		 889.56308			42803.09259		222.46200		875.00000 
 43692.65567		 305.27265			43387.38302		69.65600		324.00000 
 43692.65567		 889.56308			42803.09259		222.46200		875.00000 
 43692.65567		 305.27265			43387.38302		69.65600		324.00000 
 43692.65567		 889.56308			42803.09259		222.46200		875.00000 
 43692.65567		 305.27265			43387.38302		69.65600		324.00000 
 43692.65567		 889.56308			42803.09259		222.46200		875.00000 
 43692.65567		 305.27265			43387.38302		69.65600		324.00000 
 43692.65567		 889.56308			42803.09259		222.46200		875.00000 
 43692.65567		 305.27265			43387.38302		69.65600		324.00000 
 43692.65567		 889.56308			42803.09259		222.46200		875.00000 
 43692.65567		 305.27265			43387.38302		69.65600		324.00000 
 43692.65567		 889.56308			42803.09259		222.46200		875.00000 
 43692.65567		 305.27265			43387.38302		69.65600		324.00000 
 43692.65567		 889.56308			42803.09259		222.46200		875.00000 
 43692.65567		 305.27265			43387.38302		69.65600		324.00000 
 43692.65567		 889.56308			42803.09259		222.46200		875.00000 
 43692.65567		 305.27265			43387.38302		69.65600		324.00000 
 43692.65567		 889.56308			42803.09259		222.46200		875.00000 
 43692.65567		 305.27265			43387.38302		69.65600		324.00000 
 43692.65567		 889.56308			42803.09259		222.46200		875.00000 
 43692.65567		 305.27265			43387.38302		69.65600		324.00000 
 43692.65567		 889.56308			42803.09259		222.46200		875.00000 
 43692.65567		 305.27265			43387.38302		69.65600		324.00000 
 43692.65567		 889.56308			42803.09259		222.46200		875.00000 
 43692.65567		 305.27265			43387.38302		69.65600		324.00000 
 43692.65567		 889.56308			42803.09259		222.46200		875.00000 
 43692.65567		 305.27265			43387.38302		69.65600		324.00000 
 43692.65567		 889.56308			42803.09259		222.46200		875.00000 
 43692.65567		 305.27265			43387.38302		69.65600		324.00000 
 43692.65567		 889.56308			42803.09259		222.46200		875.00000 
 43692.65567		 305.27265			43387.38302		69.65600		324.00000 
 43692.65567		 889.56308			42803.09259		222.46200		875.00000 
 43692.65567		 305.27265			43387.38302		69.65600		324.00000 
 43692.65567		 889.56308			42803.09259		222.46200		875.00000 
 43692.65567		 305.27265			43387.38302		69.65600		324.00000 
 43692.65567		 889.56308			42803.09259		222.46200		875.00000 
 43692.65567		 305.27265			43387.38302		69.65600		324.00000 
 43692.65567		 889.56308			42803.09259		222.46200		875.00000 
 43692.65567		 305.27265			43387.38302		69.65600		324.00000 
 43692.65567		 889.56308			42803.09259		222.46200		875.00000 
 43692.65567		 305.27265			43387.38302		69.65600		324.00000 
 43692.65567		 889.56308			42803.09259		222.46200		875.00000 
 43692.65567		 305.27265			43387.38302		69.65600		324.00000 
 43692.65567		 889.56308			42803.09259		222.46200		875.00000 
 43692.65567		 305.27265			43387.38302		69.65600		324.00000 
 43692.65567		 889.56308			42803.09259		222.46200		875.00000 
 43692.65567		 305.27265			43387.38302		69.65600		324.00000 
 43692.65567		 889.56308			42803.09259		222.46200		875.00000 
 43692.65567		 305.27265			43387.38302		69.65600		324.00000 
 43692.65567		 889.56308			42803.09259		222.46200		875.00000 
 43692.65567		 305.27265			43387.38302		69.65600		324.00000 
 43692.65567		 889.56308			42803.09259		222.46200		875.00000 
 43692.65567		 305.27265			43387.38302		69.65600		324.00000 
 43692.65567		 889.56308			42803.09259		222.46200		875.00000 
 43692.65567		 305.27265			43387.38302		69.65600		324.00000 
 43692.65567		 889.56308			42803.09259		222.46200		875.00000 
 43692.65567		 305.27265			43387.38302		69.65600		324.00000 
 43692.65567		 889.56308			42803.09259		222.46200		875.00000 
 43692.65567		 305.27265			43387.38302		69.65600		324.00000 
 43692.65567		 889.56308			42803.09259		222.46200		875.00000 
 43692.65567		 305.27265			43387.38302		69.65600		324.00000 
 43692.65567		 889.56308			42803.09259		222.46200		875.00000 
 43692.65567		 305.27265			43387.38302		69.65600		324.00000 
 43692.65567		 889.56308			42803.09259		222.46200		875.00000 
 43692.65567		 305.27265			43387.38302		69.65600		324.00000 
 43692.65567		 889.56308			42803.09259		222.46200		875.00000 
 43692.65567		 305.27265			43387.38302		69.65600		324.00000 
 43692.65567		 889.56308			42803.09259		222.66000		875.00000 
 43692.65567		 305.27265			43387.38302		69.65600		324.00000 
 43692.65567		 889.56308			42803.09259		222.66000		875.00000 
 43692.65567		 305.27265			43387.38302		69.65600		324.00000 
 43692.65567		 889.56308			42803.09259		222.66000		875.00000 
 43692.65567		 305.27265			43387.38302		69.65600		324.00000 
 43692.65567		 889.56308			42803.09259		222.66000		875.00000 
 43692.65567		 305.27265			43387.38302		69.65600		324.00000 
 43692.65567		 889.56308			42803.09259		222.66000		875.00000 
 43692.65567		 305.27265			43387.38302		69.65600		324.00000 
 43692.65567		 889.56308			42803.09259		222.66000		875.00000 
 43692.65567		 305.27265			43387.38302		69.65600		324.00000 
 43692.65567		 889.56308			42803.09259		222.66000		875.00000 
 43692.65567		 305.27265			43387.38302		69.65600		324.00000 
 43692.65567		 889.56308			42803.09259		222.66000		875.00000 
 43692.65567		 305.27265			43387.38302		69.65600		324.00000 
 43692.65567		 889.56308			42803.09259		222.66000		875.00000 
 43692.65567		 305.27265			43387.38302		69.65600		324.00000 
 43692.65567		 889.56308			42803.09259		222.66000		875.00000 
 43692.65567		 305.27265			43387.38302		69.65600		324.00000 
 43692.65567		 889.56308			42803.09259		222.66000		875.00000 
 43692.65567		 305.27265			43387.38302		69.65600		324.00000 
 43692.65567		 889.56308			42803.09259		222.66000		875.00000 
 43692.65567		 305.27265			43387.38302		69.65600		324.00000 
 43692.65567		 889.56308			42803.09259		222.66000		875.00000 
 43692.65567		 305.27265			43387.38302		69.65600		324.00000 
 43692.65567		 889.56308			42803.09259		222.66000		875.00000 
 43692.65567		 305.27265			43387.38302		69.65600		324.00000 
 43692.65567		 889.56308			42803.09259		222.66000		875.00000 
 43692.65567		 305.27265			43387.38302		69.65600		324.00000 
 43692.65567		 889.56308			42803.09259		222.66000		875.00000 
 43692.65567		 305.27265			43387.38302		69.65600		324.00000 
 43692.65567		 889.56308			42803.09259		222.66000		875.00000 
 43692.65567		 305.27265			43387.38302		69.65600		324.00000 
 43692.65567		 889.56308			42803.09259		222.66000		875.00000 
 43692.65567		 305.27265			43387.38302		69.65600		324.00000 
 43692.65567		 889.56308			42803.09259		222.66000		875.00000 
 43692.65567		 305.27265			43387.38302		69.65600		324.00000 
 43692.65567		 889.56308			42803.09259		222.66000		875.00000 
 43692.65567		 305.27265			43387.38302		69.65600		324.00000 
 43692.65567		 889.56308			42803.09259		222.66000		875.00000 
 43692.65567		 305.27265			43387.38302		69.65600		324.00000 
 43692.65567		 889.56308			42803.09259		222.66000		875.00000 
 43692.65567		 305.27265			43387.38302		69.65600		324.00000 
 43692.65567		 889.56308			42803.09259		222.66000		875.00000 
 43692.65567		 305.27265			43387.38302		69.65600		324.00000 
 43692.65567		 889.56308			42803.09259		222.66000		875.00000 
 43692.65567		 305.27265			43387.38302		69.65600		324.00000 
 43692.65567		 889.56308			42803.09259		222.66000		875.00000 
 43692.65567		 305.27265			43387.38302		69.65600		324.00000 
 43692.65567		 889.56308			42803.09259		222.66000		875.00000 
 43692.65567		 305.27265			43387.38302		69.65600		324.00000 
 43692.65567		 889.56308			42803.09259		222.66000		875.00000 
 43692.65567		 305.27265			43387.38302		69.65600		324.00000 
 43692.65567		 889.56308			42803.09259		222.66000		875.00000 
 43692.65567		 305.27265			43387.38302		69.65600		324.00000 
 43692.65567		 889.56308			42803.09259		222.66000		875.00000 
 43692.65567		 305.27265			43387.38302		69.65600		324.00000 
 43692.65567		 889.56308			42803.09259		222.66000		875.00000 
 43692.65567		 305.27265			43387.38302		69.65600		324.00000 
 43692.65567		 889.56308			42803.09259		222.66000		875.00000 
 43692.65567		 305.27265			43387.38302		69.65600		324.00000 
 43692.65567		 889.56308			42803.09259		222.66000		875.00000 
 43692.65567		 305.27265			43387.38302		69.65600		324.00000 
 43692.65567		 889.56308			42803.09259		222.66000		875.00000 
 43692.65567		 305.27265			43387.38302		69.65600		324.00000 
 43692.65567		 889.56308			42803.09259		222.66000		875.00000 
 43692.65567		 305.27265			43387.38302		69.65600		324.00000 
 43692.65567		 889.56308			42803.09259		222.66000		875.00000 
 43692.65567		 305.27265			43387.38302		69.65600		324.00000 
 43692.65567		 889.56308			42803.09259		222.66000		875.00000 
 43692.65567		 305.27265			43387.38302		69.65600		324.00000 
 43692.65567		 889.56308			42803.09259		222.66000		875.00000 
 43692.65567		 305.27265			43387.38302		69.65600		324.00000 
 43692.65567		 889.56308			42803.09259		222.66000		875.00000 
 43692.65567		 305.27265			43387.38302		69.65600		324.00000 
 43692.65567		 889.56308			42803.09259		222.66000		875.00000 
 43692.65567		 305.27265			43387.38302		69.65600		324.00000 
 43692.65567		 889.56308			42803.09259		222.66000		875.00000 
 43692.65567		 305.27265			43387.38302		69.65600		324.00000 
 43692.65567		 889.56308			42803.09259		222.66000		875.00000 
 43692.65567		 305.27265			43387.38302		69.65600		324.00000 
 43692.65567		 889.56308			42803.09259		222.66000		875.00000 
 43692.65567		 305.27265			43387.38302		69.65600		324.00000 
 43692.65567		 889.56308			42803.09259		222.66000		875.00000 
 43692.65567		 305.27265			43387.38302		69.65600		324.00000 
 43692.65567		 889.56308			42803.09259		222.66000		875.00000 
 43692.65567		 305.27265			43387.38302		69.65600		324.00000 
 43692.65567		 889.56308			42803.09259		222.66000		875.00000 
 43692.65567		 305.27265			43387.38302		69.65600		324.00000 
 43692.65567		 889.56308			42803.09259		222.66000		875.00000 
 43692.65567		 305.27265			43387.38302		69.65600		324.00000 
 43692.65567		 889.56308			42803.09259		222.66000		875.00000 
 43692.65567		 305.27265			43387.38302		69.65600		324.00000 
 43692.65567		 889.56308			42803.09259		222.66000		875.00000 
 43692.65567		 305.27265			43387.38302		69.65600		324.00000 
 43692.65567		 889.56308			42803.09259		222.66000		875.00000 
 43692.65567		 305.27265			43387.38302		69.65600		324.00000 
 43692.65567		 889.56308			42803.09259		222.66000		875.00000 
 43692.65567		 305.27265			43387.38302		69.65600		324.00000 
 43692.65567		 889.56308			42803.09259		222.66000		875.00000 
 43692.65567		 305.27265			43387.38302		69.65600		324.00000 
 43692.65567		 889.56308			42803.09259		222.66000		875.00000 
 43692.65567		 305.27265			43387.38302		69.65600		324.00000 
 43692.65567		 889.56308			42803.09259		222.66000		875.00000 
 43692.65567		 305.27265			43387.38302		69.65600		324.00000 
 43692.65567		 889.56308			42803.09259		222.66000		875.00000 
 43692.65567		 305.27265			43387.38302		69.65600		324.00000 
 43692.65567		 889.56308			42803.09259		222.66000		875.00000 
 43692.65567		 305.27265			43387.38302		69.65600		324.00000 
 43692.65567		 889.56308			42803.09259		222.66000		875.00000 
 43692.65567		 305.27265			43387.38302		69.65600		324.00000 
 43692.65567		 889.56308			42803.09259		222.66000		875.00000 
 43692.65567		 305.27265			43387.38302		69.65600		324.00000 
 43692.65567		 889.56308			42803.09259		222.66000		875.00000 
 43692.65567		 305.27265			43387.38302		69.65600		324.00000 
 43692.65567		 889.56308			42803.09259		222.66000		875.00000 
 43692.65567		 305.27265			43387.38302		69.65600		324.00000 
 43692.65567		 889.56308			42803.09259		222.66000		875.00000 
 43692.65567		 305.27265			43387.38302		69.65600		324.00000 
 43692.65567		 889.56308			42803.09259		222.66000		875.00000 
 43692.65567		 305.27265			43387.38302		69.65600		324.00000 
 43692.65567		 889.56308			42803.09259		222.66000		875.00000 
 43692.65567		 305.27265			43387.38302		69.65600		324.00000 
 43692.65567		 889.56308			42803.09259		222.66000		875.00000 
 43692.65567		 305.27265			43387.38302		69.65600		324.00000 
 43692.65567		 889.56308			42803.09259		222.66000		875.00000 
 43692.65567		 305.27265			43387.38302		69.65600		324.00000 
 43692.65567		 889.56308			42803.09259		223.26000		875.00000 
 43692.65567		 305.27265			43387.38302		69.65600		324.00000 
 43692.65567		 889.56308			42803.09259		223.26000		875.00000 
 43692.65567		 305.27265			43387.38302		69.65600		324.00000 
 43692.65567		 889.56308			42803.09259		223.26000		875.00000 
 43692.65567		 305.27265			43387.38302		69.65600		324.00000 
 43692.65567		 889.56308			42803.09259		223.26000		875.00000 
 43692.65567		 305.27265			43387.38302		69.65600		324.00000 
 43692.65567		 889.56308			42803.09259		223.26000		875.00000 
 43692.65567		 305.27265			43387.38302		69.65600		324.00000 
 43692.65567		 889.56308			42803.09259		223.26000		875.00000 
 43692.65567		 305.27265			43387.38302		69.65600		324.00000 
 43692.65567		 889.56308			42803.09259		223.26000		875.00000 
 43692.65567		 305.27265			43387.38302		69.65600		324.00000 
 43692.65567		 889.56308			42803.09259		223.26000		875.00000 
 43692.65567		 305.27265			43387.38302		69.65600		324.00000 
 43692.65567		 889.56308			42803.09259		223.26000		875.00000 
 43692.65567		 305.27265			43387.38302		69.65600		324.00000 
 43692.65567		 889.56308			42803.09259		223.26000		875.00000 
 43692.65567		 305.27265			43387.38302		69.65600		324.00000 
 43692.65567		 889.56308			42803.09259		223.26000		875.00000 
 43692.65567		 305.27265			43387.38302		69.65600		324.00000 
 43692.65567		 889.56308			42803.09259		223.26000		875.00000 
 43692.65567		 305.27265			43387.38302		69.65600		324.00000 
 43692.65567		 889.56308			42803.09259		223.26000		875.00000 
 43692.65567		 305.27265			43387.38302		69.65600		324.00000 
 43692.65567		 889.56308			42803.09259		223.26000		875.00000 
 43692.65567		 305.27265			43387.38302		69.65600		324.00000 
 43692.65567		 889.56308			42803.09259		223.26000		875.00000 
 43692.65567		 305.27265			43387.38302		69.65600		324.00000 
 43692.65567		 889.56308			42803.09259		223.26000		875.00000 
 43692.65567		 305.27265			43387.38302		69.65600		324.00000 
 43692.65567		 889.56308			42803.09259		223.26000		875.00000 
 43692.65567		 305.27265			43387.38302		69.65600		324.00000 
 43692.65567		 889.56308			42803.09259		223.26000		875.00000 
 43692.65567		 305.27265			43387.38302		69.65600		324.00000 
 43692.65567		 889.56308			42803.09259		223.26000		875.00000 
 43692.65567		 305.27265			43387.38302		69.65600		324.00000 
 43692.65567		 889.56308			42803.09259		223.26000		875.00000 
 43692.65567		 305.27265			43387.38302		69.65600		324.00000 
 43692.65567		 889.56308			42803.09259		223.26000		875.00000 
 43692.65567		 305.27265			43387.38302		69.65600		324.00000 
 43692.65567		 889.56308			42803.09259		223.26000		875.00000 
 43692.65567		 305.27265			43387.38302		69.65600		324.00000 
 43692.65567		 889.56308			42803.09259		223.26000		875.00000 
 43692.65567		 305.27265			43387.38302		69.65600		324.00000 
 43692.65567		 889.56308			42803.09259		223.26000		875.00000 
 43692.65567		 305.27265			43387.38302		69.65600		324.00000 
 43692.65567		 889.56308			42803.09259		223.26000		875.00000 
 43692.65567		 305.27265			43387.38302		69.65600		324.00000 
 43692.65567		 889.56308			42803.09259		223.26000		875.00000 
 43692.65567		 305.27265			43387.38302		69.65600		324.00000 
 43692.65567		 889.56308			42803.09259		223.26000		875.00000 
 43692.65567		 305.27265			43387.38302		69.65600		324.00000 
 43692.65567		 889.56308			42803.09259		223.26000		875.00000 
 43692.65567		 305.27265			43387.38302		69.65600		324.00000 
 43692.65567		 889.56308			42803.09259		223.26000		875.00000 
 43692.65567		 305.27265			43387.38302		69.65600		324.00000 
 43692.65567		 889.56308			42803.09259		223.26000		875.00000 
 43692.65567		 305.27265			43387.38302		69.65600		324.00000 
 43692.65567		 889.56308			42803.09259		223.26000		875.00000 
 43692.65567		 305.27265			43387.38302		69.65600		324.00000 
 43692.65567		 889.56308			42803.09259		223.26000		875.00000 
 43692.65567		 305.27265			43387.38302		69.65600		324.00000 
 43692.65567		 889.56308			42803.09259		223.26000		875.00000 
 43692.65567		 305.27265			43387.38302		69.65600		324.00000 
 43692.65567		 889.56308			42803.09259		223.26000		875.00000 
 43692.65567		 305.27265			43387.38302		69.65600		324.00000 
 43692.65567		 889.56308			42803.09259		223.26000		875.00000 
 43692.65567		 305.27265			43387.38302		69.65600		324.00000 
 43692.65567		 889.56308			42803.09259		223.26000		875.00000 
 43692.65567		 305.27265			43387.38302		69.65600		324.00000 
 43692.65567		 889.56308			42803.09259		223.26000		875.00000 
 43692.65567		 305.27265			43387.38302		69.65600		324.00000 
 43692.65567		 889.56308			42803.09259		223.26000		875.00000 
 43692.65567		 305.27265			43387.38302		69.65600		324.00000 
 43692.65567		 889.56308			42803.09259		223.26000		875.00000 
 43692.65567		 305.27265			43387.38302		69.65600		324.00000 
 43692.65567		 889.56308			42803.09259		223.26000		875.00000 
 43692.65567		 305.27265			43387.38302		69.65600		324.00000 
 43692.65567		 889.56308			42803.09259		223.26000		875.00000 
 43692.65567		 305.27265			43387.38302		69.65600		324.00000 
 43692.65567		 889.56308			42803.09259		223.26000		875.00000 
 43692.65567		 305.27265			43387.38302		69.65600		324.00000 
 43692.65567		 889.56308			42803.09259		223.26000		875.00000 
 43692.65567		 305.27265			43387.38302		69.65600		324.00000 
 43692.65567		 889.56308			42803.09259		223.26000		875.00000 
 43692.65567		 305.27265			43387.38302		69.65600		324.00000 
 43692.65567		 889.56308			42803.09259		223.26000		875.00000 
 43692.65567		 305.27265			43387.38302		69.65600		324.00000 
 43692.65567		 889.56308			42803.09259		223.26000		875.00000 
 43692.65567		 305.27265			43387.38302		69.65600		324.00000 
 43692.65567		 889.56308			42803.09259		223.26000		875.00000 
 43692.65567		 305.27265			43387.38302		69.65600		324.00000 
 43692.65567		 889.56308			42803.09259		223.26000		875.00000 
 43692.65567		 305.27265			43387.38302		69.65600		324.00000 
 43692.65567		 889.56308			42803.09259		223.26000		875.00000 
 43692.65567		 305.27265			43387.38302		69.65600		324.00000 
 43692.65567		 889.56308			42803.09259		223.26000		875.00000 
 43692.65567		 305.27265			43387.38302		69.65600		324.00000 
 43692.65567		 889.56308			42803.09259		223.26000		875.00000 
 43692.65567		 305.27265			43387.38302		69.65600		324.00000 
 43692.65567		 889.56308			42803.09259		223.26000		875.00000 
 43692.65567		 305.27265			43387.38302		69.65600		324.00000 
 43692.65567		 889.56308			42803.09259		223.26000		875.00000 
 43692.65567		 305.27265			43387.38302		69.65600		324.00000 
 43692.65567		 889.56308			42803.09259		223.26000		875.00000 
 43692.65567		 305.27265			43387.38302		69.65600		324.00000 
 43692.65567		 889.56308			42803.09259		223.26000		875.00000 
 43692.65567		 305.27265			43387.38302		69.65600		324.00000 
 43692.65567		 889.56308			42803.09259		223.26000		875.00000 
 43692.65567		 305.27265			43387.38302		69.65600		324.00000 
 43692.65567		 889.56308			42803.09259		223.26000		875.00000 
 43692.65567		 305.27265			43387.38302		69.65600		324.00000 
 43692.65567		 889.56308			42803.09259		223.26000		875.00000 
 43692.65567		 305.27265			43387.38302		69.65600		324.00000 
 43692.65567		 889.56308			42803.09259		223.26000		875.00000 
 43692.65567		 305.27265			43387.38302		69.65600		324.00000 
 43692.65567		 889.56308			42803.09259		223.26000		875.00000 
 43692.65567		 305.27265			43387.38302		69.65600		324.00000 
 43692.65567		 889.56308			42803.09259		223.26000		875.00000 
 43692.65567		 305.27265			43387.38302		69.65600		324.00000 
 43692.65567		 889.56308			42803.09259		223.26000		875.00000 
 43692.65567		 305.27265			43387.38302		69.65600		324.00000 
 43692.65567		 889.56308			42803.09259		223.26000		875.00000 
 43692.65567		 305.27265			43387.38302		69.65600		324.00000 
 43692.65567		 889.56308			42803.09259		223.26000		875.00000 
 43692.65567		 305.27265			43387.38302		69.65600		324.00000 
 43692.65567		 889.56308			42803.09259		223.26000		875.00000 
 43692.65567		 305.27265			43387.38302		69.65600		324.00000 
 43692.65567		 889.56308			42803.09259		223.26000		875.00000 
 43692.65567		 305.27265			43387.38302		69.65600		324.00000 
 43692.65567		 889.56308			42803.09259		223.26000		875.00000 
 43692.65567		 305.27265			43387.38302		69.65600		324.00000 
 43692.65567		 889.56308			42803.09259		222.66000		875.00000 
 43692.65567		 305.27265			43387.38302		69.65600		324.00000 
 43692.65567		 889.56308			42803.09259		222.66000		875.00000 
 43692.65567		 305.27265			43387.38302		69.65600		324.00000 
 43692.65567		 889.56308			42803.09259		222.66000		875.00000 
 43692.65567		 305.27265			43387.38302		69.65600		324.00000 
 43692.65567		 889.56308			42803.09259		222.66000		875.00000 
 43692.65567		 305.27265			43387.38302		69.65600		324.00000 
 43692.65567		 889.56308			42803.09259		222.66000		875.00000 
 43692.65567		 305.27265			43387.38302		69.65600		324.00000 
 43692.65567		 889.56308			42803.09259		222.66000		875.00000 
 43692.65567		 305.27265			43387.38302		69.65600		324.00000 
 43692.65567		 889.56308			42803.09259		222.66000		875.00000 
 43692.65567		 305.27265			43387.38302		69.65600		324.00000 
 43692.65567		 889.56308			42803.09259		222.66000		875.00000 
 43692.65567		 305.27265			43387.38302		69.65600		324.00000 
 43692.65567		 889.56308			42803.09259		222.66000		875.00000 
 43692.65567		 305.27265			43387.38302		69.65600		324.00000 
 43692.65567		 889.56308			42803.09259		222.66000		875.00000 
 43692.65567		 305.27265			43387.38302		69.65600		324.00000 
 43692.65567		 889.56308			42803.09259		222.66000		875.00000 
 43692.65567		 305.27265			43387.38302		69.65600		324.00000 
 43692.65567		 889.56308			42803.09259		222.66000		875.00000 
 43692.65567		 305.27265			43387.38302		69.65600		324.00000 
 43692.65567		 889.56308			42803.09259		222.66000		875.00000 
 43692.65567		 305.27265			43387.38302		69.65600		324.00000 
 43692.65567		 889.56308			42803.09259		222.66000		875.00000 
 43692.65567		 305.27265			43387.38302		69.65600		324.00000 
 43692.65567		 889.56308			42803.09259		222.66000		875.00000 
 43692.65567		 305.27265			43387.38302		69.65600		324.00000 
 43692.65567		 889.56308			42803.09259		222.66000		875.00000 
 43692.65567		 305.27265			43387.38302		69.65600		324.00000 
 43692.65567		 889.56308			42803.09259		222.66000		875.00000 
 43692.65567		 305.27265			43387.38302		69.65600		324.00000 
 43692.65567		 889.56308			42803.09259		222.66000		875.00000 
 43692.65567		 305.27265			43387.38302		69.65600		324.00000 
 43692.65567		 889.56308			42803.09259		222.66000		875.00000 
 43692.65567		 305.27265			43387.38302		69.65600		324.00000 
 43692.65567		 889.56308			42803.09259		222.66000		875.00000 
 43692.65567		 305.27265			43387.38302		69.65600		324.00000 
 43692.65567		 889.56308			42803.09259		222.66000		875.00000 
 43692.65567		 305.27265			43387.38302		69.65600		324.00000 
 43692.65567		 889.56308			42803.09259		222.66000		875.00000 
 43692.65567		 305.27265			43387.38302		69.65600		324.00000 
 43692.65567		 889.56308			42803.09259		222.66000		875.00000 
 43692.65567		 305.27265			43387.38302		69.65600		324.00000 
 43692.65567		 889.56308			42803.09259		222.66000		875.00000 
 43692.65567		 305.27265			43387.38302		69.65600		324.00000 
 43692.65567		 889.56308			42803.09259		222.66000		875.00000 
 43692.65567		 305.27265			43387.38302		69.65600		324.00000 
 43692.65567		 889.56308			42803.09259		222.66000		875.00000 
 43692.65567		 305.27265			43387.38302		69.65600		324.00000 
 43692.65567		 889.56308			42803.09259		222.66000		875.00000 
 43692.65567		 305.27265			43387.38302		69.65600		324.00000 
 43692.65567		 889.56308			42803.09259		222.66000		875.00000 
 43692.65567		 305.27265			43387.38302		69.65600		324.00000 
 43692.65567		 889.56308			42803.09259		222.66000		875.00000 
 43692.65567		 305.27265			43387.38302		69.65600		324.00000 
 43692.65567		 889.56308			42803.09259		222.66000		875.00000 
 43692.65567		 305.27265			43387.38302		69.65600		324.00000 
 43692.65567		 889.56308			42803.09259		222.66000		875.00000 
 43692.65567		 305.27265			43387.38302		69.65600		324.00000 
 43692.65567		 889.56308			42803.09259		222.66000		875.00000 
 43692.65567		 305.27265			43387.38302		69.65600		324.00000 
 43692.65567		 889.56308			42803.09259		222.66000		875.00000 
 43692.65567		 305.27265			43387.38302		69.65600		324.00000 
 43692.65567		 889.56308			42803.09259		222.66000		875.00000 
 43692.65567		 305.27265			43387.38302		69.65600		324.00000 
 43692.65567		 889.56308			42803.09259		222.66000		875.00000 
 43692.65567		 305.27265			43387.38302		69.65600		324.00000 
 43692.65567		 889.56308			42803.09259		222.66000		875.00000 
 43692.65567		 305.27265			43387.38302		69.65600		324.00000 
 43692.65567		 889.56308			42803.09259		222.66000		875.00000 
 43692.65567		 305.27265			43387.38302		69.65600		324.00000 
 43692.65567		 889.56308			42803.09259		222.66000		875.00000 
 43692.65567		 305.27265			43387.38302		69.65600		324.00000 
 43692.65567		 889.56308			42803.09259		222.66000		875.00000 
 43692.65567		 305.27265			43387.38302		69.65600		324.00000 
 43692.65567		 889.56308			42803.09259		222.66000		875.00000 
 43692.65567		 305.27265			43387.38302		69.65600		324.00000 
 43692.65567		 889.56308			42803.09259		222.66000		875.00000 
 43692.65567		 305.27265			43387.38302		69.65600		324.00000 
 43692.65567		 889.56308			42803.09259		222.66000		875.00000 
 43692.65567		 305.27265			43387.38302		69.65600		324.00000 
 43692.65567		 889.56308			42803.09259		222.66000		875.00000 
 43692.65567		 305.27265			43387.38302		69.65600		324.00000 
 43692.65567		 889.56308			42803.09259		222.66000		875.00000 
 43692.65567		 305.27265			43387.38302		69.65600		324.00000 
 43692.65567		 889.56308			42803.09259		222.66000		875.00000 
 43692.65567		 305.27265			43387.38302		69.65600		324.00000 
 43692.65567		 889.56308			42803.09259		222.66000		875.00000 
 43692.65567		 305.27265			43387.38302		69.65600		324.00000 
 43692.65567		 889.56308			42803.09259		222.66000		875.00000 
 43692.65567		 305.27265			43387.38302		69.65600		324.00000 
 43692.65567		 889.56308			42803.09259		222.66000		875.00000 
 43692.65567		 305.27265			43387.38302		69.65600		324.00000 
 43692.65567		 889.56308			42803.09259		222.66000		875.00000 
 43692.65567		 305.27265			43387.38302		69.65600		324.00000 
 43692.65567		 889.56308			42803.09259		222.66000		875.00000 
 43692.65567		 305.27265			43387.38302		69.65600		324.00000 
 43692.65567		 889.56308			42803.09259		222.66000		875.00000 
 43692.65567		 305.27265			43387.38302		69.65600		324.00000 
 43692.65567		 889.56308			42803.09259		222.66000		875.00000 
 43692.65567		 305.27265			43387.38302		69.65600		324.00000 
 43692.65567		 889.56308			42803.09259		222.66000		875.00000 
 43692.65567		 305.27265			43387.38302		69.65600		324.00000 
 43692.65567		 889.56308			42803.09259		222.66000		875.00000 
 43692.65567		 305.27265			43387.38302		69.65600		324.00000 
 43692.65567		 889.56308			42803.09259		222.66000		875.00000 
 43692.65567		 305.27265			43387.38302		69.65600		324.00000 
 43692.65567		 889.56308			42803.09259		222.66000		875.00000 
 43692.65567		 305.27265			43387.38302		69.65600		324.00000 
 43692.65567		 889.56308			42803.09259		222.66000		875.00000 
 43692.65567		 305.27265			43387.38302		69.65600		324.00000 
 43692.65567		 889.56308			42803.09259		222.66000		875.00000 
 43692.65567		 305.27265			43387.38302		69.65600		324.00000 
 43692.65567		 889.56308			42803.09259		222.66000		875.00000 
 43692.65567		 305.27265			43387.38302		69.65600		324.00000 
 43692.65567		 889.56308			42803.09259		222.66000		875.00000 
 43692.65567		 305.27265			43387.38302		69.65600		324.00000 
 43692.65567		 889.56308			42803.09259		222.66000		875.00000 
 43692.65567		 305.27265			43387.38302		69.65600		324.00000 
 43692.65567		 889.56308			42803.09259		222.66000		875.00000 
 43692.65567		 305.27265			43387.38302		69.65600		324.00000 
 43692.65567		 889.56308			42803.09259		222.66000		875.00000 
 43692.65567		 305.27265			43387.38302		69.65600		324.00000 
 43692.65567		 889.56308			42803.09259		222.66000		875.00000 
 43692.65567		 305.27265			43387.38302		69.65600		324.00000 
 43692.65567		 889.56308			42803.09259		222.66000		875.00000 
 43692.65567		 305.27265			43387.38302		69.65600		324.00000 
 43692.65567		 889.56308			42803.09259		222.66000		875.00000 
 43692.65567		 305.27265			43387.38302		69.65600		324.00000 
 43692.65567		 889.56308			42803.09259		223.55400		875.00000 
 43692.65567		 305.27265			43387.38302		69.65600		324.00000 
 43692.65567		 889.56308			42803.09259		223.55400		875.00000 
 43692.65567		 305.27265			43387.38302		69.65600		324.00000 
 43692.65567		 889.56308			42803.09259		223.55400		875.00000 
 43692.65567		 305.27265			43387.38302		69.65600		324.00000 
 43692.65567		 889.56308			42803.09259		223.55400		875.00000 
 43692.65567		 305.27265			43387.38302		69.65600		324.00000 
 43692.65567		 889.56308			42803.09259		223.55400		875.00000 
 43692.65567		 305.27265			43387.38302		69.65600		324.00000 
 43692.65567		 889.56308			42803.09259		223.55400		875.00000 
 43692.65567		 305.27265			43387.38302		69.65600		324.00000 
 43692.65567		 889.56308			42803.09259		223.55400		875.00000 
 43692.65567		 305.27265			43387.38302		69.65600		324.00000 
 43692.65567		 889.56308			42803.09259		223.55400		875.00000 
 43692.65567		 305.27265			43387.38302		69.65600		324.00000 
 43692.65567		 889.56308			42803.09259		223.55400		875.00000 
 43692.65567		 305.27265			43387.38302		69.65600		324.00000 
 43692.65567		 889.56308			42803.09259		223.55400		875.00000 
 43692.65567		 305.27265			43387.38302		69.65600		324.00000 
 43692.65567		 889.56308			42803.09259		223.55400		875.00000 
 43692.65567		 305.27265			43387.38302		69.65600		324.00000 
 43692.65567		 889.56308			42803.09259		223.55400		875.00000 
 43692.65567		 305.27265			43387.38302		69.65600		324.00000 
 43692.65567		 889.56308			42803.09259		223.55400		875.00000 
 43692.65567		 305.27265			43387.38302		69.65600		324.00000 
 43692.65567		 889.56308			42803.09259		223.55400		875.00000 
 43692.65567		 305.27265			43387.38302		69.65600		324.00000 
 43692.65567		 889.56308			42803.09259		223.55400		875.00000 
 43692.65567		 305.27265			43387.38302		69.65600		324.00000 
 43692.65567		 889.56308			42803.09259		223.55400		875.00000 
 43692.65567		 305.27265			43387.38302		69.65600		324.00000 
 43692.65567		 889.56308			42803.09259		223.55400		875.00000 
 43692.65567		 305.27265			43387.38302		69.65600		324.00000 
 43692.65567		 889.56308			42803.09259		223.55400		875.00000 
 43692.65567		 305.27265			43387.38302		69.65600		324.00000 
 43692.65567		 889.56308			42803.09259		223.55400		875.00000 
 43692.65567		 305.27265			43387.38302		69.65600		324.00000 
 43692.65567		 889.56308			42803.09259		223.55400		875.00000 
 43692.65567		 305.27265			43387.38302		69.65600		324.00000 
 43692.65567		 889.56308			42803.09259		223.55400		875.00000 
 43692.65567		 305.27265			43387.38302		69.65600		324.00000 
 43692.65567		 889.56308			42803.09259		223.55400		875.00000 
 43692.65567		 305.27265			43387.38302		69.65600		324.00000 
 43692.65567		 889.56308			42803.09259		223.55400		875.00000 
 43692.65567		 305.27265			43387.38302		69.65600		324.00000 
 43692.65567		 889.56308			42803.09259		223.55400		875.00000 
 43692.65567		 305.27265			43387.38302		69.65600		324.00000 
 43692.65567		 889.56308			42803.09259		223.55400		875.00000 
 43692.65567		 305.27265			43387.38302		69.65600		324.00000 
 43692.65567		 889.56308			42803.09259		223.55400		875.00000 
 43692.65567		 305.27265			43387.38302		69.65600		324.00000 
 43692.65567		 889.56308			42803.09259		223.55400		875.00000 
 43692.65567		 305.27265			43387.38302		69.65600		324.00000 
 43692.65567		 889.56308			42803.09259		223.55400		875.00000 
 43692.65567		 305.27265			43387.38302		69.65600		324.00000 
 43692.65567		 889.56308			42803.09259		223.55400		875.00000 
 43692.65567		 305.27265			43387.38302		69.65600		324.00000 
 43692.65567		 889.56308			42803.09259		223.55400		875.00000 
 43692.65567		 305.27265			43387.38302		69.65600		324.00000 
 43692.65567		 889.56308			42803.09259		223.55400		875.00000 
 43692.65567		 305.27265			43387.38302		69.65600		324.00000 
 43692.65567		 889.56308			42803.09259		223.55400		875.00000 
 43692.65567		 305.27265			43387.38302		69.65600		324.00000 
 43692.65567		 889.56308			42803.09259		223.55400		875.00000 
 43692.65567		 305.27265			43387.38302		69.65600		324.00000 
 43692.65567		 889.56308			42803.09259		223.55400		875.00000 
 43692.65567		 305.27265			43387.38302		69.65600		324.00000 
 43692.65567		 889.56308			42803.09259		223.55400		875.00000 
 43692.65567		 305.27265			43387.38302		69.65600		324.00000 
 43692.65567		 889.56308			42803.09259		223.55400		875.00000 
 43692.65567		 305.27265			43387.38302		69.65600		324.00000 
 43692.65567		 889.56308			42803.09259		223.55400		875.00000 
 43692.65567		 305.27265			43387.38302		69.65600		324.00000 
 43692.65567		 889.56308			42803.09259		223.55400		875.00000 
 43692.65567		 305.27265			43387.38302		69.65600		324.00000 
 43692.65567		 889.56308			42803.09259		223.55400		875.00000 
 43692.65567		 305.27265			43387.38302		69.65600		324.00000 
 43692.65567		 889.56308			42803.09259		223.55400		875.00000 
 43692.65567		 305.27265			43387.38302		69.65600		324.00000 
 43692.65567		 889.56308			42803.09259		223.55400		875.00000 
 43692.65567		 305.27265			43387.38302		69.65600		324.00000 
 43692.65567		 889.56308			42803.09259		223.55400		875.00000 
 43692.65567		 305.27265			43387.38302		69.65600		324.00000 
 43692.65567		 889.56308			42803.09259		223.55400		875.00000 
 43692.65567		 305.27265			43387.38302		69.65600		324.00000 
 43692.65567		 889.56308			42803.09259		223.55400		875.00000 
 43692.65567		 305.27265			43387.38302		69.65600		324.00000 
 43692.65567		 889.56308			42803.09259		223.55400		875.00000 
 43692.65567		 305.27265			43387.38302		69.65600		324.00000 
 43692.65567		 889.56308			42803.09259		223.55400		875.00000 
 43692.65567		 305.27265			43387.38302		69.65600		324.00000 
 43692.65567		 889.56308			42803.09259		223.55400		875.00000 
 43692.65567		 305.27265			43387.38302		69.65600		324.00000 
 43692.65567		 889.56308			42803.09259		223.55400		875.00000 
 43692.65567		 305.27265			43387.38302		69.65600		324.00000 
 43692.65567		 889.56308			42803.09259		223.55400		875.00000 
 43692.65567		 305.27265			43387.38302		69.65600		324.00000 
 43692.65567		 889.56308			42803.09259		223.55400		875.00000 
 43692.65567		 305.27265			43387.38302		69.65600		324.00000 
 43692.65567		 889.56308			42803.09259		223.55400		875.00000 
 43692.65567		 305.27265			43387.38302		69.65600		324.00000 
 43692.65567		 889.56308			42803.09259		223.55400		875.00000 
 43692.65567		 305.27265			43387.38302		69.65600		324.00000 
 43692.65567		 889.56308			42803.09259		223.55400		875.00000 
 43692.65567		 305.27265			43387.38302		69.65600		324.00000 
 43692.65567		 889.56308			42803.09259		223.55400		875.00000 
 43692.65567		 305.27265			43387.38302		69.65600		324.00000 
 43692.65567		 889.56308			42803.09259		223.55400		875.00000 
 43692.65567		 305.27265			43387.38302		69.65600		324.00000 
 43692.65567		 889.56308			42803.09259		223.55400		875.00000 
 43692.65567		 305.27265			43387.38302		69.65600		324.00000 
 43692.65567		 889.56308			42803.09259		223.55400		875.00000 
 43692.65567		 305.27265			43387.38302		69.65600		324.00000 
 43692.65567		 889.56308			42803.09259		223.55400		875.00000 
 43692.65567		 305.27265			43387.38302		69.65600		324.00000 
 43692.65567		 889.56308			42803.09259		223.55400		875.00000 
 43692.65567		 305.27265			43387.38302		69.65600		324.00000 
 43692.65567		 889.56308			42803.09259		223.55400		875.00000 
 43692.65567		 305.27265			43387.38302		69.65600		324.00000 
 43692.65567		 889.56308			42803.09259		223.55400		875.00000 
 43692.65567		 305.27265			43387.38302		69.65600		324.00000 
 43692.65567		 889.56308			42803.09259		223.55400		875.00000 
 43692.65567		 305.27265			43387.38302		69.65600		324.00000 
 43692.65567		 889.56308			42803.09259		223.55400		875.00000 
 43692.65567		 305.27265			43387.38302		69.65600		324.00000 
 43692.65567		 889.56308			42803.09259		223.55400		875.00000 
 43692.65567		 305.27265			43387.38302		69.65600		324.00000 
 43692.65567		 889.56308			42803.09259		222.59000		875.00000 
 43692.65567		 305.27265			43387.38302		69.65600		324.00000 
 43692.65567		 889.56308			42803.09259		222.59000		875.00000 
 43692.65567		 305.27265			43387.38302		69.65600		324.00000 
 43692.65567		 889.56308			42803.09259		222.59000		875.00000 
 43692.65567		 305.27265			43387.38302		69.65600		324.00000 
 43692.65567		 889.56308			42803.09259		222.59000		875.00000 
 43692.65567		 305.27265			43387.38302		69.65600		324.00000 
 43692.65567		 889.56308			42803.09259		222.59000		875.00000 
 43692.65567		 305.27265			43387.38302		69.65600		324.00000 
 43692.65567		 889.56308			42803.09259		222.59000		875.00000 
 43692.65567		 305.27265			43387.38302		69.65600		324.00000 
 43692.65567		 889.56308			42803.09259		222.59000		875.00000 
 43692.65567		 305.27265			43387.38302		69.65600		324.00000 
 43692.65567		 889.56308			42803.09259		222.59000		875.00000 
 43692.65567		 305.27265			43387.38302		69.65600		324.00000 
 43692.65567		 889.56308			42803.09259		222.59000		875.00000 
 43692.65567		 305.27265			43387.38302		69.65600		324.00000 
 43692.65567		 889.56308			42803.09259		222.59000		875.00000 
 43692.65567		 305.27265			43387.38302		69.65600		324.00000 
 43692.65567		 889.56308			42803.09259		222.59000		875.00000 
 43692.65567		 305.27265			43387.38302		69.65600		324.00000 
 43692.65567		 889.56308			42803.09259		222.59000		875.00000 
 43692.65567		 305.27265			43387.38302		69.65600		324.00000 
 43692.65567		 889.56308			42803.09259		222.59000		875.00000 
 43692.65567		 305.27265			43387.38302		69.65600		324.00000 
 43692.65567		 889.56308			42803.09259		222.59000		875.00000 
 43692.65567		 305.27265			43387.38302		69.65600		324.00000 
 43692.65567		 889.56308			42803.09259		222.59000		875.00000 
 43692.65567		 305.27265			43387.38302		69.65600		324.00000 
 43692.65567		 889.56308			42803.09259		222.59000		875.00000 
 43692.65567		 305.27265			43387.38302		69.65600		324.00000 
 43692.65567		 889.56308			42803.09259		222.59000		875.00000 
 43692.65567		 305.27265			43387.38302		69.65600		324.00000 
 43692.65567		 889.56308			42803.09259		222.59000		875.00000 
 43692.65567		 305.27265			43387.38302		69.65600		324.00000 
 43692.65567		 889.56308			42803.09259		222.59000		875.00000 
 43692.65567		 305.27265			43387.38302		69.65600		324.00000 
 43692.65567		 889.56308			42803.09259		222.59000		875.00000 
 43692.65567		 305.27265			43387.38302		69.65600		324.00000 
 43692.65567		 889.56308			42803.09259		222.59000		875.00000 
 43692.65567		 305.27265			43387.38302		69.65600		324.00000 
 43692.65567		 889.56308			42803.09259		222.59000		875.00000 
 43692.65567		 305.27265			43387.38302		69.65600		324.00000 
 43692.65567		 889.56308			42803.09259		222.59000		875.00000 
 43692.65567		 305.27265			43387.38302		69.65600		324.00000 
 43692.65567		 889.56308			42803.09259		222.59000		875.00000 
 43692.65567		 305.27265			43387.38302		69.65600		324.00000 
 43692.65567		 889.56308			42803.09259		222.59000		875.00000 
 43692.65567		 305.27265			43387.38302		69.65600		324.00000 
 43692.65567		 889.56308			42803.09259		222.59000		875.00000 
 43692.65567		 305.27265			43387.38302		69.65600		324.00000 
 43692.65567		 889.56308			42803.09259		222.59000		875.00000 
 43692.65567		 305.27265			43387.38302		69.65600		324.00000 
 43692.65567		 889.56308			42803.09259		222.59000		875.00000 
 43692.65567		 305.27265			43387.38302		69.65600		324.00000 
 43692.65567		 889.56308			42803.09259		222.59000		875.00000 
 43692.65567		 305.27265			43387.38302		69.65600		324.00000 
 43692.65567		 889.56308			42803.09259		222.59000		875.00000 
 43692.65567		 305.27265			43387.38302		69.65600		324.00000 
 43692.65567		 889.56308			42803.09259		222.59000		875.00000 
 43692.65567		 305.27265			43387.38302		69.65600		324.00000 
 43692.65567		 889.56308			42803.09259		222.59000		875.00000 
 43692.65567		 305.27265			43387.38302		69.65600		324.00000 
 43692.65567		 889.56308			42803.09259		222.59000		875.00000 
 43692.65567		 305.27265			43387.38302		69.65600		324.00000 
 43692.65567		 889.56308			42803.09259		222.59000		875.00000 
 43692.65567		 305.27265			43387.38302		69.65600		324.00000 
 43692.65567		 889.56308			42803.09259		222.59000		875.00000 
 43692.65567		 305.27265			43387.38302		69.65600		324.00000 
 43692.65567		 889.56308			42803.09259		222.59000		875.00000 
 43692.65567		 305.27265			43387.38302		69.65600		324.00000 
 43692.65567		 889.56308			42803.09259		222.59000		875.00000 
 43692.65567		 305.27265			43387.38302		69.65600		324.00000 
 43692.65567		 889.56308			42803.09259		222.59000		875.00000 
 43692.65567		 305.27265			43387.38302		69.65600		324.00000 
 43692.65567		 889.56308			42803.09259		222.59000		875.00000 
 43692.65567		 305.27265			43387.38302		69.65600		324.00000 
 43692.65567		 889.56308			42803.09259		222.59000		875.00000 
 43692.65567		 305.27265			43387.38302		69.65600		324.00000 
 43692.65567		 889.56308			42803.09259		222.59000		875.00000 
 43692.65567		 305.27265			43387.38302		69.65600		324.00000 
 43692.65567		 889.56308			42803.09259		222.59000		875.00000 
 43692.65567		 305.27265			43387.38302		69.65600		324.00000 
 43692.65567		 889.56308			42803.09259		222.59000		875.00000 
 43692.65567		 305.27265			43387.38302		69.65600		324.00000 
 43692.65567		 889.56308			42803.09259		222.59000		875.00000 
 43692.65567		 305.27265			43387.38302		69.65600		324.00000 
 43692.65567		 889.56308			42803.09259		222.59000		875.00000 
 43692.65567		 305.27265			43387.38302		69.65600		324.00000 
 43692.65567		 889.56308			42803.09259		222.59000		875.00000 
 43692.65567		 305.27265			43387.38302		69.65600		324.00000 
 43692.65567		 889.56308			42803.09259		222.59000		875.00000 
 43692.65567		 305.27265			43387.38302		69.65600		324.00000 
 43692.65567		 889.56308			42803.09259		222.59000		875.00000 
 43692.65567		 305.27265			43387.38302		69.65600		324.00000 
 43692.65567		 889.56308			42803.09259		222.59000		875.00000 
 43692.65567		 305.27265			43387.38302		69.65600		324.00000 
 43692.65567		 889.56308			42803.09259		222.59000		875.00000 
 43692.65567		 305.27265			43387.38302		69.65600		324.00000 
 43692.65567		 889.56308			42803.09259		222.59000		875.00000 
 43692.65567		 305.27265			43387.38302		69.65600		324.00000 
 43692.65567		 889.56308			42803.09259		222.59000		875.00000 
 43692.65567		 305.27265			43387.38302		69.65600		324.00000 
 43692.65567		 889.56308			42803.09259		222.59000		875.00000 
 43692.65567		 305.27265			43387.38302		69.65600		324.00000 
 43692.65567		 889.56308			42803.09259		222.59000		875.00000 
 43692.65567		 305.27265			43387.38302		69.65600		324.00000 
 43692.65567		 889.56308			42803.09259		222.59000		875.00000 
 43692.65567		 305.27265			43387.38302		69.65600		324.00000 
 43692.65567		 889.56308			42803.09259		222.59000		875.00000 
 43692.65567		 305.27265			43387.38302		69.65600		324.00000 
 43692.65567		 889.56308			42803.09259		222.59000		875.00000 
 43692.65567		 305.27265			43387.38302		69.65600		324.00000 
 43692.65567		 889.56308			42803.09259		222.59000		875.00000 
 43692.65567		 305.27265			43387.38302		69.65600		324.00000 
 43692.65567		 889.56308			42803.09259		222.59000		875.00000 
 43692.65567		 305.27265			43387.38302		69.65600		324.00000 
 43692.65567		 889.56308			42803.09259		222.59000		875.00000 
 43692.65567		 305.27265			43387.38302		69.65600		324.00000 
 43692.65567		 889.56308			42803.09259		222.59000		875.00000 
 43692.65567		 305.27265			43387.38302		69.65600		324.00000 
 43692.65567		 889.56308			42803.09259		222.59000		875.00000 
 43692.65567		 305.27265			43387.38302		69.65600		324.00000 
 43692.65567		 889.56308			42803.09259		222.59000		875.00000 
 43692.65567		 305.27265			43387.38302		69.65600		324.00000 
 43692.65567		 889.56308			42803.09259		222.59000		875.00000 
 43692.65567		 305.27265			43387.38302		69.65600		324.00000 
 43692.65567		 889.56308			42803.09259		222.95400		875.00000 
 43692.65567		 305.27265			43387.38302		69.65600		324.00000 
 43692.65567		 889.56308			42803.09259		222.95400		875.00000 
 43692.65567		 305.27265			43387.38302		69.65600		324.00000 
 43692.65567		 889.56308			42803.09259		222.95400		875.00000 
 43692.65567		 305.27265			43387.38302		69.65600		324.00000 
 43692.65567		 889.56308			42803.09259		222.95400		875.00000 
 43692.65567		 305.27265			43387.38302		69.65600		324.00000 
 43692.65567		 889.56308			42803.09259		222.95400		875.00000 
 43692.65567		 305.27265			43387.38302		69.65600		324.00000 
 43692.65567		 889.56308			42803.09259		222.95400		875.00000 
 43692.65567		 305.27265			43387.38302		69.65600		324.00000 
 43692.65567		 889.56308			42803.09259		222.95400		875.00000 
 43692.65567		 305.27265			43387.38302		69.65600		324.00000 
 43692.65567		 889.56308			42803.09259		222.95400		875.00000 
 43692.65567		 305.27265			43387.38302		69.65600		324.00000 
 43692.65567		 889.56308			42803.09259		222.95400		875.00000 
 43692.65567		 305.27265			43387.38302		69.65600		324.00000 
 43692.65567		 889.56308			42803.09259		222.95400		875.00000 
 43692.65567		 305.27265			43387.38302		69.65600		324.00000 
 43692.65567		 889.56308			42803.09259		222.95400		875.00000 
 43692.65567		 305.27265			43387.38302		69.65600		324.00000 
 43692.65567		 889.56308			42803.09259		222.95400		875.00000 
 43692.65567		 305.27265			43387.38302		69.65600		324.00000 
 43692.65567		 889.56308			42803.09259		222.95400		875.00000 
 43692.65567		 305.27265			43387.38302		69.65600		324.00000 
 43692.65567		 889.56308			42803.09259		222.95400		875.00000 
 43692.65567		 305.27265			43387.38302		69.65600		324.00000 
 43692.65567		 889.56308			42803.09259		222.95400		875.00000 
 43692.65567		 305.27265			43387.38302		69.65600		324.00000 
 43692.65567		 889.56308			42803.09259		222.95400		875.00000 
 43692.65567		 305.27265			43387.38302		69.65600		324.00000 
 43692.65567		 889.56308			42803.09259		222.95400		875.00000 
 43692.65567		 305.27265			43387.38302		69.65600		324.00000 
 43692.65567		 889.56308			42803.09259		222.95400		875.00000 
 43692.65567		 305.27265			43387.38302		69.65600		324.00000 
 43692.65567		 889.56308			42803.09259		222.95400		875.00000 
 43692.65567		 305.27265			43387.38302		69.65600		324.00000 
 43692.65567		 889.56308			42803.09259		222.95400		875.00000 
 43692.65567		 305.27265			43387.38302		69.65600		324.00000 
 43692.65567		 889.56308			42803.09259		222.95400		875.00000 
 43692.65567		 305.27265			43387.38302		69.65600		324.00000 
 43692.65567		 889.56308			42803.09259		222.95400		875.00000 
 43692.65567		 305.27265			43387.38302		69.65600		324.00000 
 43692.65567		 889.56308			42803.09259		222.95400		875.00000 
 43692.65567		 305.27265			43387.38302		69.65600		324.00000 
 43692.65567		 889.56308			42803.09259		222.95400		875.00000 
 43692.65567		 305.27265			43387.38302		69.65600		324.00000 
 43692.65567		 889.56308			42803.09259		222.95400		875.00000 
 43692.65567		 305.27265			43387.38302		69.65600		324.00000 
 43692.65567		 889.56308			42803.09259		222.95400		875.00000 
 43692.65567		 305.27265			43387.38302		69.65600		324.00000 
 43692.65567		 889.56308			42803.09259		222.95400		875.00000 
 43692.65567		 305.27265			43387.38302		69.65600		324.00000 
 43692.65567		 889.56308			42803.09259		222.95400		875.00000 
 43692.65567		 305.27265			43387.38302		69.65600		324.00000 
 43692.65567		 889.56308			42803.09259		222.95400		875.00000 
 43692.65567		 305.27265			43387.38302		69.65600		324.00000 
 43692.65567		 889.56308			42803.09259		222.95400		875.00000 
 43692.65567		 305.27265			43387.38302		69.65600		324.00000 
 43692.65567		 889.56308			42803.09259		222.95400		875.00000 
 43692.65567		 305.27265			43387.38302		69.65600		324.00000 
 43692.65567		 889.56308			42803.09259		222.95400		875.00000 
 43692.65567		 305.27265			43387.38302		69.65600		324.00000 
 43692.65567		 889.56308			42803.09259		222.95400		875.00000 
 43692.65567		 305.27265			43387.38302		69.65600		324.00000 
 43692.65567		 889.56308			42803.09259		222.95400		875.00000 
 43692.65567		 305.27265			43387.38302		69.65600		324.00000 
 43692.65567		 889.56308			42803.09259		222.95400		875.00000 
 43692.65567		 305.27265			43387.38302		69.65600		324.00000 
 43692.65567		 889.56308			42803.09259		222.95400		875.00000 
 43692.65567		 305.27265			43387.38302		69.65600		324.00000 
 43692.65567		 889.56308			42803.09259		222.95400		875.00000 
 43692.65567		 305.27265			43387.38302		69.65600		324.00000 
 43692.65567		 889.56308			42803.09259		222.95400		875.00000 
 43692.65567		 305.27265			43387.38302		69.65600		324.00000 
 43692.65567		 889.56308			42803.09259		222.95400		875.00000 
 43692.65567		 305.27265			43387.38302		69.65600		324.00000 
 43692.65567		 889.56308			42803.09259		222.95400		875.00000 
 43692.65567		 305.27265			43387.38302		69.65600		324.00000 
 43692.65567		 889.56308			42803.09259		222.95400		875.00000 
 43692.65567		 305.27265			43387.38302		69.65600		324.00000 
 43692.65567		 889.56308			42803.09259		222.95400		875.00000 
 43692.65567		 305.27265			43387.38302		69.65600		324.00000 
 43692.65567		 889.56308			42803.09259		222.95400		875.00000 
 43692.65567		 305.27265			43387.38302		69.65600		324.00000 
 43692.65567		 889.56308			42803.09259		222.95400		875.00000 
 43692.65567		 305.27265			43387.38302		69.65600		324.00000 
 43692.65567		 889.56308			42803.09259		222.95400		875.00000 
 43692.65567		 305.27265			43387.38302		69.65600		324.00000 
 43692.65567		 889.56308			42803.09259		222.95400		875.00000 
 43692.65567		 305.27265			43387.38302		69.65600		324.00000 
 43692.65567		 889.56308			42803.09259		222.95400		875.00000 
 43692.65567		 305.27265			43387.38302		69.65600		324.00000 
 43692.65567		 889.56308			42803.09259		222.95400		875.00000 
 43692.65567		 305.27265			43387.38302		69.65600		324.00000 
 43692.65567		 889.56308			42803.09259		222.95400		875.00000 
 43692.65567		 305.27265			43387.38302		69.65600		324.00000 
 43692.65567		 889.56308			42803.09259		222.95400		875.00000 
 43692.65567		 305.27265			43387.38302		69.65600		324.00000 
 43692.65567		 889.56308			42803.09259		222.95400		875.00000 
 43692.65567		 305.27265			43387.38302		69.65600		324.00000 
 43692.65567		 889.56308			42803.09259		222.95400		875.00000 
 43692.65567		 305.27265			43387.38302		69.65600		324.00000 
 43692.65567		 889.56308			42803.09259		222.95400		875.00000 
 43692.65567		 305.27265			43387.38302		69.65600		324.00000 
 43692.65567		 889.56308			42803.09259		222.95400		875.00000 
 43692.65567		 305.27265			43387.38302		69.65600		324.00000 
 43692.65567		 889.56308			42803.09259		222.95400		875.00000 
 43692.65567		 305.27265			43387.38302		69.65600		324.00000 
 43692.65567		 889.56308			42803.09259		222.95400		875.00000 
 43692.65567		 305.27265			43387.38302		69.65600		324.00000 
 43692.65567		 889.56308			42803.09259		222.95400		875.00000 
 43692.65567		 305.27265			43387.38302		69.65600		324.00000 
 43692.65567		 889.56308			42803.09259		222.95400		875.00000 
 43692.65567		 305.27265			43387.38302		69.65600		324.00000 
 43692.65567		 889.56308			42803.09259		222.95400		875.00000 
 43692.65567		 305.27265			43387.38302		69.65600		324.00000 
 43692.65567		 889.56308			42803.09259		222.95400		875.00000 
 43692.65567		 305.27265			43387.38302		69.65600		324.00000 
 43692.65567		 889.56308			42803.09259		222.95400		875.00000 
 43692.65567		 305.27265			43387.38302		69.65600		324.00000 
 43692.65567		 889.56308			42803.09259		222.95400		875.00000 
 43692.65567		 305.27265			43387.38302		69.65600		324.00000 
 43692.65567		 889.56308			42803.09259		222.95400		875.00000 
 43692.65567		 305.27265			43387.38302		69.65600		324.00000 
 43692.65567		 889.56308			42803.09259		222.95400		875.00000 
 43692.65567		 305.27265			43387.38302		69.65600		324.00000 
 43692.65567		 889.56308			42803.09259		222.95400		875.00000 
 43692.65567		 305.27265			43387.38302		69.65600		324.00000 
 43692.65567		 889.56308			42803.09259		222.95400		875.00000 
 43692.65567		 305.27265			43387.38302		69.65600		324.00000 
 43692.65567		 889.56308			42803.09259		222.95400		875.00000 
 43692.65567		 305.27265			43387.38302		69.65600		324.00000 
 43692.65567		 889.56308			42803.09259		223.55400		875.00000 
 43692.65567		 305.27265			43387.38302		69.65600		324.00000 
 43692.65567		 889.56308			42803.09259		223.55400		875.00000 
 43692.65567		 305.27265			43387.38302		69.65600		324.00000 
 43692.65567		 889.56308			42803.09259		223.55400		875.00000 
 43692.65567		 305.27265			43387.38302		69.65600		324.00000 
 43692.65567		 889.56308			42803.09259		223.55400		875.00000 
 43692.65567		 305.27265			43387.38302		69.65600		324.00000 
 43692.65567		 889.56308			42803.09259		223.55400		875.00000 
 43692.65567		 305.27265			43387.38302		69.65600		324.00000 
 43692.65567		 889.56308			42803.09259		223.55400		875.00000 
 43692.65567		 305.27265			43387.38302		69.65600		324.00000 
 43692.65567		 889.56308			42803.09259		223.55400		875.00000 
 43692.65567		 305.27265			43387.38302		69.65600		324.00000 
 43692.65567		 889.56308			42803.09259		223.55400		875.00000 
 43692.65567		 305.27265			43387.38302		69.65600		324.00000 
 43692.65567		 889.56308			42803.09259		223.55400		875.00000 
 43692.65567		 305.27265			43387.38302		69.65600		324.00000 
 43692.65567		 889.56308			42803.09259		223.55400		875.00000 
 43692.65567		 305.27265			43387.38302		69.65600		324.00000 
 43692.65567		 889.56308			42803.09259		223.55400		875.00000 
 43692.65567		 305.27265			43387.38302		69.65600		324.00000 
 43692.65567		 889.56308			42803.09259		223.55400		875.00000 
 43692.65567		 305.27265			43387.38302		69.65600		324.00000 
 43692.65567		 889.56308			42803.09259		223.55400		875.00000 
 43692.65567		 305.27265			43387.38302		69.65600		324.00000 
 43692.65567		 889.56308			42803.09259		223.55400		875.00000 
 43692.65567		 305.27265			43387.38302		69.65600		324.00000 
 43692.65567		 889.56308			42803.09259		223.55400		875.00000 
 43692.65567		 305.27265			43387.38302		69.65600		324.00000 
 43692.65567		 889.56308			42803.09259		223.55400		875.00000 
 43692.65567		 305.27265			43387.38302		69.65600		324.00000 
 43692.65567		 889.56308			42803.09259		223.55400		875.00000 
 43692.65567		 305.27265			43387.38302		69.65600		324.00000 
 43692.65567		 889.56308			42803.09259		223.55400		875.00000 
 43692.65567		 305.27265			43387.38302		69.65600		324.00000 
 43692.65567		 889.56308			42803.09259		223.55400		875.00000 
 43692.65567		 305.27265			43387.38302		69.65600		324.00000 
 43692.65567		 889.56308			42803.09259		223.55400		875.00000 
 43692.65567		 305.27265			43387.38302		69.65600		324.00000 
 43692.65567		 889.56308			42803.09259		223.55400		875.00000 
 43692.65567		 305.27265			43387.38302		69.65600		324.00000 
 43692.65567		 889.56308			42803.09259		223.55400		875.00000 
 43692.65567		 305.27265			43387.38302		69.65600		324.00000 
 43692.65567		 889.56308			42803.09259		223.55400		875.00000 
 43692.65567		 305.27265			43387.38302		69.65600		324.00000 
 43692.65567		 889.56308			42803.09259		223.55400		875.00000 
 43692.65567		 305.27265			43387.38302		69.65600		324.00000 
 43692.65567		 889.56308			42803.09259		223.55400		875.00000 
 43692.65567		 305.27265			43387.38302		69.65600		324.00000 
 43692.65567		 889.56308			42803.09259		223.55400		875.00000 
 43692.65567		 305.27265			43387.38302		69.65600		324.00000 
 43692.65567		 889.56308			42803.09259		223.55400		875.00000 
 43692.65567		 305.27265			43387.38302		69.65600		324.00000 
 43692.65567		 889.56308			42803.09259		223.55400		875.00000 
 43692.65567		 305.27265			43387.38302		69.65600		324.00000 
 43692.65567		 889.56308			42803.09259		223.55400		875.00000 
 43692.65567		 305.27265			43387.38302		69.65600		324.00000 
 43692.65567		 889.56308			42803.09259		223.55400		875.00000 
 43692.65567		 305.27265			43387.38302		69.65600		324.00000 
 43692.65567		 889.56308			42803.09259		223.55400		875.00000 
 43692.65567		 305.27265			43387.38302		69.65600		324.00000 
 43692.65567		 889.56308			42803.09259		223.55400		875.00000 
 43692.65567		 305.27265			43387.38302		69.65600		324.00000 
 43692.65567		 889.56308			42803.09259		223.55400		875.00000 
 43692.65567		 305.27265			43387.38302		69.65600		324.00000 
 43692.65567		 889.56308			42803.09259		223.55400		875.00000 
 43692.65567		 305.27265			43387.38302		69.65600		324.00000 
 43692.65567		 889.56308			42803.09259		223.55400		875.00000 
 43692.65567		 305.27265			43387.38302		69.65600		324.00000 
 43692.65567		 889.56308			42803.09259		223.55400		875.00000 
 43692.65567		 305.27265			43387.38302		69.65600		324.00000 
 43692.65567		 889.56308			42803.09259		223.55400		875.00000 
 43692.65567		 305.27265			43387.38302		69.65600		324.00000 
 43692.65567		 889.56308			42803.09259		223.55400		875.00000 
 43692.65567		 305.27265			43387.38302		69.65600		324.00000 
 43692.65567		 889.56308			42803.09259		223.55400		875.00000 
 43692.65567		 305.27265			43387.38302		69.65600		324.00000 
 43692.65567		 889.56308			42803.09259		223.55400		875.00000 
 43692.65567		 305.27265			43387.38302		69.65600		324.00000 
 43692.65567		 889.56308			42803.09259		223.55400		875.00000 
 43692.65567		 305.27265			43387.38302		69.65600		324.00000 
 43692.65567		 889.56308			42803.09259		223.55400		875.00000 
 43692.65567		 305.27265			43387.38302		69.65600		324.00000 
 43692.65567		 889.56308			42803.09259		223.55400		875.00000 
 43692.65567		 305.27265			43387.38302		69.65600		324.00000 
 43692.65567		 889.56308			42803.09259		223.55400		875.00000 
 43692.65567		 305.27265			43387.38302		69.65600		324.00000 
 43692.65567		 889.56308			42803.09259		223.55400		875.00000 
 43692.65567		 305.27265			43387.38302		69.65600		324.00000 
 43692.65567		 889.56308			42803.09259		223.55400		875.00000 
 43692.65567		 305.27265			43387.38302		69.65600		324.00000 
 43692.65567		 889.56308			42803.09259		223.55400		875.00000 
 43692.65567		 305.27265			43387.38302		69.65600		324.00000 
 43692.65567		 889.56308			42803.09259		223.55400		875.00000 
 43692.65567		 305.27265			43387.38302		69.65600		324.00000 
 43692.65567		 889.56308			42803.09259		223.55400		875.00000 
 43692.65567		 305.27265			43387.38302		69.65600		324.00000 
 43692.65567		 889.56308			42803.09259		223.55400		875.00000 
 43692.65567		 305.27265			43387.38302		69.65600		324.00000 
 43692.65567		 889.56308			42803.09259		223.55400		875.00000 
 43692.65567		 305.27265			43387.38302		69.65600		324.00000 
 43692.65567		 889.56308			42803.09259		223.55400		875.00000 
 43692.65567		 305.27265			43387.38302		69.65600		324.00000 
 43692.65567		 889.56308			42803.09259		223.55400		875.00000 
 43692.65567		 305.27265			43387.38302		69.65600		324.00000 
 43692.65567		 889.56308			42803.09259		223.55400		875.00000 
 43692.65567		 305.27265			43387.38302		69.65600		324.00000 
 43692.65567		 889.56308			42803.09259		223.55400		875.00000 
 43692.65567		 305.27265			43387.38302		69.65600		324.00000 
 43692.65567		 889.56308			42803.09259		223.55400		875.00000 
 43692.65567		 305.27265			43387.38302		69.65600		324.00000 
 43692.65567		 889.56308			42803.09259		223.55400		875.00000 
 43692.65567		 305.27265			43387.38302		69.65600		324.00000 
 43692.65567		 889.56308			42803.09259		223.55400		875.00000 
 43692.65567		 305.27265			43387.38302		69.65600		324.00000 
 43692.65567		 889.56308			42803.09259		223.55400		875.00000 
 43692.65567		 305.27265			43387.38302		69.65600		324.00000 
 43692.65567		 889.56308			42803.09259		223.55400		875.00000 
 43692.65567		 305.27265			43387.38302		69.65600		324.00000 
 43692.65567		 889.56308			42803.09259		223.55400		875.00000 
 43692.65567		 305.27265			43387.38302		69.65600		324.00000 
 43692.65567		 889.56308			42803.09259		223.55400		875.00000 
 43692.65567		 305.27265			43387.38302		69.65600		324.00000 
 43692.65567		 889.56308			42803.09259		223.55400		875.00000 
 43692.65567		 305.27265			43387.38302		69.65600		324.00000 
 43692.65567		 889.56308			42803.09259		223.55400		875.00000 
 43692.65567		 305.27265			43387.38302		69.65600		324.00000 
 43692.65567		 889.56308			42803.09259		223.62400		875.00000 
 43692.65567		 305.27265			43387.38302		69.65600		324.00000 
 43692.65567		 889.56308			42803.09259		223.62400		875.00000 
 43692.65567		 305.27265			43387.38302		69.65600		324.00000 
 43692.65567		 889.56308			42803.09259		223.62400		875.00000 
 43692.65567		 305.27265			43387.38302		69.65600		324.00000 
 43692.65567		 889.56308			42803.09259		223.62400		875.00000 
 43692.65567		 305.27265			43387.38302		69.65600		324.00000 
 43692.65567		 889.56308			42803.09259		223.62400		875.00000 
 43692.65567		 305.27265			43387.38302		69.65600		324.00000 
 43692.65567		 889.56308			42803.09259		223.62400		875.00000 
 43692.65567		 305.27265			43387.38302		69.65600		324.00000 
 43692.65567		 889.56308			42803.09259		223.62400		875.00000 
 43692.65567		 305.27265			43387.38302		69.65600		324.00000 
 43692.65567		 889.56308			42803.09259		223.62400		875.00000 
 43692.65567		 305.27265			43387.38302		69.65600		324.00000 
 43692.65567		 889.56308			42803.09259		223.62400		875.00000 
 43692.65567		 305.27265			43387.38302		69.65600		324.00000 
 43692.65567		 889.56308			42803.09259		223.62400		875.00000 
 43692.65567		 305.27265			43387.38302		69.65600		324.00000 
 43692.65567		 889.56308			42803.09259		223.62400		875.00000 
 43692.65567		 305.27265			43387.38302		69.65600		324.00000 
 43692.65567		 889.56308			42803.09259		223.62400		875.00000 
 43692.65567		 305.27265			43387.38302		69.65600		324.00000 
 43692.65567		 889.56308			42803.09259		223.62400		875.00000 
 43692.65567		 305.27265			43387.38302		69.65600		324.00000 
 43692.65567		 889.56308			42803.09259		223.62400		875.00000 
 43692.65567		 305.27265			43387.38302		69.65600		324.00000 
 43692.65567		 889.56308			42803.09259		223.62400		875.00000 
 43692.65567		 305.27265			43387.38302		69.65600		324.00000 
 43692.65567		 889.56308			42803.09259		223.62400		875.00000 
 43692.65567		 305.27265			43387.38302		69.65600		324.00000 
 43692.65567		 889.56308			42803.09259		223.62400		875.00000 
 43692.65567		 305.27265			43387.38302		69.65600		324.00000 
 43692.65567		 889.56308			42803.09259		223.62400		875.00000 
 43692.65567		 305.27265			43387.38302		69.65600		324.00000 
 43692.65567		 889.56308			42803.09259		223.62400		875.00000 
 43692.65567		 305.27265			43387.38302		69.65600		324.00000 
 43692.65567		 889.56308			42803.09259		223.62400		875.00000 
 43692.65567		 305.27265			43387.38302		69.65600		324.00000 
 43692.65567		 889.56308			42803.09259		223.62400		875.00000 
 43692.65567		 305.27265			43387.38302		69.65600		324.00000 
 43692.65567		 889.56308			42803.09259		223.62400		875.00000 
 43692.65567		 305.27265			43387.38302		69.65600		324.00000 
 43692.65567		 889.56308			42803.09259		223.62400		875.00000 
 43692.65567		 305.27265			43387.38302		69.65600		324.00000 
 43692.65567		 889.56308			42803.09259		223.62400		875.00000 
 43692.65567		 305.27265			43387.38302		69.65600		324.00000 
 43692.65567		 889.56308			42803.09259		223.62400		875.00000 
 43692.65567		 305.27265			43387.38302		69.65600		324.00000 
 43692.65567		 889.56308			42803.09259		223.62400		875.00000 
 43692.65567		 305.27265			43387.38302		69.65600		324.00000 
 43692.65567		 889.56308			42803.09259		223.62400		875.00000 
 43692.65567		 305.27265			43387.38302		69.65600		324.00000 
 43692.65567		 889.56308			42803.09259		223.62400		875.00000 
 43692.65567		 305.27265			43387.38302		69.65600		324.00000 
 43692.65567		 889.56308			42803.09259		223.62400		875.00000 
 43692.65567		 305.27265			43387.38302		69.65600		324.00000 
 43692.65567		 889.56308			42803.09259		223.62400		875.00000 
 43692.65567		 305.27265			43387.38302		69.65600		324.00000 
 43692.65567		 889.56308			42803.09259		223.62400		875.00000 
 43692.65567		 305.27265			43387.38302		69.65600		324.00000 
 43692.65567		 889.56308			42803.09259		223.62400		875.00000 
 43692.65567		 305.27265			43387.38302		69.65600		324.00000 
 43692.65567		 889.56308			42803.09259		223.62400		875.00000 
 43692.65567		 305.27265			43387.38302		69.65600		324.00000 
 43692.65567		 889.56308			42803.09259		223.62400		875.00000 
 43692.65567		 305.27265			43387.38302		69.65600		324.00000 
 43692.65567		 889.56308			42803.09259		223.62400		875.00000 
 43692.65567		 305.27265			43387.38302		69.65600		324.00000 
 43692.65567		 889.56308			42803.09259		223.62400		875.00000 
 43692.65567		 305.27265			43387.38302		69.65600		324.00000 
 43692.65567		 889.56308			42803.09259		223.62400		875.00000 
 43692.65567		 305.27265			43387.38302		69.65600		324.00000 
 43692.65567		 889.56308			42803.09259		223.62400		875.00000 
 43692.65567		 305.27265			43387.38302		69.65600		324.00000 
 43692.65567		 889.56308			42803.09259		223.62400		875.00000 
 43692.65567		 305.27265			43387.38302		69.65600		324.00000 
 43692.65567		 889.56308			42803.09259		223.62400		875.00000 
 43692.65567		 305.27265			43387.38302		69.65600		324.00000 
 43692.65567		 889.56308			42803.09259		223.62400		875.00000 
 43692.65567		 305.27265			43387.38302		69.65600		324.00000 
 43692.65567		 889.56308			42803.09259		223.62400		875.00000 
 43692.65567		 305.27265			43387.38302		69.65600		324.00000 
 43692.65567		 889.56308			42803.09259		223.62400		875.00000 
 43692.65567		 305.27265			43387.38302		69.65600		324.00000 
 43692.65567		 889.56308			42803.09259		223.62400		875.00000 
 43692.65567		 305.27265			43387.38302		69.65600		324.00000 
 43692.65567		 889.56308			42803.09259		223.62400		875.00000 
 43692.65567		 305.27265			43387.38302		69.65600		324.00000 
 43692.65567		 889.56308			42803.09259		223.62400		875.00000 
 43692.65567		 305.27265			43387.38302		69.65600		324.00000 
 43692.65567		 889.56308			42803.09259		223.62400		875.00000 
 43692.65567		 305.27265			43387.38302		69.65600		324.00000 
 43692.65567		 889.56308			42803.09259		223.62400		875.00000 
 43692.65567		 305.27265			43387.38302		69.65600		324.00000 
 43692.65567		 889.56308			42803.09259		223.62400		875.00000 
 43692.65567		 305.27265			43387.38302		69.65600		324.00000 
 43692.65567		 889.56308			42803.09259		223.62400		875.00000 
 43692.65567		 305.27265			43387.38302		69.65600		324.00000 
 43692.65567		 889.56308			42803.09259		223.62400		875.00000 
 43692.65567		 305.27265			43387.38302		69.65600		324.00000 
 43692.65567		 889.56308			42803.09259		223.62400		875.00000 
 43692.65567		 305.27265			43387.38302		69.65600		324.00000 
 43692.65567		 889.56308			42803.09259		223.62400		875.00000 
 43692.65567		 305.27265			43387.38302		69.65600		324.00000 
 43692.65567		 889.56308			42803.09259		223.62400		875.00000 
 43692.65567		 305.27265			43387.38302		69.65600		324.00000 
 43692.65567		 889.56308			42803.09259		223.62400		875.00000 
 43692.65567		 305.27265			43387.38302		69.65600		324.00000 
 43692.65567		 889.56308			42803.09259		223.62400		875.00000 
 43692.65567		 305.27265			43387.38302		69.65600		324.00000 
 43692.65567		 889.56308			42803.09259		223.62400		875.00000 
 43692.65567		 305.27265			43387.38302		69.65600		324.00000 
 43692.65567		 889.56308			42803.09259		223.62400		875.00000 
 43692.65567		 305.27265			43387.38302		69.65600		324.00000 
 43692.65567		 889.56308			42803.09259		223.62400		875.00000 
 43692.65567		 305.27265			43387.38302		69.65600		324.00000 
 43692.65567		 889.56308			42803.09259		223.62400		875.00000 
 43692.65567		 305.27265			43387.38302		69.65600		324.00000 
 43692.65567		 889.56308			42803.09259		223.62400		875.00000 
 43692.65567		 305.27265			43387.38302		69.65600		324.00000 
 43692.65567		 889.56308			42803.09259		223.62400		875.00000 
 43692.65567		 305.27265			43387.38302		69.65600		324.00000 
 43692.65567		 889.56308			42803.09259		223.62400		875.00000 
 43692.65567		 305.27265			43387.38302		69.65600		324.00000 
 43692.65567		 889.56308			42803.09259		223.62400		875.00000 
 43692.65567		 305.27265			43387.38302		69.65600		324.00000 
 43692.65567		 889.56308			42803.09259		222.66000		875.00000 
 43692.65567		 305.27265			43387.38302		70.12600		324.00000 
 43692.65567		 889.56308			42803.09259		222.66000		875.00000 
 43692.65567		 305.27265			43387.38302		70.12600		324.00000 
 43692.65567		 889.56308			42803.09259		222.66000		875.00000 
 43692.65567		 305.27265			43387.38302		70.12600		324.00000 
 43692.65567		 889.56308			42803.09259		222.66000		875.00000 
 43692.65567		 305.27265			43387.38302		70.12600		324.00000 
 43692.65567		 889.56308			42803.09259		222.66000		875.00000 
 43692.65567		 305.27265			43387.38302		70.12600		324.00000 
 43692.65567		 889.56308			42803.09259		222.66000		875.00000 
 43692.65567		 305.27265			43387.38302		70.12600		324.00000 
 43692.65567		 889.56308			42803.09259		222.66000		875.00000 
 43692.65567		 305.27265			43387.38302		70.12600		324.00000 
 43692.65567		 889.56308			42803.09259		222.66000		875.00000 
 43692.65567		 305.27265			43387.38302		70.12600		324.00000 
 43692.65567		 889.56308			42803.09259		222.66000		875.00000 
 43692.65567		 305.27265			43387.38302		70.12600		324.00000 
 43692.65567		 889.56308			42803.09259		222.66000		875.00000 
 43692.65567		 305.27265			43387.38302		70.12600		324.00000 
 43692.65567		 889.56308			42803.09259		222.66000		875.00000 
 43692.65567		 305.27265			43387.38302		70.12600		324.00000 
 43692.65567		 889.56308			42803.09259		222.66000		875.00000 
 43692.65567		 305.27265			43387.38302		70.12600		324.00000 
 43692.65567		 889.56308			42803.09259		222.66000		875.00000 
 43692.65567		 305.27265			43387.38302		70.12600		324.00000 
 43692.65567		 889.56308			42803.09259		222.66000		875.00000 
 43692.65567		 305.27265			43387.38302		70.12600		324.00000 
 43692.65567		 889.56308			42803.09259		222.66000		875.00000 
 43692.65567		 305.27265			43387.38302		70.12600		324.00000 
 43692.65567		 889.56308			42803.09259		222.66000		875.00000 
 43692.65567		 305.27265			43387.38302		70.12600		324.00000 
 43692.65567		 889.56308			42803.09259		222.66000		875.00000 
 43692.65567		 305.27265			43387.38302		70.12600		324.00000 
 43692.65567		 889.56308			42803.09259		222.66000		875.00000 
 43692.65567		 305.27265			43387.38302		70.12600		324.00000 
 43692.65567		 889.56308			42803.09259		222.66000		875.00000 
 43692.65567		 305.27265			43387.38302		70.12600		324.00000 
 43692.65567		 889.56308			42803.09259		222.66000		875.00000 
 43692.65567		 305.27265			43387.38302		70.12600		324.00000 
 43692.65567		 889.56308			42803.09259		222.66000		875.00000 
 43692.65567		 305.27265			43387.38302		70.12600		324.00000 
 43692.65567		 889.56308			42803.09259		222.66000		875.00000 
 43692.65567		 305.27265			43387.38302		70.12600		324.00000 
 43692.65567		 889.56308			42803.09259		222.66000		875.00000 
 43692.65567		 305.27265			43387.38302		70.12600		324.00000 
 43692.65567		 889.56308			42803.09259		222.66000		875.00000 
 43692.65567		 305.27265			43387.38302		70.12600		324.00000 
 43692.65567		 889.56308			42803.09259		222.66000		875.00000 
 43692.65567		 305.27265			43387.38302		70.12600		324.00000 
 43692.65567		 889.56308			42803.09259		222.66000		875.00000 
 43692.65567		 305.27265			43387.38302		70.12600		324.00000 
 43692.65567		 889.56308			42803.09259		222.66000		875.00000 
 43692.65567		 305.27265			43387.38302		70.12600		324.00000 
 43692.65567		 889.56308			42803.09259		222.66000		875.00000 
 43692.65567		 305.27265			43387.38302		70.12600		324.00000 
 43692.65567		 889.56308			42803.09259		222.66000		875.00000 
 43692.65567		 305.27265			43387.38302		70.12600		324.00000 
 43692.65567		 889.56308			42803.09259		222.66000		875.00000 
 43692.65567		 305.27265			43387.38302		70.12600		324.00000 
 43692.65567		 889.56308			42803.09259		222.66000		875.00000 
 43692.65567		 305.27265			43387.38302		70.12600		324.00000 
 43692.65567		 889.56308			42803.09259		222.66000		875.00000 
 43692.65567		 305.27265			43387.38302		70.12600		324.00000 
 43692.65567		 889.56308			42803.09259		222.66000		875.00000 
 43692.65567		 305.27265			43387.38302		70.12600		324.00000 
 43692.65567		 889.56308			42803.09259		222.66000		875.00000 
 43692.65567		 305.27265			43387.38302		70.12600		324.00000 
 43692.65567		 889.56308			42803.09259		222.66000		875.00000 
 43692.65567		 305.27265			43387.38302		70.12600		324.00000 
 43692.65567		 889.56308			42803.09259		222.66000		875.00000 
 43692.65567		 305.27265			43387.38302		70.12600		324.00000 
 43692.65567		 889.56308			42803.09259		222.66000		875.00000 
 43692.65567		 305.27265			43387.38302		70.12600		324.00000 
 43692.65567		 889.56308			42803.09259		222.66000		875.00000 
 43692.65567		 305.27265			43387.38302		70.12600		324.00000 
 43692.65567		 889.56308			42803.09259		222.66000		875.00000 
 43692.65567		 305.27265			43387.38302		70.12600		324.00000 
 43692.65567		 889.56308			42803.09259		222.66000		875.00000 
 43692.65567		 305.27265			43387.38302		70.12600		324.00000 
 43692.65567		 889.56308			42803.09259		222.66000		875.00000 
 43692.65567		 305.27265			43387.38302		70.12600		324.00000 
 43692.65567		 889.56308			42803.09259		222.66000		875.00000 
 43692.65567		 305.27265			43387.38302		70.12600		324.00000 
 43692.65567		 889.56308			42803.09259		222.66000		875.00000 
 43692.65567		 305.27265			43387.38302		70.12600		324.00000 
 43692.65567		 889.56308			42803.09259		222.66000		875.00000 
 43692.65567		 305.27265			43387.38302		70.12600		324.00000 
 43692.65567		 889.56308			42803.09259		222.66000		875.00000 
 43692.65567		 305.27265			43387.38302		70.12600		324.00000 
 43692.65567		 889.56308			42803.09259		222.66000		875.00000 
 43692.65567		 305.27265			43387.38302		70.12600		324.00000 
 43692.65567		 889.56308			42803.09259		222.66000		875.00000 
 43692.65567		 305.27265			43387.38302		70.12600		324.00000 
 43692.65567		 889.56308			42803.09259		222.66000		875.00000 
 43692.65567		 305.27265			43387.38302		70.12600		324.00000 
 43692.65567		 889.56308			42803.09259		222.66000		875.00000 
 43692.65567		 305.27265			43387.38302		70.12600		324.00000 
 43692.65567		 889.56308			42803.09259		222.66000		875.00000 
 43692.65567		 305.27265			43387.38302		70.12600		324.00000 
 43692.65567		 889.56308			42803.09259		222.66000		875.00000 
 43692.65567		 305.27265			43387.38302		70.12600		324.00000 
 43692.65567		 889.56308			42803.09259		222.66000		875.00000 
 43692.65567		 305.27265			43387.38302		70.12600		324.00000 
 43692.65567		 889.56308			42803.09259		222.66000		875.00000 
 43692.65567		 305.27265			43387.38302		70.12600		324.00000 
 43692.65567		 889.56308			42803.09259		222.66000		875.00000 
 43692.65567		 305.27265			43387.38302		70.12600		324.00000 
 43692.65567		 889.56308			42803.09259		222.66000		875.00000 
 43692.65567		 305.27265			43387.38302		70.12600		324.00000 
 43692.65567		 889.56308			42803.09259		222.66000		875.00000 
 43692.65567		 305.27265			43387.38302		70.12600		324.00000 
 43692.65567		 889.56308			42803.09259		222.66000		875.00000 
 43692.65567		 305.27265			43387.38302		70.12600		324.00000 
 43692.65567		 889.56308			42803.09259		222.66000		875.00000 
 43692.65567		 305.27265			43387.38302		70.12600		324.00000 
 43692.65567		 889.56308			42803.09259		222.66000		875.00000 
 43692.65567		 305.27265			43387.38302		70.12600		324.00000 
 43692.65567		 889.56308			42803.09259		222.66000		875.00000 
 43692.65567		 305.27265			43387.38302		70.12600		324.00000 
 43692.65567		 889.56308			42803.09259		222.66000		875.00000 
 43692.65567		 305.27265			43387.38302		70.12600		324.00000 
 43692.65567		 889.56308			42803.09259		222.66000		875.00000 
 43692.65567		 305.27265			43387.38302		70.12600		324.00000 
 43692.65567		 889.56308			42803.09259		222.66000		875.00000 
 43692.65567		 305.27265			43387.38302		70.12600		324.00000 
 43692.65567		 889.56308			42803.09259		222.66000		875.00000 
 43692.65567		 305.27265			43387.38302		70.12600		324.00000 
 43692.65567		 889.56308			42803.09259		222.59000		875.00000 
 43692.65567		 305.27265			43387.38302		70.12600		324.00000 
 43692.65567		 889.56308			42803.09259		222.59000		875.00000 
 43692.65567		 305.27265			43387.38302		70.12600		324.00000 
 43692.65567		 889.56308			42803.09259		222.59000		875.00000 
 43692.65567		 305.27265			43387.38302		70.12600		324.00000 
 43692.65567		 889.56308			42803.09259		222.59000		875.00000 
 43692.65567		 305.27265			43387.38302		70.12600		324.00000 
 43692.65567		 889.56308			42803.09259		222.59000		875.00000 
 43692.65567		 305.27265			43387.38302		70.12600		324.00000 
 43692.65567		 889.56308			42803.09259		222.59000		875.00000 
 43692.65567		 305.27265			43387.38302		70.12600		324.00000 
 43692.65567		 889.56308			42803.09259		222.59000		875.00000 
 43692.65567		 305.27265			43387.38302		70.12600		324.00000 
 43692.65567		 889.56308			42803.09259		222.59000		875.00000 
 43692.65567		 305.27265			43387.38302		70.12600		324.00000 
 43692.65567		 889.56308			42803.09259		222.59000		875.00000 
 43692.65567		 305.27265			43387.38302		70.12600		324.00000 
 43692.65567		 889.56308			42803.09259		222.59000		875.00000 
 43692.65567		 305.27265			43387.38302		70.12600		324.00000 
 43692.65567		 889.56308			42803.09259		222.59000		875.00000 
 43692.65567		 305.27265			43387.38302		70.12600		324.00000 
 43692.65567		 889.56308			42803.09259		222.59000		875.00000 
 43692.65567		 305.27265			43387.38302		70.12600		324.00000 
 43692.65567		 889.56308			42803.09259		222.59000		875.00000 
 43692.65567		 305.27265			43387.38302		70.12600		324.00000 
 43692.65567		 889.56308			42803.09259		222.59000		875.00000 
 43692.65567		 305.27265			43387.38302		70.12600		324.00000 
 43692.65567		 889.56308			42803.09259		222.59000		875.00000 
 43692.65567		 305.27265			43387.38302		70.12600		324.00000 
 43692.65567		 889.56308			42803.09259		222.59000		875.00000 
 43692.65567		 305.27265			43387.38302		70.12600		324.00000 
 43692.65567		 889.56308			42803.09259		222.59000		875.00000 
 43692.65567		 305.27265			43387.38302		70.12600		324.00000 
 43692.65567		 889.56308			42803.09259		222.59000		875.00000 
 43692.65567		 305.27265			43387.38302		70.12600		324.00000 
 43692.65567		 889.56308			42803.09259		222.59000		875.00000 
 43692.65567		 305.27265			43387.38302		70.12600		324.00000 
 43692.65567		 889.56308			42803.09259		222.59000		875.00000 
 43692.65567		 305.27265			43387.38302		70.12600		324.00000 
 43692.65567		 889.56308			42803.09259		222.59000		875.00000 
 43692.65567		 305.27265			43387.38302		70.12600		324.00000 
 43692.65567		 889.56308			42803.09259		222.59000		875.00000 
 43692.65567		 305.27265			43387.38302		70.12600		324.00000 
 43692.65567		 889.56308			42803.09259		222.59000		875.00000 
 43692.65567		 305.27265			43387.38302		70.12600		324.00000 
 43692.65567		 889.56308			42803.09259		222.59000		875.00000 
 43692.65567		 305.27265			43387.38302		70.12600		324.00000 
 43692.65567		 889.56308			42803.09259		222.59000		875.00000 
 43692.65567		 305.27265			43387.38302		70.12600		324.00000 
 43692.65567		 889.56308			42803.09259		222.59000		875.00000 
 43692.65567		 305.27265			43387.38302		70.12600		324.00000 
 43692.65567		 889.56308			42803.09259		222.59000		875.00000 
 43692.65567		 305.27265			43387.38302		70.12600		324.00000 
 43692.65567		 889.56308			42803.09259		222.59000		875.00000 
 43692.65567		 305.27265			43387.38302		70.12600		324.00000 
 43692.65567		 889.56308			42803.09259		222.59000		875.00000 
 43692.65567		 305.27265			43387.38302		70.12600		324.00000 
 43692.65567		 889.56308			42803.09259		222.59000		875.00000 
 43692.65567		 305.27265			43387.38302		70.12600		324.00000 
 43692.65567		 889.56308			42803.09259		222.59000		875.00000 
 43692.65567		 305.27265			43387.38302		70.12600		324.00000 
 43692.65567		 889.56308			42803.09259		222.59000		875.00000 
 43692.65567		 305.27265			43387.38302		70.12600		324.00000 
 43692.65567		 889.56308			42803.09259		222.59000		875.00000 
 43692.65567		 305.27265			43387.38302		70.12600		324.00000 
 43692.65567		 889.56308			42803.09259		222.59000		875.00000 
 43692.65567		 305.27265			43387.38302		70.12600		324.00000 
 43692.65567		 889.56308			42803.09259		222.59000		875.00000 
 43692.65567		 305.27265			43387.38302		70.12600		324.00000 
 43692.65567		 889.56308			42803.09259		222.59000		875.00000 
 43692.65567		 305.27265			43387.38302		70.12600		324.00000 
 43692.65567		 889.56308			42803.09259		222.59000		875.00000 
 43692.65567		 305.27265			43387.38302		70.12600		324.00000 
 43692.65567		 889.56308			42803.09259		222.59000		875.00000 
 43692.65567		 305.27265			43387.38302		70.12600		324.00000 
 43692.65567		 889.56308			42803.09259		222.59000		875.00000 
 43692.65567		 305.27265			43387.38302		70.12600		324.00000 
 43692.65567		 889.56308			42803.09259		222.59000		875.00000 
 43692.65567		 305.27265			43387.38302		70.12600		324.00000 
 43692.65567		 889.56308			42803.09259		222.59000		875.00000 
 43692.65567		 305.27265			43387.38302		70.12600		324.00000 
 43692.65567		 889.56308			42803.09259		222.59000		875.00000 
 43692.65567		 305.27265			43387.38302		70.12600		324.00000 
 43692.65567		 889.56308			42803.09259		222.59000		875.00000 
 43692.65567		 305.27265			43387.38302		70.12600		324.00000 
 43692.65567		 889.56308			42803.09259		222.59000		875.00000 
 43692.65567		 305.27265			43387.38302		70.12600		324.00000 
 43692.65567		 889.56308			42803.09259		222.59000		875.00000 
 43692.65567		 305.27265			43387.38302		70.12600		324.00000 
 43692.65567		 889.56308			42803.09259		222.59000		875.00000 
 43692.65567		 305.27265			43387.38302		70.12600		324.00000 
 43692.65567		 889.56308			42803.09259		222.59000		875.00000 
 43692.65567		 305.27265			43387.38302		70.12600		324.00000 
 43692.65567		 889.56308			42803.09259		222.59000		875.00000 
 43692.65567		 305.27265			43387.38302		70.12600		324.00000 
 43692.65567		 889.56308			42803.09259		222.59000		875.00000 
 43692.65567		 305.27265			43387.38302		70.12600		324.00000 
 43692.65567		 889.56308			42803.09259		222.59000		875.00000 
 43692.65567		 305.27265			43387.38302		70.12600		324.00000 
 43692.65567		 889.56308			42803.09259		222.59000		875.00000 
 43692.65567		 305.27265			43387.38302		70.12600		324.00000 
 43692.65567		 889.56308			42803.09259		222.59000		875.00000 
 43692.65567		 305.27265			43387.38302		70.12600		324.00000 
 43692.65567		 889.56308			42803.09259		222.59000		875.00000 
 43692.65567		 305.27265			43387.38302		70.12600		324.00000 
 43692.65567		 889.56308			42803.09259		222.59000		875.00000 
 43692.65567		 305.27265			43387.38302		70.12600		324.00000 
 43692.65567		 889.56308			42803.09259		222.59000		875.00000 
 43692.65567		 305.27265			43387.38302		70.12600		324.00000 
 43692.65567		 889.56308			42803.09259		222.59000		875.00000 
 43692.65567		 305.27265			43387.38302		70.12600		324.00000 
 43692.65567		 889.56308			42803.09259		222.59000		875.00000 
 43692.65567		 305.27265			43387.38302		70.12600		324.00000 
 43692.65567		 889.56308			42803.09259		222.59000		875.00000 
 43692.65567		 305.27265			43387.38302		70.12600		324.00000 
 43692.65567		 889.56308			42803.09259		222.59000		875.00000 
 43692.65567		 305.27265			43387.38302		70.12600		324.00000 
 43692.65567		 889.56308			42803.09259		222.59000		875.00000 
 43692.65567		 305.27265			43387.38302		70.12600		324.00000 
 43692.65567		 889.56308			42803.09259		222.59000		875.00000 
 43692.65567		 305.27265			43387.38302		70.12600		324.00000 
 43692.65567		 889.56308			42803.09259		222.59000		875.00000 
 43692.65567		 305.27265			43387.38302		70.12600		324.00000 
 43692.65567		 889.56308			42803.09259		222.59000		875.00000 
 43692.65567		 305.27265			43387.38302		70.12600		324.00000 
 43692.65567		 889.56308			42803.09259		222.59000		875.00000 
 43692.65567		 305.27265			43387.38302		70.12600		324.00000 
 43692.65567		 889.56308			42803.09259		222.59000		875.00000 
 43692.65567		 305.27265			43387.38302		70.12600		324.00000 
 43692.65567		 889.56308			42803.09259		222.59000		875.00000 
 43692.65567		 305.27265			43387.38302		70.12600		324.00000 
 43692.65567		 889.56308			42803.09259		222.59000		875.00000 
 43692.65567		 305.27265			43387.38302		70.12600		324.00000 
 43692.65567		 889.56308			42803.09259		222.59000		875.00000 
 43692.65567		 305.27265			43387.38302		70.12600		324.00000 
 43692.65567		 889.56308			42803.09259		222.59000		875.00000 
 43692.65567		 305.27265			43387.38302		70.12600		324.00000 
 43692.65567		 889.56308			42803.09259		222.59000		875.00000 
 43692.65567		 305.27265			43387.38302		70.12600		324.00000 
 43692.65567		 889.56308			42803.09259		222.59000		875.00000 
 43692.65567		 305.27265			43387.38302		70.12600		324.00000 
 43692.65567		 889.56308			42803.09259		222.59000		875.00000 
 43692.65567		 305.27265			43387.38302		70.12600		324.00000 
 43692.65567		 889.56308			42803.09259		222.59000		875.00000 
 43692.65567		 305.27265			43387.38302		70.12600		324.00000 
 43692.65567		 889.56308			42803.09259		222.59000		875.00000 
 43692.65567		 305.27265			43387.38302		70.12600		324.00000 
 43692.65567		 889.56308			42803.09259		222.59000		875.00000 
 43692.65567		 305.27265			43387.38302		70.12600		324.00000 
 43692.65567		 889.56308			42803.09259		222.59000		875.00000 
 43692.65567		 305.27265			43387.38302		70.12600		324.00000 
 43692.65567		 889.56308			42803.09259		222.59000		875.00000 
 43692.65567		 305.27265			43387.38302		70.12600		324.00000 
 43692.65567		 889.56308			42803.09259		222.59000		875.00000 
 43692.65567		 305.27265			43387.38302		70.12600		324.00000 
 43692.65567		 889.56308			42803.09259		222.59000		875.00000 
 43692.65567		 305.27265			43387.38302		70.12600		324.00000 
 43692.65567		 889.56308			42803.09259		222.59000		875.00000 
 43692.65567		 305.27265			43387.38302		70.12600		324.00000 
 43692.65567		 889.56308			42803.09259		222.59000		875.00000 
 43692.65567		 305.27265			43387.38302		70.12600		324.00000 
 43692.65567		 889.56308			42803.09259		222.59000		875.00000 
 43692.65567		 305.27265			43387.38302		70.12600		324.00000 
 43692.65567		 889.56308			42803.09259		222.59000		875.00000 
 43692.65567		 305.27265			43387.38302		70.12600		324.00000 
 43692.65567		 889.56308			42803.09259		222.59000		875.00000 
 43692.65567		 305.27265			43387.38302		70.12600		324.00000 
 43692.65567		 889.56308			42803.09259		222.59000		875.00000 
 43692.65567		 305.27265			43387.38302		70.12600		324.00000 
 43692.65567		 889.56308			42803.09259		222.59000		875.00000 
 43692.65567		 305.27265			43387.38302		70.12600		324.00000 
 43692.65567		 889.56308			42803.09259		222.59000		875.00000 
 43692.65567		 305.27265			43387.38302		70.12600		324.00000 
 43692.65567		 889.56308			42803.09259		222.59000		875.00000 
 43692.65567		 305.27265			43387.38302		70.12600		324.00000 
 43692.65567		 889.56308			42803.09259		222.59000		875.00000 
 43692.65567		 305.27265			43387.38302		70.12600		324.00000 
 43692.65567		 889.56308			42803.09259		222.59000		875.00000 
 43692.65567		 305.27265			43387.38302		70.12600		324.00000 
 43692.65567		 889.56308			42803.09259		222.59000		875.00000 
 43692.65567		 305.27265			43387.38302		70.12600		324.00000 
 43692.65567		 889.56308			42803.09259		222.59000		875.00000 
 43692.65567		 305.27265			43387.38302		70.12600		324.00000 
 43692.65567		 889.56308			42803.09259		222.59000		875.00000 
 43692.65567		 305.27265			43387.38302		70.12600		324.00000 
 43692.65567		 889.56308			42803.09259		222.59000		875.00000 
 43692.65567		 305.27265			43387.38302		70.12600		324.00000 
 43692.65567		 889.56308			42803.09259		222.59000		875.00000 
 43692.65567		 305.27265			43387.38302		70.12600		324.00000 
 43692.65567		 889.56308			42803.09259		222.59000		875.00000 
 43692.65567		 305.27265			43387.38302		70.12600		324.00000 
 43692.65567		 889.56308			42803.09259		222.59000		875.00000 
 43692.65567		 305.27265			43387.38302		70.12600		324.00000 
 43692.65567		 889.56308			42803.09259		222.59000		875.00000 
 43692.65567		 305.27265			43387.38302		70.12600		324.00000 
 43692.65567		 889.56308			42803.09259		222.59000		875.00000 
 43692.65567		 305.27265			43387.38302		70.12600		324.00000 
 43692.65567		 889.56308			42803.09259		222.59000		875.00000 
 43692.65567		 305.27265			43387.38302		70.12600		324.00000 
 43692.65567		 889.56308			42803.09259		222.59000		875.00000 
 43692.65567		 305.27265			43387.38302		70.12600		324.00000 
 43692.65567		 889.56308			42803.09259		222.59000		875.00000 
 43692.65567		 305.27265			43387.38302		70.12600		324.00000 
 43692.65567		 889.56308			42803.09259		222.59000		875.00000 
 43692.65567		 305.27265			43387.38302		70.12600		324.00000 
 43692.65567		 889.56308			42803.09259		222.59000		875.00000 
 43692.65567		 305.27265			43387.38302		70.12600		324.00000 
 43692.65567		 889.56308			42803.09259		222.59000		875.00000 
 43692.65567		 305.27265			43387.38302		70.12600		324.00000 
 43692.65567		 889.56308			42803.09259		222.59000		875.00000 
 43692.65567		 305.27265			43387.38302		70.12600		324.00000 
 43692.65567		 889.56308			42803.09259		222.59000		875.00000 
 43692.65567		 305.27265			43387.38302		70.12600		324.00000 
 43692.65567		 889.56308			42803.09259		222.59000		875.00000 
 43692.65567		 305.27265			43387.38302		70.12600		324.00000 
 43692.65567		 889.56308			42803.09259		222.59000		875.00000 
 43692.65567		 305.27265			43387.38302		70.12600		324.00000 
 43692.65567		 889.56308			42803.09259		222.59000		875.00000 
 43692.65567		 305.27265			43387.38302		70.12600		324.00000 
 43692.65567		 889.56308			42803.09259		222.59000		875.00000 
 43692.65567		 305.27265			43387.38302		70.12600		324.00000 
 43692.65567		 889.56308			42803.09259		222.59000		875.00000 
 43692.65567		 305.27265			43387.38302		70.12600		324.00000 
 43692.65567		 889.56308			42803.09259		222.59000		875.00000 
 43692.65567		 305.27265			43387.38302		70.12600		324.00000 
 43692.65567		 889.56308			42803.09259		222.59000		875.00000 
 43692.65567		 305.27265			43387.38302		70.12600		324.00000 
 43692.65567		 889.56308			42803.09259		222.59000		875.00000 
 43692.65567		 305.27265			43387.38302		70.12600		324.00000 
 43692.65567		 889.56308			42803.09259		222.59000		875.00000 
 43692.65567		 305.27265			43387.38302		70.12600		324.00000 
 43692.65567		 889.56308			42803.09259		222.59000		875.00000 
 43692.65567		 305.27265			43387.38302		70.12600		324.00000 
 43692.65567		 889.56308			42803.09259		222.59000		875.00000 
 43692.65567		 305.27265			43387.38302		70.12600		324.00000 
 43692.65567		 889.56308			42803.09259		222.59000		875.00000 
 43692.65567		 305.27265			43387.38302		70.12600		324.00000 
 43692.65567		 889.56308			42803.09259		222.59000		875.00000 
 43692.65567		 305.27265			43387.38302		70.12600		324.00000 
 43692.65567		 889.56308			42803.09259		222.59000		875.00000 
 43692.65567		 305.27265			43387.38302		70.12600		324.00000 
 43692.65567		 889.56308			42803.09259		222.59000		875.00000 
 43692.65567		 305.27265			43387.38302		70.12600		324.00000 
 43692.65567		 889.56308			42803.09259		222.59000		875.00000 
 43692.65567		 305.27265			43387.38302		70.12600		324.00000 
 43692.65567		 889.56308			42803.09259		222.59000		875.00000 
 43692.65567		 305.27265			43387.38302		70.12600		324.00000 
 43692.65567		 889.56308			42803.09259		222.59000		875.00000 
 43692.65567		 305.27265			43387.38302		70.12600		324.00000 
 43692.65567		 889.56308			42803.09259		222.59000		875.00000 
 43692.65567		 305.27265			43387.38302		70.12600		324.00000 
 43692.65567		 889.56308			42803.09259		222.59000		875.00000 
 43692.65567		 305.27265			43387.38302		70.12600		324.00000 
 43692.65567		 889.56308			42803.09259		222.59000		875.00000 
 43692.65567		 305.27265			43387.38302		70.12600		324.00000 
 43692.65567		 889.56308			42803.09259		222.59000		875.00000 
 43692.65567		 305.27265			43387.38302		70.12600		324.00000 
 43692.65567		 889.56308			42803.09259		223.55400		875.00000 
 43692.65567		 305.27265			43387.38302		70.12600		324.00000 
 43692.65567		 889.56308			42803.09259		223.55400		875.00000 
 43692.65567		 305.27265			43387.38302		70.12600		324.00000 
 43692.65567		 889.56308			42803.09259		223.55400		875.00000 
 43692.65567		 305.27265			43387.38302		70.12600		324.00000 
 43692.65567		 889.56308			42803.09259		223.55400		875.00000 
 43692.65567		 305.27265			43387.38302		70.12600		324.00000 
 43692.65567		 889.56308			42803.09259		223.55400		875.00000 
 43692.65567		 305.27265			43387.38302		70.12600		324.00000 
 43692.65567		 889.56308			42803.09259		223.55400		875.00000 
 43692.65567		 305.27265			43387.38302		70.12600		324.00000 
 43692.65567		 889.56308			42803.09259		223.55400		875.00000 
 43692.65567		 305.27265			43387.38302		70.12600		324.00000 
 43692.65567		 889.56308			42803.09259		223.55400		875.00000 
 43692.65567		 305.27265			43387.38302		70.12600		324.00000 
 43692.65567		 889.56308			42803.09259		223.55400		875.00000 
 43692.65567		 305.27265			43387.38302		70.12600		324.00000 
 43692.65567		 889.56308			42803.09259		223.55400		875.00000 
 43692.65567		 305.27265			43387.38302		70.12600		324.00000 
 43692.65567		 889.56308			42803.09259		223.55400		875.00000 
 43692.65567		 305.27265			43387.38302		70.12600		324.00000 
 43692.65567		 889.56308			42803.09259		223.55400		875.00000 
 43692.65567		 305.27265			43387.38302		70.12600		324.00000 
 43692.65567		 889.56308			42803.09259		223.55400		875.00000 
 43692.65567		 305.27265			43387.38302		70.12600		324.00000 
 43692.65567		 889.56308			42803.09259		223.55400		875.00000 
 43692.65567		 305.27265			43387.38302		70.12600		324.00000 
 43692.65567		 889.56308			42803.09259		223.55400		875.00000 
 43692.65567		 305.27265			43387.38302		70.12600		324.00000 
 43692.65567		 889.56308			42803.09259		223.55400		875.00000 
 43692.65567		 305.27265			43387.38302		70.12600		324.00000 
 43692.65567		 889.56308			42803.09259		223.55400		875.00000 
 43692.65567		 305.27265			43387.38302		70.12600		324.00000 
 43692.65567		 889.56308			42803.09259		223.55400		875.00000 
 43692.65567		 305.27265			43387.38302		70.12600		324.00000 
 43692.65567		 889.56308			42803.09259		223.55400		875.00000 
 43692.65567		 305.27265			43387.38302		70.12600		324.00000 
 43692.65567		 889.56308			42803.09259		223.55400		875.00000 
 43692.65567		 305.27265			43387.38302		70.12600		324.00000 
 43692.65567		 889.56308			42803.09259		223.55400		875.00000 
 43692.65567		 305.27265			43387.38302		70.12600		324.00000 
 43692.65567		 889.56308			42803.09259		223.55400		875.00000 
 43692.65567		 305.27265			43387.38302		70.12600		324.00000 
 43692.65567		 889.56308			42803.09259		223.55400		875.00000 
 43692.65567		 305.27265			43387.38302		70.12600		324.00000 
 43692.65567		 889.56308			42803.09259		223.55400		875.00000 
 43692.65567		 305.27265			43387.38302		70.12600		324.00000 
 43692.65567		 889.56308			42803.09259		223.55400		875.00000 
 43692.65567		 305.27265			43387.38302		70.12600		324.00000 
 43692.65567		 889.56308			42803.09259		223.55400		875.00000 
 43692.65567		 305.27265			43387.38302		70.12600		324.00000 
 43692.65567		 889.56308			42803.09259		223.55400		875.00000 
 43692.65567		 305.27265			43387.38302		70.12600		324.00000 
 43692.65567		 889.56308			42803.09259		223.55400		875.00000 
 43692.65567		 305.27265			43387.38302		70.12600		324.00000 
 43692.65567		 889.56308			42803.09259		223.55400		875.00000 
 43692.65567		 305.27265			43387.38302		70.12600		324.00000 
 43692.65567		 889.56308			42803.09259		223.55400		875.00000 
 43692.65567		 305.27265			43387.38302		70.12600		324.00000 
 43692.65567		 889.56308			42803.09259		223.55400		875.00000 
 43692.65567		 305.27265			43387.38302		70.12600		324.00000 
 43692.65567		 889.56308			42803.09259		223.55400		875.00000 
 43692.65567		 305.27265			43387.38302		70.12600		324.00000 
 43692.65567		 889.56308			42803.09259		223.55400		875.00000 
 43692.65567		 305.27265			43387.38302		70.12600		324.00000 
 43692.65567		 889.56308			42803.09259		223.55400		875.00000 
 43692.65567		 305.27265			43387.38302		70.12600		324.00000 
 43692.65567		 889.56308			42803.09259		223.55400		875.00000 
 43692.65567		 305.27265			43387.38302		70.12600		324.00000 
 43692.65567		 889.56308			42803.09259		223.55400		875.00000 
 43692.65567		 305.27265			43387.38302		70.12600		324.00000 
 43692.65567		 889.56308			42803.09259		223.55400		875.00000 
 43692.65567		 305.27265			43387.38302		70.12600		324.00000 
 43692.65567		 889.56308			42803.09259		223.55400		875.00000 
 43692.65567		 305.27265			43387.38302		70.12600		324.00000 
 43692.65567		 889.56308			42803.09259		223.55400		875.00000 
 43692.65567		 305.27265			43387.38302		70.12600		324.00000 
 43692.65567		 889.56308			42803.09259		223.55400		875.00000 
 43692.65567		 305.27265			43387.38302		70.12600		324.00000 
 43692.65567		 889.56308			42803.09259		223.55400		875.00000 
 43692.65567		 305.27265			43387.38302		70.12600		324.00000 
 43692.65567		 889.56308			42803.09259		223.55400		875.00000 
 43692.65567		 305.27265			43387.38302		70.12600		324.00000 
 43692.65567		 889.56308			42803.09259		223.55400		875.00000 
 43692.65567		 305.27265			43387.38302		70.12600		324.00000 
 43692.65567		 889.56308			42803.09259		223.55400		875.00000 
 43692.65567		 305.27265			43387.38302		70.12600		324.00000 
 43692.65567		 889.56308			42803.09259		223.55400		875.00000 
 43692.65567		 305.27265			43387.38302		70.12600		324.00000 
 43692.65567		 889.56308			42803.09259		223.55400		875.00000 
 43692.65567		 305.27265			43387.38302		70.12600		324.00000 
 43692.65567		 889.56308			42803.09259		223.55400		875.00000 
 43692.65567		 305.27265			43387.38302		70.12600		324.00000 
 43692.65567		 889.56308			42803.09259		223.55400		875.00000 
 43692.65567		 305.27265			43387.38302		70.12600		324.00000 
 43692.65567		 889.56308			42803.09259		223.55400		875.00000 
 43692.65567		 305.27265			43387.38302		70.12600		324.00000 
 43692.65567		 889.56308			42803.09259		223.55400		875.00000 
 43692.65567		 305.27265			43387.38302		70.12600		324.00000 
 43692.65567		 889.56308			42803.09259		223.55400		875.00000 
 43692.65567		 305.27265			43387.38302		70.12600		324.00000 
 43692.65567		 889.56308			42803.09259		223.55400		875.00000 
 43692.65567		 305.27265			43387.38302		70.12600		324.00000 
 43692.65567		 889.56308			42803.09259		223.55400		875.00000 
 43692.65567		 305.27265			43387.38302		70.12600		324.00000 
 43692.65567		 889.56308			42803.09259		223.55400		875.00000 
 43692.65567		 305.27265			43387.38302		70.12600		324.00000 
 43692.65567		 889.56308			42803.09259		223.55400		875.00000 
 43692.65567		 305.27265			43387.38302		70.12600		324.00000 
 43692.65567		 889.56308			42803.09259		223.55400		875.00000 
 43692.65567		 305.27265			43387.38302		70.12600		324.00000 
 43692.65567		 889.56308			42803.09259		223.55400		875.00000 
 43692.65567		 305.27265			43387.38302		70.12600		324.00000 
 43692.65567		 889.56308			42803.09259		223.55400		875.00000 
 43692.65567		 305.27265			43387.38302		70.12600		324.00000 
 43692.65567		 889.56308			42803.09259		223.55400		875.00000 
 43692.65567		 305.27265			43387.38302		70.12600		324.00000 
 43692.65567		 889.56308			42803.09259		223.55400		875.00000 
 43692.65567		 305.27265			43387.38302		70.12600		324.00000 
 43692.65567		 889.56308			42803.09259		223.55400		875.00000 
 43692.65567		 305.27265			43387.38302		70.12600		324.00000 
 43692.65567		 889.56308			42803.09259		223.55400		875.00000 
 43692.65567		 305.27265			43387.38302		70.12600		324.00000 
 43692.65567		 889.56308			42803.09259		223.55400		875.00000 
 43692.65567		 305.27265			43387.38302		70.12600		324.00000 
 43692.65567		 889.56308			42803.09259		223.55400		875.00000 
 43692.65567		 305.27265			43387.38302		70.12600		324.00000 
 43692.65567		 889.56308			42803.09259		223.55400		875.00000 
 43692.65567		 305.27265			43387.38302		70.12600		324.00000 
 43692.65567		 889.56308			42803.09259		223.62400		875.00000 
 43692.65567		 305.27265			43387.38302		70.12600		324.00000 
 43692.65567		 889.56308			42803.09259		223.62400		875.00000 
 43692.65567		 305.27265			43387.38302		70.12600		324.00000 
 43692.65567		 889.56308			42803.09259		223.62400		875.00000 
 43692.65567		 305.27265			43387.38302		70.12600		324.00000 
 43692.65567		 889.56308			42803.09259		223.62400		875.00000 
 43692.65567		 305.27265			43387.38302		70.12600		324.00000 
 43692.65567		 889.56308			42803.09259		223.62400		875.00000 
 43692.65567		 305.27265			43387.38302		70.12600		324.00000 
 43692.65567		 889.56308			42803.09259		223.62400		875.00000 
 43692.65567		 305.27265			43387.38302		70.12600		324.00000 
 43692.65567		 889.56308			42803.09259		223.62400		875.00000 
 43692.65567		 305.27265			43387.38302		70.12600		324.00000 
 43692.65567		 889.56308			42803.09259		223.62400		875.00000 
 43692.65567		 305.27265			43387.38302		70.12600		324.00000 
 43692.65567		 889.56308			42803.09259		223.62400		875.00000 
 43692.65567		 305.27265			43387.38302		70.12600		324.00000 
 43692.65567		 889.56308			42803.09259		223.62400		875.00000 
 43692.65567		 305.27265			43387.38302		70.12600		324.00000 
 43692.65567		 889.56308			42803.09259		223.62400		875.00000 
 43692.65567		 305.27265			43387.38302		70.12600		324.00000 
 43692.65567		 889.56308			42803.09259		223.62400		875.00000 
 43692.65567		 305.27265			43387.38302		70.12600		324.00000 
 43692.65567		 889.56308			42803.09259		223.62400		875.00000 
 43692.65567		 305.27265			43387.38302		70.12600		324.00000 
 43692.65567		 889.56308			42803.09259		223.62400		875.00000 
 43692.65567		 305.27265			43387.38302		70.12600		324.00000 
 43692.65567		 889.56308			42803.09259		223.62400		875.00000 
 43692.65567		 305.27265			43387.38302		70.12600		324.00000 
 43692.65567		 889.56308			42803.09259		223.62400		875.00000 
 43692.65567		 305.27265			43387.38302		70.12600		324.00000 
 43692.65567		 889.56308			42803.09259		223.62400		875.00000 
 43692.65567		 305.27265			43387.38302		70.12600		324.00000 
 43692.65567		 889.56308			42803.09259		223.62400		875.00000 
 43692.65567		 305.27265			43387.38302		70.12600		324.00000 
 43692.65567		 889.56308			42803.09259		223.62400		875.00000 
 43692.65567		 305.27265			43387.38302		70.12600		324.00000 
 43692.65567		 889.56308			42803.09259		223.62400		875.00000 
 43692.65567		 305.27265			43387.38302		70.12600		324.00000 
 43692.65567		 889.56308			42803.09259		223.62400		875.00000 
 43692.65567		 305.27265			43387.38302		70.12600		324.00000 
 43692.65567		 889.56308			42803.09259		223.62400		875.00000 
 43692.65567		 305.27265			43387.38302		70.12600		324.00000 
 43692.65567		 889.56308			42803.09259		223.62400		875.00000 
 43692.65567		 305.27265			43387.38302		70.12600		324.00000 
 43692.65567		 889.56308			42803.09259		223.62400		875.00000 
 43692.65567		 305.27265			43387.38302		70.12600		324.00000 
 43692.65567		 889.56308			42803.09259		223.62400		875.00000 
 43692.65567		 305.27265			43387.38302		70.12600		324.00000 
 43692.65567		 889.56308			42803.09259		223.62400		875.00000 
 43692.65567		 305.27265			43387.38302		70.12600		324.00000 
 43692.65567		 889.56308			42803.09259		223.62400		875.00000 
 43692.65567		 305.27265			43387.38302		70.12600		324.00000 
 43692.65567		 889.56308			42803.09259		223.62400		875.00000 
 43692.65567		 305.27265			43387.38302		70.12600		324.00000 
 43692.65567		 889.56308			42803.09259		223.62400		875.00000 
 43692.65567		 305.27265			43387.38302		70.12600		324.00000 
 43692.65567		 889.56308			42803.09259		223.62400		875.00000 
 43692.65567		 305.27265			43387.38302		70.12600		324.00000 
 43692.65567		 889.56308			42803.09259		223.62400		875.00000 
 43692.65567		 305.27265			43387.38302		70.12600		324.00000 
 43692.65567		 889.56308			42803.09259		223.62400		875.00000 
 43692.65567		 305.27265			43387.38302		70.12600		324.00000 
 43692.65567		 889.56308			42803.09259		223.62400		875.00000 
 43692.65567		 305.27265			43387.38302		70.12600		324.00000 
 43692.65567		 889.56308			42803.09259		223.62400		875.00000 
 43692.65567		 305.27265			43387.38302		70.12600		324.00000 
 43692.65567		 889.56308			42803.09259		223.62400		875.00000 
 43692.65567		 305.27265			43387.38302		70.12600		324.00000 
 43692.65567		 889.56308			42803.09259		223.62400		875.00000 
 43692.65567		 305.27265			43387.38302		70.12600		324.00000 
 43692.65567		 889.56308			42803.09259		223.62400		875.00000 
 43692.65567		 305.27265			43387.38302		70.12600		324.00000 
 43692.65567		 889.56308			42803.09259		223.62400		875.00000 
 43692.65567		 305.27265			43387.38302		70.12600		324.00000 
 43692.65567		 889.56308			42803.09259		223.62400		875.00000 
 43692.65567		 305.27265			43387.38302		70.12600		324.00000 
 43692.65567		 889.56308			42803.09259		223.62400		875.00000 
 43692.65567		 305.27265			43387.38302		70.12600		324.00000 
 43692.65567		 889.56308			42803.09259		223.62400		875.00000 
 43692.65567		 305.27265			43387.38302		70.12600		324.00000 
 43692.65567		 889.56308			42803.09259		223.62400		875.00000 
 43692.65567		 305.27265			43387.38302		70.12600		324.00000 
 43692.65567		 889.56308			42803.09259		223.62400		875.00000 
 43692.65567		 305.27265			43387.38302		70.12600		324.00000 
 43692.65567		 889.56308			42803.09259		223.62400		875.00000 
 43692.65567		 305.27265			43387.38302		70.12600		324.00000 
 43692.65567		 889.56308			42803.09259		223.62400		875.00000 
 43692.65567		 305.27265			43387.38302		70.12600		324.00000 
 43692.65567		 889.56308			42803.09259		223.62400		875.00000 
 43692.65567		 305.27265			43387.38302		70.12600		324.00000 
 43692.65567		 889.56308			42803.09259		223.62400		875.00000 
 43692.65567		 305.27265			43387.38302		70.12600		324.00000 
 43692.65567		 889.56308			42803.09259		223.62400		875.00000 
 43692.65567		 305.27265			43387.38302		70.12600		324.00000 
 43692.65567		 889.56308			42803.09259		223.62400		875.00000 
 43692.65567		 305.27265			43387.38302		70.12600		324.00000 
 43692.65567		 889.56308			42803.09259		223.62400		875.00000 
 43692.65567		 305.27265			43387.38302		70.12600		324.00000 
 43692.65567		 889.56308			42803.09259		223.62400		875.00000 
 43692.65567		 305.27265			43387.38302		70.12600		324.00000 
 43692.65567		 889.56308			42803.09259		223.62400		875.00000 
 43692.65567		 305.27265			43387.38302		70.12600		324.00000 
 43692.65567		 889.56308			42803.09259		223.62400		875.00000 
 43692.65567		 305.27265			43387.38302		70.12600		324.00000 
 43692.65567		 889.56308			42803.09259		223.62400		875.00000 
 43692.65567		 305.27265			43387.38302		70.12600		324.00000 
 43692.65567		 889.56308			42803.09259		223.62400		875.00000 
 43692.65567		 305.27265			43387.38302		70.12600		324.00000 
 43692.65567		 889.56308			42803.09259		223.62400		875.00000 
 43692.65567		 305.27265			43387.38302		70.12600		324.00000 
 43692.65567		 889.56308			42803.09259		223.62400		875.00000 
 43692.65567		 305.27265			43387.38302		70.12600		324.00000 
 43692.65567		 889.56308			42803.09259		223.62400		875.00000 
 43692.65567		 305.27265			43387.38302		70.12600		324.00000 
 43692.65567		 889.56308			42803.09259		223.62400		875.00000 
 43692.65567		 305.27265			43387.38302		70.12600		324.00000 
 43692.65567		 889.56308			42803.09259		223.62400		875.00000 
 43692.65567		 305.27265			43387.38302		70.12600		324.00000 
 43692.65567		 889.56308			42803.09259		223.62400		875.00000 
 43692.65567		 305.27265			43387.38302		70.12600		324.00000 
 43692.65567		 889.56308			42803.09259		223.62400		875.00000 
 43692.65567		 305.27265			43387.38302		70.12600		324.00000 
 43692.65567		 889.56308			42803.09259		223.62400		875.00000 
 43692.65567		 305.27265			43387.38302		70.12600		324.00000 
 43692.65567		 889.56308			42803.09259		223.62400		875.00000 
 43692.65567		 305.27265			43387.38302		70.12600		324.00000 
 43692.65567		 889.56308			42803.09259		223.62400		875.00000 
 43692.65567		 305.27265			43387.38302		70.12600		324.00000 
 43692.65567		 889.56308			42803.09259		223.62400		875.00000 
 43692.65567		 305.27265			43387.38302		70.12600		324.00000 
 43692.65567		 889.56308			42803.09259		223.62400		875.00000 
 43692.65567		 305.27265			43387.38302		70.12600		324.00000 
 43692.65567		 889.56308			42803.09259		223.62400		875.00000 
 43692.65567		 305.27265			43387.38302		70.12600		324.00000 
 43692.65567		 889.56308			42803.09259		223.62400		875.00000 
 43692.65567		 305.27265			43387.38302		70.12600		324.00000 
 43692.65567		 889.56308			42803.09259		223.62400		875.00000 
 43692.65567		 305.27265			43387.38302		70.12600		324.00000 
 43692.65567		 889.56308			42803.09259		223.62400		875.00000 
 43692.65567		 305.27265			43387.38302		70.12600		324.00000 
 43692.65567		 889.56308			42803.09259		223.62400		875.00000 
 43692.65567		 305.27265			43387.38302		70.12600		324.00000 
 43692.65567		 889.56308			42803.09259		223.62400		875.00000 
 43692.65567		 305.27265			43387.38302		70.12600		324.00000 
 43692.65567		 889.56308			42803.09259		223.62400		875.00000 
 43692.65567		 305.27265			43387.38302		70.12600		324.00000 
 43692.65567		 889.56308			42803.09259		223.62400		875.00000 
 43692.65567		 305.27265			43387.38302		70.12600		324.00000 
 43692.65567		 889.56308			42803.09259		223.62400		875.00000 
 43692.65567		 305.27265			43387.38302		70.12600		324.00000 
 43692.65567		 889.56308			42803.09259		223.62400		875.00000 
 43692.65567		 305.27265			43387.38302		70.12600		324.00000 
 43692.65567		 889.56308			42803.09259		223.62400		875.00000 
 43692.65567		 305.27265			43387.38302		70.12600		324.00000 
 43692.65567		 889.56308			42803.09259		223.62400		875.00000 
 43692.65567		 305.27265			43387.38302		70.12600		324.00000 
 43692.65567		 889.56308			42803.09259		223.62400		875.00000 
 43692.65567		 305.27265			43387.38302		70.12600		324.00000 
 43692.65567		 889.56308			42803.09259		223.62400		875.00000 
 43692.65567		 305.27265			43387.38302		70.12600		324.00000 
 43692.65567		 889.56308			42803.09259		223.62400		875.00000 
 43692.65567		 305.27265			43387.38302		70.12600		324.00000 
 43692.65567		 889.56308			42803.09259		223.62400		875.00000 
 43692.65567		 305.27265			43387.38302		70.12600		324.00000 
 43692.65567		 889.56308			42803.09259		223.62400		875.00000 
 43692.65567		 305.27265			43387.38302		70.12600		324.00000 
 43692.65567		 889.56308			42803.09259		223.62400		875.00000 
 43692.65567		 305.27265			43387.38302		70.12600		324.00000 
 43692.65567		 889.56308			42803.09259		223.62400		875.00000 
 43692.65567		 305.27265			43387.38302		70.12600		324.00000 
 43692.65567		 889.56308			42803.09259		223.62400		875.00000 
 43692.65567		 305.27265			43387.38302		70.12600		324.00000 
 43692.65567		 889.56308			42803.09259		223.62400		875.00000 
 43692.65567		 305.27265			43387.38302		70.12600		324.00000 
 43692.65567		 889.56308			42803.09259		223.62400		875.00000 
 43692.65567		 305.27265			43387.38302		70.12600		324.00000 
 43692.65567		 889.56308			42803.09259		223.62400		875.00000 
 43692.65567		 305.27265			43387.38302		70.12600		324.00000 
 43692.65567		 889.56308			42803.09259		223.62400		875.00000 
 43692.65567		 305.27265			43387.38302		70.12600		324.00000 
 43692.65567		 889.56308			42803.09259		223.62400		875.00000 
 43692.65567		 305.27265			43387.38302		70.12600		324.00000 
 43692.65567		 889.56308			42803.09259		223.62400		875.00000 
 43692.65567		 305.27265			43387.38302		70.12600		324.00000 
 43692.65567		 889.56308			42803.09259		223.62400		875.00000 
 43692.65567		 305.27265			43387.38302		70.12600		324.00000 
 43692.65567		 889.56308			42803.09259		223.62400		875.00000 
 43692.65567		 305.27265			43387.38302		70.12600		324.00000 
 43692.65567		 889.56308			42803.09259		223.62400		875.00000 
 43692.65567		 305.27265			43387.38302		70.12600		324.00000 
 43692.65567		 889.56308			42803.09259		223.62400		875.00000 
 43692.65567		 305.27265			43387.38302		70.12600		324.00000 
 43692.65567		 889.56308			42803.09259		223.62400		875.00000 
 43692.65567		 305.27265			43387.38302		70.12600		324.00000 
 43692.65567		 889.56308			42803.09259		223.62400		875.00000 
 43692.65567		 305.27265			43387.38302		70.12600		324.00000 
 43692.65567		 889.56308			42803.09259		223.62400		875.00000 
 43692.65567		 305.27265			43387.38302		70.12600		324.00000 
 43692.65567		 889.56308			42803.09259		223.62400		875.00000 
 43692.65567		 305.27265			43387.38302		70.12600		324.00000 
 43692.65567		 889.56308			42803.09259		223.62400		875.00000 
 43692.65567		 305.27265			43387.38302		70.12600		324.00000 
 43692.65567		 889.56308			42803.09259		223.62400		875.00000 
 43692.65567		 305.27265			43387.38302		70.12600		324.00000 
 43692.65567		 889.56308			42803.09259		223.62400		875.00000 
 43692.65567		 305.27265			43387.38302		70.12600		324.00000 
 43692.65567		 889.56308			42803.09259		223.62400		875.00000 
 43692.65567		 305.27265			43387.38302		70.12600		324.00000 
 43692.65567		 889.56308			42803.09259		223.62400		875.00000 
 43692.65567		 305.27265			43387.38302		70.12600		324.00000 
 43692.65567		 889.56308			42803.09259		223.62400		875.00000 
 43692.65567		 305.27265			43387.38302		70.12600		324.00000 
 43692.65567		 889.56308			42803.09259		223.62400		875.00000 
 43692.65567		 305.27265			43387.38302		70.12600		324.00000 
 43692.65567		 889.56308			42803.09259		223.62400		875.00000 
 43692.65567		 305.27265			43387.38302		70.12600		324.00000 
 43692.65567		 889.56308			42803.09259		223.62400		875.00000 
 43692.65567		 305.27265			43387.38302		70.12600		324.00000 
 43692.65567		 889.56308			42803.09259		223.62400		875.00000 
 43692.65567		 305.27265			43387.38302		70.12600		324.00000 
 43692.65567		 889.56308			42803.09259		223.62400		875.00000 
 43692.65567		 305.27265			43387.38302		70.12600		324.00000 
 43692.65567		 889.56308			42803.09259		223.62400		875.00000 
 43692.65567		 305.27265			43387.38302		70.12600		324.00000 
 43692.65567		 889.56308			42803.09259		223.62400		875.00000 
 43692.65567		 305.27265			43387.38302		70.12600		324.00000 
 43692.65567		 889.56308			42803.09259		223.62400		875.00000 
 43692.65567		 305.27265			43387.38302		70.12600		324.00000 
 43692.65567		 889.56308			42803.09259		223.62400		875.00000 
 43692.65567		 305.27265			43387.38302		70.12600		324.00000 
 43692.65567		 889.56308			42803.09259		223.62400		875.00000 
 43692.65567		 305.27265			43387.38302		70.12600		324.00000 
 43692.65567		 889.56308			42803.09259		223.62400		875.00000 
 43692.65567		 305.27265			43387.38302		70.12600		324.00000 
 43692.65567		 889.56308			42803.09259		223.62400		875.00000 
 43692.65567		 305.27265			43387.38302		70.12600		324.00000 
 43692.65567		 889.56308			42803.09259		223.62400		875.00000 
 43692.65567		 305.27265			43387.38302		70.12600		324.00000 
 43692.65567		 889.56308			42803.09259		223.62400		875.00000 
 43692.65567		 305.27265			43387.38302		70.12600		324.00000 
 43692.65567		 889.56308			42803.09259		223.62400		875.00000 
 43692.65567		 305.27265			43387.38302		70.12600		324.00000 
 43692.65567		 889.56308			42803.09259		223.62400		875.00000 
 43692.65567		 305.27265			43387.38302		70.12600		324.00000 
 43692.65567		 889.56308			42803.09259		223.62400		875.00000 
 43692.65567		 305.27265			43387.38302		70.12600		324.00000 
 43692.65567		 889.56308			42803.09259		223.62400		875.00000 
 43692.65567		 305.27265			43387.38302		70.12600		324.00000 
 43692.65567		 889.56308			42803.09259		223.62400		875.00000 
 43692.65567		 305.27265			43387.38302		70.12600		324.00000 
 43692.65567		 889.56308			42803.09259		223.62400		875.00000 
 43692.65567		 305.27265			43387.38302		70.12600		324.00000 
 43692.65567		 889.56308			42803.09259		223.62400		875.00000 
 43692.65567		 305.27265			43387.38302		70.12600		324.00000 
 43692.65567		 889.56308			42803.09259		223.62400		875.00000 
 43692.65567		 305.27265			43387.38302		70.12600		324.00000 
 43692.65567		 889.56308			42803.09259		223.62400		875.00000 
 43692.65567		 305.27265			43387.38302		70.12600		324.00000 
 43692.65567		 889.56308			42803.09259		223.62400		875.00000 
 43692.65567		 305.27265			43387.38302		70.12600		324.00000 
 43692.65567		 889.56308			42803.09259		223.62400		875.00000 
 43692.65567		 305.27265			43387.38302		70.12600		324.00000 
 43692.65567		 889.56308			42803.09259		223.62400		875.00000 
 43692.65567		 305.27265			43387.38302		70.12600		324.00000 
 43692.65567		 889.56308			42803.09259		223.62400		875.00000 
 43692.65567		 305.27265			43387.38302		70.12600		324.00000 
 43692.65567		 889.56308			42803.09259		223.62400		875.00000 
 43692.65567		 305.27265			43387.38302		70.12600		324.00000 
 43692.65567		 889.56308			42803.09259		223.62400		875.00000 
 43692.65567		 305.27265			43387.38302		70.12600		324.00000 
 43692.65567		 889.56308			42803.09259		223.62400		875.00000 
 43692.65567		 305.27265			43387.38302		70.12600		324.00000 
 43692.65567		 889.56308			42803.09259		223.62400		875.00000 
 43692.65567		 305.27265			43387.38302		70.12600		324.00000 
 43692.65567		 889.56308			42803.09259		223.62400		875.00000 
 43692.65567		 305.27265			43387.38302		70.12600		324.00000 
 43692.65567		 889.56308			42803.09259		223.62400		875.00000 
 43692.65567		 305.27265			43387.38302		70.12600		324.00000 
 43692.65567		 889.56308			42803.09259		223.62400		875.00000 
 43692.65567		 305.27265			43387.38302		70.12600		324.00000 
 43692.65567		 889.56308			42803.09259		223.62400		875.00000 
 43692.65567		 305.27265			43387.38302		70.12600		324.00000 
 43692.65567		 889.56308			42803.09259		223.62400		875.00000 
 43692.65567		 305.27265			43387.38302		70.12600		324.00000 
 43692.65567		 889.56308			42803.09259		223.62400		875.00000 
 43692.65567		 305.27265			43387.38302		70.12600		324.00000 
 43692.65567		 889.56308			42803.09259		223.62400		875.00000 
 43692.65567		 305.27265			43387.38302		70.12600		324.00000 
 43692.65567		 889.56308			42803.09259		223.62400		875.00000 
 43692.65567		 305.27265			43387.38302		70.12600		324.00000 
 43692.65567		 889.56308			42803.09259		223.62400		875.00000 
 43692.65567		 305.27265			43387.38302		70.12600		324.00000 
 43692.65567		 889.56308			42803.09259		223.62400		875.00000 
 43692.65567		 305.27265			43387.38302		70.12600		324.00000 
 43692.65567		 889.56308			42803.09259		223.62400		875.00000 
 43692.65567		 305.27265			43387.38302		70.12600		324.00000 
 43692.65567		 889.56308			42803.09259		223.62400		875.00000 
 43692.65567		 305.27265			43387.38302		70.12600		324.00000 
 43692.65567		 889.56308			42803.09259		223.62400		875.00000 
 43692.65567		 305.27265			43387.38302		70.12600		324.00000 
 43692.65567		 889.56308			42803.09259		223.62400		875.00000 
 43692.65567		 305.27265			43387.38302		70.12600		324.00000 
 43692.65567		 889.56308			42803.09259		223.62400		875.00000 
 43692.65567		 305.27265			43387.38302		70.12600		324.00000 
 43692.65567		 889.56308			42803.09259		223.62400		875.00000 
 43692.65567		 305.27265			43387.38302		70.12600		324.00000 
 43692.65567		 889.56308			42803.09259		223.62400		875.00000 
 43692.65567		 305.27265			43387.38302		70.12600		324.00000 
 43692.65567		 889.56308			42803.09259		223.62400		875.00000 
 43692.65567		 305.27265			43387.38302		70.12600		324.00000 
 43692.65567		 889.56308			42803.09259		223.62400		875.00000 
 43692.65567		 305.27265			43387.38302		70.12600		324.00000 
 43692.65567		 889.56308			42803.09259		223.62400		875.00000 
 43692.65567		 305.27265			43387.38302		70.12600		324.00000 
 43692.65567		 889.56308			42803.09259		223.62400		875.00000 
 43692.65567		 305.27265			43387.38302		70.12600		324.00000 
 43692.65567		 889.56308			42803.09259		223.62400		875.00000 
 43692.65567		 305.27265			43387.38302		70.12600		324.00000 
 43692.65567		 889.56308			42803.09259		223.62400		875.00000 
 43692.65567		 305.27265			43387.38302		70.12600		324.00000 
 43692.65567		 889.56308			42803.09259		223.62400		875.00000 
 43692.65567		 305.27265			43387.38302		70.12600		324.00000 
 43692.65567		 889.56308			42803.09259		223.62400		875.00000 
 43692.65567		 305.27265			43387.38302		70.12600		324.00000 
 43692.65567		 889.56308			42803.09259		223.62400		875.00000 
 43692.65567		 305.27265			43387.38302		70.12600		324.00000 
 43692.65567		 889.56308			42803.09259		223.62400		875.00000 
 43692.65567		 305.27265			43387.38302		70.12600		324.00000 
 43692.65567		 889.56308			42803.09259		223.62400		875.00000 
 43692.65567		 305.27265			43387.38302		70.12600		324.00000 
 43692.65567		 889.56308			42803.09259		223.62400		875.00000 
 43692.65567		 305.27265			43387.38302		70.12600		324.00000 
 43692.65567		 889.56308			42803.09259		223.62400		875.00000 
 43692.65567		 305.27265			43387.38302		70.12600		324.00000 
 43692.65567		 889.56308			42803.09259		223.62400		875.00000 
 43692.65567		 305.27265			43387.38302		70.12600		324.00000 
 43692.65567		 889.56308			42803.09259		223.62400		875.00000 
 43692.65567		 305.27265			43387.38302		70.12600		324.00000 
 43692.65567		 889.56308			42803.09259		223.62400		875.00000 
 43692.65567		 305.27265			43387.38302		70.12600		324.00000 
 43692.65567		 889.56308			42803.09259		223.62400		875.00000 
 43692.65567		 305.27265			43387.38302		70.12600		324.00000 
 43692.65567		 889.56308			42803.09259		223.62400		875.00000 
 43692.65567		 305.27265			43387.38302		70.12600		324.00000 
 43692.65567		 889.56308			42803.09259		223.62400		875.00000 
 43692.65567		 305.27265			43387.38302		70.12600		324.00000 
 43692.65567		 889.56308			42803.09259		223.62400		875.00000 
 43692.65567		 305.27265			43387.38302		70.12600		324.00000 
 43692.65567		 889.56308			42803.09259		223.62400		875.00000 
 43692.65567		 305.27265			43387.38302		70.12600		324.00000 
 43692.65567		 889.56308			42803.09259		223.62400		875.00000 
 43692.65567		 305.27265			43387.38302		70.12600		324.00000 
 43692.65567		 889.56308			42803.09259		223.62400		875.00000 
 43692.65567		 305.27265			43387.38302		70.12600		324.00000 
 43692.65567		 889.56308			42803.09259		223.62400		875.00000 
 43692.65567		 305.27265			43387.38302		70.12600		324.00000 
 43692.65567		 889.56308			42803.09259		223.62400		875.00000 
 43692.65567		 305.27265			43387.38302		70.12600		324.00000 
 43692.65567		 889.56308			42803.09259		223.62400		875.00000 
 43692.65567		 305.27265			43387.38302		70.12600		324.00000 
 43692.65567		 889.56308			42803.09259		223.62400		875.00000 
 43692.65567		 305.27265			43387.38302		70.12600		324.00000 
 43692.65567		 889.56308			42803.09259		223.62400		875.00000 
 43692.65567		 305.27265			43387.38302		70.12600		324.00000 
 43692.65567		 889.56308			42803.09259		223.62400		875.00000 
 43692.65567		 305.27265			43387.38302		70.12600		324.00000 
 43692.65567		 889.56308			42803.09259		223.62400		875.00000 
 43692.65567		 305.27265			43387.38302		70.12600		324.00000 
 43692.65567		 889.56308			42803.09259		223.62400		875.00000 
 43692.65567		 305.27265			43387.38302		70.12600		324.00000 
 43692.65567		 889.56308			42803.09259		223.62400		875.00000 
 43692.65567		 305.27265			43387.38302		70.12600		324.00000 
 43692.65567		 772.13216			42920.52351		223.62400		875.00000 
 43692.65567		 305.27265			43387.38302		70.12600		324.00000 
 43692.65567		 772.13216			42920.52351		223.62400		875.00000 
 43692.65567		 305.27265			43387.38302		70.12600		324.00000 
 43692.65567		 654.70124			43037.95443		223.62400		875.00000 
 43692.65567		 305.27265			43387.38302		70.12600		324.00000 
 43692.65567		 654.70124			43037.95443		223.62400		875.00000 
 43692.65567		 305.27265			43387.38302		70.12600		324.00000 
 43692.65567		 537.27032			43155.38535		223.62400		875.00000 
 43692.65567		 305.27265			43387.38302		70.12600		324.00000 
 43692.65567		 537.27032			43155.38535		223.62400		875.00000 
 43692.65567		 305.27265			43387.38302		70.12600		324.00000 
 43692.65567		 537.27032			43155.38535		223.62400		875.00000 
 43692.65567		 305.27265			43387.38302		70.12600		324.00000 
 43692.65567		 537.27032			43155.38535		214.14000		875.00000 
 43692.65567		 305.27265			43387.38302		70.12600		324.00000 
 43692.65567		 537.27032			43155.38535		214.14000		875.00000 
 43692.65567		 305.27265			43387.38302		70.12600		324.00000 
 43692.65567		 537.27032			43155.38535		214.14000		875.00000 
 43692.65567		 305.27265			43387.38302		70.12600		324.00000 
 43692.65567		 537.27032			43155.38535		214.14000		875.00000 
 43692.65567		 305.27265			43387.38302		70.12600		324.00000 
 43692.65567		 537.27032			43155.38535		214.14000		875.00000 
 43692.65567		 305.27265			43387.38302		70.12600		324.00000 
 43692.65567		 537.27032			43155.38535		214.14000		875.00000 
 43692.65567		 305.27265			43387.38302		70.12600		324.00000 
 43692.65567		 537.27032			43155.38535		214.14000		875.00000 
 43692.65567		 305.27265			43387.38302		70.12600		324.00000 
 43692.65567		 537.27032			43155.38535		214.14000		875.00000 
 43692.65567		 305.27265			43387.38302		70.12600		324.00000 
 43692.65567		 537.27032			43155.38535		214.14000		875.00000 
 43692.65567		 305.27265			43387.38302		70.12600		324.00000 
 43692.65567		 537.27032			43155.38535		214.14000		875.00000 
 43692.65567		 305.27265			43387.38302		70.12600		324.00000 
 43692.65567		 537.27032			43155.38535		214.14000		875.00000 
 43692.65567		 305.27265			43387.38302		70.12600		324.00000 
 43692.65567		 537.27032			43155.38535		214.14000		875.00000 
 43692.65567		 305.27265			43387.38302		70.12600		324.00000 
 43692.65567		 537.27032			43155.38535		214.14000		875.00000 
 43692.65567		 305.27265			43387.38302		70.12600		324.00000 
 43692.65567		 537.27032			43155.38535		214.14000		875.00000 
 43692.65567		 305.27265			43387.38302		70.12600		324.00000 
 43692.65567		 537.27032			43155.38535		214.14000		875.00000 
 43692.65567		 305.27265			43387.38302		70.12600		324.00000 
 43692.65567		 537.27032			43155.38535		214.14000		875.00000 
 43692.65567		 305.27265			43387.38302		70.12600		324.00000 
 43692.65567		 537.27032			43155.38535		214.14000		875.00000 
 43692.65567		 305.27265			43387.38302		70.12600		324.00000 
 43692.65567		 537.27032			43155.38535		214.14000		875.00000 
 43692.65567		 305.27265			43387.38302		70.12600		324.00000 
 43692.65567		 525.81365			43166.84203		214.14000		875.00000 
 43692.65567		 305.27265			43387.38302		70.12600		324.00000 
 43692.65567		 525.81365			43166.84203		214.14000		875.00000 
 43692.65567		 261.35540			43431.30027		70.12600		324.00000 
 43692.65567		 261.35540			43431.30027		214.14000		875.00000 
 43692.65567		 261.35540			43431.30027		70.12600		324.00000 
