Memory Total (MiB) 	 Memory Used (MiB) 	    Memory Free (MiB) 	 Power Drawed (W) 	 Clocks (Mhz) 	 
 43692.65567		 261.35540			43431.30027		204.15000		875.00000 
 43692.65567		 261.35540			43431.30027		66.57000		324.00000 
 43692.65567		 261.35540			43431.30027		204.15000		875.00000 
 43692.65567		 261.35540			43431.30027		66.57000		324.00000 
 43692.65567		 261.35540			43431.30027		204.15000		875.00000 
 43692.65567		 261.35540			43431.30027		66.57000		324.00000 
 43692.65567		 261.35540			43431.30027		204.15000		875.00000 
 43692.65567		 261.35540			43431.30027		66.57000		324.00000 
 43692.65567		 261.35540			43431.30027		204.15000		875.00000 
 43692.65567		 261.35540			43431.30027		66.57000		324.00000 
 43692.65567		 261.35540			43431.30027		204.15000		875.00000 
 43692.65567		 261.35540			43431.30027		66.57000		324.00000 
 43692.65567		 261.35540			43431.30027		204.15000		875.00000 
 43692.65567		 261.35540			43431.30027		66.57000		324.00000 
 43692.65567		 261.35540			43431.30027		204.15000		875.00000 
 43692.65567		 261.35540			43431.30027		66.57000		324.00000 
 43692.65567		 261.35540			43431.30027		204.15000		875.00000 
 43692.65567		 261.35540			43431.30027		66.57000		324.00000 
 43692.65567		 261.35540			43431.30027		204.15000		875.00000 
 43692.65567		 261.35540			43431.30027		66.57000		324.00000 
 43692.65567		 261.35540			43431.30027		159.14800		875.00000 
 43692.65567		 261.35540			43431.30027		66.57000		324.00000 
 43692.65567		 261.35540			43431.30027		159.14800		875.00000 
 43692.65567		 261.35540			43431.30027		66.57000		324.00000 
 43692.65567		 261.35540			43431.30027		159.14800		875.00000 
 43692.65567		 261.35540			43431.30027		66.57000		324.00000 
 43692.65567		 261.35540			43431.30027		159.14800		875.00000 
 43692.65567		 261.35540			43431.30027		66.57000		324.00000 
 43692.65567		 261.35540			43431.30027		159.14800		875.00000 
 43692.65567		 261.35540			43431.30027		66.57000		324.00000 
 43692.65567		 261.35540			43431.30027		159.14800		875.00000 
 43692.65567		 261.35540			43431.30027		66.57000		324.00000 
 43692.65567		 261.35540			43431.30027		159.14800		875.00000 
 43692.65567		 261.35540			43431.30027		66.57000		324.00000 
 43692.65567		 261.35540			43431.30027		159.14800		875.00000 
 43692.65567		 261.35540			43431.30027		66.57000		324.00000 
 43692.65567		 265.17429			43427.48138		159.14800		875.00000 
 43692.65567		 261.35540			43431.30027		66.57000		324.00000 
 43692.65567		 265.17429			43427.48138		159.14800		875.00000 
 43692.65567		 261.35540			43431.30027		66.57000		324.00000 
 43692.65567		 272.81207			43419.84360		159.14800		875.00000 
 43692.65567		 261.35540			43431.30027		66.57000		324.00000 
 43692.65567		 272.81207			43419.84360		159.14800		875.00000 
 43692.65567		 261.35540			43431.30027		66.57000		324.00000 
 43692.65567		 272.81207			43419.84360		159.14800		875.00000 
 43692.65567		 265.17429			43427.48138		66.57000		324.00000 
 43692.65567		 272.81207			43419.84360		159.14800		875.00000 
 43692.65567		 265.17429			43427.48138		66.57000		324.00000 
 43692.65567		 272.81207			43419.84360		159.14800		875.00000 
 43692.65567		 272.81207			43419.84360		66.57000		324.00000 
 43692.65567		 272.81207			43419.84360		159.14800		875.00000 
 43692.65567		 272.81207			43419.84360		66.57000		324.00000 
 43692.65567		 272.81207			43419.84360		159.14800		875.00000 
 43692.65567		 272.81207			43419.84360		66.57000		324.00000 
 43692.65567		 272.81207			43419.84360		159.14800		875.00000 
 43692.65567		 272.81207			43419.84360		66.57000		324.00000 
 43692.65567		 305.27265			43387.38302		159.14800		875.00000 
 43692.65567		 305.27265			43387.38302		66.57000		324.00000 
 43692.65567		 305.27265			43387.38302		159.14800		875.00000 
 43692.65567		 305.27265			43387.38302		66.57000		324.00000 
 43692.65567		 305.27265			43387.38302		159.14800		875.00000 
 43692.65567		 305.27265			43387.38302		66.57000		324.00000 
 43692.65567		 305.27265			43387.38302		159.14800		875.00000 
 43692.65567		 305.27265			43387.38302		66.57000		324.00000 
 43692.65567		 305.27265			43387.38302		159.14800		875.00000 
 43692.65567		 305.27265			43387.38302		66.57000		324.00000 
 43692.65567		 310.04627			43382.60941		159.14800		875.00000 
 43692.65567		 305.27265			43387.38302		66.57000		324.00000 
 43692.65567		 311.00099			43381.65468		159.14800		875.00000 
 43692.65567		 305.27265			43387.38302		66.57000		324.00000 
 43692.65567		 311.00099			43381.65468		159.14800		875.00000 
 43692.65567		 305.27265			43387.38302		66.57000		324.00000 
 43692.65567		 311.00099			43381.65468		159.14800		875.00000 
 43692.65567		 305.27265			43387.38302		66.57000		324.00000 
 43692.65567		 311.00099			43381.65468		159.14800		875.00000 
 43692.65567		 305.27265			43387.38302		66.57000		324.00000 
 43692.65567		 311.00099			43381.65468		159.14800		875.00000 
 43692.65567		 305.27265			43387.38302		66.57000		324.00000 
 43692.65567		 311.00099			43381.65468		159.14800		875.00000 
 43692.65567		 305.27265			43387.38302		66.57000		324.00000 
 43692.65567		 311.00099			43381.65468		159.14800		875.00000 
 43692.65567		 305.27265			43387.38302		66.57000		324.00000 
 43692.65567		 311.00099			43381.65468		159.14800		875.00000 
 43692.65567		 305.27265			43387.38302		66.57000		324.00000 
 43692.65567		 311.00099			43381.65468		140.33400		875.00000 
 43692.65567		 305.27265			43387.38302		66.57000		324.00000 
 43692.65567		 311.00099			43381.65468		140.33400		875.00000 
 43692.65567		 305.27265			43387.38302		66.57000		324.00000 
 43692.65567		 311.00099			43381.65468		140.33400		875.00000 
 43692.65567		 305.27265			43387.38302		66.57000		324.00000 
 43692.65567		 311.00099			43381.65468		140.33400		875.00000 
 43692.65567		 305.27265			43387.38302		66.57000		324.00000 
 43692.65567		 311.00099			43381.65468		140.33400		875.00000 
 43692.65567		 305.27265			43387.38302		66.57000		324.00000 
 43692.65567		 311.00099			43381.65468		140.33400		875.00000 
 43692.65567		 305.27265			43387.38302		66.57000		324.00000 
 43692.65567		 311.00099			43381.65468		140.33400		875.00000 
 43692.65567		 305.27265			43387.38302		66.57000		324.00000 
 43692.65567		 311.00099			43381.65468		140.33400		875.00000 
 43692.65567		 305.27265			43387.38302		66.57000		324.00000 
 43692.65567		 311.00099			43381.65468		140.33400		875.00000 
 43692.65567		 305.27265			43387.38302		66.57000		324.00000 
 43692.65567		 311.00099			43381.65468		140.33400		875.00000 
 43692.65567		 305.27265			43387.38302		66.57000		324.00000 
 43692.65567		 311.00099			43381.65468		140.33400		875.00000 
 43692.65567		 305.27265			43387.38302		66.57000		324.00000 
 43692.65567		 311.00099			43381.65468		140.33400		875.00000 
 43692.65567		 305.27265			43387.38302		66.57000		324.00000 
 43692.65567		 311.00099			43381.65468		140.33400		875.00000 
 43692.65567		 305.27265			43387.38302		66.57000		324.00000 
 43692.65567		 311.00099			43381.65468		140.33400		875.00000 
 43692.65567		 305.27265			43387.38302		66.57000		324.00000 
 43692.65567		 311.00099			43381.65468		140.33400		875.00000 
 43692.65567		 305.27265			43387.38302		66.57000		324.00000 
 43692.65567		 311.00099			43381.65468		140.33400		875.00000 
 43692.65567		 305.27265			43387.38302		66.57000		324.00000 
 43692.65567		 311.00099			43381.65468		140.33400		875.00000 
 43692.65567		 305.27265			43387.38302		66.57000		324.00000 
 43692.65567		 311.00099			43381.65468		140.33400		875.00000 
 43692.65567		 305.27265			43387.38302		66.57000		324.00000 
 43692.65567		 311.00099			43381.65468		140.33400		875.00000 
 43692.65567		 305.27265			43387.38302		66.57000		324.00000 
 43692.65567		 311.00099			43381.65468		140.33400		875.00000 
 43692.65567		 305.27265			43387.38302		66.57000		324.00000 
 43692.65567		 311.00099			43381.65468		140.33400		875.00000 
 43692.65567		 305.27265			43387.38302		66.57000		324.00000 
 43692.65567		 311.00099			43381.65468		140.33400		875.00000 
 43692.65567		 305.27265			43387.38302		66.57000		324.00000 
 43692.65567		 311.00099			43381.65468		140.33400		875.00000 
 43692.65567		 305.27265			43387.38302		66.57000		324.00000 
 43692.65567		 311.00099			43381.65468		140.33400		875.00000 
 43692.65567		 305.27265			43387.38302		66.57000		324.00000 
 43692.65567		 311.00099			43381.65468		140.33400		875.00000 
 43692.65567		 305.27265			43387.38302		66.57000		324.00000 
 43692.65567		 311.00099			43381.65468		140.33400		875.00000 
 43692.65567		 305.27265			43387.38302		66.57000		324.00000 
 43692.65567		 311.00099			43381.65468		140.33400		875.00000 
 43692.65567		 305.27265			43387.38302		66.57000		324.00000 
 43692.65567		 311.00099			43381.65468		140.33400		875.00000 
 43692.65567		 305.27265			43387.38302		66.57000		324.00000 
 43692.65567		 311.00099			43381.65468		140.33400		875.00000 
 43692.65567		 305.27265			43387.38302		66.57000		324.00000 
 43692.65567		 311.00099			43381.65468		140.33400		875.00000 
 43692.65567		 305.27265			43387.38302		66.57000		324.00000 
 43692.65567		 311.00099			43381.65468		140.33400		875.00000 
 43692.65567		 305.27265			43387.38302		66.57000		324.00000 
 43692.65567		 311.00099			43381.65468		133.55800		875.00000 
 43692.65567		 305.27265			43387.38302		66.57000		324.00000 
 43692.65567		 311.00099			43381.65468		133.55800		875.00000 
 43692.65567		 305.27265			43387.38302		66.57000		324.00000 
 43692.65567		 311.00099			43381.65468		133.55800		875.00000 
 43692.65567		 305.27265			43387.38302		66.57000		324.00000 
 43692.65567		 311.00099			43381.65468		133.55800		875.00000 
 43692.65567		 305.27265			43387.38302		66.57000		324.00000 
 43692.65567		 311.00099			43381.65468		133.55800		875.00000 
 43692.65567		 305.27265			43387.38302		66.57000		324.00000 
 43692.65567		 311.00099			43381.65468		133.55800		875.00000 
 43692.65567		 305.27265			43387.38302		66.57000		324.00000 
 43692.65567		 311.00099			43381.65468		133.55800		875.00000 
 43692.65567		 305.27265			43387.38302		66.57000		324.00000 
 43692.65567		 311.00099			43381.65468		133.55800		875.00000 
 43692.65567		 305.27265			43387.38302		66.57000		324.00000 
 43692.65567		 311.00099			43381.65468		133.55800		875.00000 
 43692.65567		 305.27265			43387.38302		66.57000		324.00000 
 43692.65567		 311.00099			43381.65468		133.55800		875.00000 
 43692.65567		 305.27265			43387.38302		66.57000		324.00000 
 43692.65567		 311.00099			43381.65468		133.55800		875.00000 
 43692.65567		 305.27265			43387.38302		66.57000		324.00000 
 43692.65567		 314.81988			43377.83579		133.55800		875.00000 
 43692.65567		 305.27265			43387.38302		66.57000		324.00000 
 43692.65567		 314.81988			43377.83579		133.55800		875.00000 
 43692.65567		 305.27265			43387.38302		66.57000		324.00000 
 43692.65567		 314.81988			43377.83579		133.55800		875.00000 
 43692.65567		 305.27265			43387.38302		66.57000		324.00000 
 43692.65567		 318.63877			43374.01690		133.55800		875.00000 
 43692.65567		 305.27265			43387.38302		66.57000		324.00000 
 43692.65567		 322.45767			43370.19801		133.55800		875.00000 
 43692.65567		 305.27265			43387.38302		66.57000		324.00000 
 43692.65567		 326.27656			43366.37912		133.55800		875.00000 
 43692.65567		 305.27265			43387.38302		66.57000		324.00000 
 43692.65567		 326.27656			43366.37912		133.55800		875.00000 
 43692.65567		 305.27265			43387.38302		66.57000		324.00000 
 43692.65567		 326.27656			43366.37912		133.55800		875.00000 
 43692.65567		 305.27265			43387.38302		66.57000		324.00000 
 43692.65567		 537.27032			43155.38535		133.55800		875.00000 
 43692.65567		 305.27265			43387.38302		66.57000		324.00000 
 43692.65567		 567.82146			43124.83422		133.55800		875.00000 
 43692.65567		 305.27265			43387.38302		66.57000		324.00000 
 43692.65567		 583.09702			43109.55865		133.55800		875.00000 
 43692.65567		 305.27265			43387.38302		66.57000		324.00000 
 43692.65567		 583.09702			43109.55865		133.55800		875.00000 
 43692.65567		 305.27265			43387.38302		66.57000		324.00000 
 43692.65567		 583.09702			43109.55865		133.55800		875.00000 
 43692.65567		 305.27265			43387.38302		66.57000		324.00000 
 43692.65567		 583.09702			43109.55865		133.55800		875.00000 
 43692.65567		 305.27265			43387.38302		66.57000		324.00000 
 43692.65567		 583.09702			43109.55865		133.55800		875.00000 
 43692.65567		 305.27265			43387.38302		66.57000		324.00000 
 43692.65567		 583.09702			43109.55865		133.55800		875.00000 
 43692.65567		 305.27265			43387.38302		66.57000		324.00000 
 43692.65567		 583.09702			43109.55865		133.55800		875.00000 
 43692.65567		 305.27265			43387.38302		66.57000		324.00000 
 43692.65567		 583.09702			43109.55865		133.55800		875.00000 
 43692.65567		 305.27265			43387.38302		66.57000		324.00000 
 43692.65567		 583.09702			43109.55865		133.55800		875.00000 
 43692.65567		 305.27265			43387.38302		66.57000		324.00000 
 43692.65567		 583.09702			43109.55865		133.55800		875.00000 
 43692.65567		 305.27265			43387.38302		66.57000		324.00000 
 43692.65567		 583.09702			43109.55865		133.55800		875.00000 
 43692.65567		 305.27265			43387.38302		66.57000		324.00000 
 43692.65567		 583.09702			43109.55865		133.55800		875.00000 
 43692.65567		 305.27265			43387.38302		66.57000		324.00000 
 43692.65567		 583.09702			43109.55865		133.55800		875.00000 
 43692.65567		 305.27265			43387.38302		66.57000		324.00000 
 43692.65567		 583.09702			43109.55865		133.55800		875.00000 
 43692.65567		 305.27265			43387.38302		66.57000		324.00000 
 43692.65567		 583.09702			43109.55865		133.55800		875.00000 
 43692.65567		 305.27265			43387.38302		66.57000		324.00000 
 43692.65567		 583.09702			43109.55865		133.55800		875.00000 
 43692.65567		 305.27265			43387.38302		66.57000		324.00000 
 43692.65567		 583.09702			43109.55865		133.55800		875.00000 
 43692.65567		 305.27265			43387.38302		66.57000		324.00000 
 43692.65567		 583.09702			43109.55865		133.55800		875.00000 
 43692.65567		 305.27265			43387.38302		66.57000		324.00000 
 43692.65567		 583.09702			43109.55865		133.55800		875.00000 
 43692.65567		 305.27265			43387.38302		66.57000		324.00000 
 43692.65567		 583.09702			43109.55865		133.55800		875.00000 
 43692.65567		 305.27265			43387.38302		66.57000		324.00000 
 43692.65567		 583.09702			43109.55865		133.55800		875.00000 
 43692.65567		 305.27265			43387.38302		66.57000		324.00000 
 43692.65567		 583.09702			43109.55865		133.55800		875.00000 
 43692.65567		 305.27265			43387.38302		66.57000		324.00000 
 43692.65567		 583.09702			43109.55865		133.55800		875.00000 
 43692.65567		 305.27265			43387.38302		66.57000		324.00000 
 43692.65567		 583.09702			43109.55865		133.55800		875.00000 
 43692.65567		 305.27265			43387.38302		66.57000		324.00000 
 43692.65567		 583.09702			43109.55865		133.55800		875.00000 
 43692.65567		 305.27265			43387.38302		66.57000		324.00000 
 43692.65567		 583.09702			43109.55865		133.55800		875.00000 
 43692.65567		 305.27265			43387.38302		66.57000		324.00000 
 43692.65567		 583.09702			43109.55865		155.23800		875.00000 
 43692.65567		 305.27265			43387.38302		66.57000		324.00000 
 43692.65567		 583.09702			43109.55865		155.23800		875.00000 
 43692.65567		 305.27265			43387.38302		66.57000		324.00000 
 43692.65567		 583.09702			43109.55865		155.23800		875.00000 
 43692.65567		 305.27265			43387.38302		66.57000		324.00000 
 43692.65567		 583.09702			43109.55865		155.23800		875.00000 
 43692.65567		 305.27265			43387.38302		66.57000		324.00000 
 43692.65567		 583.09702			43109.55865		155.23800		875.00000 
 43692.65567		 305.27265			43387.38302		66.57000		324.00000 
 43692.65567		 583.09702			43109.55865		155.23800		875.00000 
 43692.65567		 305.27265			43387.38302		66.57000		324.00000 
 43692.65567		 583.09702			43109.55865		155.23800		875.00000 
 43692.65567		 305.27265			43387.38302		66.57000		324.00000 
 43692.65567		 583.09702			43109.55865		155.23800		875.00000 
 43692.65567		 305.27265			43387.38302		66.57000		324.00000 
 43692.65567		 583.09702			43109.55865		155.23800		875.00000 
 43692.65567		 305.27265			43387.38302		66.57000		324.00000 
 43692.65567		 583.09702			43109.55865		155.23800		875.00000 
 43692.65567		 305.27265			43387.38302		66.57000		324.00000 
 43692.65567		 583.09702			43109.55865		155.23800		875.00000 
 43692.65567		 305.27265			43387.38302		66.57000		324.00000 
 43692.65567		 583.09702			43109.55865		155.23800		875.00000 
 43692.65567		 305.27265			43387.38302		66.57000		324.00000 
 43692.65567		 583.09702			43109.55865		155.23800		875.00000 
 43692.65567		 305.27265			43387.38302		66.57000		324.00000 
 43692.65567		 583.09702			43109.55865		155.23800		875.00000 
 43692.65567		 305.27265			43387.38302		66.57000		324.00000 
 43692.65567		 583.09702			43109.55865		155.23800		875.00000 
 43692.65567		 305.27265			43387.38302		66.57000		324.00000 
 43692.65567		 583.09702			43109.55865		155.23800		875.00000 
 43692.65567		 305.27265			43387.38302		66.57000		324.00000 
 43692.65567		 583.09702			43109.55865		155.23800		875.00000 
 43692.65567		 305.27265			43387.38302		66.57000		324.00000 
 43692.65567		 583.09702			43109.55865		155.23800		875.00000 
 43692.65567		 305.27265			43387.38302		66.57000		324.00000 
 43692.65567		 583.09702			43109.55865		155.23800		875.00000 
 43692.65567		 305.27265			43387.38302		66.57000		324.00000 
 43692.65567		 583.09702			43109.55865		155.23800		875.00000 
 43692.65567		 305.27265			43387.38302		66.57000		324.00000 
 43692.65567		 583.09702			43109.55865		155.23800		875.00000 
 43692.65567		 305.27265			43387.38302		66.57000		324.00000 
 43692.65567		 583.09702			43109.55865		155.23800		875.00000 
 43692.65567		 305.27265			43387.38302		66.57000		324.00000 
 43692.65567		 583.09702			43109.55865		155.23800		875.00000 
 43692.65567		 305.27265			43387.38302		66.57000		324.00000 
 43692.65567		 583.09702			43109.55865		155.23800		875.00000 
 43692.65567		 305.27265			43387.38302		66.57000		324.00000 
 43692.65567		 583.09702			43109.55865		155.23800		875.00000 
 43692.65567		 305.27265			43387.38302		66.57000		324.00000 
 43692.65567		 583.09702			43109.55865		155.23800		875.00000 
 43692.65567		 305.27265			43387.38302		66.57000		324.00000 
 43692.65567		 583.09702			43109.55865		155.23800		875.00000 
 43692.65567		 305.27265			43387.38302		66.57000		324.00000 
 43692.65567		 583.09702			43109.55865		155.23800		875.00000 
 43692.65567		 305.27265			43387.38302		66.57000		324.00000 
 43692.65567		 583.09702			43109.55865		155.23800		875.00000 
 43692.65567		 305.27265			43387.38302		66.57000		324.00000 
 43692.65567		 583.09702			43109.55865		155.23800		875.00000 
 43692.65567		 305.27265			43387.38302		66.57000		324.00000 
 43692.65567		 583.09702			43109.55865		155.23800		875.00000 
 43692.65567		 305.27265			43387.38302		66.57000		324.00000 
 43692.65567		 583.09702			43109.55865		155.23800		875.00000 
 43692.65567		 305.27265			43387.38302		66.57000		324.00000 
 43692.65567		 583.09702			43109.55865		155.23800		875.00000 
 43692.65567		 305.27265			43387.38302		66.57000		324.00000 
 43692.65567		 583.09702			43109.55865		155.23800		875.00000 
 43692.65567		 305.27265			43387.38302		66.57000		324.00000 
 43692.65567		 583.09702			43109.55865		155.23800		875.00000 
 43692.65567		 305.27265			43387.38302		66.57000		324.00000 
 43692.65567		 583.09702			43109.55865		155.23800		875.00000 
 43692.65567		 305.27265			43387.38302		66.57000		324.00000 
 43692.65567		 583.09702			43109.55865		155.23800		875.00000 
 43692.65567		 305.27265			43387.38302		66.57000		324.00000 
 43692.65567		 583.09702			43109.55865		155.23800		875.00000 
 43692.65567		 305.27265			43387.38302		66.57000		324.00000 
 43692.65567		 583.09702			43109.55865		155.23800		875.00000 
 43692.65567		 305.27265			43387.38302		66.57000		324.00000 
 43692.65567		 583.09702			43109.55865		155.23800		875.00000 
 43692.65567		 305.27265			43387.38302		66.57000		324.00000 
 43692.65567		 583.09702			43109.55865		155.23800		875.00000 
 43692.65567		 305.27265			43387.38302		66.57000		324.00000 
 43692.65567		 583.09702			43109.55865		155.23800		875.00000 
 43692.65567		 305.27265			43387.38302		66.57000		324.00000 
 43692.65567		 583.09702			43109.55865		155.23800		875.00000 
 43692.65567		 305.27265			43387.38302		66.57000		324.00000 
 43692.65567		 583.09702			43109.55865		155.23800		875.00000 
 43692.65567		 305.27265			43387.38302		66.57000		324.00000 
 43692.65567		 583.09702			43109.55865		155.23800		875.00000 
 43692.65567		 305.27265			43387.38302		66.57000		324.00000 
 43692.65567		 583.09702			43109.55865		155.23800		875.00000 
 43692.65567		 305.27265			43387.38302		66.57000		324.00000 
 43692.65567		 583.09702			43109.55865		155.23800		875.00000 
 43692.65567		 305.27265			43387.38302		66.57000		324.00000 
 43692.65567		 583.09702			43109.55865		155.23800		875.00000 
 43692.65567		 305.27265			43387.38302		66.57000		324.00000 
 43692.65567		 583.09702			43109.55865		155.23800		875.00000 
 43692.65567		 305.27265			43387.38302		66.57000		324.00000 
 43692.65567		 583.09702			43109.55865		155.23800		875.00000 
 43692.65567		 305.27265			43387.38302		66.57000		324.00000 
 43692.65567		 583.09702			43109.55865		155.23800		875.00000 
 43692.65567		 305.27265			43387.38302		66.57000		324.00000 
 43692.65567		 583.09702			43109.55865		155.23800		875.00000 
 43692.65567		 305.27265			43387.38302		66.57000		324.00000 
 43692.65567		 583.09702			43109.55865		155.23800		875.00000 
 43692.65567		 305.27265			43387.38302		66.57000		324.00000 
 43692.65567		 583.09702			43109.55865		155.23800		875.00000 
 43692.65567		 305.27265			43387.38302		66.57000		324.00000 
 43692.65567		 583.09702			43109.55865		155.23800		875.00000 
 43692.65567		 305.27265			43387.38302		66.57000		324.00000 
 43692.65567		 583.09702			43109.55865		155.23800		875.00000 
 43692.65567		 305.27265			43387.38302		66.57000		324.00000 
 43692.65567		 583.09702			43109.55865		155.23800		875.00000 
 43692.65567		 305.27265			43387.38302		66.57000		324.00000 
 43692.65567		 583.09702			43109.55865		155.23800		875.00000 
 43692.65567		 305.27265			43387.38302		66.57000		324.00000 
 43692.65567		 583.09702			43109.55865		155.23800		875.00000 
 43692.65567		 305.27265			43387.38302		66.57000		324.00000 
 43692.65567		 583.09702			43109.55865		155.23800		875.00000 
 43692.65567		 305.27265			43387.38302		66.57000		324.00000 
 43692.65567		 583.09702			43109.55865		186.12000		875.00000 
 43692.65567		 305.27265			43387.38302		66.57000		324.00000 
 43692.65567		 583.09702			43109.55865		186.12000		875.00000 
 43692.65567		 305.27265			43387.38302		66.57000		324.00000 
 43692.65567		 583.09702			43109.55865		186.12000		875.00000 
 43692.65567		 305.27265			43387.38302		66.57000		324.00000 
 43692.65567		 583.09702			43109.55865		186.12000		875.00000 
 43692.65567		 305.27265			43387.38302		66.57000		324.00000 
 43692.65567		 583.09702			43109.55865		186.12000		875.00000 
 43692.65567		 305.27265			43387.38302		66.57000		324.00000 
 43692.65567		 583.09702			43109.55865		186.12000		875.00000 
 43692.65567		 305.27265			43387.38302		66.57000		324.00000 
 43692.65567		 583.09702			43109.55865		186.12000		875.00000 
 43692.65567		 305.27265			43387.38302		66.57000		324.00000 
 43692.65567		 583.09702			43109.55865		186.12000		875.00000 
 43692.65567		 305.27265			43387.38302		66.57000		324.00000 
 43692.65567		 583.09702			43109.55865		186.12000		875.00000 
 43692.65567		 305.27265			43387.38302		66.57000		324.00000 
 43692.65567		 583.09702			43109.55865		186.12000		875.00000 
 43692.65567		 305.27265			43387.38302		66.57000		324.00000 
 43692.65567		 583.09702			43109.55865		186.12000		875.00000 
 43692.65567		 305.27265			43387.38302		66.57000		324.00000 
 43692.65567		 583.09702			43109.55865		186.12000		875.00000 
 43692.65567		 305.27265			43387.38302		66.57000		324.00000 
 43692.65567		 583.09702			43109.55865		186.12000		875.00000 
 43692.65567		 305.27265			43387.38302		66.57000		324.00000 
 43692.65567		 583.09702			43109.55865		186.12000		875.00000 
 43692.65567		 305.27265			43387.38302		66.57000		324.00000 
 43692.65567		 583.09702			43109.55865		186.12000		875.00000 
 43692.65567		 305.27265			43387.38302		66.57000		324.00000 
 43692.65567		 583.09702			43109.55865		186.12000		875.00000 
 43692.65567		 305.27265			43387.38302		66.57000		324.00000 
 43692.65567		 583.09702			43109.55865		186.12000		875.00000 
 43692.65567		 305.27265			43387.38302		66.57000		324.00000 
 43692.65567		 583.09702			43109.55865		186.12000		875.00000 
 43692.65567		 305.27265			43387.38302		66.57000		324.00000 
 43692.65567		 583.09702			43109.55865		186.12000		875.00000 
 43692.65567		 305.27265			43387.38302		66.57000		324.00000 
 43692.65567		 583.09702			43109.55865		186.12000		875.00000 
 43692.65567		 305.27265			43387.38302		66.57000		324.00000 
 43692.65567		 583.09702			43109.55865		186.12000		875.00000 
 43692.65567		 305.27265			43387.38302		66.57000		324.00000 
 43692.65567		 583.09702			43109.55865		186.12000		875.00000 
 43692.65567		 305.27265			43387.38302		66.57000		324.00000 
 43692.65567		 583.09702			43109.55865		186.12000		875.00000 
 43692.65567		 305.27265			43387.38302		66.57000		324.00000 
 43692.65567		 583.09702			43109.55865		186.12000		875.00000 
 43692.65567		 305.27265			43387.38302		66.57000		324.00000 
 43692.65567		 583.09702			43109.55865		186.12000		875.00000 
 43692.65567		 305.27265			43387.38302		66.57000		324.00000 
 43692.65567		 583.09702			43109.55865		186.12000		875.00000 
 43692.65567		 305.27265			43387.38302		66.57000		324.00000 
 43692.65567		 583.09702			43109.55865		186.12000		875.00000 
 43692.65567		 305.27265			43387.38302		66.57000		324.00000 
 43692.65567		 583.09702			43109.55865		186.12000		875.00000 
 43692.65567		 305.27265			43387.38302		66.57000		324.00000 
 43692.65567		 583.09702			43109.55865		186.12000		875.00000 
 43692.65567		 305.27265			43387.38302		66.57000		324.00000 
 43692.65567		 583.09702			43109.55865		186.12000		875.00000 
 43692.65567		 305.27265			43387.38302		66.57000		324.00000 
 43692.65567		 583.09702			43109.55865		186.12000		875.00000 
 43692.65567		 305.27265			43387.38302		66.57000		324.00000 
 43692.65567		 583.09702			43109.55865		186.12000		875.00000 
 43692.65567		 305.27265			43387.38302		66.57000		324.00000 
 43692.65567		 583.09702			43109.55865		186.12000		875.00000 
 43692.65567		 305.27265			43387.38302		66.57000		324.00000 
 43692.65567		 583.09702			43109.55865		186.12000		875.00000 
 43692.65567		 305.27265			43387.38302		66.57000		324.00000 
 43692.65567		 583.09702			43109.55865		186.12000		875.00000 
 43692.65567		 305.27265			43387.38302		66.57000		324.00000 
 43692.65567		 583.09702			43109.55865		186.12000		875.00000 
 43692.65567		 305.27265			43387.38302		66.57000		324.00000 
 43692.65567		 583.09702			43109.55865		186.12000		875.00000 
 43692.65567		 305.27265			43387.38302		66.57000		324.00000 
 43692.65567		 583.09702			43109.55865		186.12000		875.00000 
 43692.65567		 305.27265			43387.38302		66.57000		324.00000 
 43692.65567		 583.09702			43109.55865		186.12000		875.00000 
 43692.65567		 305.27265			43387.38302		66.57000		324.00000 
 43692.65567		 583.09702			43109.55865		186.12000		875.00000 
 43692.65567		 305.27265			43387.38302		66.57000		324.00000 
 43692.65567		 583.09702			43109.55865		186.12000		875.00000 
 43692.65567		 305.27265			43387.38302		67.97400		324.00000 
 43692.65567		 583.09702			43109.55865		186.12000		875.00000 
 43692.65567		 305.27265			43387.38302		67.97400		324.00000 
 43692.65567		 583.09702			43109.55865		186.12000		875.00000 
 43692.65567		 305.27265			43387.38302		67.97400		324.00000 
 43692.65567		 583.09702			43109.55865		186.12000		875.00000 
 43692.65567		 305.27265			43387.38302		67.97400		324.00000 
 43692.65567		 583.09702			43109.55865		186.12000		875.00000 
 43692.65567		 305.27265			43387.38302		67.97400		324.00000 
 43692.65567		 583.09702			43109.55865		186.12000		875.00000 
 43692.65567		 305.27265			43387.38302		67.97400		324.00000 
 43692.65567		 583.09702			43109.55865		186.12000		875.00000 
 43692.65567		 305.27265			43387.38302		67.97400		324.00000 
 43692.65567		 583.09702			43109.55865		186.12000		875.00000 
 43692.65567		 305.27265			43387.38302		67.97400		324.00000 
 43692.65567		 583.09702			43109.55865		186.12000		875.00000 
 43692.65567		 305.27265			43387.38302		67.97400		324.00000 
 43692.65567		 583.09702			43109.55865		186.12000		875.00000 
 43692.65567		 305.27265			43387.38302		67.97400		324.00000 
 43692.65567		 583.09702			43109.55865		186.12000		875.00000 
 43692.65567		 305.27265			43387.38302		67.97400		324.00000 
 43692.65567		 583.09702			43109.55865		186.12000		875.00000 
 43692.65567		 305.27265			43387.38302		67.97400		324.00000 
 43692.65567		 583.09702			43109.55865		186.12000		875.00000 
 43692.65567		 305.27265			43387.38302		67.97400		324.00000 
 43692.65567		 583.09702			43109.55865		186.12000		875.00000 
 43692.65567		 305.27265			43387.38302		67.97400		324.00000 
 43692.65567		 583.09702			43109.55865		186.12000		875.00000 
 43692.65567		 305.27265			43387.38302		67.97400		324.00000 
 43692.65567		 583.09702			43109.55865		186.12000		875.00000 
 43692.65567		 305.27265			43387.38302		67.97400		324.00000 
 43692.65567		 583.09702			43109.55865		186.12000		875.00000 
 43692.65567		 305.27265			43387.38302		67.97400		324.00000 
 43692.65567		 583.09702			43109.55865		199.05600		875.00000 
 43692.65567		 305.27265			43387.38302		67.97400		324.00000 
 43692.65567		 583.09702			43109.55865		199.05600		875.00000 
 43692.65567		 305.27265			43387.38302		67.97400		324.00000 
 43692.65567		 583.09702			43109.55865		199.05600		875.00000 
 43692.65567		 305.27265			43387.38302		67.97400		324.00000 
 43692.65567		 583.09702			43109.55865		199.05600		875.00000 
 43692.65567		 305.27265			43387.38302		67.97400		324.00000 
 43692.65567		 583.09702			43109.55865		199.05600		875.00000 
 43692.65567		 305.27265			43387.38302		67.97400		324.00000 
 43692.65567		 583.09702			43109.55865		199.05600		875.00000 
 43692.65567		 305.27265			43387.38302		67.97400		324.00000 
 43692.65567		 583.09702			43109.55865		199.05600		875.00000 
 43692.65567		 305.27265			43387.38302		67.97400		324.00000 
 43692.65567		 583.09702			43109.55865		199.05600		875.00000 
 43692.65567		 305.27265			43387.38302		67.97400		324.00000 
 43692.65567		 583.09702			43109.55865		199.05600		875.00000 
 43692.65567		 305.27265			43387.38302		67.97400		324.00000 
 43692.65567		 583.09702			43109.55865		199.05600		875.00000 
 43692.65567		 305.27265			43387.38302		67.97400		324.00000 
 43692.65567		 583.09702			43109.55865		199.05600		875.00000 
 43692.65567		 305.27265			43387.38302		67.97400		324.00000 
 43692.65567		 583.09702			43109.55865		199.05600		875.00000 
 43692.65567		 305.27265			43387.38302		67.97400		324.00000 
 43692.65567		 583.09702			43109.55865		199.05600		875.00000 
 43692.65567		 305.27265			43387.38302		67.97400		324.00000 
 43692.65567		 583.09702			43109.55865		199.05600		875.00000 
 43692.65567		 305.27265			43387.38302		67.97400		324.00000 
 43692.65567		 583.09702			43109.55865		199.05600		875.00000 
 43692.65567		 305.27265			43387.38302		67.97400		324.00000 
 43692.65567		 583.09702			43109.55865		199.05600		875.00000 
 43692.65567		 305.27265			43387.38302		67.97400		324.00000 
 43692.65567		 583.09702			43109.55865		199.05600		875.00000 
 43692.65567		 305.27265			43387.38302		67.97400		324.00000 
 43692.65567		 583.09702			43109.55865		199.05600		875.00000 
 43692.65567		 305.27265			43387.38302		67.97400		324.00000 
 43692.65567		 583.09702			43109.55865		199.05600		875.00000 
 43692.65567		 305.27265			43387.38302		67.97400		324.00000 
 43692.65567		 583.09702			43109.55865		199.05600		875.00000 
 43692.65567		 305.27265			43387.38302		67.97400		324.00000 
 43692.65567		 583.09702			43109.55865		199.05600		875.00000 
 43692.65567		 305.27265			43387.38302		67.97400		324.00000 
 43692.65567		 583.09702			43109.55865		199.05600		875.00000 
 43692.65567		 305.27265			43387.38302		67.97400		324.00000 
 43692.65567		 583.09702			43109.55865		199.05600		875.00000 
 43692.65567		 305.27265			43387.38302		67.97400		324.00000 
 43692.65567		 583.09702			43109.55865		199.05600		875.00000 
 43692.65567		 305.27265			43387.38302		67.97400		324.00000 
 43692.65567		 583.09702			43109.55865		199.05600		875.00000 
 43692.65567		 305.27265			43387.38302		67.97400		324.00000 
 43692.65567		 583.09702			43109.55865		199.05600		875.00000 
 43692.65567		 305.27265			43387.38302		67.97400		324.00000 
 43692.65567		 583.09702			43109.55865		199.05600		875.00000 
 43692.65567		 305.27265			43387.38302		67.97400		324.00000 
 43692.65567		 583.09702			43109.55865		199.05600		875.00000 
 43692.65567		 305.27265			43387.38302		67.97400		324.00000 
 43692.65567		 583.09702			43109.55865		199.05600		875.00000 
 43692.65567		 305.27265			43387.38302		67.97400		324.00000 
 43692.65567		 583.09702			43109.55865		199.05600		875.00000 
 43692.65567		 305.27265			43387.38302		67.97400		324.00000 
 43692.65567		 583.09702			43109.55865		199.05600		875.00000 
 43692.65567		 305.27265			43387.38302		67.97400		324.00000 
 43692.65567		 583.09702			43109.55865		199.05600		875.00000 
 43692.65567		 305.27265			43387.38302		67.97400		324.00000 
 43692.65567		 583.09702			43109.55865		199.05600		875.00000 
 43692.65567		 305.27265			43387.38302		67.97400		324.00000 
 43692.65567		 583.09702			43109.55865		199.05600		875.00000 
 43692.65567		 305.27265			43387.38302		67.97400		324.00000 
 43692.65567		 583.09702			43109.55865		199.05600		875.00000 
 43692.65567		 305.27265			43387.38302		67.97400		324.00000 
 43692.65567		 583.09702			43109.55865		199.05600		875.00000 
 43692.65567		 305.27265			43387.38302		67.97400		324.00000 
 43692.65567		 537.27032			43155.38535		199.05600		875.00000 
 43692.65567		 305.27265			43387.38302		67.97400		324.00000 
 43692.65567		 537.27032			43155.38535		199.05600		875.00000 
 43692.65567		 305.27265			43387.38302		67.97400		324.00000 
 43692.65567		 537.27032			43155.38535		199.05600		875.00000 
 43692.65567		 305.27265			43387.38302		67.97400		324.00000 
 43692.65567		 537.27032			43155.38535		199.05600		875.00000 
 43692.65567		 305.27265			43387.38302		67.97400		324.00000 
 43692.65567		 537.27032			43155.38535		199.05600		875.00000 
 43692.65567		 305.27265			43387.38302		67.97400		324.00000 
 43692.65567		 537.27032			43155.38535		199.05600		875.00000 
 43692.65567		 305.27265			43387.38302		67.97400		324.00000 
 43692.65567		 537.27032			43155.38535		199.05600		875.00000 
 43692.65567		 305.27265			43387.38302		67.97400		324.00000 
 43692.65567		 537.27032			43155.38535		199.05600		875.00000 
 43692.65567		 305.27265			43387.38302		67.97400		324.00000 
 43692.65567		 537.27032			43155.38535		199.05600		875.00000 
 43692.65567		 305.27265			43387.38302		67.97400		324.00000 
 43692.65567		 537.27032			43155.38535		199.05600		875.00000 
 43692.65567		 305.27265			43387.38302		67.97400		324.00000 
 43692.65567		 537.27032			43155.38535		199.05600		875.00000 
 43692.65567		 305.27265			43387.38302		67.97400		324.00000 
 43692.65567		 537.27032			43155.38535		199.05600		875.00000 
 43692.65567		 305.27265			43387.38302		67.97400		324.00000 
 43692.65567		 537.27032			43155.38535		199.05600		875.00000 
 43692.65567		 305.27265			43387.38302		67.97400		324.00000 
 43692.65567		 537.27032			43155.38535		199.05600		875.00000 
 43692.65567		 305.27265			43387.38302		67.97400		324.00000 
 43692.65567		 537.27032			43155.38535		199.05600		875.00000 
 43692.65567		 305.27265			43387.38302		67.97400		324.00000 
 43692.65567		 537.27032			43155.38535		199.05600		875.00000 
 43692.65567		 305.27265			43387.38302		67.97400		324.00000 
 43692.65567		 537.27032			43155.38535		199.05600		875.00000 
 43692.65567		 305.27265			43387.38302		67.97400		324.00000 
 43692.65567		 537.27032			43155.38535		199.05600		875.00000 
 43692.65567		 305.27265			43387.38302		67.97400		324.00000 
 43692.65567		 537.27032			43155.38535		199.05600		875.00000 
 43692.65567		 305.27265			43387.38302		67.97400		324.00000 
 43692.65567		 529.63254			43163.02313		178.82000		875.00000 
 43692.65567		 305.27265			43387.38302		67.97400		324.00000 
 43692.65567		 525.81365			43166.84203		178.82000		875.00000 
 43692.65567		 305.27265			43387.38302		67.97400		324.00000 
 43692.65567		 525.81365			43166.84203		178.82000		875.00000 
 43692.65567		 261.35540			43431.30027		67.97400		324.00000 
 43692.65567		 261.35540			43431.30027		178.82000		875.00000 
 43692.65567		 261.35540			43431.30027		67.97400		324.00000 
