Memory Total (MiB) 	 Memory Used (MiB) 	    Memory Free (MiB) 	 Power Drawed (W) 	 Clocks (Mhz) 	 
 43692.65567		 261.35540			43431.30027		224.38800		875.00000 
 43692.65567		 261.35540			43431.30027		68.72400		324.00000 
 43692.65567		 261.35540			43431.30027		224.38800		875.00000 
 43692.65567		 261.35540			43431.30027		68.72400		324.00000 
 43692.65567		 261.35540			43431.30027		224.38800		875.00000 
 43692.65567		 261.35540			43431.30027		68.72400		324.00000 
 43692.65567		 261.35540			43431.30027		224.38800		875.00000 
 43692.65567		 261.35540			43431.30027		68.72400		324.00000 
 43692.65567		 261.35540			43431.30027		224.38800		875.00000 
 43692.65567		 261.35540			43431.30027		68.72400		324.00000 
 43692.65567		 261.35540			43431.30027		168.55400		875.00000 
 43692.65567		 261.35540			43431.30027		68.72400		324.00000 
 43692.65567		 261.35540			43431.30027		168.55400		875.00000 
 43692.65567		 261.35540			43431.30027		68.72400		324.00000 
 43692.65567		 261.35540			43431.30027		168.55400		875.00000 
 43692.65567		 261.35540			43431.30027		68.72400		324.00000 
 43692.65567		 261.35540			43431.30027		168.55400		875.00000 
 43692.65567		 261.35540			43431.30027		68.72400		324.00000 
 43692.65567		 261.35540			43431.30027		168.55400		875.00000 
 43692.65567		 261.35540			43431.30027		68.72400		324.00000 
 43692.65567		 261.35540			43431.30027		168.55400		875.00000 
 43692.65567		 261.35540			43431.30027		68.72400		324.00000 
 43692.65567		 261.35540			43431.30027		168.55400		875.00000 
 43692.65567		 261.35540			43431.30027		68.72400		324.00000 
 43692.65567		 261.35540			43431.30027		168.55400		875.00000 
 43692.65567		 261.35540			43431.30027		68.72400		324.00000 
 43692.65567		 261.35540			43431.30027		168.55400		875.00000 
 43692.65567		 261.35540			43431.30027		68.72400		324.00000 
 43692.65567		 261.35540			43431.30027		168.55400		875.00000 
 43692.65567		 261.35540			43431.30027		68.72400		324.00000 
 43692.65567		 261.35540			43431.30027		168.55400		875.00000 
 43692.65567		 261.35540			43431.30027		68.72400		324.00000 
 43692.65567		 261.35540			43431.30027		168.55400		875.00000 
 43692.65567		 261.35540			43431.30027		68.72400		324.00000 
 43692.65567		 261.35540			43431.30027		168.55400		875.00000 
 43692.65567		 261.35540			43431.30027		68.72400		324.00000 
 43692.65567		 265.17429			43427.48138		168.55400		875.00000 
 43692.65567		 261.35540			43431.30027		68.72400		324.00000 
 43692.65567		 265.17429			43427.48138		168.55400		875.00000 
 43692.65567		 261.35540			43431.30027		68.72400		324.00000 
 43692.65567		 272.81207			43419.84360		168.55400		875.00000 
 43692.65567		 261.35540			43431.30027		68.72400		324.00000 
 43692.65567		 272.81207			43419.84360		168.55400		875.00000 
 43692.65567		 261.35540			43431.30027		68.72400		324.00000 
 43692.65567		 272.81207			43419.84360		168.55400		875.00000 
 43692.65567		 265.17429			43427.48138		68.72400		324.00000 
 43692.65567		 272.81207			43419.84360		168.55400		875.00000 
 43692.65567		 265.17429			43427.48138		68.72400		324.00000 
 43692.65567		 272.81207			43419.84360		168.55400		875.00000 
 43692.65567		 265.17429			43427.48138		68.72400		324.00000 
 43692.65567		 272.81207			43419.84360		168.55400		875.00000 
 43692.65567		 272.81207			43419.84360		68.72400		324.00000 
 43692.65567		 272.81207			43419.84360		168.55400		875.00000 
 43692.65567		 272.81207			43419.84360		68.72400		324.00000 
 43692.65567		 272.81207			43419.84360		168.55400		875.00000 
 43692.65567		 272.81207			43419.84360		68.72400		324.00000 
 43692.65567		 305.27265			43387.38302		168.55400		875.00000 
 43692.65567		 305.27265			43387.38302		68.72400		324.00000 
 43692.65567		 305.27265			43387.38302		168.55400		875.00000 
 43692.65567		 305.27265			43387.38302		68.72400		324.00000 
 43692.65567		 305.27265			43387.38302		168.55400		875.00000 
 43692.65567		 305.27265			43387.38302		68.72400		324.00000 
 43692.65567		 305.27265			43387.38302		168.55400		875.00000 
 43692.65567		 305.27265			43387.38302		68.72400		324.00000 
 43692.65567		 305.27265			43387.38302		168.55400		875.00000 
 43692.65567		 305.27265			43387.38302		68.72400		324.00000 
 43692.65567		 309.09154			43383.56413		168.55400		875.00000 
 43692.65567		 305.27265			43387.38302		68.72400		324.00000 
 43692.65567		 310.52363			43382.13204		168.55400		875.00000 
 43692.65567		 305.27265			43387.38302		68.72400		324.00000 
 43692.65567		 311.00099			43381.65468		168.55400		875.00000 
 43692.65567		 305.27265			43387.38302		68.72400		324.00000 
 43692.65567		 311.00099			43381.65468		168.55400		875.00000 
 43692.65567		 305.27265			43387.38302		68.72400		324.00000 
 43692.65567		 311.00099			43381.65468		168.55400		875.00000 
 43692.65567		 305.27265			43387.38302		68.72400		324.00000 
 43692.65567		 311.00099			43381.65468		168.55400		875.00000 
 43692.65567		 305.27265			43387.38302		68.72400		324.00000 
 43692.65567		 311.00099			43381.65468		145.70600		875.00000 
 43692.65567		 305.27265			43387.38302		68.72400		324.00000 
 43692.65567		 311.00099			43381.65468		145.70600		875.00000 
 43692.65567		 305.27265			43387.38302		68.72400		324.00000 
 43692.65567		 311.00099			43381.65468		145.70600		875.00000 
 43692.65567		 305.27265			43387.38302		68.72400		324.00000 
 43692.65567		 311.00099			43381.65468		145.70600		875.00000 
 43692.65567		 305.27265			43387.38302		68.72400		324.00000 
 43692.65567		 311.00099			43381.65468		145.70600		875.00000 
 43692.65567		 305.27265			43387.38302		68.72400		324.00000 
 43692.65567		 311.00099			43381.65468		145.70600		875.00000 
 43692.65567		 305.27265			43387.38302		68.72400		324.00000 
 43692.65567		 311.00099			43381.65468		145.70600		875.00000 
 43692.65567		 305.27265			43387.38302		68.72400		324.00000 
 43692.65567		 311.00099			43381.65468		145.70600		875.00000 
 43692.65567		 305.27265			43387.38302		68.72400		324.00000 
 43692.65567		 311.00099			43381.65468		145.70600		875.00000 
 43692.65567		 305.27265			43387.38302		68.72400		324.00000 
 43692.65567		 311.00099			43381.65468		145.70600		875.00000 
 43692.65567		 305.27265			43387.38302		68.72400		324.00000 
 43692.65567		 311.00099			43381.65468		145.70600		875.00000 
 43692.65567		 305.27265			43387.38302		68.72400		324.00000 
 43692.65567		 311.00099			43381.65468		145.70600		875.00000 
 43692.65567		 305.27265			43387.38302		68.72400		324.00000 
 43692.65567		 311.00099			43381.65468		145.70600		875.00000 
 43692.65567		 305.27265			43387.38302		68.72400		324.00000 
 43692.65567		 311.00099			43381.65468		145.70600		875.00000 
 43692.65567		 305.27265			43387.38302		68.72400		324.00000 
 43692.65567		 311.00099			43381.65468		145.70600		875.00000 
 43692.65567		 305.27265			43387.38302		68.72400		324.00000 
 43692.65567		 311.00099			43381.65468		145.70600		875.00000 
 43692.65567		 305.27265			43387.38302		68.72400		324.00000 
 43692.65567		 311.00099			43381.65468		145.70600		875.00000 
 43692.65567		 305.27265			43387.38302		68.72400		324.00000 
 43692.65567		 311.00099			43381.65468		145.70600		875.00000 
 43692.65567		 305.27265			43387.38302		68.72400		324.00000 
 43692.65567		 311.00099			43381.65468		145.70600		875.00000 
 43692.65567		 305.27265			43387.38302		68.72400		324.00000 
 43692.65567		 311.00099			43381.65468		145.70600		875.00000 
 43692.65567		 305.27265			43387.38302		68.72400		324.00000 
 43692.65567		 311.00099			43381.65468		145.70600		875.00000 
 43692.65567		 305.27265			43387.38302		68.72400		324.00000 
 43692.65567		 311.00099			43381.65468		145.70600		875.00000 
 43692.65567		 305.27265			43387.38302		68.72400		324.00000 
 43692.65567		 311.00099			43381.65468		145.70600		875.00000 
 43692.65567		 305.27265			43387.38302		68.72400		324.00000 
 43692.65567		 311.00099			43381.65468		145.70600		875.00000 
 43692.65567		 305.27265			43387.38302		68.72400		324.00000 
 43692.65567		 311.00099			43381.65468		145.70600		875.00000 
 43692.65567		 305.27265			43387.38302		68.72400		324.00000 
 43692.65567		 311.00099			43381.65468		145.70600		875.00000 
 43692.65567		 305.27265			43387.38302		68.72400		324.00000 
 43692.65567		 311.00099			43381.65468		145.70600		875.00000 
 43692.65567		 305.27265			43387.38302		68.72400		324.00000 
 43692.65567		 311.00099			43381.65468		145.70600		875.00000 
 43692.65567		 305.27265			43387.38302		68.72400		324.00000 
 43692.65567		 311.00099			43381.65468		145.70600		875.00000 
 43692.65567		 305.27265			43387.38302		68.72400		324.00000 
 43692.65567		 311.00099			43381.65468		145.70600		875.00000 
 43692.65567		 305.27265			43387.38302		68.72400		324.00000 
 43692.65567		 311.00099			43381.65468		145.70600		875.00000 
 43692.65567		 305.27265			43387.38302		68.72400		324.00000 
 43692.65567		 311.00099			43381.65468		145.70600		875.00000 
 43692.65567		 305.27265			43387.38302		68.72400		324.00000 
 43692.65567		 311.00099			43381.65468		135.94000		875.00000 
 43692.65567		 305.27265			43387.38302		68.72400		324.00000 
 43692.65567		 311.00099			43381.65468		135.94000		875.00000 
 43692.65567		 305.27265			43387.38302		68.72400		324.00000 
 43692.65567		 311.00099			43381.65468		135.94000		875.00000 
 43692.65567		 305.27265			43387.38302		68.72400		324.00000 
 43692.65567		 311.00099			43381.65468		135.94000		875.00000 
 43692.65567		 305.27265			43387.38302		68.72400		324.00000 
 43692.65567		 311.00099			43381.65468		135.94000		875.00000 
 43692.65567		 305.27265			43387.38302		68.72400		324.00000 
 43692.65567		 311.00099			43381.65468		135.94000		875.00000 
 43692.65567		 305.27265			43387.38302		68.72400		324.00000 
 43692.65567		 311.00099			43381.65468		135.94000		875.00000 
 43692.65567		 305.27265			43387.38302		68.72400		324.00000 
 43692.65567		 311.00099			43381.65468		135.94000		875.00000 
 43692.65567		 305.27265			43387.38302		68.72400		324.00000 
 43692.65567		 311.00099			43381.65468		135.94000		875.00000 
 43692.65567		 305.27265			43387.38302		68.72400		324.00000 
 43692.65567		 311.00099			43381.65468		135.94000		875.00000 
 43692.65567		 305.27265			43387.38302		68.72400		324.00000 
 43692.65567		 311.00099			43381.65468		135.94000		875.00000 
 43692.65567		 305.27265			43387.38302		68.72400		324.00000 
 43692.65567		 311.00099			43381.65468		135.94000		875.00000 
 43692.65567		 305.27265			43387.38302		68.72400		324.00000 
 43692.65567		 311.00099			43381.65468		135.94000		875.00000 
 43692.65567		 305.27265			43387.38302		68.72400		324.00000 
 43692.65567		 311.00099			43381.65468		135.94000		875.00000 
 43692.65567		 305.27265			43387.38302		68.72400		324.00000 
 43692.65567		 311.00099			43381.65468		135.94000		875.00000 
 43692.65567		 305.27265			43387.38302		68.72400		324.00000 
 43692.65567		 311.00099			43381.65468		135.94000		875.00000 
 43692.65567		 305.27265			43387.38302		68.72400		324.00000 
 43692.65567		 314.81988			43377.83579		135.94000		875.00000 
 43692.65567		 305.27265			43387.38302		68.72400		324.00000 
 43692.65567		 314.81988			43377.83579		135.94000		875.00000 
 43692.65567		 305.27265			43387.38302		68.72400		324.00000 
 43692.65567		 318.63877			43374.01690		135.94000		875.00000 
 43692.65567		 305.27265			43387.38302		68.72400		324.00000 
 43692.65567		 322.45767			43370.19801		135.94000		875.00000 
 43692.65567		 305.27265			43387.38302		68.72400		324.00000 
 43692.65567		 326.27656			43366.37912		135.94000		875.00000 
 43692.65567		 305.27265			43387.38302		68.72400		324.00000 
 43692.65567		 326.27656			43366.37912		135.94000		875.00000 
 43692.65567		 305.27265			43387.38302		68.72400		324.00000 
 43692.65567		 326.27656			43366.37912		135.94000		875.00000 
 43692.65567		 305.27265			43387.38302		68.72400		324.00000 
 43692.65567		 537.27032			43155.38535		135.94000		875.00000 
 43692.65567		 305.27265			43387.38302		68.72400		324.00000 
 43692.65567		 622.24066			43070.41501		135.94000		875.00000 
 43692.65567		 305.27265			43387.38302		68.72400		324.00000 
 43692.65567		 664.72583			43027.92984		135.94000		875.00000 
 43692.65567		 305.27265			43387.38302		68.72400		324.00000 
 43692.65567		 664.72583			43027.92984		135.94000		875.00000 
 43692.65567		 305.27265			43387.38302		68.72400		324.00000 
 43692.65567		 664.72583			43027.92984		135.94000		875.00000 
 43692.65567		 305.27265			43387.38302		68.72400		324.00000 
 43692.65567		 664.72583			43027.92984		135.94000		875.00000 
 43692.65567		 305.27265			43387.38302		68.72400		324.00000 
 43692.65567		 664.72583			43027.92984		135.94000		875.00000 
 43692.65567		 305.27265			43387.38302		68.72400		324.00000 
 43692.65567		 664.72583			43027.92984		135.94000		875.00000 
 43692.65567		 305.27265			43387.38302		68.72400		324.00000 
 43692.65567		 664.72583			43027.92984		135.94000		875.00000 
 43692.65567		 305.27265			43387.38302		68.72400		324.00000 
 43692.65567		 664.72583			43027.92984		135.94000		875.00000 
 43692.65567		 305.27265			43387.38302		68.72400		324.00000 
 43692.65567		 664.72583			43027.92984		135.94000		875.00000 
 43692.65567		 305.27265			43387.38302		68.72400		324.00000 
 43692.65567		 664.72583			43027.92984		135.94000		875.00000 
 43692.65567		 305.27265			43387.38302		68.72400		324.00000 
 43692.65567		 664.72583			43027.92984		135.94000		875.00000 
 43692.65567		 305.27265			43387.38302		68.72400		324.00000 
 43692.65567		 664.72583			43027.92984		135.94000		875.00000 
 43692.65567		 305.27265			43387.38302		68.72400		324.00000 
 43692.65567		 664.72583			43027.92984		135.94000		875.00000 
 43692.65567		 305.27265			43387.38302		68.72400		324.00000 
 43692.65567		 664.72583			43027.92984		135.94000		875.00000 
 43692.65567		 305.27265			43387.38302		68.72400		324.00000 
 43692.65567		 664.72583			43027.92984		135.94000		875.00000 
 43692.65567		 305.27265			43387.38302		68.72400		324.00000 
 43692.65567		 664.72583			43027.92984		135.94000		875.00000 
 43692.65567		 305.27265			43387.38302		68.72400		324.00000 
 43692.65567		 664.72583			43027.92984		135.94000		875.00000 
 43692.65567		 305.27265			43387.38302		68.72400		324.00000 
 43692.65567		 664.72583			43027.92984		135.94000		875.00000 
 43692.65567		 305.27265			43387.38302		68.72400		324.00000 
 43692.65567		 664.72583			43027.92984		135.94000		875.00000 
 43692.65567		 305.27265			43387.38302		68.72400		324.00000 
 43692.65567		 664.72583			43027.92984		157.16600		875.00000 
 43692.65567		 305.27265			43387.38302		68.72400		324.00000 
 43692.65567		 664.72583			43027.92984		157.16600		875.00000 
 43692.65567		 305.27265			43387.38302		68.72400		324.00000 
 43692.65567		 664.72583			43027.92984		157.16600		875.00000 
 43692.65567		 305.27265			43387.38302		68.72400		324.00000 
 43692.65567		 664.72583			43027.92984		157.16600		875.00000 
 43692.65567		 305.27265			43387.38302		68.72400		324.00000 
 43692.65567		 664.72583			43027.92984		157.16600		875.00000 
 43692.65567		 305.27265			43387.38302		68.72400		324.00000 
 43692.65567		 664.72583			43027.92984		157.16600		875.00000 
 43692.65567		 305.27265			43387.38302		68.72400		324.00000 
 43692.65567		 664.72583			43027.92984		157.16600		875.00000 
 43692.65567		 305.27265			43387.38302		68.72400		324.00000 
 43692.65567		 664.72583			43027.92984		157.16600		875.00000 
 43692.65567		 305.27265			43387.38302		68.72400		324.00000 
 43692.65567		 664.72583			43027.92984		157.16600		875.00000 
 43692.65567		 305.27265			43387.38302		68.72400		324.00000 
 43692.65567		 664.72583			43027.92984		157.16600		875.00000 
 43692.65567		 305.27265			43387.38302		68.72400		324.00000 
 43692.65567		 664.72583			43027.92984		157.16600		875.00000 
 43692.65567		 305.27265			43387.38302		68.72400		324.00000 
 43692.65567		 664.72583			43027.92984		157.16600		875.00000 
 43692.65567		 305.27265			43387.38302		68.72400		324.00000 
 43692.65567		 664.72583			43027.92984		157.16600		875.00000 
 43692.65567		 305.27265			43387.38302		68.72400		324.00000 
 43692.65567		 664.72583			43027.92984		157.16600		875.00000 
 43692.65567		 305.27265			43387.38302		68.72400		324.00000 
 43692.65567		 664.72583			43027.92984		157.16600		875.00000 
 43692.65567		 305.27265			43387.38302		68.72400		324.00000 
 43692.65567		 664.72583			43027.92984		157.16600		875.00000 
 43692.65567		 305.27265			43387.38302		68.72400		324.00000 
 43692.65567		 664.72583			43027.92984		157.16600		875.00000 
 43692.65567		 305.27265			43387.38302		68.72400		324.00000 
 43692.65567		 664.72583			43027.92984		157.16600		875.00000 
 43692.65567		 305.27265			43387.38302		68.72400		324.00000 
 43692.65567		 664.72583			43027.92984		157.16600		875.00000 
 43692.65567		 305.27265			43387.38302		68.72400		324.00000 
 43692.65567		 664.72583			43027.92984		157.16600		875.00000 
 43692.65567		 305.27265			43387.38302		68.72400		324.00000 
 43692.65567		 664.72583			43027.92984		157.16600		875.00000 
 43692.65567		 305.27265			43387.38302		68.72400		324.00000 
 43692.65567		 664.72583			43027.92984		157.16600		875.00000 
 43692.65567		 305.27265			43387.38302		68.72400		324.00000 
 43692.65567		 664.72583			43027.92984		157.16600		875.00000 
 43692.65567		 305.27265			43387.38302		68.72400		324.00000 
 43692.65567		 664.72583			43027.92984		157.16600		875.00000 
 43692.65567		 305.27265			43387.38302		68.72400		324.00000 
 43692.65567		 664.72583			43027.92984		157.16600		875.00000 
 43692.65567		 305.27265			43387.38302		68.72400		324.00000 
 43692.65567		 664.72583			43027.92984		157.16600		875.00000 
 43692.65567		 305.27265			43387.38302		68.72400		324.00000 
 43692.65567		 664.72583			43027.92984		157.16600		875.00000 
 43692.65567		 305.27265			43387.38302		68.72400		324.00000 
 43692.65567		 664.72583			43027.92984		157.16600		875.00000 
 43692.65567		 305.27265			43387.38302		68.72400		324.00000 
 43692.65567		 664.72583			43027.92984		157.16600		875.00000 
 43692.65567		 305.27265			43387.38302		68.72400		324.00000 
 43692.65567		 664.72583			43027.92984		157.16600		875.00000 
 43692.65567		 305.27265			43387.38302		68.72400		324.00000 
 43692.65567		 664.72583			43027.92984		157.16600		875.00000 
 43692.65567		 305.27265			43387.38302		68.72400		324.00000 
 43692.65567		 664.72583			43027.92984		157.16600		875.00000 
 43692.65567		 305.27265			43387.38302		68.72400		324.00000 
 43692.65567		 664.72583			43027.92984		157.16600		875.00000 
 43692.65567		 305.27265			43387.38302		68.72400		324.00000 
 43692.65567		 664.72583			43027.92984		157.16600		875.00000 
 43692.65567		 305.27265			43387.38302		68.72400		324.00000 
 43692.65567		 664.72583			43027.92984		157.16600		875.00000 
 43692.65567		 305.27265			43387.38302		68.72400		324.00000 
 43692.65567		 664.72583			43027.92984		157.16600		875.00000 
 43692.65567		 305.27265			43387.38302		68.72400		324.00000 
 43692.65567		 664.72583			43027.92984		157.16600		875.00000 
 43692.65567		 305.27265			43387.38302		68.72400		324.00000 
 43692.65567		 664.72583			43027.92984		157.16600		875.00000 
 43692.65567		 305.27265			43387.38302		68.72400		324.00000 
 43692.65567		 664.72583			43027.92984		157.16600		875.00000 
 43692.65567		 305.27265			43387.38302		68.72400		324.00000 
 43692.65567		 664.72583			43027.92984		157.16600		875.00000 
 43692.65567		 305.27265			43387.38302		68.72400		324.00000 
 43692.65567		 664.72583			43027.92984		157.16600		875.00000 
 43692.65567		 305.27265			43387.38302		68.72400		324.00000 
 43692.65567		 664.72583			43027.92984		157.16600		875.00000 
 43692.65567		 305.27265			43387.38302		68.72400		324.00000 
 43692.65567		 664.72583			43027.92984		157.16600		875.00000 
 43692.65567		 305.27265			43387.38302		68.72400		324.00000 
 43692.65567		 664.72583			43027.92984		157.16600		875.00000 
 43692.65567		 305.27265			43387.38302		68.72400		324.00000 
 43692.65567		 664.72583			43027.92984		157.16600		875.00000 
 43692.65567		 305.27265			43387.38302		68.72400		324.00000 
 43692.65567		 664.72583			43027.92984		157.16600		875.00000 
 43692.65567		 305.27265			43387.38302		68.72400		324.00000 
 43692.65567		 664.72583			43027.92984		157.16600		875.00000 
 43692.65567		 305.27265			43387.38302		68.72400		324.00000 
 43692.65567		 664.72583			43027.92984		157.16600		875.00000 
 43692.65567		 305.27265			43387.38302		68.72400		324.00000 
 43692.65567		 664.72583			43027.92984		157.16600		875.00000 
 43692.65567		 305.27265			43387.38302		68.72400		324.00000 
 43692.65567		 664.72583			43027.92984		157.16600		875.00000 
 43692.65567		 305.27265			43387.38302		68.72400		324.00000 
 43692.65567		 664.72583			43027.92984		157.16600		875.00000 
 43692.65567		 305.27265			43387.38302		68.72400		324.00000 
 43692.65567		 664.72583			43027.92984		157.16600		875.00000 
 43692.65567		 305.27265			43387.38302		68.72400		324.00000 
 43692.65567		 664.72583			43027.92984		157.16600		875.00000 
 43692.65567		 305.27265			43387.38302		68.72400		324.00000 
 43692.65567		 664.72583			43027.92984		157.16600		875.00000 
 43692.65567		 305.27265			43387.38302		68.72400		324.00000 
 43692.65567		 664.72583			43027.92984		157.16600		875.00000 
 43692.65567		 305.27265			43387.38302		68.72400		324.00000 
 43692.65567		 664.72583			43027.92984		157.16600		875.00000 
 43692.65567		 305.27265			43387.38302		68.72400		324.00000 
 43692.65567		 664.72583			43027.92984		157.16600		875.00000 
 43692.65567		 305.27265			43387.38302		68.72400		324.00000 
 43692.65567		 664.72583			43027.92984		157.16600		875.00000 
 43692.65567		 305.27265			43387.38302		68.72400		324.00000 
 43692.65567		 664.72583			43027.92984		157.16600		875.00000 
 43692.65567		 305.27265			43387.38302		68.72400		324.00000 
 43692.65567		 664.72583			43027.92984		157.16600		875.00000 
 43692.65567		 305.27265			43387.38302		68.72400		324.00000 
 43692.65567		 664.72583			43027.92984		157.16600		875.00000 
 43692.65567		 305.27265			43387.38302		68.72400		324.00000 
 43692.65567		 664.72583			43027.92984		157.16600		875.00000 
 43692.65567		 305.27265			43387.38302		68.72400		324.00000 
 43692.65567		 664.72583			43027.92984		157.16600		875.00000 
 43692.65567		 305.27265			43387.38302		68.72400		324.00000 
 43692.65567		 664.72583			43027.92984		157.16600		875.00000 
 43692.65567		 305.27265			43387.38302		68.72400		324.00000 
 43692.65567		 664.72583			43027.92984		197.31800		875.00000 
 43692.65567		 305.27265			43387.38302		68.72400		324.00000 
 43692.65567		 664.72583			43027.92984		197.31800		875.00000 
 43692.65567		 305.27265			43387.38302		68.72400		324.00000 
 43692.65567		 664.72583			43027.92984		197.31800		875.00000 
 43692.65567		 305.27265			43387.38302		68.72400		324.00000 
 43692.65567		 664.72583			43027.92984		197.31800		875.00000 
 43692.65567		 305.27265			43387.38302		68.72400		324.00000 
 43692.65567		 664.72583			43027.92984		197.31800		875.00000 
 43692.65567		 305.27265			43387.38302		68.72400		324.00000 
 43692.65567		 664.72583			43027.92984		197.31800		875.00000 
 43692.65567		 305.27265			43387.38302		68.72400		324.00000 
 43692.65567		 664.72583			43027.92984		197.31800		875.00000 
 43692.65567		 305.27265			43387.38302		68.72400		324.00000 
 43692.65567		 664.72583			43027.92984		197.31800		875.00000 
 43692.65567		 305.27265			43387.38302		68.72400		324.00000 
 43692.65567		 664.72583			43027.92984		197.31800		875.00000 
 43692.65567		 305.27265			43387.38302		68.72400		324.00000 
 43692.65567		 664.72583			43027.92984		197.31800		875.00000 
 43692.65567		 305.27265			43387.38302		68.72400		324.00000 
 43692.65567		 664.72583			43027.92984		197.31800		875.00000 
 43692.65567		 305.27265			43387.38302		68.72400		324.00000 
 43692.65567		 664.72583			43027.92984		197.31800		875.00000 
 43692.65567		 305.27265			43387.38302		68.72400		324.00000 
 43692.65567		 664.72583			43027.92984		197.31800		875.00000 
 43692.65567		 305.27265			43387.38302		68.72400		324.00000 
 43692.65567		 664.72583			43027.92984		197.31800		875.00000 
 43692.65567		 305.27265			43387.38302		68.72400		324.00000 
 43692.65567		 664.72583			43027.92984		197.31800		875.00000 
 43692.65567		 305.27265			43387.38302		68.72400		324.00000 
 43692.65567		 664.72583			43027.92984		197.31800		875.00000 
 43692.65567		 305.27265			43387.38302		68.72400		324.00000 
 43692.65567		 664.72583			43027.92984		197.31800		875.00000 
 43692.65567		 305.27265			43387.38302		68.72400		324.00000 
 43692.65567		 664.72583			43027.92984		197.31800		875.00000 
 43692.65567		 305.27265			43387.38302		68.72400		324.00000 
 43692.65567		 664.72583			43027.92984		197.31800		875.00000 
 43692.65567		 305.27265			43387.38302		68.72400		324.00000 
 43692.65567		 664.72583			43027.92984		197.31800		875.00000 
 43692.65567		 305.27265			43387.38302		68.72400		324.00000 
 43692.65567		 664.72583			43027.92984		197.31800		875.00000 
 43692.65567		 305.27265			43387.38302		68.72400		324.00000 
 43692.65567		 664.72583			43027.92984		197.31800		875.00000 
 43692.65567		 305.27265			43387.38302		68.72400		324.00000 
 43692.65567		 664.72583			43027.92984		197.31800		875.00000 
 43692.65567		 305.27265			43387.38302		68.72400		324.00000 
 43692.65567		 664.72583			43027.92984		197.31800		875.00000 
 43692.65567		 305.27265			43387.38302		68.72400		324.00000 
 43692.65567		 664.72583			43027.92984		197.31800		875.00000 
 43692.65567		 305.27265			43387.38302		68.72400		324.00000 
 43692.65567		 664.72583			43027.92984		197.31800		875.00000 
 43692.65567		 305.27265			43387.38302		68.72400		324.00000 
 43692.65567		 664.72583			43027.92984		197.31800		875.00000 
 43692.65567		 305.27265			43387.38302		68.72400		324.00000 
 43692.65567		 664.72583			43027.92984		197.31800		875.00000 
 43692.65567		 305.27265			43387.38302		68.72400		324.00000 
 43692.65567		 664.72583			43027.92984		197.31800		875.00000 
 43692.65567		 305.27265			43387.38302		68.72400		324.00000 
 43692.65567		 664.72583			43027.92984		197.31800		875.00000 
 43692.65567		 305.27265			43387.38302		68.72400		324.00000 
 43692.65567		 664.72583			43027.92984		197.31800		875.00000 
 43692.65567		 305.27265			43387.38302		68.72400		324.00000 
 43692.65567		 664.72583			43027.92984		197.31800		875.00000 
 43692.65567		 305.27265			43387.38302		68.72400		324.00000 
 43692.65567		 664.72583			43027.92984		197.31800		875.00000 
 43692.65567		 305.27265			43387.38302		68.72400		324.00000 
 43692.65567		 664.72583			43027.92984		197.31800		875.00000 
 43692.65567		 305.27265			43387.38302		68.72400		324.00000 
 43692.65567		 664.72583			43027.92984		197.31800		875.00000 
 43692.65567		 305.27265			43387.38302		68.72400		324.00000 
 43692.65567		 664.72583			43027.92984		197.31800		875.00000 
 43692.65567		 305.27265			43387.38302		68.72400		324.00000 
 43692.65567		 664.72583			43027.92984		197.31800		875.00000 
 43692.65567		 305.27265			43387.38302		68.72400		324.00000 
 43692.65567		 664.72583			43027.92984		197.31800		875.00000 
 43692.65567		 305.27265			43387.38302		68.72400		324.00000 
 43692.65567		 664.72583			43027.92984		197.31800		875.00000 
 43692.65567		 305.27265			43387.38302		68.72400		324.00000 
 43692.65567		 664.72583			43027.92984		197.31800		875.00000 
 43692.65567		 305.27265			43387.38302		68.72400		324.00000 
 43692.65567		 664.72583			43027.92984		197.31800		875.00000 
 43692.65567		 305.27265			43387.38302		68.72400		324.00000 
 43692.65567		 664.72583			43027.92984		197.31800		875.00000 
 43692.65567		 305.27265			43387.38302		68.72400		324.00000 
 43692.65567		 664.72583			43027.92984		197.31800		875.00000 
 43692.65567		 305.27265			43387.38302		68.72400		324.00000 
 43692.65567		 664.72583			43027.92984		197.31800		875.00000 
 43692.65567		 305.27265			43387.38302		68.72400		324.00000 
 43692.65567		 664.72583			43027.92984		197.31800		875.00000 
 43692.65567		 305.27265			43387.38302		68.72400		324.00000 
 43692.65567		 664.72583			43027.92984		197.31800		875.00000 
 43692.65567		 305.27265			43387.38302		68.72400		324.00000 
 43692.65567		 664.72583			43027.92984		197.31800		875.00000 
 43692.65567		 305.27265			43387.38302		68.72400		324.00000 
 43692.65567		 664.72583			43027.92984		197.31800		875.00000 
 43692.65567		 305.27265			43387.38302		68.72400		324.00000 
 43692.65567		 664.72583			43027.92984		197.31800		875.00000 
 43692.65567		 305.27265			43387.38302		68.72400		324.00000 
 43692.65567		 664.72583			43027.92984		197.31800		875.00000 
 43692.65567		 305.27265			43387.38302		68.72400		324.00000 
 43692.65567		 664.72583			43027.92984		197.31800		875.00000 
 43692.65567		 305.27265			43387.38302		68.72400		324.00000 
 43692.65567		 664.72583			43027.92984		197.31800		875.00000 
 43692.65567		 305.27265			43387.38302		68.72400		324.00000 
 43692.65567		 664.72583			43027.92984		197.31800		875.00000 
 43692.65567		 305.27265			43387.38302		68.72400		324.00000 
 43692.65567		 664.72583			43027.92984		197.31800		875.00000 
 43692.65567		 305.27265			43387.38302		68.72400		324.00000 
 43692.65567		 664.72583			43027.92984		197.31800		875.00000 
 43692.65567		 305.27265			43387.38302		68.72400		324.00000 
 43692.65567		 664.72583			43027.92984		197.31800		875.00000 
 43692.65567		 305.27265			43387.38302		68.72400		324.00000 
 43692.65567		 664.72583			43027.92984		197.31800		875.00000 
 43692.65567		 305.27265			43387.38302		68.72400		324.00000 
 43692.65567		 664.72583			43027.92984		197.31800		875.00000 
 43692.65567		 305.27265			43387.38302		68.72400		324.00000 
 43692.65567		 664.72583			43027.92984		197.31800		875.00000 
 43692.65567		 305.27265			43387.38302		68.72400		324.00000 
 43692.65567		 664.72583			43027.92984		197.31800		875.00000 
 43692.65567		 305.27265			43387.38302		68.72400		324.00000 
 43692.65567		 664.72583			43027.92984		197.31800		875.00000 
 43692.65567		 305.27265			43387.38302		68.72400		324.00000 
 43692.65567		 664.72583			43027.92984		197.31800		875.00000 
 43692.65567		 305.27265			43387.38302		68.72400		324.00000 
 43692.65567		 664.72583			43027.92984		197.31800		875.00000 
 43692.65567		 305.27265			43387.38302		68.72400		324.00000 
 43692.65567		 664.72583			43027.92984		197.31800		875.00000 
 43692.65567		 305.27265			43387.38302		68.72400		324.00000 
 43692.65567		 664.72583			43027.92984		213.31200		875.00000 
 43692.65567		 305.27265			43387.38302		68.72400		324.00000 
 43692.65567		 664.72583			43027.92984		213.31200		875.00000 
 43692.65567		 305.27265			43387.38302		68.72400		324.00000 
 43692.65567		 664.72583			43027.92984		213.31200		875.00000 
 43692.65567		 305.27265			43387.38302		68.72400		324.00000 
 43692.65567		 664.72583			43027.92984		213.31200		875.00000 
 43692.65567		 305.27265			43387.38302		68.72400		324.00000 
 43692.65567		 664.72583			43027.92984		213.31200		875.00000 
 43692.65567		 305.27265			43387.38302		68.72400		324.00000 
 43692.65567		 664.72583			43027.92984		213.31200		875.00000 
 43692.65567		 305.27265			43387.38302		68.72400		324.00000 
 43692.65567		 664.72583			43027.92984		213.31200		875.00000 
 43692.65567		 305.27265			43387.38302		68.72400		324.00000 
 43692.65567		 664.72583			43027.92984		213.31200		875.00000 
 43692.65567		 305.27265			43387.38302		68.72400		324.00000 
 43692.65567		 664.72583			43027.92984		213.31200		875.00000 
 43692.65567		 305.27265			43387.38302		68.72400		324.00000 
 43692.65567		 664.72583			43027.92984		213.31200		875.00000 
 43692.65567		 305.27265			43387.38302		68.72400		324.00000 
 43692.65567		 664.72583			43027.92984		213.31200		875.00000 
 43692.65567		 305.27265			43387.38302		68.72400		324.00000 
 43692.65567		 664.72583			43027.92984		213.31200		875.00000 
 43692.65567		 305.27265			43387.38302		68.72400		324.00000 
 43692.65567		 664.72583			43027.92984		213.31200		875.00000 
 43692.65567		 305.27265			43387.38302		68.72400		324.00000 
 43692.65567		 664.72583			43027.92984		213.31200		875.00000 
 43692.65567		 305.27265			43387.38302		68.72400		324.00000 
 43692.65567		 664.72583			43027.92984		213.31200		875.00000 
 43692.65567		 305.27265			43387.38302		68.72400		324.00000 
 43692.65567		 664.72583			43027.92984		213.31200		875.00000 
 43692.65567		 305.27265			43387.38302		68.72400		324.00000 
 43692.65567		 664.72583			43027.92984		213.31200		875.00000 
 43692.65567		 305.27265			43387.38302		68.72400		324.00000 
 43692.65567		 664.72583			43027.92984		213.31200		875.00000 
 43692.65567		 305.27265			43387.38302		68.72400		324.00000 
 43692.65567		 664.72583			43027.92984		213.31200		875.00000 
 43692.65567		 305.27265			43387.38302		68.72400		324.00000 
 43692.65567		 664.72583			43027.92984		213.31200		875.00000 
 43692.65567		 305.27265			43387.38302		68.72400		324.00000 
 43692.65567		 664.72583			43027.92984		213.31200		875.00000 
 43692.65567		 305.27265			43387.38302		68.72400		324.00000 
 43692.65567		 664.72583			43027.92984		213.31200		875.00000 
 43692.65567		 305.27265			43387.38302		68.72400		324.00000 
 43692.65567		 664.72583			43027.92984		213.31200		875.00000 
 43692.65567		 305.27265			43387.38302		68.72400		324.00000 
 43692.65567		 664.72583			43027.92984		213.31200		875.00000 
 43692.65567		 305.27265			43387.38302		68.72400		324.00000 
 43692.65567		 664.72583			43027.92984		213.31200		875.00000 
 43692.65567		 305.27265			43387.38302		68.72400		324.00000 
 43692.65567		 664.72583			43027.92984		213.31200		875.00000 
 43692.65567		 305.27265			43387.38302		68.72400		324.00000 
 43692.65567		 664.72583			43027.92984		213.31200		875.00000 
 43692.65567		 305.27265			43387.38302		68.72400		324.00000 
 43692.65567		 664.72583			43027.92984		213.31200		875.00000 
 43692.65567		 305.27265			43387.38302		68.72400		324.00000 
 43692.65567		 664.72583			43027.92984		213.31200		875.00000 
 43692.65567		 305.27265			43387.38302		68.72400		324.00000 
 43692.65567		 664.72583			43027.92984		213.31200		875.00000 
 43692.65567		 305.27265			43387.38302		68.72400		324.00000 
 43692.65567		 664.72583			43027.92984		213.31200		875.00000 
 43692.65567		 305.27265			43387.38302		68.72400		324.00000 
 43692.65567		 664.72583			43027.92984		213.31200		875.00000 
 43692.65567		 305.27265			43387.38302		68.72400		324.00000 
 43692.65567		 664.72583			43027.92984		213.31200		875.00000 
 43692.65567		 305.27265			43387.38302		68.72400		324.00000 
 43692.65567		 664.72583			43027.92984		213.31200		875.00000 
 43692.65567		 305.27265			43387.38302		68.72400		324.00000 
 43692.65567		 664.72583			43027.92984		213.31200		875.00000 
 43692.65567		 305.27265			43387.38302		68.72400		324.00000 
 43692.65567		 664.72583			43027.92984		213.31200		875.00000 
 43692.65567		 305.27265			43387.38302		68.72400		324.00000 
 43692.65567		 664.72583			43027.92984		213.31200		875.00000 
 43692.65567		 305.27265			43387.38302		68.72400		324.00000 
 43692.65567		 664.72583			43027.92984		213.31200		875.00000 
 43692.65567		 305.27265			43387.38302		68.72400		324.00000 
 43692.65567		 664.72583			43027.92984		213.31200		875.00000 
 43692.65567		 305.27265			43387.38302		68.72400		324.00000 
 43692.65567		 664.72583			43027.92984		213.31200		875.00000 
 43692.65567		 305.27265			43387.38302		68.72400		324.00000 
 43692.65567		 664.72583			43027.92984		213.31200		875.00000 
 43692.65567		 305.27265			43387.38302		68.72400		324.00000 
 43692.65567		 664.72583			43027.92984		213.31200		875.00000 
 43692.65567		 305.27265			43387.38302		68.72400		324.00000 
 43692.65567		 664.72583			43027.92984		213.31200		875.00000 
 43692.65567		 305.27265			43387.38302		68.72400		324.00000 
 43692.65567		 664.72583			43027.92984		213.31200		875.00000 
 43692.65567		 305.27265			43387.38302		68.72400		324.00000 
 43692.65567		 664.72583			43027.92984		213.31200		875.00000 
 43692.65567		 305.27265			43387.38302		68.72400		324.00000 
 43692.65567		 664.72583			43027.92984		213.31200		875.00000 
 43692.65567		 305.27265			43387.38302		68.72400		324.00000 
 43692.65567		 664.72583			43027.92984		213.31200		875.00000 
 43692.65567		 305.27265			43387.38302		68.72400		324.00000 
 43692.65567		 664.72583			43027.92984		213.31200		875.00000 
 43692.65567		 305.27265			43387.38302		68.72400		324.00000 
 43692.65567		 664.72583			43027.92984		213.31200		875.00000 
 43692.65567		 305.27265			43387.38302		68.72400		324.00000 
 43692.65567		 664.72583			43027.92984		213.31200		875.00000 
 43692.65567		 305.27265			43387.38302		68.72400		324.00000 
 43692.65567		 664.72583			43027.92984		213.31200		875.00000 
 43692.65567		 305.27265			43387.38302		68.72400		324.00000 
 43692.65567		 664.72583			43027.92984		213.31200		875.00000 
 43692.65567		 305.27265			43387.38302		68.72400		324.00000 
 43692.65567		 664.72583			43027.92984		213.31200		875.00000 
 43692.65567		 305.27265			43387.38302		68.72400		324.00000 
 43692.65567		 664.72583			43027.92984		213.31200		875.00000 
 43692.65567		 305.27265			43387.38302		68.72400		324.00000 
 43692.65567		 664.72583			43027.92984		213.31200		875.00000 
 43692.65567		 305.27265			43387.38302		68.72400		324.00000 
 43692.65567		 664.72583			43027.92984		213.31200		875.00000 
 43692.65567		 305.27265			43387.38302		68.72400		324.00000 
 43692.65567		 664.72583			43027.92984		213.31200		875.00000 
 43692.65567		 305.27265			43387.38302		68.72400		324.00000 
 43692.65567		 664.72583			43027.92984		213.31200		875.00000 
 43692.65567		 305.27265			43387.38302		68.72400		324.00000 
 43692.65567		 664.72583			43027.92984		213.31200		875.00000 
 43692.65567		 305.27265			43387.38302		68.72400		324.00000 
 43692.65567		 664.72583			43027.92984		213.31200		875.00000 
 43692.65567		 305.27265			43387.38302		68.72400		324.00000 
 43692.65567		 664.72583			43027.92984		213.31200		875.00000 
 43692.65567		 305.27265			43387.38302		68.72400		324.00000 
 43692.65567		 664.72583			43027.92984		213.31200		875.00000 
 43692.65567		 305.27265			43387.38302		68.72400		324.00000 
 43692.65567		 664.72583			43027.92984		213.31200		875.00000 
 43692.65567		 305.27265			43387.38302		68.72400		324.00000 
 43692.65567		 664.72583			43027.92984		213.31200		875.00000 
 43692.65567		 305.27265			43387.38302		68.72400		324.00000 
 43692.65567		 664.72583			43027.92984		219.52400		875.00000 
 43692.65567		 305.27265			43387.38302		68.72400		324.00000 
 43692.65567		 664.72583			43027.92984		219.52400		875.00000 
 43692.65567		 305.27265			43387.38302		68.72400		324.00000 
 43692.65567		 664.72583			43027.92984		219.52400		875.00000 
 43692.65567		 305.27265			43387.38302		68.72400		324.00000 
 43692.65567		 664.72583			43027.92984		219.52400		875.00000 
 43692.65567		 305.27265			43387.38302		68.72400		324.00000 
 43692.65567		 664.72583			43027.92984		219.52400		875.00000 
 43692.65567		 305.27265			43387.38302		68.72400		324.00000 
 43692.65567		 664.72583			43027.92984		219.52400		875.00000 
 43692.65567		 305.27265			43387.38302		68.72400		324.00000 
 43692.65567		 664.72583			43027.92984		219.52400		875.00000 
 43692.65567		 305.27265			43387.38302		68.72400		324.00000 
 43692.65567		 664.72583			43027.92984		219.52400		875.00000 
 43692.65567		 305.27265			43387.38302		68.72400		324.00000 
 43692.65567		 664.72583			43027.92984		219.52400		875.00000 
 43692.65567		 305.27265			43387.38302		68.72400		324.00000 
 43692.65567		 664.72583			43027.92984		219.52400		875.00000 
 43692.65567		 305.27265			43387.38302		68.72400		324.00000 
 43692.65567		 664.72583			43027.92984		219.52400		875.00000 
 43692.65567		 305.27265			43387.38302		68.72400		324.00000 
 43692.65567		 664.72583			43027.92984		219.52400		875.00000 
 43692.65567		 305.27265			43387.38302		68.72400		324.00000 
 43692.65567		 664.72583			43027.92984		219.52400		875.00000 
 43692.65567		 305.27265			43387.38302		68.72400		324.00000 
 43692.65567		 664.72583			43027.92984		219.52400		875.00000 
 43692.65567		 305.27265			43387.38302		68.72400		324.00000 
 43692.65567		 664.72583			43027.92984		219.52400		875.00000 
 43692.65567		 305.27265			43387.38302		68.72400		324.00000 
 43692.65567		 664.72583			43027.92984		219.52400		875.00000 
 43692.65567		 305.27265			43387.38302		68.72400		324.00000 
 43692.65567		 664.72583			43027.92984		219.52400		875.00000 
 43692.65567		 305.27265			43387.38302		68.72400		324.00000 
 43692.65567		 664.72583			43027.92984		219.52400		875.00000 
 43692.65567		 305.27265			43387.38302		68.72400		324.00000 
 43692.65567		 664.72583			43027.92984		219.52400		875.00000 
 43692.65567		 305.27265			43387.38302		68.72400		324.00000 
 43692.65567		 664.72583			43027.92984		219.52400		875.00000 
 43692.65567		 305.27265			43387.38302		68.72400		324.00000 
 43692.65567		 664.72583			43027.92984		219.52400		875.00000 
 43692.65567		 305.27265			43387.38302		68.72400		324.00000 
 43692.65567		 664.72583			43027.92984		219.52400		875.00000 
 43692.65567		 305.27265			43387.38302		68.72400		324.00000 
 43692.65567		 664.72583			43027.92984		219.52400		875.00000 
 43692.65567		 305.27265			43387.38302		68.72400		324.00000 
 43692.65567		 664.72583			43027.92984		219.52400		875.00000 
 43692.65567		 305.27265			43387.38302		68.72400		324.00000 
 43692.65567		 664.72583			43027.92984		219.52400		875.00000 
 43692.65567		 305.27265			43387.38302		68.72400		324.00000 
 43692.65567		 664.72583			43027.92984		219.52400		875.00000 
 43692.65567		 305.27265			43387.38302		68.72400		324.00000 
 43692.65567		 664.72583			43027.92984		219.52400		875.00000 
 43692.65567		 305.27265			43387.38302		68.72400		324.00000 
 43692.65567		 664.72583			43027.92984		219.52400		875.00000 
 43692.65567		 305.27265			43387.38302		68.72400		324.00000 
 43692.65567		 664.72583			43027.92984		219.52400		875.00000 
 43692.65567		 305.27265			43387.38302		68.72400		324.00000 
 43692.65567		 664.72583			43027.92984		219.52400		875.00000 
 43692.65567		 305.27265			43387.38302		68.72400		324.00000 
 43692.65567		 664.72583			43027.92984		219.52400		875.00000 
 43692.65567		 305.27265			43387.38302		68.72400		324.00000 
 43692.65567		 664.72583			43027.92984		219.52400		875.00000 
 43692.65567		 305.27265			43387.38302		68.72400		324.00000 
 43692.65567		 664.72583			43027.92984		219.52400		875.00000 
 43692.65567		 305.27265			43387.38302		68.72400		324.00000 
 43692.65567		 664.72583			43027.92984		219.52400		875.00000 
 43692.65567		 305.27265			43387.38302		68.72400		324.00000 
 43692.65567		 664.72583			43027.92984		219.52400		875.00000 
 43692.65567		 305.27265			43387.38302		68.72400		324.00000 
 43692.65567		 664.72583			43027.92984		219.52400		875.00000 
 43692.65567		 305.27265			43387.38302		68.72400		324.00000 
 43692.65567		 664.72583			43027.92984		219.52400		875.00000 
 43692.65567		 305.27265			43387.38302		68.72400		324.00000 
 43692.65567		 664.72583			43027.92984		219.52400		875.00000 
 43692.65567		 305.27265			43387.38302		68.72400		324.00000 
 43692.65567		 664.72583			43027.92984		219.52400		875.00000 
 43692.65567		 305.27265			43387.38302		68.72400		324.00000 
 43692.65567		 664.72583			43027.92984		219.52400		875.00000 
 43692.65567		 305.27265			43387.38302		68.72400		324.00000 
 43692.65567		 664.72583			43027.92984		219.52400		875.00000 
 43692.65567		 305.27265			43387.38302		68.72400		324.00000 
 43692.65567		 664.72583			43027.92984		219.52400		875.00000 
 43692.65567		 305.27265			43387.38302		68.72400		324.00000 
 43692.65567		 664.72583			43027.92984		219.52400		875.00000 
 43692.65567		 305.27265			43387.38302		68.72400		324.00000 
 43692.65567		 664.72583			43027.92984		219.52400		875.00000 
 43692.65567		 305.27265			43387.38302		68.72400		324.00000 
 43692.65567		 664.72583			43027.92984		219.52400		875.00000 
 43692.65567		 305.27265			43387.38302		68.72400		324.00000 
 43692.65567		 664.72583			43027.92984		219.52400		875.00000 
 43692.65567		 305.27265			43387.38302		68.72400		324.00000 
 43692.65567		 664.72583			43027.92984		219.52400		875.00000 
 43692.65567		 305.27265			43387.38302		68.72400		324.00000 
 43692.65567		 664.72583			43027.92984		219.52400		875.00000 
 43692.65567		 305.27265			43387.38302		68.72400		324.00000 
 43692.65567		 664.72583			43027.92984		219.52400		875.00000 
 43692.65567		 305.27265			43387.38302		68.72400		324.00000 
 43692.65567		 664.72583			43027.92984		219.52400		875.00000 
 43692.65567		 305.27265			43387.38302		68.72400		324.00000 
 43692.65567		 664.72583			43027.92984		219.52400		875.00000 
 43692.65567		 305.27265			43387.38302		68.72400		324.00000 
 43692.65567		 664.72583			43027.92984		219.52400		875.00000 
 43692.65567		 305.27265			43387.38302		68.72400		324.00000 
 43692.65567		 664.72583			43027.92984		219.52400		875.00000 
 43692.65567		 305.27265			43387.38302		68.72400		324.00000 
 43692.65567		 664.72583			43027.92984		219.52400		875.00000 
 43692.65567		 305.27265			43387.38302		68.72400		324.00000 
 43692.65567		 664.72583			43027.92984		219.52400		875.00000 
 43692.65567		 305.27265			43387.38302		68.72400		324.00000 
 43692.65567		 664.72583			43027.92984		219.52400		875.00000 
 43692.65567		 305.27265			43387.38302		68.72400		324.00000 
 43692.65567		 664.72583			43027.92984		219.52400		875.00000 
 43692.65567		 305.27265			43387.38302		68.72400		324.00000 
 43692.65567		 664.72583			43027.92984		219.52400		875.00000 
 43692.65567		 305.27265			43387.38302		68.72400		324.00000 
 43692.65567		 664.72583			43027.92984		219.52400		875.00000 
 43692.65567		 305.27265			43387.38302		68.72400		324.00000 
 43692.65567		 664.72583			43027.92984		219.52400		875.00000 
 43692.65567		 305.27265			43387.38302		68.72400		324.00000 
 43692.65567		 664.72583			43027.92984		219.52400		875.00000 
 43692.65567		 305.27265			43387.38302		68.72400		324.00000 
 43692.65567		 664.72583			43027.92984		219.52400		875.00000 
 43692.65567		 305.27265			43387.38302		68.72400		324.00000 
 43692.65567		 664.72583			43027.92984		219.52400		875.00000 
 43692.65567		 305.27265			43387.38302		68.72400		324.00000 
 43692.65567		 664.72583			43027.92984		219.52400		875.00000 
 43692.65567		 305.27265			43387.38302		68.72400		324.00000 
 43692.65567		 664.72583			43027.92984		221.50200		875.00000 
 43692.65567		 305.27265			43387.38302		68.72400		324.00000 
 43692.65567		 664.72583			43027.92984		221.50200		875.00000 
 43692.65567		 305.27265			43387.38302		68.72400		324.00000 
 43692.65567		 664.72583			43027.92984		221.50200		875.00000 
 43692.65567		 305.27265			43387.38302		68.72400		324.00000 
 43692.65567		 664.72583			43027.92984		221.50200		875.00000 
 43692.65567		 305.27265			43387.38302		68.72400		324.00000 
 43692.65567		 664.72583			43027.92984		221.50200		875.00000 
 43692.65567		 305.27265			43387.38302		68.72400		324.00000 
 43692.65567		 664.72583			43027.92984		221.50200		875.00000 
 43692.65567		 305.27265			43387.38302		68.72400		324.00000 
 43692.65567		 664.72583			43027.92984		221.50200		875.00000 
 43692.65567		 305.27265			43387.38302		68.72400		324.00000 
 43692.65567		 664.72583			43027.92984		221.50200		875.00000 
 43692.65567		 305.27265			43387.38302		68.72400		324.00000 
 43692.65567		 664.72583			43027.92984		221.50200		875.00000 
 43692.65567		 305.27265			43387.38302		68.72400		324.00000 
 43692.65567		 664.72583			43027.92984		221.50200		875.00000 
 43692.65567		 305.27265			43387.38302		68.72400		324.00000 
 43692.65567		 664.72583			43027.92984		221.50200		875.00000 
 43692.65567		 305.27265			43387.38302		68.72400		324.00000 
 43692.65567		 664.72583			43027.92984		221.50200		875.00000 
 43692.65567		 305.27265			43387.38302		68.72400		324.00000 
 43692.65567		 664.72583			43027.92984		221.50200		875.00000 
 43692.65567		 305.27265			43387.38302		68.72400		324.00000 
 43692.65567		 664.72583			43027.92984		221.50200		875.00000 
 43692.65567		 305.27265			43387.38302		68.72400		324.00000 
 43692.65567		 664.72583			43027.92984		221.50200		875.00000 
 43692.65567		 305.27265			43387.38302		68.72400		324.00000 
 43692.65567		 664.72583			43027.92984		221.50200		875.00000 
 43692.65567		 305.27265			43387.38302		68.72400		324.00000 
 43692.65567		 664.72583			43027.92984		221.50200		875.00000 
 43692.65567		 305.27265			43387.38302		68.72400		324.00000 
 43692.65567		 664.72583			43027.92984		221.50200		875.00000 
 43692.65567		 305.27265			43387.38302		68.72400		324.00000 
 43692.65567		 664.72583			43027.92984		221.50200		875.00000 
 43692.65567		 305.27265			43387.38302		68.72400		324.00000 
 43692.65567		 664.72583			43027.92984		221.50200		875.00000 
 43692.65567		 305.27265			43387.38302		68.72400		324.00000 
 43692.65567		 664.72583			43027.92984		221.50200		875.00000 
 43692.65567		 305.27265			43387.38302		68.72400		324.00000 
 43692.65567		 664.72583			43027.92984		221.50200		875.00000 
 43692.65567		 305.27265			43387.38302		68.72400		324.00000 
 43692.65567		 664.72583			43027.92984		221.50200		875.00000 
 43692.65567		 305.27265			43387.38302		68.72400		324.00000 
 43692.65567		 664.72583			43027.92984		221.50200		875.00000 
 43692.65567		 305.27265			43387.38302		68.72400		324.00000 
 43692.65567		 664.72583			43027.92984		221.50200		875.00000 
 43692.65567		 305.27265			43387.38302		68.72400		324.00000 
 43692.65567		 664.72583			43027.92984		221.50200		875.00000 
 43692.65567		 305.27265			43387.38302		68.72400		324.00000 
 43692.65567		 664.72583			43027.92984		221.50200		875.00000 
 43692.65567		 305.27265			43387.38302		68.72400		324.00000 
 43692.65567		 664.72583			43027.92984		221.50200		875.00000 
 43692.65567		 305.27265			43387.38302		68.72400		324.00000 
 43692.65567		 664.72583			43027.92984		221.50200		875.00000 
 43692.65567		 305.27265			43387.38302		68.72400		324.00000 
 43692.65567		 664.72583			43027.92984		221.50200		875.00000 
 43692.65567		 305.27265			43387.38302		68.72400		324.00000 
 43692.65567		 664.72583			43027.92984		221.50200		875.00000 
 43692.65567		 305.27265			43387.38302		68.72400		324.00000 
 43692.65567		 664.72583			43027.92984		221.50200		875.00000 
 43692.65567		 305.27265			43387.38302		68.72400		324.00000 
 43692.65567		 664.72583			43027.92984		221.50200		875.00000 
 43692.65567		 305.27265			43387.38302		68.72400		324.00000 
 43692.65567		 664.72583			43027.92984		221.50200		875.00000 
 43692.65567		 305.27265			43387.38302		68.72400		324.00000 
 43692.65567		 664.72583			43027.92984		221.50200		875.00000 
 43692.65567		 305.27265			43387.38302		68.72400		324.00000 
 43692.65567		 664.72583			43027.92984		221.50200		875.00000 
 43692.65567		 305.27265			43387.38302		68.72400		324.00000 
 43692.65567		 664.72583			43027.92984		221.50200		875.00000 
 43692.65567		 305.27265			43387.38302		68.72400		324.00000 
 43692.65567		 664.72583			43027.92984		221.50200		875.00000 
 43692.65567		 305.27265			43387.38302		68.72400		324.00000 
 43692.65567		 664.72583			43027.92984		221.50200		875.00000 
 43692.65567		 305.27265			43387.38302		68.72400		324.00000 
 43692.65567		 664.72583			43027.92984		221.50200		875.00000 
 43692.65567		 305.27265			43387.38302		68.72400		324.00000 
 43692.65567		 664.72583			43027.92984		221.50200		875.00000 
 43692.65567		 305.27265			43387.38302		68.72400		324.00000 
 43692.65567		 664.72583			43027.92984		221.50200		875.00000 
 43692.65567		 305.27265			43387.38302		68.72400		324.00000 
 43692.65567		 664.72583			43027.92984		221.50200		875.00000 
 43692.65567		 305.27265			43387.38302		68.72400		324.00000 
 43692.65567		 664.72583			43027.92984		221.50200		875.00000 
 43692.65567		 305.27265			43387.38302		68.72400		324.00000 
 43692.65567		 664.72583			43027.92984		221.50200		875.00000 
 43692.65567		 305.27265			43387.38302		68.72400		324.00000 
 43692.65567		 664.72583			43027.92984		221.50200		875.00000 
 43692.65567		 305.27265			43387.38302		68.72400		324.00000 
 43692.65567		 664.72583			43027.92984		221.50200		875.00000 
 43692.65567		 305.27265			43387.38302		68.72400		324.00000 
 43692.65567		 664.72583			43027.92984		221.50200		875.00000 
 43692.65567		 305.27265			43387.38302		68.72400		324.00000 
 43692.65567		 664.72583			43027.92984		221.50200		875.00000 
 43692.65567		 305.27265			43387.38302		68.72400		324.00000 
 43692.65567		 664.72583			43027.92984		221.50200		875.00000 
 43692.65567		 305.27265			43387.38302		68.72400		324.00000 
 43692.65567		 664.72583			43027.92984		221.50200		875.00000 
 43692.65567		 305.27265			43387.38302		68.72400		324.00000 
 43692.65567		 664.72583			43027.92984		221.50200		875.00000 
 43692.65567		 305.27265			43387.38302		68.72400		324.00000 
 43692.65567		 664.72583			43027.92984		221.50200		875.00000 
 43692.65567		 305.27265			43387.38302		68.72400		324.00000 
 43692.65567		 664.72583			43027.92984		221.50200		875.00000 
 43692.65567		 305.27265			43387.38302		68.72400		324.00000 
 43692.65567		 664.72583			43027.92984		221.50200		875.00000 
 43692.65567		 305.27265			43387.38302		68.72400		324.00000 
 43692.65567		 664.72583			43027.92984		221.50200		875.00000 
 43692.65567		 305.27265			43387.38302		68.72400		324.00000 
 43692.65567		 664.72583			43027.92984		221.50200		875.00000 
 43692.65567		 305.27265			43387.38302		68.72400		324.00000 
 43692.65567		 664.72583			43027.92984		221.50200		875.00000 
 43692.65567		 305.27265			43387.38302		68.72400		324.00000 
 43692.65567		 664.72583			43027.92984		221.50200		875.00000 
 43692.65567		 305.27265			43387.38302		68.72400		324.00000 
 43692.65567		 664.72583			43027.92984		221.50200		875.00000 
 43692.65567		 305.27265			43387.38302		68.72400		324.00000 
 43692.65567		 664.72583			43027.92984		221.50200		875.00000 
 43692.65567		 305.27265			43387.38302		68.72400		324.00000 
 43692.65567		 664.72583			43027.92984		221.50200		875.00000 
 43692.65567		 305.27265			43387.38302		68.72400		324.00000 
 43692.65567		 664.72583			43027.92984		221.50200		875.00000 
 43692.65567		 305.27265			43387.38302		68.72400		324.00000 
 43692.65567		 664.72583			43027.92984		221.50200		875.00000 
 43692.65567		 305.27265			43387.38302		68.72400		324.00000 
 43692.65567		 664.72583			43027.92984		221.70000		875.00000 
 43692.65567		 305.27265			43387.38302		68.72400		324.00000 
 43692.65567		 664.72583			43027.92984		221.70000		875.00000 
 43692.65567		 305.27265			43387.38302		68.72400		324.00000 
 43692.65567		 664.72583			43027.92984		221.70000		875.00000 
 43692.65567		 305.27265			43387.38302		68.72400		324.00000 
 43692.65567		 664.72583			43027.92984		221.70000		875.00000 
 43692.65567		 305.27265			43387.38302		68.72400		324.00000 
 43692.65567		 664.72583			43027.92984		221.70000		875.00000 
 43692.65567		 305.27265			43387.38302		68.72400		324.00000 
 43692.65567		 664.72583			43027.92984		221.70000		875.00000 
 43692.65567		 305.27265			43387.38302		68.72400		324.00000 
 43692.65567		 664.72583			43027.92984		221.70000		875.00000 
 43692.65567		 305.27265			43387.38302		68.72400		324.00000 
 43692.65567		 664.72583			43027.92984		221.70000		875.00000 
 43692.65567		 305.27265			43387.38302		68.72400		324.00000 
 43692.65567		 664.72583			43027.92984		221.70000		875.00000 
 43692.65567		 305.27265			43387.38302		68.72400		324.00000 
 43692.65567		 664.72583			43027.92984		221.70000		875.00000 
 43692.65567		 305.27265			43387.38302		68.72400		324.00000 
 43692.65567		 664.72583			43027.92984		221.70000		875.00000 
 43692.65567		 305.27265			43387.38302		68.72400		324.00000 
 43692.65567		 664.72583			43027.92984		221.70000		875.00000 
 43692.65567		 305.27265			43387.38302		68.72400		324.00000 
 43692.65567		 664.72583			43027.92984		221.70000		875.00000 
 43692.65567		 305.27265			43387.38302		68.72400		324.00000 
 43692.65567		 664.72583			43027.92984		221.70000		875.00000 
 43692.65567		 305.27265			43387.38302		68.72400		324.00000 
 43692.65567		 664.72583			43027.92984		221.70000		875.00000 
 43692.65567		 305.27265			43387.38302		68.72400		324.00000 
 43692.65567		 664.72583			43027.92984		221.70000		875.00000 
 43692.65567		 305.27265			43387.38302		68.72400		324.00000 
 43692.65567		 664.72583			43027.92984		221.70000		875.00000 
 43692.65567		 305.27265			43387.38302		68.72400		324.00000 
 43692.65567		 664.72583			43027.92984		221.70000		875.00000 
 43692.65567		 305.27265			43387.38302		68.72400		324.00000 
 43692.65567		 664.72583			43027.92984		221.70000		875.00000 
 43692.65567		 305.27265			43387.38302		68.72400		324.00000 
 43692.65567		 664.72583			43027.92984		221.70000		875.00000 
 43692.65567		 305.27265			43387.38302		68.72400		324.00000 
 43692.65567		 664.72583			43027.92984		221.70000		875.00000 
 43692.65567		 305.27265			43387.38302		68.72400		324.00000 
 43692.65567		 664.72583			43027.92984		221.70000		875.00000 
 43692.65567		 305.27265			43387.38302		68.72400		324.00000 
 43692.65567		 664.72583			43027.92984		221.70000		875.00000 
 43692.65567		 305.27265			43387.38302		68.72400		324.00000 
 43692.65567		 664.72583			43027.92984		221.70000		875.00000 
 43692.65567		 305.27265			43387.38302		68.72400		324.00000 
 43692.65567		 664.72583			43027.92984		221.70000		875.00000 
 43692.65567		 305.27265			43387.38302		68.72400		324.00000 
 43692.65567		 664.72583			43027.92984		221.70000		875.00000 
 43692.65567		 305.27265			43387.38302		68.72400		324.00000 
 43692.65567		 664.72583			43027.92984		221.70000		875.00000 
 43692.65567		 305.27265			43387.38302		68.72400		324.00000 
 43692.65567		 664.72583			43027.92984		221.70000		875.00000 
 43692.65567		 305.27265			43387.38302		68.72400		324.00000 
 43692.65567		 664.72583			43027.92984		221.70000		875.00000 
 43692.65567		 305.27265			43387.38302		68.72400		324.00000 
 43692.65567		 664.72583			43027.92984		221.70000		875.00000 
 43692.65567		 305.27265			43387.38302		68.72400		324.00000 
 43692.65567		 664.72583			43027.92984		221.70000		875.00000 
 43692.65567		 305.27265			43387.38302		68.72400		324.00000 
 43692.65567		 664.72583			43027.92984		221.70000		875.00000 
 43692.65567		 305.27265			43387.38302		68.72400		324.00000 
 43692.65567		 664.72583			43027.92984		221.70000		875.00000 
 43692.65567		 305.27265			43387.38302		68.72400		324.00000 
 43692.65567		 664.72583			43027.92984		221.70000		875.00000 
 43692.65567		 305.27265			43387.38302		68.72400		324.00000 
 43692.65567		 664.72583			43027.92984		221.70000		875.00000 
 43692.65567		 305.27265			43387.38302		68.72400		324.00000 
 43692.65567		 664.72583			43027.92984		221.70000		875.00000 
 43692.65567		 305.27265			43387.38302		68.72400		324.00000 
 43692.65567		 664.72583			43027.92984		221.70000		875.00000 
 43692.65567		 305.27265			43387.38302		68.72400		324.00000 
 43692.65567		 664.72583			43027.92984		221.70000		875.00000 
 43692.65567		 305.27265			43387.38302		68.72400		324.00000 
 43692.65567		 664.72583			43027.92984		221.70000		875.00000 
 43692.65567		 305.27265			43387.38302		68.72400		324.00000 
 43692.65567		 664.72583			43027.92984		221.70000		875.00000 
 43692.65567		 305.27265			43387.38302		68.72400		324.00000 
 43692.65567		 664.72583			43027.92984		221.70000		875.00000 
 43692.65567		 305.27265			43387.38302		68.72400		324.00000 
 43692.65567		 664.72583			43027.92984		221.70000		875.00000 
 43692.65567		 305.27265			43387.38302		68.72400		324.00000 
 43692.65567		 664.72583			43027.92984		221.70000		875.00000 
 43692.65567		 305.27265			43387.38302		68.72400		324.00000 
 43692.65567		 664.72583			43027.92984		221.70000		875.00000 
 43692.65567		 305.27265			43387.38302		68.72400		324.00000 
 43692.65567		 664.72583			43027.92984		221.70000		875.00000 
 43692.65567		 305.27265			43387.38302		68.72400		324.00000 
 43692.65567		 664.72583			43027.92984		221.70000		875.00000 
 43692.65567		 305.27265			43387.38302		68.72400		324.00000 
 43692.65567		 664.72583			43027.92984		221.70000		875.00000 
 43692.65567		 305.27265			43387.38302		68.72400		324.00000 
 43692.65567		 664.72583			43027.92984		221.70000		875.00000 
 43692.65567		 305.27265			43387.38302		68.72400		324.00000 
 43692.65567		 664.72583			43027.92984		221.70000		875.00000 
 43692.65567		 305.27265			43387.38302		68.72400		324.00000 
 43692.65567		 664.72583			43027.92984		221.70000		875.00000 
 43692.65567		 305.27265			43387.38302		68.72400		324.00000 
 43692.65567		 664.72583			43027.92984		221.70000		875.00000 
 43692.65567		 305.27265			43387.38302		68.72400		324.00000 
 43692.65567		 664.72583			43027.92984		221.70000		875.00000 
 43692.65567		 305.27265			43387.38302		68.72400		324.00000 
 43692.65567		 664.72583			43027.92984		221.70000		875.00000 
 43692.65567		 305.27265			43387.38302		68.72400		324.00000 
 43692.65567		 664.72583			43027.92984		221.70000		875.00000 
 43692.65567		 305.27265			43387.38302		68.72400		324.00000 
 43692.65567		 664.72583			43027.92984		221.70000		875.00000 
 43692.65567		 305.27265			43387.38302		68.72400		324.00000 
 43692.65567		 664.72583			43027.92984		221.70000		875.00000 
 43692.65567		 305.27265			43387.38302		68.72400		324.00000 
 43692.65567		 664.72583			43027.92984		221.70000		875.00000 
 43692.65567		 305.27265			43387.38302		68.72400		324.00000 
 43692.65567		 664.72583			43027.92984		221.70000		875.00000 
 43692.65567		 305.27265			43387.38302		68.72400		324.00000 
 43692.65567		 664.72583			43027.92984		221.70000		875.00000 
 43692.65567		 305.27265			43387.38302		68.72400		324.00000 
 43692.65567		 664.72583			43027.92984		221.70000		875.00000 
 43692.65567		 305.27265			43387.38302		68.72400		324.00000 
 43692.65567		 664.72583			43027.92984		221.70000		875.00000 
 43692.65567		 305.27265			43387.38302		68.72400		324.00000 
 43692.65567		 664.72583			43027.92984		221.70000		875.00000 
 43692.65567		 305.27265			43387.38302		68.72400		324.00000 
 43692.65567		 664.72583			43027.92984		221.70000		875.00000 
 43692.65567		 305.27265			43387.38302		68.72400		324.00000 
 43692.65567		 664.72583			43027.92984		221.70000		875.00000 
 43692.65567		 305.27265			43387.38302		68.72400		324.00000 
 43692.65567		 664.72583			43027.92984		222.66000		875.00000 
 43692.65567		 305.27265			43387.38302		68.72400		324.00000 
 43692.65567		 664.72583			43027.92984		222.66000		875.00000 
 43692.65567		 305.27265			43387.38302		68.72400		324.00000 
 43692.65567		 664.72583			43027.92984		222.66000		875.00000 
 43692.65567		 305.27265			43387.38302		68.72400		324.00000 
 43692.65567		 664.72583			43027.92984		222.66000		875.00000 
 43692.65567		 305.27265			43387.38302		68.72400		324.00000 
 43692.65567		 664.72583			43027.92984		222.66000		875.00000 
 43692.65567		 305.27265			43387.38302		68.72400		324.00000 
 43692.65567		 664.72583			43027.92984		222.66000		875.00000 
 43692.65567		 305.27265			43387.38302		68.72400		324.00000 
 43692.65567		 664.72583			43027.92984		222.66000		875.00000 
 43692.65567		 305.27265			43387.38302		68.72400		324.00000 
 43692.65567		 664.72583			43027.92984		222.66000		875.00000 
 43692.65567		 305.27265			43387.38302		68.72400		324.00000 
 43692.65567		 664.72583			43027.92984		222.66000		875.00000 
 43692.65567		 305.27265			43387.38302		68.72400		324.00000 
 43692.65567		 664.72583			43027.92984		222.66000		875.00000 
 43692.65567		 305.27265			43387.38302		68.72400		324.00000 
 43692.65567		 664.72583			43027.92984		222.66000		875.00000 
 43692.65567		 305.27265			43387.38302		68.72400		324.00000 
 43692.65567		 664.72583			43027.92984		222.66000		875.00000 
 43692.65567		 305.27265			43387.38302		68.72400		324.00000 
 43692.65567		 664.72583			43027.92984		222.66000		875.00000 
 43692.65567		 305.27265			43387.38302		68.72400		324.00000 
 43692.65567		 664.72583			43027.92984		222.66000		875.00000 
 43692.65567		 305.27265			43387.38302		68.72400		324.00000 
 43692.65567		 664.72583			43027.92984		222.66000		875.00000 
 43692.65567		 305.27265			43387.38302		68.72400		324.00000 
 43692.65567		 664.72583			43027.92984		222.66000		875.00000 
 43692.65567		 305.27265			43387.38302		68.72400		324.00000 
 43692.65567		 664.72583			43027.92984		222.66000		875.00000 
 43692.65567		 305.27265			43387.38302		68.72400		324.00000 
 43692.65567		 664.72583			43027.92984		222.66000		875.00000 
 43692.65567		 305.27265			43387.38302		68.72400		324.00000 
 43692.65567		 664.72583			43027.92984		222.66000		875.00000 
 43692.65567		 305.27265			43387.38302		68.72400		324.00000 
 43692.65567		 664.72583			43027.92984		222.66000		875.00000 
 43692.65567		 305.27265			43387.38302		68.72400		324.00000 
 43692.65567		 664.72583			43027.92984		222.66000		875.00000 
 43692.65567		 305.27265			43387.38302		68.72400		324.00000 
 43692.65567		 664.72583			43027.92984		222.66000		875.00000 
 43692.65567		 305.27265			43387.38302		68.72400		324.00000 
 43692.65567		 664.72583			43027.92984		222.66000		875.00000 
 43692.65567		 305.27265			43387.38302		68.72400		324.00000 
 43692.65567		 664.72583			43027.92984		222.66000		875.00000 
 43692.65567		 305.27265			43387.38302		68.72400		324.00000 
 43692.65567		 664.72583			43027.92984		222.66000		875.00000 
 43692.65567		 305.27265			43387.38302		68.72400		324.00000 
 43692.65567		 664.72583			43027.92984		222.66000		875.00000 
 43692.65567		 305.27265			43387.38302		68.72400		324.00000 
 43692.65567		 664.72583			43027.92984		222.66000		875.00000 
 43692.65567		 305.27265			43387.38302		68.72400		324.00000 
 43692.65567		 664.72583			43027.92984		222.66000		875.00000 
 43692.65567		 305.27265			43387.38302		68.72400		324.00000 
 43692.65567		 664.72583			43027.92984		222.66000		875.00000 
 43692.65567		 305.27265			43387.38302		68.72400		324.00000 
 43692.65567		 664.72583			43027.92984		222.66000		875.00000 
 43692.65567		 305.27265			43387.38302		68.72400		324.00000 
 43692.65567		 664.72583			43027.92984		222.66000		875.00000 
 43692.65567		 305.27265			43387.38302		68.72400		324.00000 
 43692.65567		 664.72583			43027.92984		222.66000		875.00000 
 43692.65567		 305.27265			43387.38302		68.72400		324.00000 
 43692.65567		 664.72583			43027.92984		222.66000		875.00000 
 43692.65567		 305.27265			43387.38302		68.72400		324.00000 
 43692.65567		 664.72583			43027.92984		222.66000		875.00000 
 43692.65567		 305.27265			43387.38302		68.72400		324.00000 
 43692.65567		 664.72583			43027.92984		222.66000		875.00000 
 43692.65567		 305.27265			43387.38302		68.72400		324.00000 
 43692.65567		 664.72583			43027.92984		222.66000		875.00000 
 43692.65567		 305.27265			43387.38302		68.72400		324.00000 
 43692.65567		 664.72583			43027.92984		222.66000		875.00000 
 43692.65567		 305.27265			43387.38302		68.72400		324.00000 
 43692.65567		 664.72583			43027.92984		222.66000		875.00000 
 43692.65567		 305.27265			43387.38302		68.72400		324.00000 
 43692.65567		 664.72583			43027.92984		222.66000		875.00000 
 43692.65567		 305.27265			43387.38302		68.72400		324.00000 
 43692.65567		 664.72583			43027.92984		222.66000		875.00000 
 43692.65567		 305.27265			43387.38302		68.72400		324.00000 
 43692.65567		 664.72583			43027.92984		222.66000		875.00000 
 43692.65567		 305.27265			43387.38302		68.72400		324.00000 
 43692.65567		 664.72583			43027.92984		222.66000		875.00000 
 43692.65567		 305.27265			43387.38302		68.72400		324.00000 
 43692.65567		 664.72583			43027.92984		222.66000		875.00000 
 43692.65567		 305.27265			43387.38302		68.72400		324.00000 
 43692.65567		 664.72583			43027.92984		222.66000		875.00000 
 43692.65567		 305.27265			43387.38302		68.72400		324.00000 
 43692.65567		 664.72583			43027.92984		222.66000		875.00000 
 43692.65567		 305.27265			43387.38302		68.72400		324.00000 
 43692.65567		 664.72583			43027.92984		222.66000		875.00000 
 43692.65567		 305.27265			43387.38302		68.72400		324.00000 
 43692.65567		 664.72583			43027.92984		222.66000		875.00000 
 43692.65567		 305.27265			43387.38302		68.72400		324.00000 
 43692.65567		 664.72583			43027.92984		222.66000		875.00000 
 43692.65567		 305.27265			43387.38302		68.72400		324.00000 
 43692.65567		 664.72583			43027.92984		222.66000		875.00000 
 43692.65567		 305.27265			43387.38302		68.72400		324.00000 
 43692.65567		 664.72583			43027.92984		222.66000		875.00000 
 43692.65567		 305.27265			43387.38302		68.72400		324.00000 
 43692.65567		 664.72583			43027.92984		222.66000		875.00000 
 43692.65567		 305.27265			43387.38302		68.72400		324.00000 
 43692.65567		 664.72583			43027.92984		222.66000		875.00000 
 43692.65567		 305.27265			43387.38302		68.72400		324.00000 
 43692.65567		 664.72583			43027.92984		222.66000		875.00000 
 43692.65567		 305.27265			43387.38302		68.72400		324.00000 
 43692.65567		 664.72583			43027.92984		222.66000		875.00000 
 43692.65567		 305.27265			43387.38302		68.72400		324.00000 
 43692.65567		 664.72583			43027.92984		222.66000		875.00000 
 43692.65567		 305.27265			43387.38302		68.72400		324.00000 
 43692.65567		 664.72583			43027.92984		222.66000		875.00000 
 43692.65567		 305.27265			43387.38302		68.72400		324.00000 
 43692.65567		 664.72583			43027.92984		222.66000		875.00000 
 43692.65567		 305.27265			43387.38302		68.72400		324.00000 
 43692.65567		 664.72583			43027.92984		222.66000		875.00000 
 43692.65567		 305.27265			43387.38302		68.72400		324.00000 
 43692.65567		 664.72583			43027.92984		222.66000		875.00000 
 43692.65567		 305.27265			43387.38302		68.72400		324.00000 
 43692.65567		 664.72583			43027.92984		222.66000		875.00000 
 43692.65567		 305.27265			43387.38302		68.72400		324.00000 
 43692.65567		 664.72583			43027.92984		222.66000		875.00000 
 43692.65567		 305.27265			43387.38302		68.72400		324.00000 
 43692.65567		 664.72583			43027.92984		222.66000		875.00000 
 43692.65567		 305.27265			43387.38302		68.72400		324.00000 
 43692.65567		 664.72583			43027.92984		222.66000		875.00000 
 43692.65567		 305.27265			43387.38302		68.72400		324.00000 
 43692.65567		 664.72583			43027.92984		222.66000		875.00000 
 43692.65567		 305.27265			43387.38302		68.72400		324.00000 
 43692.65567		 664.72583			43027.92984		222.66000		875.00000 
 43692.65567		 305.27265			43387.38302		69.65600		324.00000 
 43692.65567		 664.72583			43027.92984		222.06000		875.00000 
 43692.65567		 305.27265			43387.38302		69.65600		324.00000 
 43692.65567		 579.75549			43112.90018		222.06000		875.00000 
 43692.65567		 305.27265			43387.38302		69.65600		324.00000 
 43692.65567		 537.27032			43155.38535		222.06000		875.00000 
 43692.65567		 305.27265			43387.38302		69.65600		324.00000 
 43692.65567		 537.27032			43155.38535		222.06000		875.00000 
 43692.65567		 305.27265			43387.38302		69.65600		324.00000 
 43692.65567		 537.27032			43155.38535		222.06000		875.00000 
 43692.65567		 305.27265			43387.38302		69.65600		324.00000 
 43692.65567		 537.27032			43155.38535		222.06000		875.00000 
 43692.65567		 305.27265			43387.38302		69.65600		324.00000 
 43692.65567		 537.27032			43155.38535		222.06000		875.00000 
 43692.65567		 305.27265			43387.38302		69.65600		324.00000 
 43692.65567		 537.27032			43155.38535		222.06000		875.00000 
 43692.65567		 305.27265			43387.38302		69.65600		324.00000 
 43692.65567		 537.27032			43155.38535		222.06000		875.00000 
 43692.65567		 305.27265			43387.38302		69.65600		324.00000 
 43692.65567		 537.27032			43155.38535		222.06000		875.00000 
 43692.65567		 305.27265			43387.38302		69.65600		324.00000 
 43692.65567		 537.27032			43155.38535		222.06000		875.00000 
 43692.65567		 305.27265			43387.38302		69.65600		324.00000 
 43692.65567		 537.27032			43155.38535		222.06000		875.00000 
 43692.65567		 305.27265			43387.38302		69.65600		324.00000 
 43692.65567		 537.27032			43155.38535		222.06000		875.00000 
 43692.65567		 305.27265			43387.38302		69.65600		324.00000 
 43692.65567		 537.27032			43155.38535		222.06000		875.00000 
 43692.65567		 305.27265			43387.38302		69.65600		324.00000 
 43692.65567		 537.27032			43155.38535		222.06000		875.00000 
 43692.65567		 305.27265			43387.38302		69.65600		324.00000 
 43692.65567		 537.27032			43155.38535		222.06000		875.00000 
 43692.65567		 305.27265			43387.38302		69.65600		324.00000 
 43692.65567		 537.27032			43155.38535		222.06000		875.00000 
 43692.65567		 305.27265			43387.38302		69.65600		324.00000 
 43692.65567		 537.27032			43155.38535		222.06000		875.00000 
 43692.65567		 305.27265			43387.38302		69.65600		324.00000 
 43692.65567		 537.27032			43155.38535		222.06000		875.00000 
 43692.65567		 305.27265			43387.38302		69.65600		324.00000 
 43692.65567		 537.27032			43155.38535		222.06000		875.00000 
 43692.65567		 305.27265			43387.38302		69.65600		324.00000 
 43692.65567		 537.27032			43155.38535		222.06000		875.00000 
 43692.65567		 305.27265			43387.38302		69.65600		324.00000 
 43692.65567		 537.27032			43155.38535		222.06000		875.00000 
 43692.65567		 305.27265			43387.38302		69.65600		324.00000 
 43692.65567		 529.63254			43163.02313		222.06000		875.00000 
 43692.65567		 305.27265			43387.38302		69.65600		324.00000 
 43692.65567		 525.81365			43166.84203		222.06000		875.00000 
 43692.65567		 305.27265			43387.38302		69.65600		324.00000 
 43692.65567		 525.81365			43166.84203		222.06000		875.00000 
 43692.65567		 261.35540			43431.30027		69.65600		324.00000 
