Memory Total (MiB) 	 Memory Used (MiB) 	    Memory Free (MiB) 	 Power Drawed (W) 	 Clocks (Mhz) 	 
 43692.65567		 261.35540			43431.30027		172.80200		875.00000 
 43692.65567		 261.35540			43431.30027		65.00400		324.00000 
 43692.65567		 261.35540			43431.30027		172.80200		875.00000 
 43692.65567		 261.35540			43431.30027		65.00400		324.00000 
 43692.65567		 261.35540			43431.30027		172.80200		875.00000 
 43692.65567		 261.35540			43431.30027		65.00400		324.00000 
 43692.65567		 261.35540			43431.30027		172.80200		875.00000 
 43692.65567		 261.35540			43431.30027		65.00400		324.00000 
 43692.65567		 261.35540			43431.30027		172.80200		875.00000 
 43692.65567		 261.35540			43431.30027		65.00400		324.00000 
 43692.65567		 261.35540			43431.30027		172.80200		875.00000 
 43692.65567		 261.35540			43431.30027		65.00400		324.00000 
 43692.65567		 261.35540			43431.30027		172.80200		875.00000 
 43692.65567		 261.35540			43431.30027		65.00400		324.00000 
 43692.65567		 261.35540			43431.30027		172.80200		875.00000 
 43692.65567		 261.35540			43431.30027		65.00400		324.00000 
 43692.65567		 261.35540			43431.30027		172.80200		875.00000 
 43692.65567		 261.35540			43431.30027		65.00400		324.00000 
 43692.65567		 261.35540			43431.30027		172.80200		875.00000 
 43692.65567		 261.35540			43431.30027		65.00400		324.00000 
 43692.65567		 261.35540			43431.30027		172.80200		875.00000 
 43692.65567		 261.35540			43431.30027		65.00400		324.00000 
 43692.65567		 261.35540			43431.30027		172.80200		875.00000 
 43692.65567		 261.35540			43431.30027		65.00400		324.00000 
 43692.65567		 261.35540			43431.30027		172.80200		875.00000 
 43692.65567		 261.35540			43431.30027		65.00400		324.00000 
 43692.65567		 261.35540			43431.30027		172.80200		875.00000 
 43692.65567		 261.35540			43431.30027		65.00400		324.00000 
 43692.65567		 261.35540			43431.30027		172.80200		875.00000 
 43692.65567		 261.35540			43431.30027		65.00400		324.00000 
 43692.65567		 261.35540			43431.30027		172.80200		875.00000 
 43692.65567		 261.35540			43431.30027		65.00400		324.00000 
 43692.65567		 261.35540			43431.30027		172.80200		875.00000 
 43692.65567		 261.35540			43431.30027		65.00400		324.00000 
 43692.65567		 261.35540			43431.30027		172.80200		875.00000 
 43692.65567		 261.35540			43431.30027		65.00400		324.00000 
 43692.65567		 265.17429			43427.48138		172.80200		875.00000 
 43692.65567		 261.35540			43431.30027		65.00400		324.00000 
 43692.65567		 265.17429			43427.48138		172.80200		875.00000 
 43692.65567		 261.35540			43431.30027		65.00400		324.00000 
 43692.65567		 272.81207			43419.84360		172.80200		875.00000 
 43692.65567		 261.35540			43431.30027		65.00400		324.00000 
 43692.65567		 272.81207			43419.84360		172.80200		875.00000 
 43692.65567		 261.35540			43431.30027		65.00400		324.00000 
 43692.65567		 272.81207			43419.84360		172.80200		875.00000 
 43692.65567		 265.17429			43427.48138		65.00400		324.00000 
 43692.65567		 272.81207			43419.84360		172.80200		875.00000 
 43692.65567		 265.17429			43427.48138		65.00400		324.00000 
 43692.65567		 272.81207			43419.84360		172.80200		875.00000 
 43692.65567		 272.81207			43419.84360		65.00400		324.00000 
 43692.65567		 272.81207			43419.84360		172.80200		875.00000 
 43692.65567		 272.81207			43419.84360		65.00400		324.00000 
 43692.65567		 272.81207			43419.84360		172.80200		875.00000 
 43692.65567		 272.81207			43419.84360		65.00400		324.00000 
 43692.65567		 305.27265			43387.38302		145.75200		875.00000 
 43692.65567		 305.27265			43387.38302		65.00400		324.00000 
 43692.65567		 305.27265			43387.38302		145.75200		875.00000 
 43692.65567		 305.27265			43387.38302		65.00400		324.00000 
 43692.65567		 305.27265			43387.38302		145.75200		875.00000 
 43692.65567		 305.27265			43387.38302		65.00400		324.00000 
 43692.65567		 305.27265			43387.38302		145.75200		875.00000 
 43692.65567		 305.27265			43387.38302		65.00400		324.00000 
 43692.65567		 305.27265			43387.38302		145.75200		875.00000 
 43692.65567		 305.27265			43387.38302		65.00400		324.00000 
 43692.65567		 309.09154			43383.56413		145.75200		875.00000 
 43692.65567		 305.27265			43387.38302		65.00400		324.00000 
 43692.65567		 310.52363			43382.13204		145.75200		875.00000 
 43692.65567		 305.27265			43387.38302		65.00400		324.00000 
 43692.65567		 311.00099			43381.65468		145.75200		875.00000 
 43692.65567		 305.27265			43387.38302		65.00400		324.00000 
 43692.65567		 311.00099			43381.65468		145.75200		875.00000 
 43692.65567		 305.27265			43387.38302		65.00400		324.00000 
 43692.65567		 311.00099			43381.65468		145.75200		875.00000 
 43692.65567		 305.27265			43387.38302		65.00400		324.00000 
 43692.65567		 311.00099			43381.65468		145.75200		875.00000 
 43692.65567		 305.27265			43387.38302		65.00400		324.00000 
 43692.65567		 311.00099			43381.65468		145.75200		875.00000 
 43692.65567		 305.27265			43387.38302		65.00400		324.00000 
 43692.65567		 311.00099			43381.65468		145.75200		875.00000 
 43692.65567		 305.27265			43387.38302		65.00400		324.00000 
 43692.65567		 311.00099			43381.65468		145.75200		875.00000 
 43692.65567		 305.27265			43387.38302		65.00400		324.00000 
 43692.65567		 311.00099			43381.65468		145.75200		875.00000 
 43692.65567		 305.27265			43387.38302		65.00400		324.00000 
 43692.65567		 311.00099			43381.65468		145.75200		875.00000 
 43692.65567		 305.27265			43387.38302		65.00400		324.00000 
 43692.65567		 311.00099			43381.65468		145.75200		875.00000 
 43692.65567		 305.27265			43387.38302		65.00400		324.00000 
 43692.65567		 311.00099			43381.65468		145.75200		875.00000 
 43692.65567		 305.27265			43387.38302		65.00400		324.00000 
 43692.65567		 311.00099			43381.65468		145.75200		875.00000 
 43692.65567		 305.27265			43387.38302		65.00400		324.00000 
 43692.65567		 311.00099			43381.65468		145.75200		875.00000 
 43692.65567		 305.27265			43387.38302		65.00400		324.00000 
 43692.65567		 311.00099			43381.65468		145.75200		875.00000 
 43692.65567		 305.27265			43387.38302		65.00400		324.00000 
 43692.65567		 311.00099			43381.65468		145.75200		875.00000 
 43692.65567		 305.27265			43387.38302		65.00400		324.00000 
 43692.65567		 311.00099			43381.65468		145.75200		875.00000 
 43692.65567		 305.27265			43387.38302		65.00400		324.00000 
 43692.65567		 311.00099			43381.65468		145.75200		875.00000 
 43692.65567		 305.27265			43387.38302		65.00400		324.00000 
 43692.65567		 311.00099			43381.65468		145.75200		875.00000 
 43692.65567		 305.27265			43387.38302		65.00400		324.00000 
 43692.65567		 311.00099			43381.65468		145.75200		875.00000 
 43692.65567		 305.27265			43387.38302		65.00400		324.00000 
 43692.65567		 311.00099			43381.65468		145.75200		875.00000 
 43692.65567		 305.27265			43387.38302		65.00400		324.00000 
 43692.65567		 311.00099			43381.65468		145.75200		875.00000 
 43692.65567		 305.27265			43387.38302		65.00400		324.00000 
 43692.65567		 311.00099			43381.65468		145.75200		875.00000 
 43692.65567		 305.27265			43387.38302		65.00400		324.00000 
 43692.65567		 311.00099			43381.65468		145.75200		875.00000 
 43692.65567		 305.27265			43387.38302		65.00400		324.00000 
 43692.65567		 311.00099			43381.65468		145.75200		875.00000 
 43692.65567		 305.27265			43387.38302		65.00400		324.00000 
 43692.65567		 311.00099			43381.65468		145.75200		875.00000 
 43692.65567		 305.27265			43387.38302		65.00400		324.00000 
 43692.65567		 311.00099			43381.65468		145.75200		875.00000 
 43692.65567		 305.27265			43387.38302		65.00400		324.00000 
 43692.65567		 311.00099			43381.65468		145.75200		875.00000 
 43692.65567		 305.27265			43387.38302		65.00400		324.00000 
 43692.65567		 311.00099			43381.65468		134.66800		875.00000 
 43692.65567		 305.27265			43387.38302		65.00400		324.00000 
 43692.65567		 311.00099			43381.65468		134.66800		875.00000 
 43692.65567		 305.27265			43387.38302		65.00400		324.00000 
 43692.65567		 311.00099			43381.65468		134.66800		875.00000 
 43692.65567		 305.27265			43387.38302		65.00400		324.00000 
 43692.65567		 311.00099			43381.65468		134.66800		875.00000 
 43692.65567		 305.27265			43387.38302		65.00400		324.00000 
 43692.65567		 311.00099			43381.65468		134.66800		875.00000 
 43692.65567		 305.27265			43387.38302		65.00400		324.00000 
 43692.65567		 311.00099			43381.65468		134.66800		875.00000 
 43692.65567		 305.27265			43387.38302		65.00400		324.00000 
 43692.65567		 311.00099			43381.65468		134.66800		875.00000 
 43692.65567		 305.27265			43387.38302		65.00400		324.00000 
 43692.65567		 311.00099			43381.65468		134.66800		875.00000 
 43692.65567		 305.27265			43387.38302		65.00400		324.00000 
 43692.65567		 311.00099			43381.65468		134.66800		875.00000 
 43692.65567		 305.27265			43387.38302		65.00400		324.00000 
 43692.65567		 311.00099			43381.65468		134.66800		875.00000 
 43692.65567		 305.27265			43387.38302		65.00400		324.00000 
 43692.65567		 311.00099			43381.65468		134.66800		875.00000 
 43692.65567		 305.27265			43387.38302		65.00400		324.00000 
 43692.65567		 311.00099			43381.65468		134.66800		875.00000 
 43692.65567		 305.27265			43387.38302		65.00400		324.00000 
 43692.65567		 311.00099			43381.65468		134.66800		875.00000 
 43692.65567		 305.27265			43387.38302		65.00400		324.00000 
 43692.65567		 311.00099			43381.65468		134.66800		875.00000 
 43692.65567		 305.27265			43387.38302		65.00400		324.00000 
 43692.65567		 311.00099			43381.65468		134.66800		875.00000 
 43692.65567		 305.27265			43387.38302		65.00400		324.00000 
 43692.65567		 311.00099			43381.65468		134.66800		875.00000 
 43692.65567		 305.27265			43387.38302		65.00400		324.00000 
 43692.65567		 311.00099			43381.65468		134.66800		875.00000 
 43692.65567		 305.27265			43387.38302		65.00400		324.00000 
 43692.65567		 311.00099			43381.65468		134.66800		875.00000 
 43692.65567		 305.27265			43387.38302		65.00400		324.00000 
 43692.65567		 311.00099			43381.65468		134.66800		875.00000 
 43692.65567		 305.27265			43387.38302		65.00400		324.00000 
 43692.65567		 311.00099			43381.65468		134.66800		875.00000 
 43692.65567		 305.27265			43387.38302		65.00400		324.00000 
 43692.65567		 311.00099			43381.65468		134.66800		875.00000 
 43692.65567		 305.27265			43387.38302		65.00400		324.00000 
 43692.65567		 311.00099			43381.65468		134.66800		875.00000 
 43692.65567		 305.27265			43387.38302		65.00400		324.00000 
 43692.65567		 311.00099			43381.65468		134.66800		875.00000 
 43692.65567		 305.27265			43387.38302		65.00400		324.00000 
 43692.65567		 314.81988			43377.83579		134.66800		875.00000 
 43692.65567		 305.27265			43387.38302		65.00400		324.00000 
 43692.65567		 314.81988			43377.83579		134.66800		875.00000 
 43692.65567		 305.27265			43387.38302		65.00400		324.00000 
 43692.65567		 314.81988			43377.83579		134.66800		875.00000 
 43692.65567		 305.27265			43387.38302		65.00400		324.00000 
 43692.65567		 322.45767			43370.19801		134.66800		875.00000 
 43692.65567		 305.27265			43387.38302		65.00400		324.00000 
 43692.65567		 326.27656			43366.37912		134.66800		875.00000 
 43692.65567		 305.27265			43387.38302		65.00400		324.00000 
 43692.65567		 326.27656			43366.37912		134.66800		875.00000 
 43692.65567		 305.27265			43387.38302		65.00400		324.00000 
 43692.65567		 326.27656			43366.37912		134.66800		875.00000 
 43692.65567		 305.27265			43387.38302		65.00400		324.00000 
 43692.65567		 326.27656			43366.37912		134.66800		875.00000 
 43692.65567		 305.27265			43387.38302		65.00400		324.00000 
 43692.65567		 537.27032			43155.38535		134.66800		875.00000 
 43692.65567		 305.27265			43387.38302		65.00400		324.00000 
 43692.65567		 583.09702			43109.55865		134.66800		875.00000 
 43692.65567		 305.27265			43387.38302		65.00400		324.00000 
 43692.65567		 583.09702			43109.55865		134.66800		875.00000 
 43692.65567		 305.27265			43387.38302		65.00400		324.00000 
 43692.65567		 583.09702			43109.55865		134.40200		875.00000 
 43692.65567		 305.27265			43387.38302		65.00400		324.00000 
 43692.65567		 583.09702			43109.55865		134.40200		875.00000 
 43692.65567		 305.27265			43387.38302		65.00400		324.00000 
 43692.65567		 583.09702			43109.55865		134.40200		875.00000 
 43692.65567		 305.27265			43387.38302		65.00400		324.00000 
 43692.65567		 583.09702			43109.55865		134.40200		875.00000 
 43692.65567		 305.27265			43387.38302		65.00400		324.00000 
 43692.65567		 583.09702			43109.55865		134.40200		875.00000 
 43692.65567		 305.27265			43387.38302		65.00400		324.00000 
 43692.65567		 583.09702			43109.55865		134.40200		875.00000 
 43692.65567		 305.27265			43387.38302		65.00400		324.00000 
 43692.65567		 583.09702			43109.55865		134.40200		875.00000 
 43692.65567		 305.27265			43387.38302		65.00400		324.00000 
 43692.65567		 583.09702			43109.55865		134.40200		875.00000 
 43692.65567		 305.27265			43387.38302		65.00400		324.00000 
 43692.65567		 583.09702			43109.55865		134.40200		875.00000 
 43692.65567		 305.27265			43387.38302		65.00400		324.00000 
 43692.65567		 583.09702			43109.55865		134.40200		875.00000 
 43692.65567		 305.27265			43387.38302		65.00400		324.00000 
 43692.65567		 583.09702			43109.55865		134.40200		875.00000 
 43692.65567		 305.27265			43387.38302		65.00400		324.00000 
 43692.65567		 583.09702			43109.55865		134.40200		875.00000 
 43692.65567		 305.27265			43387.38302		65.00400		324.00000 
 43692.65567		 583.09702			43109.55865		134.40200		875.00000 
 43692.65567		 305.27265			43387.38302		65.00400		324.00000 
 43692.65567		 583.09702			43109.55865		134.40200		875.00000 
 43692.65567		 305.27265			43387.38302		65.00400		324.00000 
 43692.65567		 583.09702			43109.55865		134.40200		875.00000 
 43692.65567		 305.27265			43387.38302		65.00400		324.00000 
 43692.65567		 583.09702			43109.55865		134.40200		875.00000 
 43692.65567		 305.27265			43387.38302		65.00400		324.00000 
 43692.65567		 583.09702			43109.55865		134.40200		875.00000 
 43692.65567		 305.27265			43387.38302		65.00400		324.00000 
 43692.65567		 583.09702			43109.55865		134.40200		875.00000 
 43692.65567		 305.27265			43387.38302		65.00400		324.00000 
 43692.65567		 583.09702			43109.55865		134.40200		875.00000 
 43692.65567		 305.27265			43387.38302		65.00400		324.00000 
 43692.65567		 583.09702			43109.55865		134.40200		875.00000 
 43692.65567		 305.27265			43387.38302		65.00400		324.00000 
 43692.65567		 583.09702			43109.55865		134.40200		875.00000 
 43692.65567		 305.27265			43387.38302		65.00400		324.00000 
 43692.65567		 583.09702			43109.55865		134.40200		875.00000 
 43692.65567		 305.27265			43387.38302		65.00400		324.00000 
 43692.65567		 583.09702			43109.55865		134.40200		875.00000 
 43692.65567		 305.27265			43387.38302		65.00400		324.00000 
 43692.65567		 583.09702			43109.55865		134.40200		875.00000 
 43692.65567		 305.27265			43387.38302		65.00400		324.00000 
 43692.65567		 583.09702			43109.55865		134.40200		875.00000 
 43692.65567		 305.27265			43387.38302		65.00400		324.00000 
 43692.65567		 583.09702			43109.55865		134.40200		875.00000 
 43692.65567		 305.27265			43387.38302		65.00400		324.00000 
 43692.65567		 583.09702			43109.55865		134.40200		875.00000 
 43692.65567		 305.27265			43387.38302		65.00400		324.00000 
 43692.65567		 583.09702			43109.55865		134.40200		875.00000 
 43692.65567		 305.27265			43387.38302		65.00400		324.00000 
 43692.65567		 583.09702			43109.55865		134.40200		875.00000 
 43692.65567		 305.27265			43387.38302		65.00400		324.00000 
 43692.65567		 583.09702			43109.55865		134.40200		875.00000 
 43692.65567		 305.27265			43387.38302		65.00400		324.00000 
 43692.65567		 583.09702			43109.55865		134.40200		875.00000 
 43692.65567		 305.27265			43387.38302		65.00400		324.00000 
 43692.65567		 583.09702			43109.55865		134.40200		875.00000 
 43692.65567		 305.27265			43387.38302		65.00400		324.00000 
 43692.65567		 583.09702			43109.55865		134.40200		875.00000 
 43692.65567		 305.27265			43387.38302		65.00400		324.00000 
 43692.65567		 583.09702			43109.55865		134.40200		875.00000 
 43692.65567		 305.27265			43387.38302		65.00400		324.00000 
 43692.65567		 583.09702			43109.55865		134.40200		875.00000 
 43692.65567		 305.27265			43387.38302		65.00400		324.00000 
 43692.65567		 583.09702			43109.55865		134.40200		875.00000 
 43692.65567		 305.27265			43387.38302		65.00400		324.00000 
 43692.65567		 583.09702			43109.55865		134.40200		875.00000 
 43692.65567		 305.27265			43387.38302		65.00400		324.00000 
 43692.65567		 583.09702			43109.55865		134.40200		875.00000 
 43692.65567		 305.27265			43387.38302		65.00400		324.00000 
 43692.65567		 583.09702			43109.55865		134.40200		875.00000 
 43692.65567		 305.27265			43387.38302		65.00400		324.00000 
 43692.65567		 583.09702			43109.55865		134.40200		875.00000 
 43692.65567		 305.27265			43387.38302		65.00400		324.00000 
 43692.65567		 583.09702			43109.55865		134.40200		875.00000 
 43692.65567		 305.27265			43387.38302		65.00400		324.00000 
 43692.65567		 583.09702			43109.55865		134.40200		875.00000 
 43692.65567		 305.27265			43387.38302		65.00400		324.00000 
 43692.65567		 583.09702			43109.55865		134.40200		875.00000 
 43692.65567		 305.27265			43387.38302		65.00400		324.00000 
 43692.65567		 583.09702			43109.55865		134.40200		875.00000 
 43692.65567		 305.27265			43387.38302		65.00400		324.00000 
 43692.65567		 583.09702			43109.55865		134.40200		875.00000 
 43692.65567		 305.27265			43387.38302		65.00400		324.00000 
 43692.65567		 583.09702			43109.55865		134.40200		875.00000 
 43692.65567		 305.27265			43387.38302		65.00400		324.00000 
 43692.65567		 583.09702			43109.55865		134.40200		875.00000 
 43692.65567		 305.27265			43387.38302		65.00400		324.00000 
 43692.65567		 583.09702			43109.55865		134.40200		875.00000 
 43692.65567		 305.27265			43387.38302		65.00400		324.00000 
 43692.65567		 583.09702			43109.55865		134.40200		875.00000 
 43692.65567		 305.27265			43387.38302		65.00400		324.00000 
 43692.65567		 583.09702			43109.55865		134.40200		875.00000 
 43692.65567		 305.27265			43387.38302		65.00400		324.00000 
 43692.65567		 583.09702			43109.55865		134.40200		875.00000 
 43692.65567		 305.27265			43387.38302		65.00400		324.00000 
 43692.65567		 583.09702			43109.55865		134.40200		875.00000 
 43692.65567		 305.27265			43387.38302		65.00400		324.00000 
 43692.65567		 583.09702			43109.55865		134.40200		875.00000 
 43692.65567		 305.27265			43387.38302		65.00400		324.00000 
 43692.65567		 583.09702			43109.55865		134.40200		875.00000 
 43692.65567		 305.27265			43387.38302		65.00400		324.00000 
 43692.65567		 583.09702			43109.55865		134.40200		875.00000 
 43692.65567		 305.27265			43387.38302		65.00400		324.00000 
 43692.65567		 583.09702			43109.55865		134.40200		875.00000 
 43692.65567		 305.27265			43387.38302		65.00400		324.00000 
 43692.65567		 583.09702			43109.55865		134.40200		875.00000 
 43692.65567		 305.27265			43387.38302		65.00400		324.00000 
 43692.65567		 583.09702			43109.55865		183.22400		875.00000 
 43692.65567		 305.27265			43387.38302		65.00400		324.00000 
 43692.65567		 583.09702			43109.55865		183.22400		875.00000 
 43692.65567		 305.27265			43387.38302		65.00400		324.00000 
 43692.65567		 583.09702			43109.55865		183.22400		875.00000 
 43692.65567		 305.27265			43387.38302		65.00400		324.00000 
 43692.65567		 583.09702			43109.55865		183.22400		875.00000 
 43692.65567		 305.27265			43387.38302		65.00400		324.00000 
 43692.65567		 583.09702			43109.55865		183.22400		875.00000 
 43692.65567		 305.27265			43387.38302		65.00400		324.00000 
 43692.65567		 583.09702			43109.55865		183.22400		875.00000 
 43692.65567		 305.27265			43387.38302		65.00400		324.00000 
 43692.65567		 583.09702			43109.55865		183.22400		875.00000 
 43692.65567		 305.27265			43387.38302		65.00400		324.00000 
 43692.65567		 583.09702			43109.55865		183.22400		875.00000 
 43692.65567		 305.27265			43387.38302		65.00400		324.00000 
 43692.65567		 583.09702			43109.55865		183.22400		875.00000 
 43692.65567		 305.27265			43387.38302		65.00400		324.00000 
 43692.65567		 583.09702			43109.55865		183.22400		875.00000 
 43692.65567		 305.27265			43387.38302		65.00400		324.00000 
 43692.65567		 583.09702			43109.55865		183.22400		875.00000 
 43692.65567		 305.27265			43387.38302		65.00400		324.00000 
 43692.65567		 583.09702			43109.55865		183.22400		875.00000 
 43692.65567		 305.27265			43387.38302		65.00400		324.00000 
 43692.65567		 583.09702			43109.55865		183.22400		875.00000 
 43692.65567		 305.27265			43387.38302		65.00400		324.00000 
 43692.65567		 583.09702			43109.55865		183.22400		875.00000 
 43692.65567		 305.27265			43387.38302		65.00400		324.00000 
 43692.65567		 583.09702			43109.55865		183.22400		875.00000 
 43692.65567		 305.27265			43387.38302		65.00400		324.00000 
 43692.65567		 583.09702			43109.55865		183.22400		875.00000 
 43692.65567		 305.27265			43387.38302		65.00400		324.00000 
 43692.65567		 583.09702			43109.55865		183.22400		875.00000 
 43692.65567		 305.27265			43387.38302		65.00400		324.00000 
 43692.65567		 583.09702			43109.55865		183.22400		875.00000 
 43692.65567		 305.27265			43387.38302		65.00400		324.00000 
 43692.65567		 583.09702			43109.55865		183.22400		875.00000 
 43692.65567		 305.27265			43387.38302		65.00400		324.00000 
 43692.65567		 583.09702			43109.55865		183.22400		875.00000 
 43692.65567		 305.27265			43387.38302		65.00400		324.00000 
 43692.65567		 583.09702			43109.55865		183.22400		875.00000 
 43692.65567		 305.27265			43387.38302		65.00400		324.00000 
 43692.65567		 583.09702			43109.55865		183.22400		875.00000 
 43692.65567		 305.27265			43387.38302		65.00400		324.00000 
 43692.65567		 583.09702			43109.55865		183.22400		875.00000 
 43692.65567		 305.27265			43387.38302		65.00400		324.00000 
 43692.65567		 583.09702			43109.55865		183.22400		875.00000 
 43692.65567		 305.27265			43387.38302		65.00400		324.00000 
 43692.65567		 583.09702			43109.55865		183.22400		875.00000 
 43692.65567		 305.27265			43387.38302		65.00400		324.00000 
 43692.65567		 583.09702			43109.55865		183.22400		875.00000 
 43692.65567		 305.27265			43387.38302		65.00400		324.00000 
 43692.65567		 583.09702			43109.55865		183.22400		875.00000 
 43692.65567		 305.27265			43387.38302		65.00400		324.00000 
 43692.65567		 583.09702			43109.55865		183.22400		875.00000 
 43692.65567		 305.27265			43387.38302		65.00400		324.00000 
 43692.65567		 583.09702			43109.55865		183.22400		875.00000 
 43692.65567		 305.27265			43387.38302		65.00400		324.00000 
 43692.65567		 583.09702			43109.55865		183.22400		875.00000 
 43692.65567		 305.27265			43387.38302		65.00400		324.00000 
 43692.65567		 583.09702			43109.55865		183.22400		875.00000 
 43692.65567		 305.27265			43387.38302		65.00400		324.00000 
 43692.65567		 583.09702			43109.55865		183.22400		875.00000 
 43692.65567		 305.27265			43387.38302		65.00400		324.00000 
 43692.65567		 583.09702			43109.55865		183.22400		875.00000 
 43692.65567		 305.27265			43387.38302		65.00400		324.00000 
 43692.65567		 583.09702			43109.55865		183.22400		875.00000 
 43692.65567		 305.27265			43387.38302		65.00400		324.00000 
 43692.65567		 583.09702			43109.55865		183.22400		875.00000 
 43692.65567		 305.27265			43387.38302		65.00400		324.00000 
 43692.65567		 583.09702			43109.55865		183.22400		875.00000 
 43692.65567		 305.27265			43387.38302		65.00400		324.00000 
 43692.65567		 583.09702			43109.55865		183.22400		875.00000 
 43692.65567		 305.27265			43387.38302		65.00400		324.00000 
 43692.65567		 583.09702			43109.55865		183.22400		875.00000 
 43692.65567		 305.27265			43387.38302		65.00400		324.00000 
 43692.65567		 583.09702			43109.55865		183.22400		875.00000 
 43692.65567		 305.27265			43387.38302		65.00400		324.00000 
 43692.65567		 583.09702			43109.55865		183.22400		875.00000 
 43692.65567		 305.27265			43387.38302		65.00400		324.00000 
 43692.65567		 583.09702			43109.55865		183.22400		875.00000 
 43692.65567		 305.27265			43387.38302		65.00400		324.00000 
 43692.65567		 583.09702			43109.55865		183.22400		875.00000 
 43692.65567		 305.27265			43387.38302		65.00400		324.00000 
 43692.65567		 583.09702			43109.55865		183.22400		875.00000 
 43692.65567		 305.27265			43387.38302		65.00400		324.00000 
 43692.65567		 583.09702			43109.55865		183.22400		875.00000 
 43692.65567		 305.27265			43387.38302		65.00400		324.00000 
 43692.65567		 583.09702			43109.55865		183.22400		875.00000 
 43692.65567		 305.27265			43387.38302		65.00400		324.00000 
 43692.65567		 583.09702			43109.55865		183.22400		875.00000 
 43692.65567		 305.27265			43387.38302		65.00400		324.00000 
 43692.65567		 583.09702			43109.55865		183.22400		875.00000 
 43692.65567		 305.27265			43387.38302		65.00400		324.00000 
 43692.65567		 583.09702			43109.55865		183.22400		875.00000 
 43692.65567		 305.27265			43387.38302		65.00400		324.00000 
 43692.65567		 583.09702			43109.55865		183.22400		875.00000 
 43692.65567		 305.27265			43387.38302		65.00400		324.00000 
 43692.65567		 583.09702			43109.55865		183.22400		875.00000 
 43692.65567		 305.27265			43387.38302		65.00400		324.00000 
 43692.65567		 583.09702			43109.55865		183.22400		875.00000 
 43692.65567		 305.27265			43387.38302		65.00400		324.00000 
 43692.65567		 583.09702			43109.55865		183.22400		875.00000 
 43692.65567		 305.27265			43387.38302		65.00400		324.00000 
 43692.65567		 583.09702			43109.55865		183.22400		875.00000 
 43692.65567		 305.27265			43387.38302		65.00400		324.00000 
 43692.65567		 583.09702			43109.55865		183.22400		875.00000 
 43692.65567		 305.27265			43387.38302		65.00400		324.00000 
 43692.65567		 583.09702			43109.55865		183.22400		875.00000 
 43692.65567		 305.27265			43387.38302		65.00400		324.00000 
 43692.65567		 583.09702			43109.55865		183.22400		875.00000 
 43692.65567		 305.27265			43387.38302		65.00400		324.00000 
 43692.65567		 583.09702			43109.55865		183.22400		875.00000 
 43692.65567		 305.27265			43387.38302		65.00400		324.00000 
 43692.65567		 583.09702			43109.55865		183.22400		875.00000 
 43692.65567		 305.27265			43387.38302		65.00400		324.00000 
 43692.65567		 583.09702			43109.55865		202.33000		875.00000 
 43692.65567		 305.27265			43387.38302		65.00400		324.00000 
 43692.65567		 583.09702			43109.55865		202.33000		875.00000 
 43692.65567		 305.27265			43387.38302		65.00400		324.00000 
 43692.65567		 583.09702			43109.55865		202.33000		875.00000 
 43692.65567		 305.27265			43387.38302		65.00400		324.00000 
 43692.65567		 583.09702			43109.55865		202.33000		875.00000 
 43692.65567		 305.27265			43387.38302		65.00400		324.00000 
 43692.65567		 583.09702			43109.55865		202.33000		875.00000 
 43692.65567		 305.27265			43387.38302		65.00400		324.00000 
 43692.65567		 583.09702			43109.55865		202.33000		875.00000 
 43692.65567		 305.27265			43387.38302		65.00400		324.00000 
 43692.65567		 583.09702			43109.55865		202.33000		875.00000 
 43692.65567		 305.27265			43387.38302		65.00400		324.00000 
 43692.65567		 583.09702			43109.55865		202.33000		875.00000 
 43692.65567		 305.27265			43387.38302		65.00400		324.00000 
 43692.65567		 583.09702			43109.55865		202.33000		875.00000 
 43692.65567		 305.27265			43387.38302		65.00400		324.00000 
 43692.65567		 583.09702			43109.55865		202.33000		875.00000 
 43692.65567		 305.27265			43387.38302		65.00400		324.00000 
 43692.65567		 583.09702			43109.55865		202.33000		875.00000 
 43692.65567		 305.27265			43387.38302		65.00400		324.00000 
 43692.65567		 583.09702			43109.55865		202.33000		875.00000 
 43692.65567		 305.27265			43387.38302		65.00400		324.00000 
 43692.65567		 583.09702			43109.55865		202.33000		875.00000 
 43692.65567		 305.27265			43387.38302		65.00400		324.00000 
 43692.65567		 583.09702			43109.55865		202.33000		875.00000 
 43692.65567		 305.27265			43387.38302		65.00400		324.00000 
 43692.65567		 583.09702			43109.55865		202.33000		875.00000 
 43692.65567		 305.27265			43387.38302		65.00400		324.00000 
 43692.65567		 583.09702			43109.55865		202.33000		875.00000 
 43692.65567		 305.27265			43387.38302		65.00400		324.00000 
 43692.65567		 583.09702			43109.55865		202.33000		875.00000 
 43692.65567		 305.27265			43387.38302		65.00400		324.00000 
 43692.65567		 583.09702			43109.55865		202.33000		875.00000 
 43692.65567		 305.27265			43387.38302		67.48600		324.00000 
 43692.65567		 583.09702			43109.55865		202.33000		875.00000 
 43692.65567		 305.27265			43387.38302		67.48600		324.00000 
 43692.65567		 583.09702			43109.55865		202.33000		875.00000 
 43692.65567		 305.27265			43387.38302		67.48600		324.00000 
 43692.65567		 583.09702			43109.55865		202.33000		875.00000 
 43692.65567		 305.27265			43387.38302		67.48600		324.00000 
 43692.65567		 583.09702			43109.55865		202.33000		875.00000 
 43692.65567		 305.27265			43387.38302		67.48600		324.00000 
 43692.65567		 583.09702			43109.55865		202.33000		875.00000 
 43692.65567		 305.27265			43387.38302		67.48600		324.00000 
 43692.65567		 583.09702			43109.55865		202.33000		875.00000 
 43692.65567		 305.27265			43387.38302		67.48600		324.00000 
 43692.65567		 583.09702			43109.55865		202.33000		875.00000 
 43692.65567		 305.27265			43387.38302		67.48600		324.00000 
 43692.65567		 583.09702			43109.55865		202.33000		875.00000 
 43692.65567		 305.27265			43387.38302		67.48600		324.00000 
 43692.65567		 583.09702			43109.55865		202.33000		875.00000 
 43692.65567		 305.27265			43387.38302		67.48600		324.00000 
 43692.65567		 583.09702			43109.55865		202.33000		875.00000 
 43692.65567		 305.27265			43387.38302		67.48600		324.00000 
 43692.65567		 583.09702			43109.55865		202.33000		875.00000 
 43692.65567		 305.27265			43387.38302		67.48600		324.00000 
 43692.65567		 583.09702			43109.55865		202.33000		875.00000 
 43692.65567		 305.27265			43387.38302		67.48600		324.00000 
 43692.65567		 583.09702			43109.55865		202.33000		875.00000 
 43692.65567		 305.27265			43387.38302		67.48600		324.00000 
 43692.65567		 583.09702			43109.55865		202.33000		875.00000 
 43692.65567		 305.27265			43387.38302		67.48600		324.00000 
 43692.65567		 583.09702			43109.55865		202.33000		875.00000 
 43692.65567		 305.27265			43387.38302		67.48600		324.00000 
 43692.65567		 583.09702			43109.55865		202.33000		875.00000 
 43692.65567		 305.27265			43387.38302		67.48600		324.00000 
 43692.65567		 583.09702			43109.55865		202.33000		875.00000 
 43692.65567		 305.27265			43387.38302		67.48600		324.00000 
 43692.65567		 583.09702			43109.55865		202.33000		875.00000 
 43692.65567		 305.27265			43387.38302		67.48600		324.00000 
 43692.65567		 583.09702			43109.55865		202.33000		875.00000 
 43692.65567		 305.27265			43387.38302		67.48600		324.00000 
 43692.65567		 583.09702			43109.55865		202.33000		875.00000 
 43692.65567		 305.27265			43387.38302		67.48600		324.00000 
 43692.65567		 583.09702			43109.55865		202.33000		875.00000 
 43692.65567		 305.27265			43387.38302		67.48600		324.00000 
 43692.65567		 583.09702			43109.55865		202.33000		875.00000 
 43692.65567		 305.27265			43387.38302		67.48600		324.00000 
 43692.65567		 583.09702			43109.55865		202.33000		875.00000 
 43692.65567		 305.27265			43387.38302		67.48600		324.00000 
 43692.65567		 583.09702			43109.55865		202.33000		875.00000 
 43692.65567		 305.27265			43387.38302		67.48600		324.00000 
 43692.65567		 583.09702			43109.55865		202.33000		875.00000 
 43692.65567		 305.27265			43387.38302		67.48600		324.00000 
 43692.65567		 567.82146			43124.83422		202.33000		875.00000 
 43692.65567		 305.27265			43387.38302		67.48600		324.00000 
 43692.65567		 537.27032			43155.38535		202.33000		875.00000 
 43692.65567		 305.27265			43387.38302		67.48600		324.00000 
 43692.65567		 537.27032			43155.38535		202.33000		875.00000 
 43692.65567		 305.27265			43387.38302		67.48600		324.00000 
 43692.65567		 537.27032			43155.38535		202.33000		875.00000 
 43692.65567		 305.27265			43387.38302		67.48600		324.00000 
 43692.65567		 537.27032			43155.38535		202.33000		875.00000 
 43692.65567		 305.27265			43387.38302		67.48600		324.00000 
 43692.65567		 537.27032			43155.38535		202.33000		875.00000 
 43692.65567		 305.27265			43387.38302		67.48600		324.00000 
 43692.65567		 537.27032			43155.38535		202.33000		875.00000 
 43692.65567		 305.27265			43387.38302		67.48600		324.00000 
 43692.65567		 537.27032			43155.38535		202.33000		875.00000 
 43692.65567		 305.27265			43387.38302		67.48600		324.00000 
 43692.65567		 537.27032			43155.38535		202.33000		875.00000 
 43692.65567		 305.27265			43387.38302		67.48600		324.00000 
 43692.65567		 537.27032			43155.38535		202.33000		875.00000 
 43692.65567		 305.27265			43387.38302		67.48600		324.00000 
 43692.65567		 537.27032			43155.38535		202.33000		875.00000 
 43692.65567		 305.27265			43387.38302		67.48600		324.00000 
 43692.65567		 537.27032			43155.38535		192.89200		875.00000 
 43692.65567		 305.27265			43387.38302		67.48600		324.00000 
 43692.65567		 537.27032			43155.38535		192.89200		875.00000 
 43692.65567		 305.27265			43387.38302		67.48600		324.00000 
 43692.65567		 537.27032			43155.38535		192.89200		875.00000 
 43692.65567		 305.27265			43387.38302		67.48600		324.00000 
 43692.65567		 537.27032			43155.38535		192.89200		875.00000 
 43692.65567		 305.27265			43387.38302		67.48600		324.00000 
 43692.65567		 537.27032			43155.38535		192.89200		875.00000 
 43692.65567		 305.27265			43387.38302		67.48600		324.00000 
 43692.65567		 537.27032			43155.38535		192.89200		875.00000 
 43692.65567		 305.27265			43387.38302		67.48600		324.00000 
 43692.65567		 537.27032			43155.38535		192.89200		875.00000 
 43692.65567		 305.27265			43387.38302		67.48600		324.00000 
 43692.65567		 537.27032			43155.38535		192.89200		875.00000 
 43692.65567		 305.27265			43387.38302		67.48600		324.00000 
 43692.65567		 537.27032			43155.38535		192.89200		875.00000 
 43692.65567		 305.27265			43387.38302		67.48600		324.00000 
 43692.65567		 529.63254			43163.02313		192.89200		875.00000 
 43692.65567		 305.27265			43387.38302		67.48600		324.00000 
 43692.65567		 525.81365			43166.84203		192.89200		875.00000 
 43692.65567		 305.27265			43387.38302		67.48600		324.00000 
 43692.65567		 525.81365			43166.84203		192.89200		875.00000 
 43692.65567		 261.35540			43431.30027		67.48600		324.00000 
 43692.65567		 261.35540			43431.30027		192.89200		875.00000 
 43692.65567		 261.35540			43431.30027		67.48600		324.00000 
