Memory Total (MiB) 	 Memory Used (MiB) 	    Memory Free (MiB) 	 Power Drawed (W) 	 Clocks (Mhz) 	 
 43692.65567		 261.35540			43431.30027		216.90200		875.00000 
 43692.65567		 261.35540			43431.30027		68.70800		324.00000 
 43692.65567		 261.35540			43431.30027		216.90200		875.00000 
 43692.65567		 261.35540			43431.30027		68.70800		324.00000 
 43692.65567		 261.35540			43431.30027		163.98000		875.00000 
 43692.65567		 261.35540			43431.30027		68.70800		324.00000 
 43692.65567		 261.35540			43431.30027		163.98000		875.00000 
 43692.65567		 261.35540			43431.30027		68.70800		324.00000 
 43692.65567		 261.35540			43431.30027		163.98000		875.00000 
 43692.65567		 261.35540			43431.30027		68.70800		324.00000 
 43692.65567		 261.35540			43431.30027		163.98000		875.00000 
 43692.65567		 261.35540			43431.30027		68.70800		324.00000 
 43692.65567		 261.35540			43431.30027		163.98000		875.00000 
 43692.65567		 261.35540			43431.30027		68.70800		324.00000 
 43692.65567		 261.35540			43431.30027		163.98000		875.00000 
 43692.65567		 261.35540			43431.30027		68.70800		324.00000 
 43692.65567		 261.35540			43431.30027		163.98000		875.00000 
 43692.65567		 261.35540			43431.30027		68.70800		324.00000 
 43692.65567		 261.35540			43431.30027		163.98000		875.00000 
 43692.65567		 261.35540			43431.30027		68.70800		324.00000 
 43692.65567		 261.35540			43431.30027		163.98000		875.00000 
 43692.65567		 261.35540			43431.30027		68.70800		324.00000 
 43692.65567		 261.35540			43431.30027		163.98000		875.00000 
 43692.65567		 261.35540			43431.30027		68.70800		324.00000 
 43692.65567		 261.35540			43431.30027		163.98000		875.00000 
 43692.65567		 261.35540			43431.30027		68.70800		324.00000 
 43692.65567		 261.35540			43431.30027		163.98000		875.00000 
 43692.65567		 261.35540			43431.30027		68.70800		324.00000 
 43692.65567		 261.35540			43431.30027		163.98000		875.00000 
 43692.65567		 261.35540			43431.30027		68.70800		324.00000 
 43692.65567		 261.35540			43431.30027		163.98000		875.00000 
 43692.65567		 261.35540			43431.30027		68.70800		324.00000 
 43692.65567		 261.35540			43431.30027		163.98000		875.00000 
 43692.65567		 261.35540			43431.30027		68.70800		324.00000 
 43692.65567		 265.17429			43427.48138		163.98000		875.00000 
 43692.65567		 261.35540			43431.30027		68.70800		324.00000 
 43692.65567		 265.17429			43427.48138		163.98000		875.00000 
 43692.65567		 261.35540			43431.30027		68.70800		324.00000 
 43692.65567		 272.81207			43419.84360		163.98000		875.00000 
 43692.65567		 261.35540			43431.30027		68.70800		324.00000 
 43692.65567		 272.81207			43419.84360		163.98000		875.00000 
 43692.65567		 261.35540			43431.30027		68.70800		324.00000 
 43692.65567		 272.81207			43419.84360		163.98000		875.00000 
 43692.65567		 265.17429			43427.48138		68.70800		324.00000 
 43692.65567		 272.81207			43419.84360		163.98000		875.00000 
 43692.65567		 265.17429			43427.48138		68.70800		324.00000 
 43692.65567		 272.81207			43419.84360		163.98000		875.00000 
 43692.65567		 272.81207			43419.84360		68.70800		324.00000 
 43692.65567		 272.81207			43419.84360		163.98000		875.00000 
 43692.65567		 272.81207			43419.84360		68.70800		324.00000 
 43692.65567		 272.81207			43419.84360		163.98000		875.00000 
 43692.65567		 272.81207			43419.84360		68.70800		324.00000 
 43692.65567		 305.27265			43387.38302		163.98000		875.00000 
 43692.65567		 305.27265			43387.38302		68.70800		324.00000 
 43692.65567		 305.27265			43387.38302		163.98000		875.00000 
 43692.65567		 305.27265			43387.38302		68.70800		324.00000 
 43692.65567		 305.27265			43387.38302		163.98000		875.00000 
 43692.65567		 305.27265			43387.38302		68.70800		324.00000 
 43692.65567		 305.27265			43387.38302		163.98000		875.00000 
 43692.65567		 305.27265			43387.38302		68.70800		324.00000 
 43692.65567		 305.27265			43387.38302		163.98000		875.00000 
 43692.65567		 305.27265			43387.38302		68.70800		324.00000 
 43692.65567		 309.09154			43383.56413		163.98000		875.00000 
 43692.65567		 305.27265			43387.38302		68.70800		324.00000 
 43692.65567		 310.52363			43382.13204		163.98000		875.00000 
 43692.65567		 305.27265			43387.38302		68.70800		324.00000 
 43692.65567		 311.00099			43381.65468		163.98000		875.00000 
 43692.65567		 305.27265			43387.38302		68.70800		324.00000 
 43692.65567		 311.00099			43381.65468		163.98000		875.00000 
 43692.65567		 305.27265			43387.38302		68.70800		324.00000 
 43692.65567		 311.00099			43381.65468		163.98000		875.00000 
 43692.65567		 305.27265			43387.38302		68.70800		324.00000 
 43692.65567		 311.00099			43381.65468		163.98000		875.00000 
 43692.65567		 305.27265			43387.38302		68.70800		324.00000 
 43692.65567		 311.00099			43381.65468		143.54600		875.00000 
 43692.65567		 305.27265			43387.38302		68.70800		324.00000 
 43692.65567		 311.00099			43381.65468		143.54600		875.00000 
 43692.65567		 305.27265			43387.38302		68.70800		324.00000 
 43692.65567		 311.00099			43381.65468		143.54600		875.00000 
 43692.65567		 305.27265			43387.38302		68.70800		324.00000 
 43692.65567		 311.00099			43381.65468		143.54600		875.00000 
 43692.65567		 305.27265			43387.38302		68.70800		324.00000 
 43692.65567		 311.00099			43381.65468		143.54600		875.00000 
 43692.65567		 305.27265			43387.38302		68.70800		324.00000 
 43692.65567		 311.00099			43381.65468		143.54600		875.00000 
 43692.65567		 305.27265			43387.38302		68.70800		324.00000 
 43692.65567		 311.00099			43381.65468		143.54600		875.00000 
 43692.65567		 305.27265			43387.38302		68.70800		324.00000 
 43692.65567		 311.00099			43381.65468		143.54600		875.00000 
 43692.65567		 305.27265			43387.38302		68.70800		324.00000 
 43692.65567		 311.00099			43381.65468		143.54600		875.00000 
 43692.65567		 305.27265			43387.38302		68.70800		324.00000 
 43692.65567		 311.00099			43381.65468		143.54600		875.00000 
 43692.65567		 305.27265			43387.38302		68.70800		324.00000 
 43692.65567		 311.00099			43381.65468		143.54600		875.00000 
 43692.65567		 305.27265			43387.38302		68.70800		324.00000 
 43692.65567		 311.00099			43381.65468		143.54600		875.00000 
 43692.65567		 305.27265			43387.38302		68.70800		324.00000 
 43692.65567		 311.00099			43381.65468		143.54600		875.00000 
 43692.65567		 305.27265			43387.38302		68.70800		324.00000 
 43692.65567		 311.00099			43381.65468		143.54600		875.00000 
 43692.65567		 305.27265			43387.38302		68.70800		324.00000 
 43692.65567		 311.00099			43381.65468		143.54600		875.00000 
 43692.65567		 305.27265			43387.38302		68.70800		324.00000 
 43692.65567		 311.00099			43381.65468		143.54600		875.00000 
 43692.65567		 305.27265			43387.38302		68.70800		324.00000 
 43692.65567		 311.00099			43381.65468		143.54600		875.00000 
 43692.65567		 305.27265			43387.38302		68.70800		324.00000 
 43692.65567		 311.00099			43381.65468		143.54600		875.00000 
 43692.65567		 305.27265			43387.38302		68.70800		324.00000 
 43692.65567		 311.00099			43381.65468		143.54600		875.00000 
 43692.65567		 305.27265			43387.38302		68.70800		324.00000 
 43692.65567		 311.00099			43381.65468		143.54600		875.00000 
 43692.65567		 305.27265			43387.38302		68.70800		324.00000 
 43692.65567		 311.00099			43381.65468		143.54600		875.00000 
 43692.65567		 305.27265			43387.38302		68.70800		324.00000 
 43692.65567		 311.00099			43381.65468		143.54600		875.00000 
 43692.65567		 305.27265			43387.38302		68.70800		324.00000 
 43692.65567		 311.00099			43381.65468		143.54600		875.00000 
 43692.65567		 305.27265			43387.38302		68.70800		324.00000 
 43692.65567		 311.00099			43381.65468		143.54600		875.00000 
 43692.65567		 305.27265			43387.38302		68.70800		324.00000 
 43692.65567		 311.00099			43381.65468		143.54600		875.00000 
 43692.65567		 305.27265			43387.38302		68.70800		324.00000 
 43692.65567		 311.00099			43381.65468		143.54600		875.00000 
 43692.65567		 305.27265			43387.38302		68.70800		324.00000 
 43692.65567		 311.00099			43381.65468		143.54600		875.00000 
 43692.65567		 305.27265			43387.38302		68.70800		324.00000 
 43692.65567		 311.00099			43381.65468		143.54600		875.00000 
 43692.65567		 305.27265			43387.38302		68.70800		324.00000 
 43692.65567		 311.00099			43381.65468		143.54600		875.00000 
 43692.65567		 305.27265			43387.38302		68.70800		324.00000 
 43692.65567		 311.00099			43381.65468		143.54600		875.00000 
 43692.65567		 305.27265			43387.38302		68.70800		324.00000 
 43692.65567		 311.00099			43381.65468		143.54600		875.00000 
 43692.65567		 305.27265			43387.38302		68.70800		324.00000 
 43692.65567		 311.00099			43381.65468		135.34600		875.00000 
 43692.65567		 305.27265			43387.38302		68.70800		324.00000 
 43692.65567		 311.00099			43381.65468		135.34600		875.00000 
 43692.65567		 305.27265			43387.38302		68.70800		324.00000 
 43692.65567		 311.00099			43381.65468		135.34600		875.00000 
 43692.65567		 305.27265			43387.38302		68.70800		324.00000 
 43692.65567		 311.00099			43381.65468		135.34600		875.00000 
 43692.65567		 305.27265			43387.38302		68.70800		324.00000 
 43692.65567		 311.00099			43381.65468		135.34600		875.00000 
 43692.65567		 305.27265			43387.38302		68.70800		324.00000 
 43692.65567		 311.00099			43381.65468		135.34600		875.00000 
 43692.65567		 305.27265			43387.38302		68.70800		324.00000 
 43692.65567		 311.00099			43381.65468		135.34600		875.00000 
 43692.65567		 305.27265			43387.38302		68.70800		324.00000 
 43692.65567		 311.00099			43381.65468		135.34600		875.00000 
 43692.65567		 305.27265			43387.38302		68.70800		324.00000 
 43692.65567		 311.00099			43381.65468		135.34600		875.00000 
 43692.65567		 305.27265			43387.38302		68.70800		324.00000 
 43692.65567		 311.00099			43381.65468		135.34600		875.00000 
 43692.65567		 305.27265			43387.38302		68.70800		324.00000 
 43692.65567		 311.00099			43381.65468		135.34600		875.00000 
 43692.65567		 305.27265			43387.38302		68.70800		324.00000 
 43692.65567		 311.00099			43381.65468		135.34600		875.00000 
 43692.65567		 305.27265			43387.38302		68.70800		324.00000 
 43692.65567		 311.00099			43381.65468		135.34600		875.00000 
 43692.65567		 305.27265			43387.38302		68.70800		324.00000 
 43692.65567		 311.00099			43381.65468		135.34600		875.00000 
 43692.65567		 305.27265			43387.38302		68.70800		324.00000 
 43692.65567		 311.00099			43381.65468		135.34600		875.00000 
 43692.65567		 305.27265			43387.38302		68.70800		324.00000 
 43692.65567		 314.81988			43377.83579		135.34600		875.00000 
 43692.65567		 305.27265			43387.38302		68.70800		324.00000 
 43692.65567		 314.81988			43377.83579		135.34600		875.00000 
 43692.65567		 305.27265			43387.38302		68.70800		324.00000 
 43692.65567		 314.81988			43377.83579		135.34600		875.00000 
 43692.65567		 305.27265			43387.38302		68.70800		324.00000 
 43692.65567		 318.63877			43374.01690		135.34600		875.00000 
 43692.65567		 305.27265			43387.38302		68.70800		324.00000 
 43692.65567		 322.45767			43370.19801		135.34600		875.00000 
 43692.65567		 305.27265			43387.38302		68.70800		324.00000 
 43692.65567		 326.27656			43366.37912		135.34600		875.00000 
 43692.65567		 305.27265			43387.38302		68.70800		324.00000 
 43692.65567		 326.27656			43366.37912		135.34600		875.00000 
 43692.65567		 305.27265			43387.38302		68.70800		324.00000 
 43692.65567		 326.27656			43366.37912		135.34600		875.00000 
 43692.65567		 305.27265			43387.38302		68.70800		324.00000 
 43692.65567		 537.27032			43155.38535		135.34600		875.00000 
 43692.65567		 305.27265			43387.38302		68.70800		324.00000 
 43692.65567		 615.55760			43077.09807		135.34600		875.00000 
 43692.65567		 305.27265			43387.38302		68.70800		324.00000 
 43692.65567		 654.70124			43037.95443		135.34600		875.00000 
 43692.65567		 305.27265			43387.38302		68.70800		324.00000 
 43692.65567		 654.70124			43037.95443		135.34600		875.00000 
 43692.65567		 305.27265			43387.38302		68.70800		324.00000 
 43692.65567		 654.70124			43037.95443		135.34600		875.00000 
 43692.65567		 305.27265			43387.38302		68.70800		324.00000 
 43692.65567		 654.70124			43037.95443		135.34600		875.00000 
 43692.65567		 305.27265			43387.38302		68.70800		324.00000 
 43692.65567		 654.70124			43037.95443		135.34600		875.00000 
 43692.65567		 305.27265			43387.38302		68.70800		324.00000 
 43692.65567		 654.70124			43037.95443		135.34600		875.00000 
 43692.65567		 305.27265			43387.38302		68.70800		324.00000 
 43692.65567		 654.70124			43037.95443		135.34600		875.00000 
 43692.65567		 305.27265			43387.38302		68.70800		324.00000 
 43692.65567		 654.70124			43037.95443		135.34600		875.00000 
 43692.65567		 305.27265			43387.38302		68.70800		324.00000 
 43692.65567		 654.70124			43037.95443		135.34600		875.00000 
 43692.65567		 305.27265			43387.38302		68.70800		324.00000 
 43692.65567		 654.70124			43037.95443		135.34600		875.00000 
 43692.65567		 305.27265			43387.38302		68.70800		324.00000 
 43692.65567		 654.70124			43037.95443		135.34600		875.00000 
 43692.65567		 305.27265			43387.38302		68.70800		324.00000 
 43692.65567		 654.70124			43037.95443		135.34600		875.00000 
 43692.65567		 305.27265			43387.38302		68.70800		324.00000 
 43692.65567		 654.70124			43037.95443		135.34600		875.00000 
 43692.65567		 305.27265			43387.38302		68.70800		324.00000 
 43692.65567		 654.70124			43037.95443		135.34600		875.00000 
 43692.65567		 305.27265			43387.38302		68.70800		324.00000 
 43692.65567		 654.70124			43037.95443		135.34600		875.00000 
 43692.65567		 305.27265			43387.38302		68.70800		324.00000 
 43692.65567		 654.70124			43037.95443		135.34600		875.00000 
 43692.65567		 305.27265			43387.38302		68.70800		324.00000 
 43692.65567		 654.70124			43037.95443		135.34600		875.00000 
 43692.65567		 305.27265			43387.38302		68.70800		324.00000 
 43692.65567		 654.70124			43037.95443		135.34600		875.00000 
 43692.65567		 305.27265			43387.38302		68.70800		324.00000 
 43692.65567		 654.70124			43037.95443		135.34600		875.00000 
 43692.65567		 305.27265			43387.38302		68.70800		324.00000 
 43692.65567		 654.70124			43037.95443		155.98800		875.00000 
 43692.65567		 305.27265			43387.38302		68.70800		324.00000 
 43692.65567		 654.70124			43037.95443		155.98800		875.00000 
 43692.65567		 305.27265			43387.38302		68.70800		324.00000 
 43692.65567		 654.70124			43037.95443		155.98800		875.00000 
 43692.65567		 305.27265			43387.38302		68.70800		324.00000 
 43692.65567		 654.70124			43037.95443		155.98800		875.00000 
 43692.65567		 305.27265			43387.38302		68.70800		324.00000 
 43692.65567		 654.70124			43037.95443		155.98800		875.00000 
 43692.65567		 305.27265			43387.38302		68.70800		324.00000 
 43692.65567		 654.70124			43037.95443		155.98800		875.00000 
 43692.65567		 305.27265			43387.38302		68.70800		324.00000 
 43692.65567		 654.70124			43037.95443		155.98800		875.00000 
 43692.65567		 305.27265			43387.38302		68.70800		324.00000 
 43692.65567		 654.70124			43037.95443		155.98800		875.00000 
 43692.65567		 305.27265			43387.38302		68.70800		324.00000 
 43692.65567		 654.70124			43037.95443		155.98800		875.00000 
 43692.65567		 305.27265			43387.38302		68.70800		324.00000 
 43692.65567		 654.70124			43037.95443		155.98800		875.00000 
 43692.65567		 305.27265			43387.38302		68.70800		324.00000 
 43692.65567		 654.70124			43037.95443		155.98800		875.00000 
 43692.65567		 305.27265			43387.38302		68.70800		324.00000 
 43692.65567		 654.70124			43037.95443		155.98800		875.00000 
 43692.65567		 305.27265			43387.38302		68.70800		324.00000 
 43692.65567		 654.70124			43037.95443		155.98800		875.00000 
 43692.65567		 305.27265			43387.38302		68.70800		324.00000 
 43692.65567		 654.70124			43037.95443		155.98800		875.00000 
 43692.65567		 305.27265			43387.38302		68.70800		324.00000 
 43692.65567		 654.70124			43037.95443		155.98800		875.00000 
 43692.65567		 305.27265			43387.38302		68.70800		324.00000 
 43692.65567		 654.70124			43037.95443		155.98800		875.00000 
 43692.65567		 305.27265			43387.38302		68.70800		324.00000 
 43692.65567		 654.70124			43037.95443		155.98800		875.00000 
 43692.65567		 305.27265			43387.38302		68.70800		324.00000 
 43692.65567		 654.70124			43037.95443		155.98800		875.00000 
 43692.65567		 305.27265			43387.38302		68.70800		324.00000 
 43692.65567		 654.70124			43037.95443		155.98800		875.00000 
 43692.65567		 305.27265			43387.38302		68.70800		324.00000 
 43692.65567		 654.70124			43037.95443		155.98800		875.00000 
 43692.65567		 305.27265			43387.38302		68.70800		324.00000 
 43692.65567		 654.70124			43037.95443		155.98800		875.00000 
 43692.65567		 305.27265			43387.38302		68.70800		324.00000 
 43692.65567		 654.70124			43037.95443		155.98800		875.00000 
 43692.65567		 305.27265			43387.38302		68.70800		324.00000 
 43692.65567		 654.70124			43037.95443		155.98800		875.00000 
 43692.65567		 305.27265			43387.38302		68.70800		324.00000 
 43692.65567		 654.70124			43037.95443		155.98800		875.00000 
 43692.65567		 305.27265			43387.38302		68.70800		324.00000 
 43692.65567		 654.70124			43037.95443		155.98800		875.00000 
 43692.65567		 305.27265			43387.38302		68.70800		324.00000 
 43692.65567		 654.70124			43037.95443		155.98800		875.00000 
 43692.65567		 305.27265			43387.38302		68.70800		324.00000 
 43692.65567		 654.70124			43037.95443		155.98800		875.00000 
 43692.65567		 305.27265			43387.38302		68.70800		324.00000 
 43692.65567		 654.70124			43037.95443		155.98800		875.00000 
 43692.65567		 305.27265			43387.38302		68.70800		324.00000 
 43692.65567		 654.70124			43037.95443		155.98800		875.00000 
 43692.65567		 305.27265			43387.38302		68.70800		324.00000 
 43692.65567		 654.70124			43037.95443		155.98800		875.00000 
 43692.65567		 305.27265			43387.38302		68.70800		324.00000 
 43692.65567		 654.70124			43037.95443		155.98800		875.00000 
 43692.65567		 305.27265			43387.38302		68.70800		324.00000 
 43692.65567		 654.70124			43037.95443		155.98800		875.00000 
 43692.65567		 305.27265			43387.38302		68.70800		324.00000 
 43692.65567		 654.70124			43037.95443		155.98800		875.00000 
 43692.65567		 305.27265			43387.38302		68.70800		324.00000 
 43692.65567		 654.70124			43037.95443		155.98800		875.00000 
 43692.65567		 305.27265			43387.38302		68.70800		324.00000 
 43692.65567		 654.70124			43037.95443		155.98800		875.00000 
 43692.65567		 305.27265			43387.38302		68.70800		324.00000 
 43692.65567		 654.70124			43037.95443		155.98800		875.00000 
 43692.65567		 305.27265			43387.38302		68.70800		324.00000 
 43692.65567		 654.70124			43037.95443		155.98800		875.00000 
 43692.65567		 305.27265			43387.38302		68.70800		324.00000 
 43692.65567		 654.70124			43037.95443		155.98800		875.00000 
 43692.65567		 305.27265			43387.38302		68.70800		324.00000 
 43692.65567		 654.70124			43037.95443		155.98800		875.00000 
 43692.65567		 305.27265			43387.38302		68.70800		324.00000 
 43692.65567		 654.70124			43037.95443		155.98800		875.00000 
 43692.65567		 305.27265			43387.38302		68.70800		324.00000 
 43692.65567		 654.70124			43037.95443		155.98800		875.00000 
 43692.65567		 305.27265			43387.38302		68.70800		324.00000 
 43692.65567		 654.70124			43037.95443		155.98800		875.00000 
 43692.65567		 305.27265			43387.38302		68.70800		324.00000 
 43692.65567		 654.70124			43037.95443		155.98800		875.00000 
 43692.65567		 305.27265			43387.38302		68.70800		324.00000 
 43692.65567		 654.70124			43037.95443		155.98800		875.00000 
 43692.65567		 305.27265			43387.38302		68.70800		324.00000 
 43692.65567		 654.70124			43037.95443		155.98800		875.00000 
 43692.65567		 305.27265			43387.38302		68.70800		324.00000 
 43692.65567		 654.70124			43037.95443		155.98800		875.00000 
 43692.65567		 305.27265			43387.38302		68.70800		324.00000 
 43692.65567		 654.70124			43037.95443		155.98800		875.00000 
 43692.65567		 305.27265			43387.38302		68.70800		324.00000 
 43692.65567		 654.70124			43037.95443		155.98800		875.00000 
 43692.65567		 305.27265			43387.38302		68.70800		324.00000 
 43692.65567		 654.70124			43037.95443		155.98800		875.00000 
 43692.65567		 305.27265			43387.38302		68.70800		324.00000 
 43692.65567		 654.70124			43037.95443		155.98800		875.00000 
 43692.65567		 305.27265			43387.38302		68.70800		324.00000 
 43692.65567		 654.70124			43037.95443		155.98800		875.00000 
 43692.65567		 305.27265			43387.38302		68.70800		324.00000 
 43692.65567		 654.70124			43037.95443		155.98800		875.00000 
 43692.65567		 305.27265			43387.38302		68.70800		324.00000 
 43692.65567		 654.70124			43037.95443		155.98800		875.00000 
 43692.65567		 305.27265			43387.38302		68.70800		324.00000 
 43692.65567		 654.70124			43037.95443		155.98800		875.00000 
 43692.65567		 305.27265			43387.38302		68.70800		324.00000 
 43692.65567		 654.70124			43037.95443		155.98800		875.00000 
 43692.65567		 305.27265			43387.38302		68.70800		324.00000 
 43692.65567		 654.70124			43037.95443		155.98800		875.00000 
 43692.65567		 305.27265			43387.38302		68.70800		324.00000 
 43692.65567		 654.70124			43037.95443		155.98800		875.00000 
 43692.65567		 305.27265			43387.38302		68.70800		324.00000 
 43692.65567		 654.70124			43037.95443		155.98800		875.00000 
 43692.65567		 305.27265			43387.38302		68.70800		324.00000 
 43692.65567		 654.70124			43037.95443		155.98800		875.00000 
 43692.65567		 305.27265			43387.38302		68.70800		324.00000 
 43692.65567		 654.70124			43037.95443		155.98800		875.00000 
 43692.65567		 305.27265			43387.38302		68.70800		324.00000 
 43692.65567		 654.70124			43037.95443		155.98800		875.00000 
 43692.65567		 305.27265			43387.38302		68.70800		324.00000 
 43692.65567		 654.70124			43037.95443		155.98800		875.00000 
 43692.65567		 305.27265			43387.38302		68.70800		324.00000 
 43692.65567		 654.70124			43037.95443		155.98800		875.00000 
 43692.65567		 305.27265			43387.38302		68.70800		324.00000 
 43692.65567		 654.70124			43037.95443		155.98800		875.00000 
 43692.65567		 305.27265			43387.38302		68.70800		324.00000 
 43692.65567		 654.70124			43037.95443		194.40200		875.00000 
 43692.65567		 305.27265			43387.38302		68.70800		324.00000 
 43692.65567		 654.70124			43037.95443		194.40200		875.00000 
 43692.65567		 305.27265			43387.38302		68.70800		324.00000 
 43692.65567		 654.70124			43037.95443		194.40200		875.00000 
 43692.65567		 305.27265			43387.38302		68.70800		324.00000 
 43692.65567		 654.70124			43037.95443		194.40200		875.00000 
 43692.65567		 305.27265			43387.38302		68.70800		324.00000 
 43692.65567		 654.70124			43037.95443		194.40200		875.00000 
 43692.65567		 305.27265			43387.38302		68.70800		324.00000 
 43692.65567		 654.70124			43037.95443		194.40200		875.00000 
 43692.65567		 305.27265			43387.38302		68.70800		324.00000 
 43692.65567		 654.70124			43037.95443		194.40200		875.00000 
 43692.65567		 305.27265			43387.38302		68.70800		324.00000 
 43692.65567		 654.70124			43037.95443		194.40200		875.00000 
 43692.65567		 305.27265			43387.38302		68.70800		324.00000 
 43692.65567		 654.70124			43037.95443		194.40200		875.00000 
 43692.65567		 305.27265			43387.38302		68.70800		324.00000 
 43692.65567		 654.70124			43037.95443		194.40200		875.00000 
 43692.65567		 305.27265			43387.38302		68.70800		324.00000 
 43692.65567		 654.70124			43037.95443		194.40200		875.00000 
 43692.65567		 305.27265			43387.38302		68.70800		324.00000 
 43692.65567		 654.70124			43037.95443		194.40200		875.00000 
 43692.65567		 305.27265			43387.38302		68.70800		324.00000 
 43692.65567		 654.70124			43037.95443		194.40200		875.00000 
 43692.65567		 305.27265			43387.38302		68.70800		324.00000 
 43692.65567		 654.70124			43037.95443		194.40200		875.00000 
 43692.65567		 305.27265			43387.38302		68.70800		324.00000 
 43692.65567		 654.70124			43037.95443		194.40200		875.00000 
 43692.65567		 305.27265			43387.38302		68.70800		324.00000 
 43692.65567		 654.70124			43037.95443		194.40200		875.00000 
 43692.65567		 305.27265			43387.38302		68.70800		324.00000 
 43692.65567		 654.70124			43037.95443		194.40200		875.00000 
 43692.65567		 305.27265			43387.38302		68.70800		324.00000 
 43692.65567		 654.70124			43037.95443		194.40200		875.00000 
 43692.65567		 305.27265			43387.38302		68.70800		324.00000 
 43692.65567		 654.70124			43037.95443		194.40200		875.00000 
 43692.65567		 305.27265			43387.38302		68.70800		324.00000 
 43692.65567		 654.70124			43037.95443		194.40200		875.00000 
 43692.65567		 305.27265			43387.38302		68.70800		324.00000 
 43692.65567		 654.70124			43037.95443		194.40200		875.00000 
 43692.65567		 305.27265			43387.38302		68.70800		324.00000 
 43692.65567		 654.70124			43037.95443		194.40200		875.00000 
 43692.65567		 305.27265			43387.38302		68.70800		324.00000 
 43692.65567		 654.70124			43037.95443		194.40200		875.00000 
 43692.65567		 305.27265			43387.38302		68.70800		324.00000 
 43692.65567		 654.70124			43037.95443		194.40200		875.00000 
 43692.65567		 305.27265			43387.38302		68.70800		324.00000 
 43692.65567		 654.70124			43037.95443		194.40200		875.00000 
 43692.65567		 305.27265			43387.38302		68.70800		324.00000 
 43692.65567		 654.70124			43037.95443		194.40200		875.00000 
 43692.65567		 305.27265			43387.38302		68.70800		324.00000 
 43692.65567		 654.70124			43037.95443		194.40200		875.00000 
 43692.65567		 305.27265			43387.38302		68.70800		324.00000 
 43692.65567		 654.70124			43037.95443		194.40200		875.00000 
 43692.65567		 305.27265			43387.38302		68.70800		324.00000 
 43692.65567		 654.70124			43037.95443		194.40200		875.00000 
 43692.65567		 305.27265			43387.38302		68.70800		324.00000 
 43692.65567		 654.70124			43037.95443		194.40200		875.00000 
 43692.65567		 305.27265			43387.38302		68.70800		324.00000 
 43692.65567		 654.70124			43037.95443		194.40200		875.00000 
 43692.65567		 305.27265			43387.38302		68.70800		324.00000 
 43692.65567		 654.70124			43037.95443		194.40200		875.00000 
 43692.65567		 305.27265			43387.38302		68.70800		324.00000 
 43692.65567		 654.70124			43037.95443		194.40200		875.00000 
 43692.65567		 305.27265			43387.38302		68.70800		324.00000 
 43692.65567		 654.70124			43037.95443		194.40200		875.00000 
 43692.65567		 305.27265			43387.38302		68.70800		324.00000 
 43692.65567		 654.70124			43037.95443		194.40200		875.00000 
 43692.65567		 305.27265			43387.38302		68.70800		324.00000 
 43692.65567		 654.70124			43037.95443		194.40200		875.00000 
 43692.65567		 305.27265			43387.38302		68.70800		324.00000 
 43692.65567		 654.70124			43037.95443		194.40200		875.00000 
 43692.65567		 305.27265			43387.38302		68.70800		324.00000 
 43692.65567		 654.70124			43037.95443		194.40200		875.00000 
 43692.65567		 305.27265			43387.38302		68.70800		324.00000 
 43692.65567		 654.70124			43037.95443		194.40200		875.00000 
 43692.65567		 305.27265			43387.38302		68.70800		324.00000 
 43692.65567		 654.70124			43037.95443		194.40200		875.00000 
 43692.65567		 305.27265			43387.38302		68.70800		324.00000 
 43692.65567		 654.70124			43037.95443		194.40200		875.00000 
 43692.65567		 305.27265			43387.38302		68.70800		324.00000 
 43692.65567		 654.70124			43037.95443		194.40200		875.00000 
 43692.65567		 305.27265			43387.38302		68.70800		324.00000 
 43692.65567		 654.70124			43037.95443		194.40200		875.00000 
 43692.65567		 305.27265			43387.38302		68.70800		324.00000 
 43692.65567		 654.70124			43037.95443		194.40200		875.00000 
 43692.65567		 305.27265			43387.38302		68.70800		324.00000 
 43692.65567		 654.70124			43037.95443		194.40200		875.00000 
 43692.65567		 305.27265			43387.38302		68.70800		324.00000 
 43692.65567		 654.70124			43037.95443		194.40200		875.00000 
 43692.65567		 305.27265			43387.38302		68.70800		324.00000 
 43692.65567		 654.70124			43037.95443		194.40200		875.00000 
 43692.65567		 305.27265			43387.38302		68.70800		324.00000 
 43692.65567		 654.70124			43037.95443		194.40200		875.00000 
 43692.65567		 305.27265			43387.38302		68.70800		324.00000 
 43692.65567		 654.70124			43037.95443		194.40200		875.00000 
 43692.65567		 305.27265			43387.38302		68.70800		324.00000 
 43692.65567		 654.70124			43037.95443		194.40200		875.00000 
 43692.65567		 305.27265			43387.38302		68.70800		324.00000 
 43692.65567		 654.70124			43037.95443		194.40200		875.00000 
 43692.65567		 305.27265			43387.38302		68.70800		324.00000 
 43692.65567		 654.70124			43037.95443		194.40200		875.00000 
 43692.65567		 305.27265			43387.38302		68.70800		324.00000 
 43692.65567		 654.70124			43037.95443		194.40200		875.00000 
 43692.65567		 305.27265			43387.38302		68.70800		324.00000 
 43692.65567		 654.70124			43037.95443		194.40200		875.00000 
 43692.65567		 305.27265			43387.38302		68.70800		324.00000 
 43692.65567		 654.70124			43037.95443		194.40200		875.00000 
 43692.65567		 305.27265			43387.38302		68.70800		324.00000 
 43692.65567		 654.70124			43037.95443		194.40200		875.00000 
 43692.65567		 305.27265			43387.38302		68.70800		324.00000 
 43692.65567		 654.70124			43037.95443		194.40200		875.00000 
 43692.65567		 305.27265			43387.38302		68.70800		324.00000 
 43692.65567		 654.70124			43037.95443		194.40200		875.00000 
 43692.65567		 305.27265			43387.38302		68.70800		324.00000 
 43692.65567		 654.70124			43037.95443		194.40200		875.00000 
 43692.65567		 305.27265			43387.38302		68.70800		324.00000 
 43692.65567		 654.70124			43037.95443		194.40200		875.00000 
 43692.65567		 305.27265			43387.38302		68.70800		324.00000 
 43692.65567		 654.70124			43037.95443		194.40200		875.00000 
 43692.65567		 305.27265			43387.38302		68.70800		324.00000 
 43692.65567		 654.70124			43037.95443		194.40200		875.00000 
 43692.65567		 305.27265			43387.38302		68.70800		324.00000 
 43692.65567		 654.70124			43037.95443		194.40200		875.00000 
 43692.65567		 305.27265			43387.38302		68.70800		324.00000 
 43692.65567		 654.70124			43037.95443		194.40200		875.00000 
 43692.65567		 305.27265			43387.38302		68.70800		324.00000 
 43692.65567		 654.70124			43037.95443		194.40200		875.00000 
 43692.65567		 305.27265			43387.38302		68.70800		324.00000 
 43692.65567		 654.70124			43037.95443		208.79000		875.00000 
 43692.65567		 305.27265			43387.38302		68.70800		324.00000 
 43692.65567		 654.70124			43037.95443		208.79000		875.00000 
 43692.65567		 305.27265			43387.38302		68.70800		324.00000 
 43692.65567		 654.70124			43037.95443		208.79000		875.00000 
 43692.65567		 305.27265			43387.38302		68.70800		324.00000 
 43692.65567		 654.70124			43037.95443		208.79000		875.00000 
 43692.65567		 305.27265			43387.38302		68.70800		324.00000 
 43692.65567		 654.70124			43037.95443		208.79000		875.00000 
 43692.65567		 305.27265			43387.38302		68.70800		324.00000 
 43692.65567		 654.70124			43037.95443		208.79000		875.00000 
 43692.65567		 305.27265			43387.38302		68.70800		324.00000 
 43692.65567		 654.70124			43037.95443		208.79000		875.00000 
 43692.65567		 305.27265			43387.38302		68.70800		324.00000 
 43692.65567		 654.70124			43037.95443		208.79000		875.00000 
 43692.65567		 305.27265			43387.38302		68.70800		324.00000 
 43692.65567		 654.70124			43037.95443		208.79000		875.00000 
 43692.65567		 305.27265			43387.38302		68.70800		324.00000 
 43692.65567		 654.70124			43037.95443		208.79000		875.00000 
 43692.65567		 305.27265			43387.38302		68.70800		324.00000 
 43692.65567		 654.70124			43037.95443		208.79000		875.00000 
 43692.65567		 305.27265			43387.38302		68.70800		324.00000 
 43692.65567		 654.70124			43037.95443		208.79000		875.00000 
 43692.65567		 305.27265			43387.38302		68.70800		324.00000 
 43692.65567		 654.70124			43037.95443		208.79000		875.00000 
 43692.65567		 305.27265			43387.38302		68.70800		324.00000 
 43692.65567		 654.70124			43037.95443		208.79000		875.00000 
 43692.65567		 305.27265			43387.38302		68.70800		324.00000 
 43692.65567		 654.70124			43037.95443		208.79000		875.00000 
 43692.65567		 305.27265			43387.38302		68.70800		324.00000 
 43692.65567		 654.70124			43037.95443		208.79000		875.00000 
 43692.65567		 305.27265			43387.38302		68.70800		324.00000 
 43692.65567		 654.70124			43037.95443		208.79000		875.00000 
 43692.65567		 305.27265			43387.38302		68.70800		324.00000 
 43692.65567		 654.70124			43037.95443		208.79000		875.00000 
 43692.65567		 305.27265			43387.38302		68.70800		324.00000 
 43692.65567		 654.70124			43037.95443		208.79000		875.00000 
 43692.65567		 305.27265			43387.38302		68.70800		324.00000 
 43692.65567		 654.70124			43037.95443		208.79000		875.00000 
 43692.65567		 305.27265			43387.38302		68.70800		324.00000 
 43692.65567		 654.70124			43037.95443		208.79000		875.00000 
 43692.65567		 305.27265			43387.38302		68.70800		324.00000 
 43692.65567		 654.70124			43037.95443		208.79000		875.00000 
 43692.65567		 305.27265			43387.38302		68.70800		324.00000 
 43692.65567		 654.70124			43037.95443		208.79000		875.00000 
 43692.65567		 305.27265			43387.38302		68.70800		324.00000 
 43692.65567		 654.70124			43037.95443		208.79000		875.00000 
 43692.65567		 305.27265			43387.38302		68.70800		324.00000 
 43692.65567		 654.70124			43037.95443		208.79000		875.00000 
 43692.65567		 305.27265			43387.38302		68.70800		324.00000 
 43692.65567		 654.70124			43037.95443		208.79000		875.00000 
 43692.65567		 305.27265			43387.38302		68.70800		324.00000 
 43692.65567		 654.70124			43037.95443		208.79000		875.00000 
 43692.65567		 305.27265			43387.38302		68.70800		324.00000 
 43692.65567		 654.70124			43037.95443		208.79000		875.00000 
 43692.65567		 305.27265			43387.38302		68.70800		324.00000 
 43692.65567		 654.70124			43037.95443		208.79000		875.00000 
 43692.65567		 305.27265			43387.38302		68.70800		324.00000 
 43692.65567		 654.70124			43037.95443		208.79000		875.00000 
 43692.65567		 305.27265			43387.38302		68.70800		324.00000 
 43692.65567		 654.70124			43037.95443		208.79000		875.00000 
 43692.65567		 305.27265			43387.38302		68.70800		324.00000 
 43692.65567		 654.70124			43037.95443		208.79000		875.00000 
 43692.65567		 305.27265			43387.38302		68.70800		324.00000 
 43692.65567		 654.70124			43037.95443		208.79000		875.00000 
 43692.65567		 305.27265			43387.38302		68.70800		324.00000 
 43692.65567		 654.70124			43037.95443		208.79000		875.00000 
 43692.65567		 305.27265			43387.38302		68.70800		324.00000 
 43692.65567		 654.70124			43037.95443		208.79000		875.00000 
 43692.65567		 305.27265			43387.38302		68.70800		324.00000 
 43692.65567		 654.70124			43037.95443		208.79000		875.00000 
 43692.65567		 305.27265			43387.38302		68.70800		324.00000 
 43692.65567		 654.70124			43037.95443		208.79000		875.00000 
 43692.65567		 305.27265			43387.38302		68.70800		324.00000 
 43692.65567		 654.70124			43037.95443		208.79000		875.00000 
 43692.65567		 305.27265			43387.38302		68.70800		324.00000 
 43692.65567		 654.70124			43037.95443		208.79000		875.00000 
 43692.65567		 305.27265			43387.38302		68.70800		324.00000 
 43692.65567		 654.70124			43037.95443		208.79000		875.00000 
 43692.65567		 305.27265			43387.38302		68.70800		324.00000 
 43692.65567		 654.70124			43037.95443		208.79000		875.00000 
 43692.65567		 305.27265			43387.38302		68.70800		324.00000 
 43692.65567		 654.70124			43037.95443		208.79000		875.00000 
 43692.65567		 305.27265			43387.38302		68.70800		324.00000 
 43692.65567		 654.70124			43037.95443		208.79000		875.00000 
 43692.65567		 305.27265			43387.38302		68.70800		324.00000 
 43692.65567		 654.70124			43037.95443		208.79000		875.00000 
 43692.65567		 305.27265			43387.38302		68.70800		324.00000 
 43692.65567		 654.70124			43037.95443		208.79000		875.00000 
 43692.65567		 305.27265			43387.38302		68.70800		324.00000 
 43692.65567		 654.70124			43037.95443		208.79000		875.00000 
 43692.65567		 305.27265			43387.38302		68.70800		324.00000 
 43692.65567		 654.70124			43037.95443		208.79000		875.00000 
 43692.65567		 305.27265			43387.38302		68.70800		324.00000 
 43692.65567		 654.70124			43037.95443		208.79000		875.00000 
 43692.65567		 305.27265			43387.38302		68.70800		324.00000 
 43692.65567		 654.70124			43037.95443		208.79000		875.00000 
 43692.65567		 305.27265			43387.38302		68.70800		324.00000 
 43692.65567		 654.70124			43037.95443		208.79000		875.00000 
 43692.65567		 305.27265			43387.38302		68.70800		324.00000 
 43692.65567		 654.70124			43037.95443		208.79000		875.00000 
 43692.65567		 305.27265			43387.38302		68.70800		324.00000 
 43692.65567		 654.70124			43037.95443		208.79000		875.00000 
 43692.65567		 305.27265			43387.38302		68.70800		324.00000 
 43692.65567		 654.70124			43037.95443		208.79000		875.00000 
 43692.65567		 305.27265			43387.38302		68.70800		324.00000 
 43692.65567		 654.70124			43037.95443		208.79000		875.00000 
 43692.65567		 305.27265			43387.38302		68.70800		324.00000 
 43692.65567		 654.70124			43037.95443		208.79000		875.00000 
 43692.65567		 305.27265			43387.38302		68.70800		324.00000 
 43692.65567		 654.70124			43037.95443		208.79000		875.00000 
 43692.65567		 305.27265			43387.38302		68.70800		324.00000 
 43692.65567		 654.70124			43037.95443		208.79000		875.00000 
 43692.65567		 305.27265			43387.38302		68.70800		324.00000 
 43692.65567		 654.70124			43037.95443		208.79000		875.00000 
 43692.65567		 305.27265			43387.38302		68.70800		324.00000 
 43692.65567		 654.70124			43037.95443		208.79000		875.00000 
 43692.65567		 305.27265			43387.38302		68.70800		324.00000 
 43692.65567		 654.70124			43037.95443		208.79000		875.00000 
 43692.65567		 305.27265			43387.38302		68.70800		324.00000 
 43692.65567		 654.70124			43037.95443		208.79000		875.00000 
 43692.65567		 305.27265			43387.38302		68.70800		324.00000 
 43692.65567		 654.70124			43037.95443		208.79000		875.00000 
 43692.65567		 305.27265			43387.38302		68.70800		324.00000 
 43692.65567		 654.70124			43037.95443		208.79000		875.00000 
 43692.65567		 305.27265			43387.38302		68.70800		324.00000 
 43692.65567		 654.70124			43037.95443		208.79000		875.00000 
 43692.65567		 305.27265			43387.38302		68.70800		324.00000 
 43692.65567		 654.70124			43037.95443		213.83400		875.00000 
 43692.65567		 305.27265			43387.38302		68.70800		324.00000 
 43692.65567		 654.70124			43037.95443		213.83400		875.00000 
 43692.65567		 305.27265			43387.38302		68.70800		324.00000 
 43692.65567		 654.70124			43037.95443		213.83400		875.00000 
 43692.65567		 305.27265			43387.38302		68.70800		324.00000 
 43692.65567		 654.70124			43037.95443		213.83400		875.00000 
 43692.65567		 305.27265			43387.38302		68.70800		324.00000 
 43692.65567		 654.70124			43037.95443		213.83400		875.00000 
 43692.65567		 305.27265			43387.38302		68.70800		324.00000 
 43692.65567		 654.70124			43037.95443		213.83400		875.00000 
 43692.65567		 305.27265			43387.38302		68.70800		324.00000 
 43692.65567		 654.70124			43037.95443		213.83400		875.00000 
 43692.65567		 305.27265			43387.38302		68.70800		324.00000 
 43692.65567		 654.70124			43037.95443		213.83400		875.00000 
 43692.65567		 305.27265			43387.38302		68.70800		324.00000 
 43692.65567		 654.70124			43037.95443		213.83400		875.00000 
 43692.65567		 305.27265			43387.38302		68.70800		324.00000 
 43692.65567		 654.70124			43037.95443		213.83400		875.00000 
 43692.65567		 305.27265			43387.38302		68.70800		324.00000 
 43692.65567		 654.70124			43037.95443		213.83400		875.00000 
 43692.65567		 305.27265			43387.38302		68.70800		324.00000 
 43692.65567		 654.70124			43037.95443		213.83400		875.00000 
 43692.65567		 305.27265			43387.38302		68.70800		324.00000 
 43692.65567		 654.70124			43037.95443		213.83400		875.00000 
 43692.65567		 305.27265			43387.38302		68.70800		324.00000 
 43692.65567		 654.70124			43037.95443		213.83400		875.00000 
 43692.65567		 305.27265			43387.38302		68.70800		324.00000 
 43692.65567		 654.70124			43037.95443		213.83400		875.00000 
 43692.65567		 305.27265			43387.38302		68.70800		324.00000 
 43692.65567		 654.70124			43037.95443		213.83400		875.00000 
 43692.65567		 305.27265			43387.38302		68.70800		324.00000 
 43692.65567		 654.70124			43037.95443		213.83400		875.00000 
 43692.65567		 305.27265			43387.38302		68.70800		324.00000 
 43692.65567		 654.70124			43037.95443		213.83400		875.00000 
 43692.65567		 305.27265			43387.38302		68.70800		324.00000 
 43692.65567		 654.70124			43037.95443		213.83400		875.00000 
 43692.65567		 305.27265			43387.38302		68.70800		324.00000 
 43692.65567		 654.70124			43037.95443		213.83400		875.00000 
 43692.65567		 305.27265			43387.38302		68.70800		324.00000 
 43692.65567		 654.70124			43037.95443		213.83400		875.00000 
 43692.65567		 305.27265			43387.38302		68.70800		324.00000 
 43692.65567		 654.70124			43037.95443		213.83400		875.00000 
 43692.65567		 305.27265			43387.38302		68.70800		324.00000 
 43692.65567		 654.70124			43037.95443		213.83400		875.00000 
 43692.65567		 305.27265			43387.38302		68.70800		324.00000 
 43692.65567		 654.70124			43037.95443		213.83400		875.00000 
 43692.65567		 305.27265			43387.38302		68.70800		324.00000 
 43692.65567		 654.70124			43037.95443		213.83400		875.00000 
 43692.65567		 305.27265			43387.38302		68.70800		324.00000 
 43692.65567		 654.70124			43037.95443		213.83400		875.00000 
 43692.65567		 305.27265			43387.38302		68.70800		324.00000 
 43692.65567		 654.70124			43037.95443		213.83400		875.00000 
 43692.65567		 305.27265			43387.38302		68.70800		324.00000 
 43692.65567		 654.70124			43037.95443		213.83400		875.00000 
 43692.65567		 305.27265			43387.38302		68.70800		324.00000 
 43692.65567		 654.70124			43037.95443		213.83400		875.00000 
 43692.65567		 305.27265			43387.38302		68.70800		324.00000 
 43692.65567		 654.70124			43037.95443		213.83400		875.00000 
 43692.65567		 305.27265			43387.38302		68.70800		324.00000 
 43692.65567		 654.70124			43037.95443		213.83400		875.00000 
 43692.65567		 305.27265			43387.38302		68.70800		324.00000 
 43692.65567		 654.70124			43037.95443		213.83400		875.00000 
 43692.65567		 305.27265			43387.38302		68.70800		324.00000 
 43692.65567		 654.70124			43037.95443		213.83400		875.00000 
 43692.65567		 305.27265			43387.38302		68.70800		324.00000 
 43692.65567		 654.70124			43037.95443		213.83400		875.00000 
 43692.65567		 305.27265			43387.38302		68.70800		324.00000 
 43692.65567		 654.70124			43037.95443		213.83400		875.00000 
 43692.65567		 305.27265			43387.38302		68.70800		324.00000 
 43692.65567		 654.70124			43037.95443		213.83400		875.00000 
 43692.65567		 305.27265			43387.38302		68.70800		324.00000 
 43692.65567		 654.70124			43037.95443		213.83400		875.00000 
 43692.65567		 305.27265			43387.38302		68.70800		324.00000 
 43692.65567		 654.70124			43037.95443		213.83400		875.00000 
 43692.65567		 305.27265			43387.38302		68.70800		324.00000 
 43692.65567		 654.70124			43037.95443		213.83400		875.00000 
 43692.65567		 305.27265			43387.38302		68.70800		324.00000 
 43692.65567		 654.70124			43037.95443		213.83400		875.00000 
 43692.65567		 305.27265			43387.38302		68.70800		324.00000 
 43692.65567		 654.70124			43037.95443		213.83400		875.00000 
 43692.65567		 305.27265			43387.38302		68.70800		324.00000 
 43692.65567		 654.70124			43037.95443		213.83400		875.00000 
 43692.65567		 305.27265			43387.38302		68.70800		324.00000 
 43692.65567		 654.70124			43037.95443		213.83400		875.00000 
 43692.65567		 305.27265			43387.38302		68.70800		324.00000 
 43692.65567		 654.70124			43037.95443		213.83400		875.00000 
 43692.65567		 305.27265			43387.38302		68.70800		324.00000 
 43692.65567		 654.70124			43037.95443		213.83400		875.00000 
 43692.65567		 305.27265			43387.38302		68.70800		324.00000 
 43692.65567		 654.70124			43037.95443		213.83400		875.00000 
 43692.65567		 305.27265			43387.38302		68.70800		324.00000 
 43692.65567		 654.70124			43037.95443		213.83400		875.00000 
 43692.65567		 305.27265			43387.38302		68.70800		324.00000 
 43692.65567		 654.70124			43037.95443		213.83400		875.00000 
 43692.65567		 305.27265			43387.38302		68.70800		324.00000 
 43692.65567		 654.70124			43037.95443		213.83400		875.00000 
 43692.65567		 305.27265			43387.38302		68.70800		324.00000 
 43692.65567		 654.70124			43037.95443		213.83400		875.00000 
 43692.65567		 305.27265			43387.38302		68.70800		324.00000 
 43692.65567		 654.70124			43037.95443		213.83400		875.00000 
 43692.65567		 305.27265			43387.38302		68.70800		324.00000 
 43692.65567		 654.70124			43037.95443		213.83400		875.00000 
 43692.65567		 305.27265			43387.38302		68.70800		324.00000 
 43692.65567		 654.70124			43037.95443		213.83400		875.00000 
 43692.65567		 305.27265			43387.38302		68.70800		324.00000 
 43692.65567		 654.70124			43037.95443		213.83400		875.00000 
 43692.65567		 305.27265			43387.38302		68.70800		324.00000 
 43692.65567		 654.70124			43037.95443		213.83400		875.00000 
 43692.65567		 305.27265			43387.38302		68.70800		324.00000 
 43692.65567		 654.70124			43037.95443		213.83400		875.00000 
 43692.65567		 305.27265			43387.38302		68.70800		324.00000 
 43692.65567		 654.70124			43037.95443		213.83400		875.00000 
 43692.65567		 305.27265			43387.38302		68.70800		324.00000 
 43692.65567		 654.70124			43037.95443		213.83400		875.00000 
 43692.65567		 305.27265			43387.38302		68.70800		324.00000 
 43692.65567		 654.70124			43037.95443		213.83400		875.00000 
 43692.65567		 305.27265			43387.38302		68.70800		324.00000 
 43692.65567		 654.70124			43037.95443		213.83400		875.00000 
 43692.65567		 305.27265			43387.38302		68.70800		324.00000 
 43692.65567		 654.70124			43037.95443		213.83400		875.00000 
 43692.65567		 305.27265			43387.38302		68.70800		324.00000 
 43692.65567		 654.70124			43037.95443		213.83400		875.00000 
 43692.65567		 305.27265			43387.38302		68.70800		324.00000 
 43692.65567		 654.70124			43037.95443		213.83400		875.00000 
 43692.65567		 305.27265			43387.38302		68.70800		324.00000 
 43692.65567		 654.70124			43037.95443		213.83400		875.00000 
 43692.65567		 305.27265			43387.38302		68.70800		324.00000 
 43692.65567		 654.70124			43037.95443		216.14600		875.00000 
 43692.65567		 305.27265			43387.38302		68.70800		324.00000 
 43692.65567		 654.70124			43037.95443		216.14600		875.00000 
 43692.65567		 305.27265			43387.38302		68.70800		324.00000 
 43692.65567		 654.70124			43037.95443		216.14600		875.00000 
 43692.65567		 305.27265			43387.38302		68.70800		324.00000 
 43692.65567		 654.70124			43037.95443		216.14600		875.00000 
 43692.65567		 305.27265			43387.38302		68.70800		324.00000 
 43692.65567		 654.70124			43037.95443		216.14600		875.00000 
 43692.65567		 305.27265			43387.38302		68.70800		324.00000 
 43692.65567		 654.70124			43037.95443		216.14600		875.00000 
 43692.65567		 305.27265			43387.38302		68.70800		324.00000 
 43692.65567		 654.70124			43037.95443		216.14600		875.00000 
 43692.65567		 305.27265			43387.38302		68.70800		324.00000 
 43692.65567		 654.70124			43037.95443		216.14600		875.00000 
 43692.65567		 305.27265			43387.38302		68.70800		324.00000 
 43692.65567		 654.70124			43037.95443		216.14600		875.00000 
 43692.65567		 305.27265			43387.38302		68.70800		324.00000 
 43692.65567		 654.70124			43037.95443		216.14600		875.00000 
 43692.65567		 305.27265			43387.38302		68.70800		324.00000 
 43692.65567		 654.70124			43037.95443		216.14600		875.00000 
 43692.65567		 305.27265			43387.38302		68.70800		324.00000 
 43692.65567		 654.70124			43037.95443		216.14600		875.00000 
 43692.65567		 305.27265			43387.38302		68.70800		324.00000 
 43692.65567		 654.70124			43037.95443		216.14600		875.00000 
 43692.65567		 305.27265			43387.38302		68.70800		324.00000 
 43692.65567		 654.70124			43037.95443		216.14600		875.00000 
 43692.65567		 305.27265			43387.38302		68.70800		324.00000 
 43692.65567		 654.70124			43037.95443		216.14600		875.00000 
 43692.65567		 305.27265			43387.38302		68.70800		324.00000 
 43692.65567		 654.70124			43037.95443		216.14600		875.00000 
 43692.65567		 305.27265			43387.38302		68.70800		324.00000 
 43692.65567		 654.70124			43037.95443		216.14600		875.00000 
 43692.65567		 305.27265			43387.38302		68.70800		324.00000 
 43692.65567		 654.70124			43037.95443		216.14600		875.00000 
 43692.65567		 305.27265			43387.38302		68.70800		324.00000 
 43692.65567		 654.70124			43037.95443		216.14600		875.00000 
 43692.65567		 305.27265			43387.38302		68.70800		324.00000 
 43692.65567		 654.70124			43037.95443		216.14600		875.00000 
 43692.65567		 305.27265			43387.38302		68.70800		324.00000 
 43692.65567		 654.70124			43037.95443		216.14600		875.00000 
 43692.65567		 305.27265			43387.38302		68.70800		324.00000 
 43692.65567		 654.70124			43037.95443		216.14600		875.00000 
 43692.65567		 305.27265			43387.38302		68.70800		324.00000 
 43692.65567		 654.70124			43037.95443		216.14600		875.00000 
 43692.65567		 305.27265			43387.38302		68.70800		324.00000 
 43692.65567		 654.70124			43037.95443		216.14600		875.00000 
 43692.65567		 305.27265			43387.38302		68.70800		324.00000 
 43692.65567		 654.70124			43037.95443		216.14600		875.00000 
 43692.65567		 305.27265			43387.38302		68.70800		324.00000 
 43692.65567		 654.70124			43037.95443		216.14600		875.00000 
 43692.65567		 305.27265			43387.38302		68.70800		324.00000 
 43692.65567		 654.70124			43037.95443		216.14600		875.00000 
 43692.65567		 305.27265			43387.38302		68.70800		324.00000 
 43692.65567		 654.70124			43037.95443		216.14600		875.00000 
 43692.65567		 305.27265			43387.38302		68.70800		324.00000 
 43692.65567		 654.70124			43037.95443		216.14600		875.00000 
 43692.65567		 305.27265			43387.38302		68.70800		324.00000 
 43692.65567		 654.70124			43037.95443		216.14600		875.00000 
 43692.65567		 305.27265			43387.38302		68.70800		324.00000 
 43692.65567		 654.70124			43037.95443		216.14600		875.00000 
 43692.65567		 305.27265			43387.38302		68.70800		324.00000 
 43692.65567		 654.70124			43037.95443		216.14600		875.00000 
 43692.65567		 305.27265			43387.38302		68.70800		324.00000 
 43692.65567		 654.70124			43037.95443		216.14600		875.00000 
 43692.65567		 305.27265			43387.38302		68.70800		324.00000 
 43692.65567		 654.70124			43037.95443		216.14600		875.00000 
 43692.65567		 305.27265			43387.38302		68.70800		324.00000 
 43692.65567		 654.70124			43037.95443		216.14600		875.00000 
 43692.65567		 305.27265			43387.38302		68.70800		324.00000 
 43692.65567		 654.70124			43037.95443		216.14600		875.00000 
 43692.65567		 305.27265			43387.38302		68.70800		324.00000 
 43692.65567		 654.70124			43037.95443		216.14600		875.00000 
 43692.65567		 305.27265			43387.38302		68.70800		324.00000 
 43692.65567		 654.70124			43037.95443		216.14600		875.00000 
 43692.65567		 305.27265			43387.38302		68.70800		324.00000 
 43692.65567		 654.70124			43037.95443		216.14600		875.00000 
 43692.65567		 305.27265			43387.38302		68.70800		324.00000 
 43692.65567		 654.70124			43037.95443		216.14600		875.00000 
 43692.65567		 305.27265			43387.38302		68.70800		324.00000 
 43692.65567		 654.70124			43037.95443		216.14600		875.00000 
 43692.65567		 305.27265			43387.38302		68.70800		324.00000 
 43692.65567		 654.70124			43037.95443		216.14600		875.00000 
 43692.65567		 305.27265			43387.38302		68.70800		324.00000 
 43692.65567		 654.70124			43037.95443		216.14600		875.00000 
 43692.65567		 305.27265			43387.38302		68.70800		324.00000 
 43692.65567		 654.70124			43037.95443		216.14600		875.00000 
 43692.65567		 305.27265			43387.38302		68.70800		324.00000 
 43692.65567		 654.70124			43037.95443		216.14600		875.00000 
 43692.65567		 305.27265			43387.38302		68.70800		324.00000 
 43692.65567		 654.70124			43037.95443		216.14600		875.00000 
 43692.65567		 305.27265			43387.38302		68.70800		324.00000 
 43692.65567		 654.70124			43037.95443		216.14600		875.00000 
 43692.65567		 305.27265			43387.38302		68.70800		324.00000 
 43692.65567		 654.70124			43037.95443		216.14600		875.00000 
 43692.65567		 305.27265			43387.38302		68.70800		324.00000 
 43692.65567		 654.70124			43037.95443		216.14600		875.00000 
 43692.65567		 305.27265			43387.38302		68.70800		324.00000 
 43692.65567		 654.70124			43037.95443		216.14600		875.00000 
 43692.65567		 305.27265			43387.38302		68.70800		324.00000 
 43692.65567		 654.70124			43037.95443		216.14600		875.00000 
 43692.65567		 305.27265			43387.38302		68.70800		324.00000 
 43692.65567		 654.70124			43037.95443		216.14600		875.00000 
 43692.65567		 305.27265			43387.38302		68.70800		324.00000 
 43692.65567		 654.70124			43037.95443		216.14600		875.00000 
 43692.65567		 305.27265			43387.38302		68.70800		324.00000 
 43692.65567		 654.70124			43037.95443		216.14600		875.00000 
 43692.65567		 305.27265			43387.38302		68.70800		324.00000 
 43692.65567		 654.70124			43037.95443		216.14600		875.00000 
 43692.65567		 305.27265			43387.38302		68.70800		324.00000 
 43692.65567		 654.70124			43037.95443		216.14600		875.00000 
 43692.65567		 305.27265			43387.38302		68.70800		324.00000 
 43692.65567		 654.70124			43037.95443		216.14600		875.00000 
 43692.65567		 305.27265			43387.38302		68.70800		324.00000 
 43692.65567		 654.70124			43037.95443		216.14600		875.00000 
 43692.65567		 305.27265			43387.38302		68.70800		324.00000 
 43692.65567		 654.70124			43037.95443		216.14600		875.00000 
 43692.65567		 305.27265			43387.38302		68.70800		324.00000 
 43692.65567		 654.70124			43037.95443		216.14600		875.00000 
 43692.65567		 305.27265			43387.38302		68.70800		324.00000 
 43692.65567		 654.70124			43037.95443		216.14600		875.00000 
 43692.65567		 305.27265			43387.38302		68.70800		324.00000 
 43692.65567		 654.70124			43037.95443		216.14600		875.00000 
 43692.65567		 305.27265			43387.38302		68.70800		324.00000 
 43692.65567		 654.70124			43037.95443		216.14600		875.00000 
 43692.65567		 305.27265			43387.38302		68.70800		324.00000 
 43692.65567		 654.70124			43037.95443		216.14600		875.00000 
 43692.65567		 305.27265			43387.38302		68.70800		324.00000 
 43692.65567		 654.70124			43037.95443		216.30200		875.00000 
 43692.65567		 305.27265			43387.38302		68.70800		324.00000 
 43692.65567		 654.70124			43037.95443		216.30200		875.00000 
 43692.65567		 305.27265			43387.38302		68.70800		324.00000 
 43692.65567		 654.70124			43037.95443		216.30200		875.00000 
 43692.65567		 305.27265			43387.38302		68.70800		324.00000 
 43692.65567		 654.70124			43037.95443		216.30200		875.00000 
 43692.65567		 305.27265			43387.38302		68.70800		324.00000 
 43692.65567		 654.70124			43037.95443		216.30200		875.00000 
 43692.65567		 305.27265			43387.38302		68.70800		324.00000 
 43692.65567		 654.70124			43037.95443		216.30200		875.00000 
 43692.65567		 305.27265			43387.38302		68.70800		324.00000 
 43692.65567		 654.70124			43037.95443		216.30200		875.00000 
 43692.65567		 305.27265			43387.38302		68.70800		324.00000 
 43692.65567		 654.70124			43037.95443		216.30200		875.00000 
 43692.65567		 305.27265			43387.38302		68.70800		324.00000 
 43692.65567		 654.70124			43037.95443		216.30200		875.00000 
 43692.65567		 305.27265			43387.38302		68.70800		324.00000 
 43692.65567		 654.70124			43037.95443		216.30200		875.00000 
 43692.65567		 305.27265			43387.38302		68.70800		324.00000 
 43692.65567		 654.70124			43037.95443		216.30200		875.00000 
 43692.65567		 305.27265			43387.38302		68.70800		324.00000 
 43692.65567		 654.70124			43037.95443		216.30200		875.00000 
 43692.65567		 305.27265			43387.38302		68.70800		324.00000 
 43692.65567		 654.70124			43037.95443		216.30200		875.00000 
 43692.65567		 305.27265			43387.38302		68.70800		324.00000 
 43692.65567		 654.70124			43037.95443		216.30200		875.00000 
 43692.65567		 305.27265			43387.38302		68.70800		324.00000 
 43692.65567		 654.70124			43037.95443		216.30200		875.00000 
 43692.65567		 305.27265			43387.38302		68.70800		324.00000 
 43692.65567		 654.70124			43037.95443		216.30200		875.00000 
 43692.65567		 305.27265			43387.38302		68.70800		324.00000 
 43692.65567		 654.70124			43037.95443		216.30200		875.00000 
 43692.65567		 305.27265			43387.38302		68.70800		324.00000 
 43692.65567		 654.70124			43037.95443		216.30200		875.00000 
 43692.65567		 305.27265			43387.38302		68.70800		324.00000 
 43692.65567		 654.70124			43037.95443		216.30200		875.00000 
 43692.65567		 305.27265			43387.38302		68.70800		324.00000 
 43692.65567		 654.70124			43037.95443		216.30200		875.00000 
 43692.65567		 305.27265			43387.38302		68.70800		324.00000 
 43692.65567		 654.70124			43037.95443		216.30200		875.00000 
 43692.65567		 305.27265			43387.38302		68.70800		324.00000 
 43692.65567		 654.70124			43037.95443		216.30200		875.00000 
 43692.65567		 305.27265			43387.38302		68.70800		324.00000 
 43692.65567		 654.70124			43037.95443		216.30200		875.00000 
 43692.65567		 305.27265			43387.38302		68.70800		324.00000 
 43692.65567		 654.70124			43037.95443		216.30200		875.00000 
 43692.65567		 305.27265			43387.38302		68.70800		324.00000 
 43692.65567		 654.70124			43037.95443		216.30200		875.00000 
 43692.65567		 305.27265			43387.38302		68.70800		324.00000 
 43692.65567		 654.70124			43037.95443		216.30200		875.00000 
 43692.65567		 305.27265			43387.38302		68.70800		324.00000 
 43692.65567		 654.70124			43037.95443		216.30200		875.00000 
 43692.65567		 305.27265			43387.38302		68.70800		324.00000 
 43692.65567		 654.70124			43037.95443		216.30200		875.00000 
 43692.65567		 305.27265			43387.38302		68.70800		324.00000 
 43692.65567		 654.70124			43037.95443		216.30200		875.00000 
 43692.65567		 305.27265			43387.38302		68.70800		324.00000 
 43692.65567		 654.70124			43037.95443		216.30200		875.00000 
 43692.65567		 305.27265			43387.38302		68.70800		324.00000 
 43692.65567		 654.70124			43037.95443		216.30200		875.00000 
 43692.65567		 305.27265			43387.38302		68.70800		324.00000 
 43692.65567		 654.70124			43037.95443		216.30200		875.00000 
 43692.65567		 305.27265			43387.38302		68.70800		324.00000 
 43692.65567		 654.70124			43037.95443		216.30200		875.00000 
 43692.65567		 305.27265			43387.38302		68.70800		324.00000 
 43692.65567		 654.70124			43037.95443		216.30200		875.00000 
 43692.65567		 305.27265			43387.38302		68.70800		324.00000 
 43692.65567		 654.70124			43037.95443		216.30200		875.00000 
 43692.65567		 305.27265			43387.38302		68.70800		324.00000 
 43692.65567		 654.70124			43037.95443		216.30200		875.00000 
 43692.65567		 305.27265			43387.38302		68.70800		324.00000 
 43692.65567		 654.70124			43037.95443		216.30200		875.00000 
 43692.65567		 305.27265			43387.38302		68.70800		324.00000 
 43692.65567		 654.70124			43037.95443		216.30200		875.00000 
 43692.65567		 305.27265			43387.38302		68.70800		324.00000 
 43692.65567		 654.70124			43037.95443		216.30200		875.00000 
 43692.65567		 305.27265			43387.38302		68.70800		324.00000 
 43692.65567		 654.70124			43037.95443		216.30200		875.00000 
 43692.65567		 305.27265			43387.38302		68.70800		324.00000 
 43692.65567		 654.70124			43037.95443		216.30200		875.00000 
 43692.65567		 305.27265			43387.38302		68.70800		324.00000 
 43692.65567		 654.70124			43037.95443		216.30200		875.00000 
 43692.65567		 305.27265			43387.38302		68.70800		324.00000 
 43692.65567		 654.70124			43037.95443		216.30200		875.00000 
 43692.65567		 305.27265			43387.38302		68.70800		324.00000 
 43692.65567		 654.70124			43037.95443		216.30200		875.00000 
 43692.65567		 305.27265			43387.38302		68.70800		324.00000 
 43692.65567		 654.70124			43037.95443		216.30200		875.00000 
 43692.65567		 305.27265			43387.38302		68.70800		324.00000 
 43692.65567		 654.70124			43037.95443		216.30200		875.00000 
 43692.65567		 305.27265			43387.38302		68.70800		324.00000 
 43692.65567		 654.70124			43037.95443		216.30200		875.00000 
 43692.65567		 305.27265			43387.38302		68.70800		324.00000 
 43692.65567		 654.70124			43037.95443		216.30200		875.00000 
 43692.65567		 305.27265			43387.38302		68.70800		324.00000 
 43692.65567		 654.70124			43037.95443		216.30200		875.00000 
 43692.65567		 305.27265			43387.38302		68.70800		324.00000 
 43692.65567		 654.70124			43037.95443		216.30200		875.00000 
 43692.65567		 305.27265			43387.38302		68.70800		324.00000 
 43692.65567		 654.70124			43037.95443		216.30200		875.00000 
 43692.65567		 305.27265			43387.38302		68.70800		324.00000 
 43692.65567		 654.70124			43037.95443		216.30200		875.00000 
 43692.65567		 305.27265			43387.38302		68.70800		324.00000 
 43692.65567		 654.70124			43037.95443		216.30200		875.00000 
 43692.65567		 305.27265			43387.38302		68.70800		324.00000 
 43692.65567		 654.70124			43037.95443		216.30200		875.00000 
 43692.65567		 305.27265			43387.38302		68.70800		324.00000 
 43692.65567		 654.70124			43037.95443		216.30200		875.00000 
 43692.65567		 305.27265			43387.38302		68.70800		324.00000 
 43692.65567		 654.70124			43037.95443		216.30200		875.00000 
 43692.65567		 305.27265			43387.38302		68.70800		324.00000 
 43692.65567		 654.70124			43037.95443		216.30200		875.00000 
 43692.65567		 305.27265			43387.38302		68.70800		324.00000 
 43692.65567		 654.70124			43037.95443		216.30200		875.00000 
 43692.65567		 305.27265			43387.38302		68.70800		324.00000 
 43692.65567		 654.70124			43037.95443		216.30200		875.00000 
 43692.65567		 305.27265			43387.38302		68.70800		324.00000 
 43692.65567		 654.70124			43037.95443		216.30200		875.00000 
 43692.65567		 305.27265			43387.38302		68.70800		324.00000 
 43692.65567		 654.70124			43037.95443		216.30200		875.00000 
 43692.65567		 305.27265			43387.38302		68.70800		324.00000 
 43692.65567		 654.70124			43037.95443		216.30200		875.00000 
 43692.65567		 305.27265			43387.38302		68.70800		324.00000 
 43692.65567		 654.70124			43037.95443		216.30200		875.00000 
 43692.65567		 305.27265			43387.38302		68.70800		324.00000 
 43692.65567		 654.70124			43037.95443		216.30200		875.00000 
 43692.65567		 305.27265			43387.38302		68.70800		324.00000 
 43692.65567		 654.70124			43037.95443		216.30200		875.00000 
 43692.65567		 305.27265			43387.38302		68.70800		324.00000 
 43692.65567		 654.70124			43037.95443		216.30200		875.00000 
 43692.65567		 305.27265			43387.38302		68.70800		324.00000 
 43692.65567		 654.70124			43037.95443		216.30200		875.00000 
 43692.65567		 305.27265			43387.38302		68.70800		324.00000 
 43692.65567		 654.70124			43037.95443		216.30200		875.00000 
 43692.65567		 305.27265			43387.38302		68.70800		324.00000 
 43692.65567		 654.70124			43037.95443		216.30200		875.00000 
 43692.65567		 305.27265			43387.38302		68.70800		324.00000 
 43692.65567		 654.70124			43037.95443		216.30200		875.00000 
 43692.65567		 305.27265			43387.38302		68.70800		324.00000 
 43692.65567		 654.70124			43037.95443		216.30200		875.00000 
 43692.65567		 305.27265			43387.38302		68.70800		324.00000 
 43692.65567		 654.70124			43037.95443		216.30200		875.00000 
 43692.65567		 305.27265			43387.38302		68.70800		324.00000 
 43692.65567		 654.70124			43037.95443		216.30200		875.00000 
 43692.65567		 305.27265			43387.38302		68.70800		324.00000 
 43692.65567		 654.70124			43037.95443		216.30200		875.00000 
 43692.65567		 305.27265			43387.38302		68.70800		324.00000 
 43692.65567		 654.70124			43037.95443		216.30200		875.00000 
 43692.65567		 305.27265			43387.38302		68.70800		324.00000 
 43692.65567		 654.70124			43037.95443		216.30200		875.00000 
 43692.65567		 305.27265			43387.38302		68.70800		324.00000 
 43692.65567		 654.70124			43037.95443		216.30200		875.00000 
 43692.65567		 305.27265			43387.38302		68.70800		324.00000 
 43692.65567		 654.70124			43037.95443		216.30200		875.00000 
 43692.65567		 305.27265			43387.38302		68.70800		324.00000 
 43692.65567		 654.70124			43037.95443		216.30200		875.00000 
 43692.65567		 305.27265			43387.38302		68.70800		324.00000 
 43692.65567		 654.70124			43037.95443		216.30200		875.00000 
 43692.65567		 305.27265			43387.38302		68.70800		324.00000 
 43692.65567		 654.70124			43037.95443		216.30200		875.00000 
 43692.65567		 305.27265			43387.38302		68.70800		324.00000 
 43692.65567		 654.70124			43037.95443		216.30200		875.00000 
 43692.65567		 305.27265			43387.38302		68.70800		324.00000 
 43692.65567		 654.70124			43037.95443		216.30200		875.00000 
 43692.65567		 305.27265			43387.38302		68.70800		324.00000 
 43692.65567		 654.70124			43037.95443		216.30200		875.00000 
 43692.65567		 305.27265			43387.38302		68.70800		324.00000 
 43692.65567		 654.70124			43037.95443		216.30200		875.00000 
 43692.65567		 305.27265			43387.38302		68.70800		324.00000 
 43692.65567		 654.70124			43037.95443		216.30200		875.00000 
 43692.65567		 305.27265			43387.38302		68.70800		324.00000 
 43692.65567		 654.70124			43037.95443		216.30200		875.00000 
 43692.65567		 305.27265			43387.38302		68.70800		324.00000 
 43692.65567		 654.70124			43037.95443		216.30200		875.00000 
 43692.65567		 305.27265			43387.38302		68.70800		324.00000 
 43692.65567		 654.70124			43037.95443		216.30200		875.00000 
 43692.65567		 305.27265			43387.38302		68.70800		324.00000 
 43692.65567		 654.70124			43037.95443		216.30200		875.00000 
 43692.65567		 305.27265			43387.38302		68.70800		324.00000 
 43692.65567		 654.70124			43037.95443		216.30200		875.00000 
 43692.65567		 305.27265			43387.38302		68.70800		324.00000 
 43692.65567		 654.70124			43037.95443		216.30200		875.00000 
 43692.65567		 305.27265			43387.38302		69.65600		324.00000 
 43692.65567		 654.70124			43037.95443		216.30200		875.00000 
 43692.65567		 305.27265			43387.38302		69.65600		324.00000 
 43692.65567		 654.70124			43037.95443		216.30200		875.00000 
 43692.65567		 305.27265			43387.38302		69.65600		324.00000 
 43692.65567		 654.70124			43037.95443		216.30200		875.00000 
 43692.65567		 305.27265			43387.38302		69.65600		324.00000 
 43692.65567		 654.70124			43037.95443		216.30200		875.00000 
 43692.65567		 305.27265			43387.38302		69.65600		324.00000 
 43692.65567		 654.70124			43037.95443		216.30200		875.00000 
 43692.65567		 305.27265			43387.38302		69.65600		324.00000 
 43692.65567		 654.70124			43037.95443		216.30200		875.00000 
 43692.65567		 305.27265			43387.38302		69.65600		324.00000 
 43692.65567		 654.70124			43037.95443		216.30200		875.00000 
 43692.65567		 305.27265			43387.38302		69.65600		324.00000 
 43692.65567		 654.70124			43037.95443		216.30200		875.00000 
 43692.65567		 305.27265			43387.38302		69.65600		324.00000 
 43692.65567		 654.70124			43037.95443		216.30200		875.00000 
 43692.65567		 305.27265			43387.38302		69.65600		324.00000 
 43692.65567		 576.41396			43116.24171		216.30200		875.00000 
 43692.65567		 305.27265			43387.38302		69.65600		324.00000 
 43692.65567		 537.27032			43155.38535		216.30200		875.00000 
 43692.65567		 305.27265			43387.38302		69.65600		324.00000 
 43692.65567		 537.27032			43155.38535		216.30200		875.00000 
 43692.65567		 305.27265			43387.38302		69.65600		324.00000 
 43692.65567		 537.27032			43155.38535		216.30200		875.00000 
 43692.65567		 305.27265			43387.38302		69.65600		324.00000 
 43692.65567		 537.27032			43155.38535		216.30200		875.00000 
 43692.65567		 305.27265			43387.38302		69.65600		324.00000 
 43692.65567		 537.27032			43155.38535		216.30200		875.00000 
 43692.65567		 305.27265			43387.38302		69.65600		324.00000 
 43692.65567		 537.27032			43155.38535		216.30200		875.00000 
 43692.65567		 305.27265			43387.38302		69.65600		324.00000 
 43692.65567		 537.27032			43155.38535		216.30200		875.00000 
 43692.65567		 305.27265			43387.38302		69.65600		324.00000 
 43692.65567		 537.27032			43155.38535		216.30200		875.00000 
 43692.65567		 305.27265			43387.38302		69.65600		324.00000 
 43692.65567		 537.27032			43155.38535		216.30200		875.00000 
 43692.65567		 305.27265			43387.38302		69.65600		324.00000 
 43692.65567		 537.27032			43155.38535		216.30200		875.00000 
 43692.65567		 305.27265			43387.38302		69.65600		324.00000 
 43692.65567		 537.27032			43155.38535		216.30200		875.00000 
 43692.65567		 305.27265			43387.38302		69.65600		324.00000 
 43692.65567		 537.27032			43155.38535		216.30200		875.00000 
 43692.65567		 305.27265			43387.38302		69.65600		324.00000 
 43692.65567		 537.27032			43155.38535		216.30200		875.00000 
 43692.65567		 305.27265			43387.38302		69.65600		324.00000 
 43692.65567		 537.27032			43155.38535		216.30200		875.00000 
 43692.65567		 305.27265			43387.38302		69.65600		324.00000 
 43692.65567		 537.27032			43155.38535		216.30200		875.00000 
 43692.65567		 305.27265			43387.38302		69.65600		324.00000 
 43692.65567		 537.27032			43155.38535		216.30200		875.00000 
 43692.65567		 305.27265			43387.38302		69.65600		324.00000 
 43692.65567		 537.27032			43155.38535		216.30200		875.00000 
 43692.65567		 305.27265			43387.38302		69.65600		324.00000 
 43692.65567		 537.27032			43155.38535		190.13600		875.00000 
 43692.65567		 305.27265			43387.38302		69.65600		324.00000 
 43692.65567		 537.27032			43155.38535		190.13600		875.00000 
 43692.65567		 305.27265			43387.38302		69.65600		324.00000 
 43692.65567		 537.27032			43155.38535		190.13600		875.00000 
 43692.65567		 305.27265			43387.38302		69.65600		324.00000 
 43692.65567		 537.27032			43155.38535		190.13600		875.00000 
 43692.65567		 305.27265			43387.38302		69.65600		324.00000 
 43692.65567		 529.63254			43163.02313		190.13600		875.00000 
 43692.65567		 305.27265			43387.38302		69.65600		324.00000 
 43692.65567		 525.81365			43166.84203		190.13600		875.00000 
 43692.65567		 305.27265			43387.38302		69.65600		324.00000 
 43692.65567		 525.81365			43166.84203		190.13600		875.00000 
 43692.65567		 261.35540			43431.30027		69.65600		324.00000 
 43692.65567		 261.35540			43431.30027		190.13600		875.00000 
 43692.65567		 261.35540			43431.30027		69.65600		324.00000 
