Memory Total (MiB) 	 Memory Used (MiB) 	    Memory Free (MiB) 	 Power Drawed (W) 	 Clocks (Mhz) 	 
 43692.65567		 261.35540			43431.30027		171.32000		875.00000 
 43692.65567		 261.35540			43431.30027		66.21000		324.00000 
 43692.65567		 261.35540			43431.30027		171.32000		875.00000 
 43692.65567		 261.35540			43431.30027		66.21000		324.00000 
 43692.65567		 261.35540			43431.30027		171.32000		875.00000 
 43692.65567		 261.35540			43431.30027		66.21000		324.00000 
 43692.65567		 261.35540			43431.30027		171.32000		875.00000 
 43692.65567		 261.35540			43431.30027		66.21000		324.00000 
 43692.65567		 261.35540			43431.30027		171.32000		875.00000 
 43692.65567		 261.35540			43431.30027		66.21000		324.00000 
 43692.65567		 261.35540			43431.30027		171.32000		875.00000 
 43692.65567		 261.35540			43431.30027		66.21000		324.00000 
 43692.65567		 261.35540			43431.30027		171.32000		875.00000 
 43692.65567		 261.35540			43431.30027		66.21000		324.00000 
 43692.65567		 261.35540			43431.30027		171.32000		875.00000 
 43692.65567		 261.35540			43431.30027		66.21000		324.00000 
 43692.65567		 261.35540			43431.30027		171.32000		875.00000 
 43692.65567		 261.35540			43431.30027		66.21000		324.00000 
 43692.65567		 261.35540			43431.30027		171.32000		875.00000 
 43692.65567		 261.35540			43431.30027		66.21000		324.00000 
 43692.65567		 261.35540			43431.30027		171.32000		875.00000 
 43692.65567		 261.35540			43431.30027		66.21000		324.00000 
 43692.65567		 261.35540			43431.30027		171.32000		875.00000 
 43692.65567		 261.35540			43431.30027		66.21000		324.00000 
 43692.65567		 261.35540			43431.30027		171.32000		875.00000 
 43692.65567		 261.35540			43431.30027		66.21000		324.00000 
 43692.65567		 261.35540			43431.30027		171.32000		875.00000 
 43692.65567		 261.35540			43431.30027		66.21000		324.00000 
 43692.65567		 261.35540			43431.30027		171.32000		875.00000 
 43692.65567		 261.35540			43431.30027		66.21000		324.00000 
 43692.65567		 261.35540			43431.30027		171.32000		875.00000 
 43692.65567		 261.35540			43431.30027		66.21000		324.00000 
 43692.65567		 261.35540			43431.30027		171.32000		875.00000 
 43692.65567		 261.35540			43431.30027		66.21000		324.00000 
 43692.65567		 261.35540			43431.30027		171.32000		875.00000 
 43692.65567		 261.35540			43431.30027		66.21000		324.00000 
 43692.65567		 265.17429			43427.48138		171.32000		875.00000 
 43692.65567		 261.35540			43431.30027		66.21000		324.00000 
 43692.65567		 265.17429			43427.48138		171.32000		875.00000 
 43692.65567		 261.35540			43431.30027		66.21000		324.00000 
 43692.65567		 272.81207			43419.84360		171.32000		875.00000 
 43692.65567		 261.35540			43431.30027		66.21000		324.00000 
 43692.65567		 272.81207			43419.84360		171.32000		875.00000 
 43692.65567		 261.35540			43431.30027		66.21000		324.00000 
 43692.65567		 272.81207			43419.84360		171.32000		875.00000 
 43692.65567		 265.17429			43427.48138		66.21000		324.00000 
 43692.65567		 272.81207			43419.84360		171.32000		875.00000 
 43692.65567		 265.17429			43427.48138		66.21000		324.00000 
 43692.65567		 272.81207			43419.84360		171.32000		875.00000 
 43692.65567		 272.81207			43419.84360		66.21000		324.00000 
 43692.65567		 272.81207			43419.84360		171.32000		875.00000 
 43692.65567		 272.81207			43419.84360		66.21000		324.00000 
 43692.65567		 272.81207			43419.84360		171.32000		875.00000 
 43692.65567		 272.81207			43419.84360		66.21000		324.00000 
 43692.65567		 272.81207			43419.84360		171.32000		875.00000 
 43692.65567		 272.81207			43419.84360		66.21000		324.00000 
 43692.65567		 305.27265			43387.38302		171.32000		875.00000 
 43692.65567		 305.27265			43387.38302		66.21000		324.00000 
 43692.65567		 305.27265			43387.38302		171.32000		875.00000 
 43692.65567		 305.27265			43387.38302		66.21000		324.00000 
 43692.65567		 305.27265			43387.38302		171.32000		875.00000 
 43692.65567		 305.27265			43387.38302		66.21000		324.00000 
 43692.65567		 305.27265			43387.38302		171.32000		875.00000 
 43692.65567		 305.27265			43387.38302		66.21000		324.00000 
 43692.65567		 309.09154			43383.56413		171.32000		875.00000 
 43692.65567		 305.27265			43387.38302		66.21000		324.00000 
 43692.65567		 310.52363			43382.13204		171.32000		875.00000 
 43692.65567		 305.27265			43387.38302		66.21000		324.00000 
 43692.65567		 311.00099			43381.65468		171.32000		875.00000 
 43692.65567		 305.27265			43387.38302		66.21000		324.00000 
 43692.65567		 311.00099			43381.65468		171.32000		875.00000 
 43692.65567		 305.27265			43387.38302		66.21000		324.00000 
 43692.65567		 311.00099			43381.65468		171.32000		875.00000 
 43692.65567		 305.27265			43387.38302		66.21000		324.00000 
 43692.65567		 311.00099			43381.65468		146.30400		875.00000 
 43692.65567		 305.27265			43387.38302		66.21000		324.00000 
 43692.65567		 311.00099			43381.65468		146.30400		875.00000 
 43692.65567		 305.27265			43387.38302		66.21000		324.00000 
 43692.65567		 311.00099			43381.65468		146.30400		875.00000 
 43692.65567		 305.27265			43387.38302		66.21000		324.00000 
 43692.65567		 311.00099			43381.65468		146.30400		875.00000 
 43692.65567		 305.27265			43387.38302		66.21000		324.00000 
 43692.65567		 311.00099			43381.65468		146.30400		875.00000 
 43692.65567		 305.27265			43387.38302		66.21000		324.00000 
 43692.65567		 311.00099			43381.65468		146.30400		875.00000 
 43692.65567		 305.27265			43387.38302		66.21000		324.00000 
 43692.65567		 311.00099			43381.65468		146.30400		875.00000 
 43692.65567		 305.27265			43387.38302		66.21000		324.00000 
 43692.65567		 311.00099			43381.65468		146.30400		875.00000 
 43692.65567		 305.27265			43387.38302		66.21000		324.00000 
 43692.65567		 311.00099			43381.65468		146.30400		875.00000 
 43692.65567		 305.27265			43387.38302		66.21000		324.00000 
 43692.65567		 311.00099			43381.65468		146.30400		875.00000 
 43692.65567		 305.27265			43387.38302		66.21000		324.00000 
 43692.65567		 311.00099			43381.65468		146.30400		875.00000 
 43692.65567		 305.27265			43387.38302		66.21000		324.00000 
 43692.65567		 311.00099			43381.65468		146.30400		875.00000 
 43692.65567		 305.27265			43387.38302		66.21000		324.00000 
 43692.65567		 311.00099			43381.65468		146.30400		875.00000 
 43692.65567		 305.27265			43387.38302		66.21000		324.00000 
 43692.65567		 311.00099			43381.65468		146.30400		875.00000 
 43692.65567		 305.27265			43387.38302		66.21000		324.00000 
 43692.65567		 311.00099			43381.65468		146.30400		875.00000 
 43692.65567		 305.27265			43387.38302		66.21000		324.00000 
 43692.65567		 311.00099			43381.65468		146.30400		875.00000 
 43692.65567		 305.27265			43387.38302		66.21000		324.00000 
 43692.65567		 311.00099			43381.65468		146.30400		875.00000 
 43692.65567		 305.27265			43387.38302		66.21000		324.00000 
 43692.65567		 311.00099			43381.65468		146.30400		875.00000 
 43692.65567		 305.27265			43387.38302		66.21000		324.00000 
 43692.65567		 311.00099			43381.65468		146.30400		875.00000 
 43692.65567		 305.27265			43387.38302		66.21000		324.00000 
 43692.65567		 311.00099			43381.65468		146.30400		875.00000 
 43692.65567		 305.27265			43387.38302		66.21000		324.00000 
 43692.65567		 311.00099			43381.65468		146.30400		875.00000 
 43692.65567		 305.27265			43387.38302		66.21000		324.00000 
 43692.65567		 311.00099			43381.65468		146.30400		875.00000 
 43692.65567		 305.27265			43387.38302		66.21000		324.00000 
 43692.65567		 311.00099			43381.65468		146.30400		875.00000 
 43692.65567		 305.27265			43387.38302		66.21000		324.00000 
 43692.65567		 311.00099			43381.65468		146.30400		875.00000 
 43692.65567		 305.27265			43387.38302		66.21000		324.00000 
 43692.65567		 311.00099			43381.65468		146.30400		875.00000 
 43692.65567		 305.27265			43387.38302		66.21000		324.00000 
 43692.65567		 311.00099			43381.65468		146.30400		875.00000 
 43692.65567		 305.27265			43387.38302		66.21000		324.00000 
 43692.65567		 311.00099			43381.65468		146.30400		875.00000 
 43692.65567		 305.27265			43387.38302		66.21000		324.00000 
 43692.65567		 311.00099			43381.65468		146.30400		875.00000 
 43692.65567		 305.27265			43387.38302		66.21000		324.00000 
 43692.65567		 311.00099			43381.65468		146.30400		875.00000 
 43692.65567		 305.27265			43387.38302		66.21000		324.00000 
 43692.65567		 311.00099			43381.65468		146.30400		875.00000 
 43692.65567		 305.27265			43387.38302		66.21000		324.00000 
 43692.65567		 311.00099			43381.65468		146.30400		875.00000 
 43692.65567		 305.27265			43387.38302		66.21000		324.00000 
 43692.65567		 311.00099			43381.65468		136.53400		875.00000 
 43692.65567		 305.27265			43387.38302		66.21000		324.00000 
 43692.65567		 311.00099			43381.65468		136.53400		875.00000 
 43692.65567		 305.27265			43387.38302		66.21000		324.00000 
 43692.65567		 311.00099			43381.65468		136.53400		875.00000 
 43692.65567		 305.27265			43387.38302		66.21000		324.00000 
 43692.65567		 311.00099			43381.65468		136.53400		875.00000 
 43692.65567		 305.27265			43387.38302		66.21000		324.00000 
 43692.65567		 311.00099			43381.65468		136.53400		875.00000 
 43692.65567		 305.27265			43387.38302		66.21000		324.00000 
 43692.65567		 311.00099			43381.65468		136.53400		875.00000 
 43692.65567		 305.27265			43387.38302		66.21000		324.00000 
 43692.65567		 311.00099			43381.65468		136.53400		875.00000 
 43692.65567		 305.27265			43387.38302		66.21000		324.00000 
 43692.65567		 311.00099			43381.65468		136.53400		875.00000 
 43692.65567		 305.27265			43387.38302		66.21000		324.00000 
 43692.65567		 311.00099			43381.65468		136.53400		875.00000 
 43692.65567		 305.27265			43387.38302		66.21000		324.00000 
 43692.65567		 311.00099			43381.65468		136.53400		875.00000 
 43692.65567		 305.27265			43387.38302		66.21000		324.00000 
 43692.65567		 311.00099			43381.65468		136.53400		875.00000 
 43692.65567		 305.27265			43387.38302		66.21000		324.00000 
 43692.65567		 311.00099			43381.65468		136.53400		875.00000 
 43692.65567		 305.27265			43387.38302		66.21000		324.00000 
 43692.65567		 311.00099			43381.65468		136.53400		875.00000 
 43692.65567		 305.27265			43387.38302		66.21000		324.00000 
 43692.65567		 311.00099			43381.65468		136.53400		875.00000 
 43692.65567		 305.27265			43387.38302		66.21000		324.00000 
 43692.65567		 311.00099			43381.65468		136.53400		875.00000 
 43692.65567		 305.27265			43387.38302		66.21000		324.00000 
 43692.65567		 311.00099			43381.65468		136.53400		875.00000 
 43692.65567		 305.27265			43387.38302		66.21000		324.00000 
 43692.65567		 314.81988			43377.83579		136.53400		875.00000 
 43692.65567		 305.27265			43387.38302		64.65000		324.00000 
 43692.65567		 314.81988			43377.83579		136.53400		875.00000 
 43692.65567		 305.27265			43387.38302		64.65000		324.00000 
 43692.65567		 314.81988			43377.83579		136.53400		875.00000 
 43692.65567		 305.27265			43387.38302		64.65000		324.00000 
 43692.65567		 314.81988			43377.83579		136.53400		875.00000 
 43692.65567		 305.27265			43387.38302		64.65000		324.00000 
 43692.65567		 318.63877			43374.01690		136.53400		875.00000 
 43692.65567		 305.27265			43387.38302		64.65000		324.00000 
 43692.65567		 322.45767			43370.19801		136.53400		875.00000 
 43692.65567		 305.27265			43387.38302		64.65000		324.00000 
 43692.65567		 326.27656			43366.37912		136.53400		875.00000 
 43692.65567		 305.27265			43387.38302		64.65000		324.00000 
 43692.65567		 326.27656			43366.37912		136.53400		875.00000 
 43692.65567		 305.27265			43387.38302		64.65000		324.00000 
 43692.65567		 326.27656			43366.37912		136.53400		875.00000 
 43692.65567		 305.27265			43387.38302		64.65000		324.00000 
 43692.65567		 326.27656			43366.37912		136.53400		875.00000 
 43692.65567		 305.27265			43387.38302		64.65000		324.00000 
 43692.65567		 537.27032			43155.38535		136.53400		875.00000 
 43692.65567		 305.27265			43387.38302		64.65000		324.00000 
 43692.65567		 569.25354			43123.40213		136.53400		875.00000 
 43692.65567		 305.27265			43387.38302		64.65000		324.00000 
 43692.65567		 633.21998			43059.43570		136.53400		875.00000 
 43692.65567		 305.27265			43387.38302		64.65000		324.00000 
 43692.65567		 633.21998			43059.43570		136.53400		875.00000 
 43692.65567		 305.27265			43387.38302		64.65000		324.00000 
 43692.65567		 633.21998			43059.43570		136.53400		875.00000 
 43692.65567		 305.27265			43387.38302		64.65000		324.00000 
 43692.65567		 633.21998			43059.43570		136.53400		875.00000 
 43692.65567		 305.27265			43387.38302		64.65000		324.00000 
 43692.65567		 633.21998			43059.43570		136.53400		875.00000 
 43692.65567		 305.27265			43387.38302		64.65000		324.00000 
 43692.65567		 633.21998			43059.43570		136.53400		875.00000 
 43692.65567		 305.27265			43387.38302		64.65000		324.00000 
 43692.65567		 633.21998			43059.43570		136.53400		875.00000 
 43692.65567		 305.27265			43387.38302		64.65000		324.00000 
 43692.65567		 633.21998			43059.43570		136.53400		875.00000 
 43692.65567		 305.27265			43387.38302		64.65000		324.00000 
 43692.65567		 633.21998			43059.43570		144.38400		875.00000 
 43692.65567		 305.27265			43387.38302		64.65000		324.00000 
 43692.65567		 633.21998			43059.43570		144.38400		875.00000 
 43692.65567		 305.27265			43387.38302		64.65000		324.00000 
 43692.65567		 633.21998			43059.43570		144.38400		875.00000 
 43692.65567		 305.27265			43387.38302		64.65000		324.00000 
 43692.65567		 633.21998			43059.43570		144.38400		875.00000 
 43692.65567		 305.27265			43387.38302		64.65000		324.00000 
 43692.65567		 633.21998			43059.43570		144.38400		875.00000 
 43692.65567		 305.27265			43387.38302		64.65000		324.00000 
 43692.65567		 633.21998			43059.43570		144.38400		875.00000 
 43692.65567		 305.27265			43387.38302		64.65000		324.00000 
 43692.65567		 633.21998			43059.43570		144.38400		875.00000 
 43692.65567		 305.27265			43387.38302		64.65000		324.00000 
 43692.65567		 633.21998			43059.43570		144.38400		875.00000 
 43692.65567		 305.27265			43387.38302		64.65000		324.00000 
 43692.65567		 633.21998			43059.43570		144.38400		875.00000 
 43692.65567		 305.27265			43387.38302		64.65000		324.00000 
 43692.65567		 633.21998			43059.43570		144.38400		875.00000 
 43692.65567		 305.27265			43387.38302		64.65000		324.00000 
 43692.65567		 633.21998			43059.43570		144.38400		875.00000 
 43692.65567		 305.27265			43387.38302		64.65000		324.00000 
 43692.65567		 633.21998			43059.43570		144.38400		875.00000 
 43692.65567		 305.27265			43387.38302		64.65000		324.00000 
 43692.65567		 633.21998			43059.43570		144.38400		875.00000 
 43692.65567		 305.27265			43387.38302		64.65000		324.00000 
 43692.65567		 633.21998			43059.43570		144.38400		875.00000 
 43692.65567		 305.27265			43387.38302		64.65000		324.00000 
 43692.65567		 633.21998			43059.43570		144.38400		875.00000 
 43692.65567		 305.27265			43387.38302		64.65000		324.00000 
 43692.65567		 633.21998			43059.43570		144.38400		875.00000 
 43692.65567		 305.27265			43387.38302		64.65000		324.00000 
 43692.65567		 633.21998			43059.43570		144.38400		875.00000 
 43692.65567		 305.27265			43387.38302		64.65000		324.00000 
 43692.65567		 633.21998			43059.43570		144.38400		875.00000 
 43692.65567		 305.27265			43387.38302		64.65000		324.00000 
 43692.65567		 633.21998			43059.43570		144.38400		875.00000 
 43692.65567		 305.27265			43387.38302		64.65000		324.00000 
 43692.65567		 633.21998			43059.43570		144.38400		875.00000 
 43692.65567		 305.27265			43387.38302		64.65000		324.00000 
 43692.65567		 633.21998			43059.43570		144.38400		875.00000 
 43692.65567		 305.27265			43387.38302		64.65000		324.00000 
 43692.65567		 633.21998			43059.43570		144.38400		875.00000 
 43692.65567		 305.27265			43387.38302		64.65000		324.00000 
 43692.65567		 633.21998			43059.43570		144.38400		875.00000 
 43692.65567		 305.27265			43387.38302		64.65000		324.00000 
 43692.65567		 633.21998			43059.43570		144.38400		875.00000 
 43692.65567		 305.27265			43387.38302		64.65000		324.00000 
 43692.65567		 633.21998			43059.43570		144.38400		875.00000 
 43692.65567		 305.27265			43387.38302		64.65000		324.00000 
 43692.65567		 633.21998			43059.43570		144.38400		875.00000 
 43692.65567		 305.27265			43387.38302		64.65000		324.00000 
 43692.65567		 633.21998			43059.43570		144.38400		875.00000 
 43692.65567		 305.27265			43387.38302		64.65000		324.00000 
 43692.65567		 633.21998			43059.43570		144.38400		875.00000 
 43692.65567		 305.27265			43387.38302		64.65000		324.00000 
 43692.65567		 633.21998			43059.43570		144.38400		875.00000 
 43692.65567		 305.27265			43387.38302		64.65000		324.00000 
 43692.65567		 633.21998			43059.43570		144.38400		875.00000 
 43692.65567		 305.27265			43387.38302		64.65000		324.00000 
 43692.65567		 633.21998			43059.43570		144.38400		875.00000 
 43692.65567		 305.27265			43387.38302		64.65000		324.00000 
 43692.65567		 633.21998			43059.43570		144.38400		875.00000 
 43692.65567		 305.27265			43387.38302		64.65000		324.00000 
 43692.65567		 633.21998			43059.43570		144.38400		875.00000 
 43692.65567		 305.27265			43387.38302		64.65000		324.00000 
 43692.65567		 633.21998			43059.43570		144.38400		875.00000 
 43692.65567		 305.27265			43387.38302		64.65000		324.00000 
 43692.65567		 633.21998			43059.43570		144.38400		875.00000 
 43692.65567		 305.27265			43387.38302		64.65000		324.00000 
 43692.65567		 633.21998			43059.43570		144.38400		875.00000 
 43692.65567		 305.27265			43387.38302		64.65000		324.00000 
 43692.65567		 633.21998			43059.43570		144.38400		875.00000 
 43692.65567		 305.27265			43387.38302		64.65000		324.00000 
 43692.65567		 633.21998			43059.43570		144.38400		875.00000 
 43692.65567		 305.27265			43387.38302		64.65000		324.00000 
 43692.65567		 633.21998			43059.43570		144.38400		875.00000 
 43692.65567		 305.27265			43387.38302		64.65000		324.00000 
 43692.65567		 633.21998			43059.43570		144.38400		875.00000 
 43692.65567		 305.27265			43387.38302		64.65000		324.00000 
 43692.65567		 633.21998			43059.43570		144.38400		875.00000 
 43692.65567		 305.27265			43387.38302		64.65000		324.00000 
 43692.65567		 633.21998			43059.43570		144.38400		875.00000 
 43692.65567		 305.27265			43387.38302		64.65000		324.00000 
 43692.65567		 633.21998			43059.43570		144.38400		875.00000 
 43692.65567		 305.27265			43387.38302		64.65000		324.00000 
 43692.65567		 633.21998			43059.43570		144.38400		875.00000 
 43692.65567		 305.27265			43387.38302		64.65000		324.00000 
 43692.65567		 633.21998			43059.43570		144.38400		875.00000 
 43692.65567		 305.27265			43387.38302		64.65000		324.00000 
 43692.65567		 633.21998			43059.43570		144.38400		875.00000 
 43692.65567		 305.27265			43387.38302		64.65000		324.00000 
 43692.65567		 633.21998			43059.43570		144.38400		875.00000 
 43692.65567		 305.27265			43387.38302		64.65000		324.00000 
 43692.65567		 633.21998			43059.43570		144.38400		875.00000 
 43692.65567		 305.27265			43387.38302		64.65000		324.00000 
 43692.65567		 633.21998			43059.43570		144.38400		875.00000 
 43692.65567		 305.27265			43387.38302		64.65000		324.00000 
 43692.65567		 633.21998			43059.43570		144.38400		875.00000 
 43692.65567		 305.27265			43387.38302		64.65000		324.00000 
 43692.65567		 633.21998			43059.43570		144.38400		875.00000 
 43692.65567		 305.27265			43387.38302		64.65000		324.00000 
 43692.65567		 633.21998			43059.43570		144.38400		875.00000 
 43692.65567		 305.27265			43387.38302		64.65000		324.00000 
 43692.65567		 633.21998			43059.43570		144.38400		875.00000 
 43692.65567		 305.27265			43387.38302		64.65000		324.00000 
 43692.65567		 633.21998			43059.43570		144.38400		875.00000 
 43692.65567		 305.27265			43387.38302		64.65000		324.00000 
 43692.65567		 633.21998			43059.43570		144.38400		875.00000 
 43692.65567		 305.27265			43387.38302		64.65000		324.00000 
 43692.65567		 633.21998			43059.43570		144.38400		875.00000 
 43692.65567		 305.27265			43387.38302		64.65000		324.00000 
 43692.65567		 633.21998			43059.43570		144.38400		875.00000 
 43692.65567		 305.27265			43387.38302		64.65000		324.00000 
 43692.65567		 633.21998			43059.43570		144.38400		875.00000 
 43692.65567		 305.27265			43387.38302		64.65000		324.00000 
 43692.65567		 633.21998			43059.43570		144.38400		875.00000 
 43692.65567		 305.27265			43387.38302		64.65000		324.00000 
 43692.65567		 633.21998			43059.43570		144.38400		875.00000 
 43692.65567		 305.27265			43387.38302		64.65000		324.00000 
 43692.65567		 633.21998			43059.43570		144.38400		875.00000 
 43692.65567		 305.27265			43387.38302		64.65000		324.00000 
 43692.65567		 633.21998			43059.43570		144.38400		875.00000 
 43692.65567		 305.27265			43387.38302		64.65000		324.00000 
 43692.65567		 633.21998			43059.43570		144.38400		875.00000 
 43692.65567		 305.27265			43387.38302		64.65000		324.00000 
 43692.65567		 633.21998			43059.43570		144.38400		875.00000 
 43692.65567		 305.27265			43387.38302		64.65000		324.00000 
 43692.65567		 633.21998			43059.43570		188.44800		875.00000 
 43692.65567		 305.27265			43387.38302		64.65000		324.00000 
 43692.65567		 633.21998			43059.43570		188.44800		875.00000 
 43692.65567		 305.27265			43387.38302		64.65000		324.00000 
 43692.65567		 633.21998			43059.43570		188.44800		875.00000 
 43692.65567		 305.27265			43387.38302		64.65000		324.00000 
 43692.65567		 633.21998			43059.43570		188.44800		875.00000 
 43692.65567		 305.27265			43387.38302		64.65000		324.00000 
 43692.65567		 633.21998			43059.43570		188.44800		875.00000 
 43692.65567		 305.27265			43387.38302		64.65000		324.00000 
 43692.65567		 633.21998			43059.43570		188.44800		875.00000 
 43692.65567		 305.27265			43387.38302		64.65000		324.00000 
 43692.65567		 633.21998			43059.43570		188.44800		875.00000 
 43692.65567		 305.27265			43387.38302		64.65000		324.00000 
 43692.65567		 633.21998			43059.43570		188.44800		875.00000 
 43692.65567		 305.27265			43387.38302		64.65000		324.00000 
 43692.65567		 633.21998			43059.43570		188.44800		875.00000 
 43692.65567		 305.27265			43387.38302		64.65000		324.00000 
 43692.65567		 633.21998			43059.43570		188.44800		875.00000 
 43692.65567		 305.27265			43387.38302		64.65000		324.00000 
 43692.65567		 633.21998			43059.43570		188.44800		875.00000 
 43692.65567		 305.27265			43387.38302		64.65000		324.00000 
 43692.65567		 633.21998			43059.43570		188.44800		875.00000 
 43692.65567		 305.27265			43387.38302		64.65000		324.00000 
 43692.65567		 633.21998			43059.43570		188.44800		875.00000 
 43692.65567		 305.27265			43387.38302		64.65000		324.00000 
 43692.65567		 633.21998			43059.43570		188.44800		875.00000 
 43692.65567		 305.27265			43387.38302		64.65000		324.00000 
 43692.65567		 633.21998			43059.43570		188.44800		875.00000 
 43692.65567		 305.27265			43387.38302		64.65000		324.00000 
 43692.65567		 633.21998			43059.43570		188.44800		875.00000 
 43692.65567		 305.27265			43387.38302		64.65000		324.00000 
 43692.65567		 633.21998			43059.43570		188.44800		875.00000 
 43692.65567		 305.27265			43387.38302		64.65000		324.00000 
 43692.65567		 633.21998			43059.43570		188.44800		875.00000 
 43692.65567		 305.27265			43387.38302		64.65000		324.00000 
 43692.65567		 633.21998			43059.43570		188.44800		875.00000 
 43692.65567		 305.27265			43387.38302		64.65000		324.00000 
 43692.65567		 633.21998			43059.43570		188.44800		875.00000 
 43692.65567		 305.27265			43387.38302		64.65000		324.00000 
 43692.65567		 633.21998			43059.43570		188.44800		875.00000 
 43692.65567		 305.27265			43387.38302		64.65000		324.00000 
 43692.65567		 633.21998			43059.43570		188.44800		875.00000 
 43692.65567		 305.27265			43387.38302		64.65000		324.00000 
 43692.65567		 633.21998			43059.43570		188.44800		875.00000 
 43692.65567		 305.27265			43387.38302		64.65000		324.00000 
 43692.65567		 633.21998			43059.43570		188.44800		875.00000 
 43692.65567		 305.27265			43387.38302		64.65000		324.00000 
 43692.65567		 633.21998			43059.43570		188.44800		875.00000 
 43692.65567		 305.27265			43387.38302		64.65000		324.00000 
 43692.65567		 633.21998			43059.43570		188.44800		875.00000 
 43692.65567		 305.27265			43387.38302		64.65000		324.00000 
 43692.65567		 633.21998			43059.43570		188.44800		875.00000 
 43692.65567		 305.27265			43387.38302		64.65000		324.00000 
 43692.65567		 633.21998			43059.43570		188.44800		875.00000 
 43692.65567		 305.27265			43387.38302		64.65000		324.00000 
 43692.65567		 633.21998			43059.43570		188.44800		875.00000 
 43692.65567		 305.27265			43387.38302		64.65000		324.00000 
 43692.65567		 633.21998			43059.43570		188.44800		875.00000 
 43692.65567		 305.27265			43387.38302		64.65000		324.00000 
 43692.65567		 633.21998			43059.43570		188.44800		875.00000 
 43692.65567		 305.27265			43387.38302		64.65000		324.00000 
 43692.65567		 633.21998			43059.43570		188.44800		875.00000 
 43692.65567		 305.27265			43387.38302		64.65000		324.00000 
 43692.65567		 633.21998			43059.43570		188.44800		875.00000 
 43692.65567		 305.27265			43387.38302		64.65000		324.00000 
 43692.65567		 633.21998			43059.43570		188.44800		875.00000 
 43692.65567		 305.27265			43387.38302		64.65000		324.00000 
 43692.65567		 633.21998			43059.43570		188.44800		875.00000 
 43692.65567		 305.27265			43387.38302		64.65000		324.00000 
 43692.65567		 633.21998			43059.43570		188.44800		875.00000 
 43692.65567		 305.27265			43387.38302		64.65000		324.00000 
 43692.65567		 633.21998			43059.43570		188.44800		875.00000 
 43692.65567		 305.27265			43387.38302		64.65000		324.00000 
 43692.65567		 633.21998			43059.43570		188.44800		875.00000 
 43692.65567		 305.27265			43387.38302		64.65000		324.00000 
 43692.65567		 633.21998			43059.43570		188.44800		875.00000 
 43692.65567		 305.27265			43387.38302		64.65000		324.00000 
 43692.65567		 633.21998			43059.43570		188.44800		875.00000 
 43692.65567		 305.27265			43387.38302		64.65000		324.00000 
 43692.65567		 633.21998			43059.43570		188.44800		875.00000 
 43692.65567		 305.27265			43387.38302		64.65000		324.00000 
 43692.65567		 633.21998			43059.43570		188.44800		875.00000 
 43692.65567		 305.27265			43387.38302		64.65000		324.00000 
 43692.65567		 633.21998			43059.43570		188.44800		875.00000 
 43692.65567		 305.27265			43387.38302		64.65000		324.00000 
 43692.65567		 633.21998			43059.43570		188.44800		875.00000 
 43692.65567		 305.27265			43387.38302		64.65000		324.00000 
 43692.65567		 633.21998			43059.43570		188.44800		875.00000 
 43692.65567		 305.27265			43387.38302		64.65000		324.00000 
 43692.65567		 633.21998			43059.43570		188.44800		875.00000 
 43692.65567		 305.27265			43387.38302		64.65000		324.00000 
 43692.65567		 633.21998			43059.43570		188.44800		875.00000 
 43692.65567		 305.27265			43387.38302		64.65000		324.00000 
 43692.65567		 633.21998			43059.43570		188.44800		875.00000 
 43692.65567		 305.27265			43387.38302		64.65000		324.00000 
 43692.65567		 633.21998			43059.43570		188.44800		875.00000 
 43692.65567		 305.27265			43387.38302		64.65000		324.00000 
 43692.65567		 633.21998			43059.43570		188.44800		875.00000 
 43692.65567		 305.27265			43387.38302		64.65000		324.00000 
 43692.65567		 633.21998			43059.43570		188.44800		875.00000 
 43692.65567		 305.27265			43387.38302		64.65000		324.00000 
 43692.65567		 633.21998			43059.43570		188.44800		875.00000 
 43692.65567		 305.27265			43387.38302		64.65000		324.00000 
 43692.65567		 633.21998			43059.43570		188.44800		875.00000 
 43692.65567		 305.27265			43387.38302		64.65000		324.00000 
 43692.65567		 633.21998			43059.43570		188.44800		875.00000 
 43692.65567		 305.27265			43387.38302		64.65000		324.00000 
 43692.65567		 633.21998			43059.43570		188.44800		875.00000 
 43692.65567		 305.27265			43387.38302		64.65000		324.00000 
 43692.65567		 633.21998			43059.43570		188.44800		875.00000 
 43692.65567		 305.27265			43387.38302		64.65000		324.00000 
 43692.65567		 633.21998			43059.43570		188.44800		875.00000 
 43692.65567		 305.27265			43387.38302		64.65000		324.00000 
 43692.65567		 633.21998			43059.43570		188.44800		875.00000 
 43692.65567		 305.27265			43387.38302		64.65000		324.00000 
 43692.65567		 633.21998			43059.43570		188.44800		875.00000 
 43692.65567		 305.27265			43387.38302		64.65000		324.00000 
 43692.65567		 633.21998			43059.43570		188.44800		875.00000 
 43692.65567		 305.27265			43387.38302		64.65000		324.00000 
 43692.65567		 633.21998			43059.43570		188.44800		875.00000 
 43692.65567		 305.27265			43387.38302		64.65000		324.00000 
 43692.65567		 633.21998			43059.43570		188.44800		875.00000 
 43692.65567		 305.27265			43387.38302		64.65000		324.00000 
 43692.65567		 633.21998			43059.43570		188.44800		875.00000 
 43692.65567		 305.27265			43387.38302		64.65000		324.00000 
 43692.65567		 633.21998			43059.43570		188.44800		875.00000 
 43692.65567		 305.27265			43387.38302		64.65000		324.00000 
 43692.65567		 633.21998			43059.43570		206.06600		875.00000 
 43692.65567		 305.27265			43387.38302		64.65000		324.00000 
 43692.65567		 633.21998			43059.43570		206.06600		875.00000 
 43692.65567		 305.27265			43387.38302		64.65000		324.00000 
 43692.65567		 633.21998			43059.43570		206.06600		875.00000 
 43692.65567		 305.27265			43387.38302		64.65000		324.00000 
 43692.65567		 633.21998			43059.43570		206.06600		875.00000 
 43692.65567		 305.27265			43387.38302		64.65000		324.00000 
 43692.65567		 633.21998			43059.43570		206.06600		875.00000 
 43692.65567		 305.27265			43387.38302		64.65000		324.00000 
 43692.65567		 633.21998			43059.43570		206.06600		875.00000 
 43692.65567		 305.27265			43387.38302		64.65000		324.00000 
 43692.65567		 633.21998			43059.43570		206.06600		875.00000 
 43692.65567		 305.27265			43387.38302		64.65000		324.00000 
 43692.65567		 633.21998			43059.43570		206.06600		875.00000 
 43692.65567		 305.27265			43387.38302		64.65000		324.00000 
 43692.65567		 633.21998			43059.43570		206.06600		875.00000 
 43692.65567		 305.27265			43387.38302		64.65000		324.00000 
 43692.65567		 633.21998			43059.43570		206.06600		875.00000 
 43692.65567		 305.27265			43387.38302		64.65000		324.00000 
 43692.65567		 633.21998			43059.43570		206.06600		875.00000 
 43692.65567		 305.27265			43387.38302		64.65000		324.00000 
 43692.65567		 633.21998			43059.43570		206.06600		875.00000 
 43692.65567		 305.27265			43387.38302		64.65000		324.00000 
 43692.65567		 633.21998			43059.43570		206.06600		875.00000 
 43692.65567		 305.27265			43387.38302		64.65000		324.00000 
 43692.65567		 633.21998			43059.43570		206.06600		875.00000 
 43692.65567		 305.27265			43387.38302		64.65000		324.00000 
 43692.65567		 633.21998			43059.43570		206.06600		875.00000 
 43692.65567		 305.27265			43387.38302		64.65000		324.00000 
 43692.65567		 633.21998			43059.43570		206.06600		875.00000 
 43692.65567		 305.27265			43387.38302		64.65000		324.00000 
 43692.65567		 633.21998			43059.43570		206.06600		875.00000 
 43692.65567		 305.27265			43387.38302		64.65000		324.00000 
 43692.65567		 633.21998			43059.43570		206.06600		875.00000 
 43692.65567		 305.27265			43387.38302		64.65000		324.00000 
 43692.65567		 633.21998			43059.43570		206.06600		875.00000 
 43692.65567		 305.27265			43387.38302		64.65000		324.00000 
 43692.65567		 633.21998			43059.43570		206.06600		875.00000 
 43692.65567		 305.27265			43387.38302		64.65000		324.00000 
 43692.65567		 633.21998			43059.43570		206.06600		875.00000 
 43692.65567		 305.27265			43387.38302		64.65000		324.00000 
 43692.65567		 633.21998			43059.43570		206.06600		875.00000 
 43692.65567		 305.27265			43387.38302		64.65000		324.00000 
 43692.65567		 633.21998			43059.43570		206.06600		875.00000 
 43692.65567		 305.27265			43387.38302		64.65000		324.00000 
 43692.65567		 633.21998			43059.43570		206.06600		875.00000 
 43692.65567		 305.27265			43387.38302		64.65000		324.00000 
 43692.65567		 633.21998			43059.43570		206.06600		875.00000 
 43692.65567		 305.27265			43387.38302		64.65000		324.00000 
 43692.65567		 633.21998			43059.43570		206.06600		875.00000 
 43692.65567		 305.27265			43387.38302		64.65000		324.00000 
 43692.65567		 633.21998			43059.43570		206.06600		875.00000 
 43692.65567		 305.27265			43387.38302		64.65000		324.00000 
 43692.65567		 633.21998			43059.43570		206.06600		875.00000 
 43692.65567		 305.27265			43387.38302		64.65000		324.00000 
 43692.65567		 633.21998			43059.43570		206.06600		875.00000 
 43692.65567		 305.27265			43387.38302		64.65000		324.00000 
 43692.65567		 633.21998			43059.43570		206.06600		875.00000 
 43692.65567		 305.27265			43387.38302		64.65000		324.00000 
 43692.65567		 633.21998			43059.43570		206.06600		875.00000 
 43692.65567		 305.27265			43387.38302		64.65000		324.00000 
 43692.65567		 633.21998			43059.43570		206.06600		875.00000 
 43692.65567		 305.27265			43387.38302		64.65000		324.00000 
 43692.65567		 633.21998			43059.43570		206.06600		875.00000 
 43692.65567		 305.27265			43387.38302		64.65000		324.00000 
 43692.65567		 633.21998			43059.43570		206.06600		875.00000 
 43692.65567		 305.27265			43387.38302		64.65000		324.00000 
 43692.65567		 633.21998			43059.43570		206.06600		875.00000 
 43692.65567		 305.27265			43387.38302		64.65000		324.00000 
 43692.65567		 633.21998			43059.43570		206.06600		875.00000 
 43692.65567		 305.27265			43387.38302		64.65000		324.00000 
 43692.65567		 633.21998			43059.43570		206.06600		875.00000 
 43692.65567		 305.27265			43387.38302		64.65000		324.00000 
 43692.65567		 633.21998			43059.43570		206.06600		875.00000 
 43692.65567		 305.27265			43387.38302		64.65000		324.00000 
 43692.65567		 633.21998			43059.43570		206.06600		875.00000 
 43692.65567		 305.27265			43387.38302		64.65000		324.00000 
 43692.65567		 633.21998			43059.43570		206.06600		875.00000 
 43692.65567		 305.27265			43387.38302		64.65000		324.00000 
 43692.65567		 633.21998			43059.43570		206.06600		875.00000 
 43692.65567		 305.27265			43387.38302		64.65000		324.00000 
 43692.65567		 633.21998			43059.43570		206.06600		875.00000 
 43692.65567		 305.27265			43387.38302		64.65000		324.00000 
 43692.65567		 633.21998			43059.43570		206.06600		875.00000 
 43692.65567		 305.27265			43387.38302		64.65000		324.00000 
 43692.65567		 633.21998			43059.43570		206.06600		875.00000 
 43692.65567		 305.27265			43387.38302		64.65000		324.00000 
 43692.65567		 633.21998			43059.43570		206.06600		875.00000 
 43692.65567		 305.27265			43387.38302		64.65000		324.00000 
 43692.65567		 633.21998			43059.43570		206.06600		875.00000 
 43692.65567		 305.27265			43387.38302		64.65000		324.00000 
 43692.65567		 633.21998			43059.43570		206.06600		875.00000 
 43692.65567		 305.27265			43387.38302		64.65000		324.00000 
 43692.65567		 633.21998			43059.43570		206.06600		875.00000 
 43692.65567		 305.27265			43387.38302		64.65000		324.00000 
 43692.65567		 633.21998			43059.43570		206.06600		875.00000 
 43692.65567		 305.27265			43387.38302		64.65000		324.00000 
 43692.65567		 633.21998			43059.43570		206.06600		875.00000 
 43692.65567		 305.27265			43387.38302		64.65000		324.00000 
 43692.65567		 633.21998			43059.43570		206.06600		875.00000 
 43692.65567		 305.27265			43387.38302		64.65000		324.00000 
 43692.65567		 633.21998			43059.43570		206.06600		875.00000 
 43692.65567		 305.27265			43387.38302		64.65000		324.00000 
 43692.65567		 633.21998			43059.43570		206.06600		875.00000 
 43692.65567		 305.27265			43387.38302		64.65000		324.00000 
 43692.65567		 633.21998			43059.43570		206.06600		875.00000 
 43692.65567		 305.27265			43387.38302		64.65000		324.00000 
 43692.65567		 633.21998			43059.43570		206.06600		875.00000 
 43692.65567		 305.27265			43387.38302		64.65000		324.00000 
 43692.65567		 633.21998			43059.43570		206.06600		875.00000 
 43692.65567		 305.27265			43387.38302		64.65000		324.00000 
 43692.65567		 633.21998			43059.43570		206.06600		875.00000 
 43692.65567		 305.27265			43387.38302		64.65000		324.00000 
 43692.65567		 633.21998			43059.43570		206.06600		875.00000 
 43692.65567		 305.27265			43387.38302		64.65000		324.00000 
 43692.65567		 633.21998			43059.43570		206.06600		875.00000 
 43692.65567		 305.27265			43387.38302		64.65000		324.00000 
 43692.65567		 633.21998			43059.43570		206.06600		875.00000 
 43692.65567		 305.27265			43387.38302		64.65000		324.00000 
 43692.65567		 633.21998			43059.43570		206.06600		875.00000 
 43692.65567		 305.27265			43387.38302		64.65000		324.00000 
 43692.65567		 633.21998			43059.43570		206.06600		875.00000 
 43692.65567		 305.27265			43387.38302		64.65000		324.00000 
 43692.65567		 633.21998			43059.43570		206.06600		875.00000 
 43692.65567		 305.27265			43387.38302		64.65000		324.00000 
 43692.65567		 633.21998			43059.43570		206.06600		875.00000 
 43692.65567		 305.27265			43387.38302		64.65000		324.00000 
 43692.65567		 633.21998			43059.43570		212.65400		875.00000 
 43692.65567		 305.27265			43387.38302		64.65000		324.00000 
 43692.65567		 633.21998			43059.43570		212.65400		875.00000 
 43692.65567		 305.27265			43387.38302		64.65000		324.00000 
 43692.65567		 633.21998			43059.43570		212.65400		875.00000 
 43692.65567		 305.27265			43387.38302		64.65000		324.00000 
 43692.65567		 633.21998			43059.43570		212.65400		875.00000 
 43692.65567		 305.27265			43387.38302		64.65000		324.00000 
 43692.65567		 633.21998			43059.43570		212.65400		875.00000 
 43692.65567		 305.27265			43387.38302		64.65000		324.00000 
 43692.65567		 633.21998			43059.43570		212.65400		875.00000 
 43692.65567		 305.27265			43387.38302		64.65000		324.00000 
 43692.65567		 633.21998			43059.43570		212.65400		875.00000 
 43692.65567		 305.27265			43387.38302		64.65000		324.00000 
 43692.65567		 633.21998			43059.43570		212.65400		875.00000 
 43692.65567		 305.27265			43387.38302		64.65000		324.00000 
 43692.65567		 633.21998			43059.43570		212.65400		875.00000 
 43692.65567		 305.27265			43387.38302		64.65000		324.00000 
 43692.65567		 633.21998			43059.43570		212.65400		875.00000 
 43692.65567		 305.27265			43387.38302		64.65000		324.00000 
 43692.65567		 633.21998			43059.43570		212.65400		875.00000 
 43692.65567		 305.27265			43387.38302		64.65000		324.00000 
 43692.65567		 633.21998			43059.43570		212.65400		875.00000 
 43692.65567		 305.27265			43387.38302		64.65000		324.00000 
 43692.65567		 633.21998			43059.43570		212.65400		875.00000 
 43692.65567		 305.27265			43387.38302		64.65000		324.00000 
 43692.65567		 633.21998			43059.43570		212.65400		875.00000 
 43692.65567		 305.27265			43387.38302		64.65000		324.00000 
 43692.65567		 633.21998			43059.43570		212.65400		875.00000 
 43692.65567		 305.27265			43387.38302		64.65000		324.00000 
 43692.65567		 633.21998			43059.43570		212.65400		875.00000 
 43692.65567		 305.27265			43387.38302		64.65000		324.00000 
 43692.65567		 633.21998			43059.43570		212.65400		875.00000 
 43692.65567		 305.27265			43387.38302		64.65000		324.00000 
 43692.65567		 633.21998			43059.43570		212.65400		875.00000 
 43692.65567		 305.27265			43387.38302		64.65000		324.00000 
 43692.65567		 633.21998			43059.43570		212.65400		875.00000 
 43692.65567		 305.27265			43387.38302		64.65000		324.00000 
 43692.65567		 633.21998			43059.43570		212.65400		875.00000 
 43692.65567		 305.27265			43387.38302		64.65000		324.00000 
 43692.65567		 633.21998			43059.43570		212.65400		875.00000 
 43692.65567		 305.27265			43387.38302		64.65000		324.00000 
 43692.65567		 633.21998			43059.43570		212.65400		875.00000 
 43692.65567		 305.27265			43387.38302		64.65000		324.00000 
 43692.65567		 633.21998			43059.43570		212.65400		875.00000 
 43692.65567		 305.27265			43387.38302		64.65000		324.00000 
 43692.65567		 633.21998			43059.43570		212.65400		875.00000 
 43692.65567		 305.27265			43387.38302		64.65000		324.00000 
 43692.65567		 633.21998			43059.43570		212.65400		875.00000 
 43692.65567		 305.27265			43387.38302		64.65000		324.00000 
 43692.65567		 633.21998			43059.43570		212.65400		875.00000 
 43692.65567		 305.27265			43387.38302		64.65000		324.00000 
 43692.65567		 633.21998			43059.43570		212.65400		875.00000 
 43692.65567		 305.27265			43387.38302		64.65000		324.00000 
 43692.65567		 633.21998			43059.43570		212.65400		875.00000 
 43692.65567		 305.27265			43387.38302		64.65000		324.00000 
 43692.65567		 633.21998			43059.43570		212.65400		875.00000 
 43692.65567		 305.27265			43387.38302		64.65000		324.00000 
 43692.65567		 633.21998			43059.43570		212.65400		875.00000 
 43692.65567		 305.27265			43387.38302		64.65000		324.00000 
 43692.65567		 633.21998			43059.43570		212.65400		875.00000 
 43692.65567		 305.27265			43387.38302		64.65000		324.00000 
 43692.65567		 633.21998			43059.43570		212.65400		875.00000 
 43692.65567		 305.27265			43387.38302		64.65000		324.00000 
 43692.65567		 633.21998			43059.43570		212.65400		875.00000 
 43692.65567		 305.27265			43387.38302		64.65000		324.00000 
 43692.65567		 633.21998			43059.43570		212.65400		875.00000 
 43692.65567		 305.27265			43387.38302		64.65000		324.00000 
 43692.65567		 633.21998			43059.43570		212.65400		875.00000 
 43692.65567		 305.27265			43387.38302		64.65000		324.00000 
 43692.65567		 633.21998			43059.43570		212.65400		875.00000 
 43692.65567		 305.27265			43387.38302		64.65000		324.00000 
 43692.65567		 633.21998			43059.43570		212.65400		875.00000 
 43692.65567		 305.27265			43387.38302		64.65000		324.00000 
 43692.65567		 633.21998			43059.43570		212.65400		875.00000 
 43692.65567		 305.27265			43387.38302		64.65000		324.00000 
 43692.65567		 633.21998			43059.43570		212.65400		875.00000 
 43692.65567		 305.27265			43387.38302		64.65000		324.00000 
 43692.65567		 633.21998			43059.43570		212.65400		875.00000 
 43692.65567		 305.27265			43387.38302		64.65000		324.00000 
 43692.65567		 633.21998			43059.43570		212.65400		875.00000 
 43692.65567		 305.27265			43387.38302		64.65000		324.00000 
 43692.65567		 633.21998			43059.43570		212.65400		875.00000 
 43692.65567		 305.27265			43387.38302		64.65000		324.00000 
 43692.65567		 633.21998			43059.43570		212.65400		875.00000 
 43692.65567		 305.27265			43387.38302		64.65000		324.00000 
 43692.65567		 633.21998			43059.43570		212.65400		875.00000 
 43692.65567		 305.27265			43387.38302		64.65000		324.00000 
 43692.65567		 633.21998			43059.43570		212.65400		875.00000 
 43692.65567		 305.27265			43387.38302		64.65000		324.00000 
 43692.65567		 633.21998			43059.43570		212.65400		875.00000 
 43692.65567		 305.27265			43387.38302		64.65000		324.00000 
 43692.65567		 633.21998			43059.43570		212.65400		875.00000 
 43692.65567		 305.27265			43387.38302		64.65000		324.00000 
 43692.65567		 633.21998			43059.43570		212.65400		875.00000 
 43692.65567		 305.27265			43387.38302		64.65000		324.00000 
 43692.65567		 633.21998			43059.43570		212.65400		875.00000 
 43692.65567		 305.27265			43387.38302		64.65000		324.00000 
 43692.65567		 633.21998			43059.43570		212.65400		875.00000 
 43692.65567		 305.27265			43387.38302		64.65000		324.00000 
 43692.65567		 633.21998			43059.43570		212.65400		875.00000 
 43692.65567		 305.27265			43387.38302		64.65000		324.00000 
 43692.65567		 633.21998			43059.43570		212.65400		875.00000 
 43692.65567		 305.27265			43387.38302		64.65000		324.00000 
 43692.65567		 633.21998			43059.43570		212.65400		875.00000 
 43692.65567		 305.27265			43387.38302		64.65000		324.00000 
 43692.65567		 633.21998			43059.43570		212.65400		875.00000 
 43692.65567		 305.27265			43387.38302		64.65000		324.00000 
 43692.65567		 633.21998			43059.43570		212.65400		875.00000 
 43692.65567		 305.27265			43387.38302		64.65000		324.00000 
 43692.65567		 633.21998			43059.43570		212.65400		875.00000 
 43692.65567		 305.27265			43387.38302		64.65000		324.00000 
 43692.65567		 633.21998			43059.43570		212.65400		875.00000 
 43692.65567		 305.27265			43387.38302		64.65000		324.00000 
 43692.65567		 633.21998			43059.43570		212.65400		875.00000 
 43692.65567		 305.27265			43387.38302		64.65000		324.00000 
 43692.65567		 633.21998			43059.43570		212.65400		875.00000 
 43692.65567		 305.27265			43387.38302		64.65000		324.00000 
 43692.65567		 633.21998			43059.43570		212.65400		875.00000 
 43692.65567		 305.27265			43387.38302		64.65000		324.00000 
 43692.65567		 633.21998			43059.43570		212.65400		875.00000 
 43692.65567		 305.27265			43387.38302		64.65000		324.00000 
 43692.65567		 633.21998			43059.43570		212.65400		875.00000 
 43692.65567		 305.27265			43387.38302		64.65000		324.00000 
 43692.65567		 633.21998			43059.43570		212.65400		875.00000 
 43692.65567		 305.27265			43387.38302		64.65000		324.00000 
 43692.65567		 633.21998			43059.43570		212.65400		875.00000 
 43692.65567		 305.27265			43387.38302		64.65000		324.00000 
 43692.65567		 633.21998			43059.43570		214.95600		875.00000 
 43692.65567		 305.27265			43387.38302		64.65000		324.00000 
 43692.65567		 633.21998			43059.43570		214.95600		875.00000 
 43692.65567		 305.27265			43387.38302		64.65000		324.00000 
 43692.65567		 633.21998			43059.43570		214.95600		875.00000 
 43692.65567		 305.27265			43387.38302		64.65000		324.00000 
 43692.65567		 633.21998			43059.43570		214.95600		875.00000 
 43692.65567		 305.27265			43387.38302		64.65000		324.00000 
 43692.65567		 633.21998			43059.43570		214.95600		875.00000 
 43692.65567		 305.27265			43387.38302		64.65000		324.00000 
 43692.65567		 633.21998			43059.43570		214.95600		875.00000 
 43692.65567		 305.27265			43387.38302		64.65000		324.00000 
 43692.65567		 633.21998			43059.43570		214.95600		875.00000 
 43692.65567		 305.27265			43387.38302		64.65000		324.00000 
 43692.65567		 633.21998			43059.43570		214.95600		875.00000 
 43692.65567		 305.27265			43387.38302		64.65000		324.00000 
 43692.65567		 633.21998			43059.43570		214.95600		875.00000 
 43692.65567		 305.27265			43387.38302		64.65000		324.00000 
 43692.65567		 633.21998			43059.43570		214.95600		875.00000 
 43692.65567		 305.27265			43387.38302		64.65000		324.00000 
 43692.65567		 633.21998			43059.43570		214.95600		875.00000 
 43692.65567		 305.27265			43387.38302		64.65000		324.00000 
 43692.65567		 633.21998			43059.43570		214.95600		875.00000 
 43692.65567		 305.27265			43387.38302		64.65000		324.00000 
 43692.65567		 633.21998			43059.43570		214.95600		875.00000 
 43692.65567		 305.27265			43387.38302		64.65000		324.00000 
 43692.65567		 633.21998			43059.43570		214.95600		875.00000 
 43692.65567		 305.27265			43387.38302		64.65000		324.00000 
 43692.65567		 633.21998			43059.43570		214.95600		875.00000 
 43692.65567		 305.27265			43387.38302		64.65000		324.00000 
 43692.65567		 633.21998			43059.43570		214.95600		875.00000 
 43692.65567		 305.27265			43387.38302		64.65000		324.00000 
 43692.65567		 633.21998			43059.43570		214.95600		875.00000 
 43692.65567		 305.27265			43387.38302		64.65000		324.00000 
 43692.65567		 633.21998			43059.43570		214.95600		875.00000 
 43692.65567		 305.27265			43387.38302		64.65000		324.00000 
 43692.65567		 633.21998			43059.43570		214.95600		875.00000 
 43692.65567		 305.27265			43387.38302		64.65000		324.00000 
 43692.65567		 633.21998			43059.43570		214.95600		875.00000 
 43692.65567		 305.27265			43387.38302		64.65000		324.00000 
 43692.65567		 633.21998			43059.43570		214.95600		875.00000 
 43692.65567		 305.27265			43387.38302		64.65000		324.00000 
 43692.65567		 633.21998			43059.43570		214.95600		875.00000 
 43692.65567		 305.27265			43387.38302		64.65000		324.00000 
 43692.65567		 633.21998			43059.43570		214.95600		875.00000 
 43692.65567		 305.27265			43387.38302		64.65000		324.00000 
 43692.65567		 633.21998			43059.43570		214.95600		875.00000 
 43692.65567		 305.27265			43387.38302		64.65000		324.00000 
 43692.65567		 633.21998			43059.43570		214.95600		875.00000 
 43692.65567		 305.27265			43387.38302		64.65000		324.00000 
 43692.65567		 633.21998			43059.43570		214.95600		875.00000 
 43692.65567		 305.27265			43387.38302		64.65000		324.00000 
 43692.65567		 633.21998			43059.43570		214.95600		875.00000 
 43692.65567		 305.27265			43387.38302		64.65000		324.00000 
 43692.65567		 633.21998			43059.43570		214.95600		875.00000 
 43692.65567		 305.27265			43387.38302		64.65000		324.00000 
 43692.65567		 633.21998			43059.43570		214.95600		875.00000 
 43692.65567		 305.27265			43387.38302		64.65000		324.00000 
 43692.65567		 633.21998			43059.43570		214.95600		875.00000 
 43692.65567		 305.27265			43387.38302		64.65000		324.00000 
 43692.65567		 633.21998			43059.43570		214.95600		875.00000 
 43692.65567		 305.27265			43387.38302		64.65000		324.00000 
 43692.65567		 633.21998			43059.43570		214.95600		875.00000 
 43692.65567		 305.27265			43387.38302		64.65000		324.00000 
 43692.65567		 633.21998			43059.43570		214.95600		875.00000 
 43692.65567		 305.27265			43387.38302		64.65000		324.00000 
 43692.65567		 633.21998			43059.43570		214.95600		875.00000 
 43692.65567		 305.27265			43387.38302		64.65000		324.00000 
 43692.65567		 633.21998			43059.43570		214.95600		875.00000 
 43692.65567		 305.27265			43387.38302		64.65000		324.00000 
 43692.65567		 633.21998			43059.43570		214.95600		875.00000 
 43692.65567		 305.27265			43387.38302		64.65000		324.00000 
 43692.65567		 633.21998			43059.43570		214.95600		875.00000 
 43692.65567		 305.27265			43387.38302		64.65000		324.00000 
 43692.65567		 633.21998			43059.43570		214.95600		875.00000 
 43692.65567		 305.27265			43387.38302		64.65000		324.00000 
 43692.65567		 633.21998			43059.43570		214.95600		875.00000 
 43692.65567		 305.27265			43387.38302		64.65000		324.00000 
 43692.65567		 633.21998			43059.43570		214.95600		875.00000 
 43692.65567		 305.27265			43387.38302		64.65000		324.00000 
 43692.65567		 633.21998			43059.43570		214.95600		875.00000 
 43692.65567		 305.27265			43387.38302		64.65000		324.00000 
 43692.65567		 633.21998			43059.43570		214.95600		875.00000 
 43692.65567		 305.27265			43387.38302		64.65000		324.00000 
 43692.65567		 633.21998			43059.43570		214.95600		875.00000 
 43692.65567		 305.27265			43387.38302		64.65000		324.00000 
 43692.65567		 633.21998			43059.43570		214.95600		875.00000 
 43692.65567		 305.27265			43387.38302		64.65000		324.00000 
 43692.65567		 633.21998			43059.43570		214.95600		875.00000 
 43692.65567		 305.27265			43387.38302		64.65000		324.00000 
 43692.65567		 633.21998			43059.43570		214.95600		875.00000 
 43692.65567		 305.27265			43387.38302		64.65000		324.00000 
 43692.65567		 633.21998			43059.43570		214.95600		875.00000 
 43692.65567		 305.27265			43387.38302		64.65000		324.00000 
 43692.65567		 633.21998			43059.43570		214.95600		875.00000 
 43692.65567		 305.27265			43387.38302		64.65000		324.00000 
 43692.65567		 633.21998			43059.43570		214.95600		875.00000 
 43692.65567		 305.27265			43387.38302		64.65000		324.00000 
 43692.65567		 633.21998			43059.43570		214.95600		875.00000 
 43692.65567		 305.27265			43387.38302		64.65000		324.00000 
 43692.65567		 633.21998			43059.43570		214.95600		875.00000 
 43692.65567		 305.27265			43387.38302		64.65000		324.00000 
 43692.65567		 633.21998			43059.43570		214.95600		875.00000 
 43692.65567		 305.27265			43387.38302		64.65000		324.00000 
 43692.65567		 633.21998			43059.43570		214.95600		875.00000 
 43692.65567		 305.27265			43387.38302		64.65000		324.00000 
 43692.65567		 633.21998			43059.43570		214.95600		875.00000 
 43692.65567		 305.27265			43387.38302		64.65000		324.00000 
 43692.65567		 633.21998			43059.43570		214.95600		875.00000 
 43692.65567		 305.27265			43387.38302		64.65000		324.00000 
 43692.65567		 633.21998			43059.43570		214.95600		875.00000 
 43692.65567		 305.27265			43387.38302		64.65000		324.00000 
 43692.65567		 633.21998			43059.43570		214.95600		875.00000 
 43692.65567		 305.27265			43387.38302		64.65000		324.00000 
 43692.65567		 633.21998			43059.43570		214.95600		875.00000 
 43692.65567		 305.27265			43387.38302		64.65000		324.00000 
 43692.65567		 633.21998			43059.43570		214.95600		875.00000 
 43692.65567		 305.27265			43387.38302		64.65000		324.00000 
 43692.65567		 633.21998			43059.43570		214.95600		875.00000 
 43692.65567		 305.27265			43387.38302		64.65000		324.00000 
 43692.65567		 633.21998			43059.43570		214.95600		875.00000 
 43692.65567		 305.27265			43387.38302		64.65000		324.00000 
 43692.65567		 633.21998			43059.43570		214.95600		875.00000 
 43692.65567		 305.27265			43387.38302		64.65000		324.00000 
 43692.65567		 633.21998			43059.43570		214.95600		875.00000 
 43692.65567		 305.27265			43387.38302		64.65000		324.00000 
 43692.65567		 633.21998			43059.43570		214.95600		875.00000 
 43692.65567		 305.27265			43387.38302		64.65000		324.00000 
 43692.65567		 633.21998			43059.43570		215.70400		875.00000 
 43692.65567		 305.27265			43387.38302		64.65000		324.00000 
 43692.65567		 633.21998			43059.43570		215.70400		875.00000 
 43692.65567		 305.27265			43387.38302		64.65000		324.00000 
 43692.65567		 633.21998			43059.43570		215.70400		875.00000 
 43692.65567		 305.27265			43387.38302		64.65000		324.00000 
 43692.65567		 633.21998			43059.43570		215.70400		875.00000 
 43692.65567		 305.27265			43387.38302		64.65000		324.00000 
 43692.65567		 633.21998			43059.43570		215.70400		875.00000 
 43692.65567		 305.27265			43387.38302		64.65000		324.00000 
 43692.65567		 633.21998			43059.43570		215.70400		875.00000 
 43692.65567		 305.27265			43387.38302		64.65000		324.00000 
 43692.65567		 633.21998			43059.43570		215.70400		875.00000 
 43692.65567		 305.27265			43387.38302		64.65000		324.00000 
 43692.65567		 633.21998			43059.43570		215.70400		875.00000 
 43692.65567		 305.27265			43387.38302		64.65000		324.00000 
 43692.65567		 633.21998			43059.43570		215.70400		875.00000 
 43692.65567		 305.27265			43387.38302		64.65000		324.00000 
 43692.65567		 633.21998			43059.43570		215.70400		875.00000 
 43692.65567		 305.27265			43387.38302		64.65000		324.00000 
 43692.65567		 633.21998			43059.43570		215.70400		875.00000 
 43692.65567		 305.27265			43387.38302		64.65000		324.00000 
 43692.65567		 633.21998			43059.43570		215.70400		875.00000 
 43692.65567		 305.27265			43387.38302		64.65000		324.00000 
 43692.65567		 633.21998			43059.43570		215.70400		875.00000 
 43692.65567		 305.27265			43387.38302		64.65000		324.00000 
 43692.65567		 633.21998			43059.43570		215.70400		875.00000 
 43692.65567		 305.27265			43387.38302		64.65000		324.00000 
 43692.65567		 633.21998			43059.43570		215.70400		875.00000 
 43692.65567		 305.27265			43387.38302		64.65000		324.00000 
 43692.65567		 633.21998			43059.43570		215.70400		875.00000 
 43692.65567		 305.27265			43387.38302		64.65000		324.00000 
 43692.65567		 633.21998			43059.43570		215.70400		875.00000 
 43692.65567		 305.27265			43387.38302		64.65000		324.00000 
 43692.65567		 633.21998			43059.43570		215.70400		875.00000 
 43692.65567		 305.27265			43387.38302		64.65000		324.00000 
 43692.65567		 633.21998			43059.43570		215.70400		875.00000 
 43692.65567		 305.27265			43387.38302		64.65000		324.00000 
 43692.65567		 633.21998			43059.43570		215.70400		875.00000 
 43692.65567		 305.27265			43387.38302		64.65000		324.00000 
 43692.65567		 633.21998			43059.43570		215.70400		875.00000 
 43692.65567		 305.27265			43387.38302		64.65000		324.00000 
 43692.65567		 633.21998			43059.43570		215.70400		875.00000 
 43692.65567		 305.27265			43387.38302		64.65000		324.00000 
 43692.65567		 633.21998			43059.43570		215.70400		875.00000 
 43692.65567		 305.27265			43387.38302		64.65000		324.00000 
 43692.65567		 633.21998			43059.43570		215.70400		875.00000 
 43692.65567		 305.27265			43387.38302		64.65000		324.00000 
 43692.65567		 633.21998			43059.43570		215.70400		875.00000 
 43692.65567		 305.27265			43387.38302		64.65000		324.00000 
 43692.65567		 633.21998			43059.43570		215.70400		875.00000 
 43692.65567		 305.27265			43387.38302		64.65000		324.00000 
 43692.65567		 633.21998			43059.43570		215.70400		875.00000 
 43692.65567		 305.27265			43387.38302		64.65000		324.00000 
 43692.65567		 633.21998			43059.43570		215.70400		875.00000 
 43692.65567		 305.27265			43387.38302		64.65000		324.00000 
 43692.65567		 633.21998			43059.43570		215.70400		875.00000 
 43692.65567		 305.27265			43387.38302		64.65000		324.00000 
 43692.65567		 633.21998			43059.43570		215.70400		875.00000 
 43692.65567		 305.27265			43387.38302		64.65000		324.00000 
 43692.65567		 633.21998			43059.43570		215.70400		875.00000 
 43692.65567		 305.27265			43387.38302		64.65000		324.00000 
 43692.65567		 633.21998			43059.43570		215.70400		875.00000 
 43692.65567		 305.27265			43387.38302		64.65000		324.00000 
 43692.65567		 633.21998			43059.43570		215.70400		875.00000 
 43692.65567		 305.27265			43387.38302		64.65000		324.00000 
 43692.65567		 633.21998			43059.43570		215.70400		875.00000 
 43692.65567		 305.27265			43387.38302		64.65000		324.00000 
 43692.65567		 633.21998			43059.43570		215.70400		875.00000 
 43692.65567		 305.27265			43387.38302		64.65000		324.00000 
 43692.65567		 633.21998			43059.43570		215.70400		875.00000 
 43692.65567		 305.27265			43387.38302		64.65000		324.00000 
 43692.65567		 633.21998			43059.43570		215.70400		875.00000 
 43692.65567		 305.27265			43387.38302		64.65000		324.00000 
 43692.65567		 633.21998			43059.43570		215.70400		875.00000 
 43692.65567		 305.27265			43387.38302		64.65000		324.00000 
 43692.65567		 633.21998			43059.43570		215.70400		875.00000 
 43692.65567		 305.27265			43387.38302		64.65000		324.00000 
 43692.65567		 633.21998			43059.43570		215.70400		875.00000 
 43692.65567		 305.27265			43387.38302		64.65000		324.00000 
 43692.65567		 601.23676			43091.41891		215.70400		875.00000 
 43692.65567		 305.27265			43387.38302		64.65000		324.00000 
 43692.65567		 537.27032			43155.38535		215.70400		875.00000 
 43692.65567		 305.27265			43387.38302		64.65000		324.00000 
 43692.65567		 537.27032			43155.38535		215.70400		875.00000 
 43692.65567		 305.27265			43387.38302		64.65000		324.00000 
 43692.65567		 537.27032			43155.38535		215.70400		875.00000 
 43692.65567		 305.27265			43387.38302		64.65000		324.00000 
 43692.65567		 537.27032			43155.38535		215.70400		875.00000 
 43692.65567		 305.27265			43387.38302		64.65000		324.00000 
 43692.65567		 537.27032			43155.38535		215.70400		875.00000 
 43692.65567		 305.27265			43387.38302		64.65000		324.00000 
 43692.65567		 537.27032			43155.38535		215.70400		875.00000 
 43692.65567		 305.27265			43387.38302		64.65000		324.00000 
 43692.65567		 537.27032			43155.38535		215.70400		875.00000 
 43692.65567		 305.27265			43387.38302		64.65000		324.00000 
 43692.65567		 537.27032			43155.38535		215.70400		875.00000 
 43692.65567		 305.27265			43387.38302		64.65000		324.00000 
 43692.65567		 537.27032			43155.38535		215.70400		875.00000 
 43692.65567		 305.27265			43387.38302		64.65000		324.00000 
 43692.65567		 537.27032			43155.38535		215.70400		875.00000 
 43692.65567		 305.27265			43387.38302		64.65000		324.00000 
 43692.65567		 537.27032			43155.38535		215.70400		875.00000 
 43692.65567		 305.27265			43387.38302		64.65000		324.00000 
 43692.65567		 537.27032			43155.38535		215.70400		875.00000 
 43692.65567		 305.27265			43387.38302		64.65000		324.00000 
 43692.65567		 537.27032			43155.38535		215.70400		875.00000 
 43692.65567		 305.27265			43387.38302		64.65000		324.00000 
 43692.65567		 537.27032			43155.38535		215.70400		875.00000 
 43692.65567		 305.27265			43387.38302		64.65000		324.00000 
 43692.65567		 537.27032			43155.38535		215.70400		875.00000 
 43692.65567		 305.27265			43387.38302		64.65000		324.00000 
 43692.65567		 537.27032			43155.38535		215.70400		875.00000 
 43692.65567		 305.27265			43387.38302		64.65000		324.00000 
 43692.65567		 537.27032			43155.38535		215.70400		875.00000 
 43692.65567		 305.27265			43387.38302		64.65000		324.00000 
 43692.65567		 537.27032			43155.38535		215.70400		875.00000 
 43692.65567		 305.27265			43387.38302		64.65000		324.00000 
 43692.65567		 537.27032			43155.38535		189.77200		875.00000 
 43692.65567		 305.27265			43387.38302		64.65000		324.00000 
 43692.65567		 537.27032			43155.38535		189.77200		875.00000 
 43692.65567		 305.27265			43387.38302		64.65000		324.00000 
 43692.65567		 525.81365			43166.84203		189.77200		875.00000 
 43692.65567		 305.27265			43387.38302		64.65000		324.00000 
 43692.65567		 525.81365			43166.84203		189.77200		875.00000 
 43692.65567		 261.35540			43431.30027		64.65000		324.00000 
 43692.65567		 261.35540			43431.30027		189.77200		875.00000 
 43692.65567		 261.35540			43431.30027		64.65000		324.00000 
