Memory Total (MiB) 	 Memory Used (MiB) 	    Memory Free (MiB) 	 Power Drawed (W) 	 Clocks (Mhz) 	 
 43692.65567		 261.35540			43431.30027		224.98400		875.00000 
 43692.65567		 261.35540			43431.30027		69.17400		324.00000 
 43692.65567		 261.35540			43431.30027		224.98400		875.00000 
 43692.65567		 261.35540			43431.30027		69.17400		324.00000 
 43692.65567		 261.35540			43431.30027		224.98400		875.00000 
 43692.65567		 261.35540			43431.30027		69.17400		324.00000 
 43692.65567		 261.35540			43431.30027		170.35600		875.00000 
 43692.65567		 261.35540			43431.30027		69.17400		324.00000 
 43692.65567		 261.35540			43431.30027		170.35600		875.00000 
 43692.65567		 261.35540			43431.30027		69.17400		324.00000 
 43692.65567		 261.35540			43431.30027		170.35600		875.00000 
 43692.65567		 261.35540			43431.30027		69.17400		324.00000 
 43692.65567		 261.35540			43431.30027		170.35600		875.00000 
 43692.65567		 261.35540			43431.30027		69.17400		324.00000 
 43692.65567		 261.35540			43431.30027		170.35600		875.00000 
 43692.65567		 261.35540			43431.30027		69.17400		324.00000 
 43692.65567		 261.35540			43431.30027		170.35600		875.00000 
 43692.65567		 261.35540			43431.30027		69.17400		324.00000 
 43692.65567		 261.35540			43431.30027		170.35600		875.00000 
 43692.65567		 261.35540			43431.30027		69.17400		324.00000 
 43692.65567		 261.35540			43431.30027		170.35600		875.00000 
 43692.65567		 261.35540			43431.30027		69.17400		324.00000 
 43692.65567		 261.35540			43431.30027		170.35600		875.00000 
 43692.65567		 261.35540			43431.30027		69.17400		324.00000 
 43692.65567		 261.35540			43431.30027		170.35600		875.00000 
 43692.65567		 261.35540			43431.30027		69.17400		324.00000 
 43692.65567		 261.35540			43431.30027		170.35600		875.00000 
 43692.65567		 261.35540			43431.30027		69.17400		324.00000 
 43692.65567		 261.35540			43431.30027		170.35600		875.00000 
 43692.65567		 261.35540			43431.30027		69.17400		324.00000 
 43692.65567		 261.35540			43431.30027		170.35600		875.00000 
 43692.65567		 261.35540			43431.30027		69.17400		324.00000 
 43692.65567		 261.35540			43431.30027		170.35600		875.00000 
 43692.65567		 261.35540			43431.30027		69.17400		324.00000 
 43692.65567		 261.35540			43431.30027		170.35600		875.00000 
 43692.65567		 261.35540			43431.30027		69.17400		324.00000 
 43692.65567		 265.17429			43427.48138		170.35600		875.00000 
 43692.65567		 261.35540			43431.30027		69.17400		324.00000 
 43692.65567		 272.81207			43419.84360		170.35600		875.00000 
 43692.65567		 261.35540			43431.30027		69.17400		324.00000 
 43692.65567		 272.81207			43419.84360		170.35600		875.00000 
 43692.65567		 261.35540			43431.30027		69.17400		324.00000 
 43692.65567		 272.81207			43419.84360		170.35600		875.00000 
 43692.65567		 265.17429			43427.48138		69.17400		324.00000 
 43692.65567		 272.81207			43419.84360		170.35600		875.00000 
 43692.65567		 265.17429			43427.48138		69.17400		324.00000 
 43692.65567		 272.81207			43419.84360		170.35600		875.00000 
 43692.65567		 265.17429			43427.48138		69.17400		324.00000 
 43692.65567		 272.81207			43419.84360		170.35600		875.00000 
 43692.65567		 272.81207			43419.84360		69.17400		324.00000 
 43692.65567		 272.81207			43419.84360		170.35600		875.00000 
 43692.65567		 272.81207			43419.84360		69.17400		324.00000 
 43692.65567		 272.81207			43419.84360		170.35600		875.00000 
 43692.65567		 272.81207			43419.84360		69.17400		324.00000 
 43692.65567		 305.27265			43387.38302		170.35600		875.00000 
 43692.65567		 305.27265			43387.38302		69.17400		324.00000 
 43692.65567		 305.27265			43387.38302		170.35600		875.00000 
 43692.65567		 305.27265			43387.38302		69.17400		324.00000 
 43692.65567		 305.27265			43387.38302		170.35600		875.00000 
 43692.65567		 305.27265			43387.38302		69.17400		324.00000 
 43692.65567		 305.27265			43387.38302		170.35600		875.00000 
 43692.65567		 305.27265			43387.38302		69.17400		324.00000 
 43692.65567		 305.27265			43387.38302		170.35600		875.00000 
 43692.65567		 305.27265			43387.38302		69.17400		324.00000 
 43692.65567		 309.56891			43383.08677		170.35600		875.00000 
 43692.65567		 305.27265			43387.38302		69.17400		324.00000 
 43692.65567		 311.00099			43381.65468		170.35600		875.00000 
 43692.65567		 305.27265			43387.38302		69.17400		324.00000 
 43692.65567		 311.00099			43381.65468		170.35600		875.00000 
 43692.65567		 305.27265			43387.38302		69.17400		324.00000 
 43692.65567		 311.00099			43381.65468		170.35600		875.00000 
 43692.65567		 305.27265			43387.38302		69.17400		324.00000 
 43692.65567		 311.00099			43381.65468		170.35600		875.00000 
 43692.65567		 305.27265			43387.38302		69.17400		324.00000 
 43692.65567		 311.00099			43381.65468		170.35600		875.00000 
 43692.65567		 305.27265			43387.38302		69.17400		324.00000 
 43692.65567		 311.00099			43381.65468		146.30400		875.00000 
 43692.65567		 305.27265			43387.38302		69.17400		324.00000 
 43692.65567		 311.00099			43381.65468		146.30400		875.00000 
 43692.65567		 305.27265			43387.38302		69.17400		324.00000 
 43692.65567		 311.00099			43381.65468		146.30400		875.00000 
 43692.65567		 305.27265			43387.38302		69.17400		324.00000 
 43692.65567		 311.00099			43381.65468		146.30400		875.00000 
 43692.65567		 305.27265			43387.38302		69.17400		324.00000 
 43692.65567		 311.00099			43381.65468		146.30400		875.00000 
 43692.65567		 305.27265			43387.38302		69.17400		324.00000 
 43692.65567		 311.00099			43381.65468		146.30400		875.00000 
 43692.65567		 305.27265			43387.38302		69.17400		324.00000 
 43692.65567		 311.00099			43381.65468		146.30400		875.00000 
 43692.65567		 305.27265			43387.38302		69.17400		324.00000 
 43692.65567		 311.00099			43381.65468		146.30400		875.00000 
 43692.65567		 305.27265			43387.38302		69.17400		324.00000 
 43692.65567		 311.00099			43381.65468		146.30400		875.00000 
 43692.65567		 305.27265			43387.38302		69.17400		324.00000 
 43692.65567		 311.00099			43381.65468		146.30400		875.00000 
 43692.65567		 305.27265			43387.38302		69.17400		324.00000 
 43692.65567		 311.00099			43381.65468		146.30400		875.00000 
 43692.65567		 305.27265			43387.38302		69.17400		324.00000 
 43692.65567		 311.00099			43381.65468		146.30400		875.00000 
 43692.65567		 305.27265			43387.38302		69.17400		324.00000 
 43692.65567		 311.00099			43381.65468		146.30400		875.00000 
 43692.65567		 305.27265			43387.38302		69.17400		324.00000 
 43692.65567		 311.00099			43381.65468		146.30400		875.00000 
 43692.65567		 305.27265			43387.38302		69.17400		324.00000 
 43692.65567		 311.00099			43381.65468		146.30400		875.00000 
 43692.65567		 305.27265			43387.38302		69.17400		324.00000 
 43692.65567		 311.00099			43381.65468		146.30400		875.00000 
 43692.65567		 305.27265			43387.38302		69.17400		324.00000 
 43692.65567		 311.00099			43381.65468		146.30400		875.00000 
 43692.65567		 305.27265			43387.38302		69.17400		324.00000 
 43692.65567		 311.00099			43381.65468		146.30400		875.00000 
 43692.65567		 305.27265			43387.38302		69.17400		324.00000 
 43692.65567		 311.00099			43381.65468		146.30400		875.00000 
 43692.65567		 305.27265			43387.38302		69.17400		324.00000 
 43692.65567		 311.00099			43381.65468		146.30400		875.00000 
 43692.65567		 305.27265			43387.38302		69.17400		324.00000 
 43692.65567		 311.00099			43381.65468		146.30400		875.00000 
 43692.65567		 305.27265			43387.38302		69.17400		324.00000 
 43692.65567		 311.00099			43381.65468		146.30400		875.00000 
 43692.65567		 305.27265			43387.38302		69.17400		324.00000 
 43692.65567		 311.00099			43381.65468		146.30400		875.00000 
 43692.65567		 305.27265			43387.38302		69.17400		324.00000 
 43692.65567		 311.00099			43381.65468		146.30400		875.00000 
 43692.65567		 305.27265			43387.38302		69.17400		324.00000 
 43692.65567		 311.00099			43381.65468		146.30400		875.00000 
 43692.65567		 305.27265			43387.38302		69.17400		324.00000 
 43692.65567		 311.00099			43381.65468		146.30400		875.00000 
 43692.65567		 305.27265			43387.38302		69.17400		324.00000 
 43692.65567		 311.00099			43381.65468		146.30400		875.00000 
 43692.65567		 305.27265			43387.38302		69.17400		324.00000 
 43692.65567		 311.00099			43381.65468		146.30400		875.00000 
 43692.65567		 305.27265			43387.38302		69.17400		324.00000 
 43692.65567		 311.00099			43381.65468		146.30400		875.00000 
 43692.65567		 305.27265			43387.38302		69.17400		324.00000 
 43692.65567		 311.00099			43381.65468		146.30400		875.00000 
 43692.65567		 305.27265			43387.38302		69.17400		324.00000 
 43692.65567		 311.00099			43381.65468		146.30400		875.00000 
 43692.65567		 305.27265			43387.38302		69.17400		324.00000 
 43692.65567		 311.00099			43381.65468		136.53400		875.00000 
 43692.65567		 305.27265			43387.38302		69.17400		324.00000 
 43692.65567		 311.00099			43381.65468		136.53400		875.00000 
 43692.65567		 305.27265			43387.38302		69.17400		324.00000 
 43692.65567		 311.00099			43381.65468		136.53400		875.00000 
 43692.65567		 305.27265			43387.38302		69.17400		324.00000 
 43692.65567		 311.00099			43381.65468		136.53400		875.00000 
 43692.65567		 305.27265			43387.38302		69.17400		324.00000 
 43692.65567		 311.00099			43381.65468		136.53400		875.00000 
 43692.65567		 305.27265			43387.38302		69.17400		324.00000 
 43692.65567		 311.00099			43381.65468		136.53400		875.00000 
 43692.65567		 305.27265			43387.38302		69.17400		324.00000 
 43692.65567		 311.00099			43381.65468		136.53400		875.00000 
 43692.65567		 305.27265			43387.38302		69.17400		324.00000 
 43692.65567		 311.00099			43381.65468		136.53400		875.00000 
 43692.65567		 305.27265			43387.38302		69.17400		324.00000 
 43692.65567		 311.00099			43381.65468		136.53400		875.00000 
 43692.65567		 305.27265			43387.38302		69.17400		324.00000 
 43692.65567		 311.00099			43381.65468		136.53400		875.00000 
 43692.65567		 305.27265			43387.38302		69.17400		324.00000 
 43692.65567		 311.00099			43381.65468		136.53400		875.00000 
 43692.65567		 305.27265			43387.38302		69.17400		324.00000 
 43692.65567		 311.00099			43381.65468		136.53400		875.00000 
 43692.65567		 305.27265			43387.38302		69.17400		324.00000 
 43692.65567		 311.00099			43381.65468		136.53400		875.00000 
 43692.65567		 305.27265			43387.38302		69.17400		324.00000 
 43692.65567		 311.00099			43381.65468		136.53400		875.00000 
 43692.65567		 305.27265			43387.38302		69.17400		324.00000 
 43692.65567		 311.00099			43381.65468		136.53400		875.00000 
 43692.65567		 305.27265			43387.38302		69.17400		324.00000 
 43692.65567		 311.00099			43381.65468		136.53400		875.00000 
 43692.65567		 305.27265			43387.38302		69.17400		324.00000 
 43692.65567		 314.81988			43377.83579		136.53400		875.00000 
 43692.65567		 305.27265			43387.38302		69.17400		324.00000 
 43692.65567		 314.81988			43377.83579		136.53400		875.00000 
 43692.65567		 305.27265			43387.38302		69.17400		324.00000 
 43692.65567		 318.63877			43374.01690		136.53400		875.00000 
 43692.65567		 305.27265			43387.38302		69.17400		324.00000 
 43692.65567		 322.45767			43370.19801		136.53400		875.00000 
 43692.65567		 305.27265			43387.38302		69.17400		324.00000 
 43692.65567		 326.27656			43366.37912		136.53400		875.00000 
 43692.65567		 305.27265			43387.38302		69.17400		324.00000 
 43692.65567		 326.27656			43366.37912		136.53400		875.00000 
 43692.65567		 305.27265			43387.38302		69.17400		324.00000 
 43692.65567		 326.27656			43366.37912		136.53400		875.00000 
 43692.65567		 305.27265			43387.38302		69.17400		324.00000 
 43692.65567		 326.27656			43366.37912		136.53400		875.00000 
 43692.65567		 305.27265			43387.38302		69.17400		324.00000 
 43692.65567		 537.27032			43155.38535		136.53400		875.00000 
 43692.65567		 305.27265			43387.38302		69.17400		324.00000 
 43692.65567		 636.56151			43056.09417		136.53400		875.00000 
 43692.65567		 305.27265			43387.38302		69.17400		324.00000 
 43692.65567		 686.20710			43006.44858		136.53400		875.00000 
 43692.65567		 305.27265			43387.38302		69.17400		324.00000 
 43692.65567		 686.20710			43006.44858		136.53400		875.00000 
 43692.65567		 305.27265			43387.38302		69.17400		324.00000 
 43692.65567		 686.20710			43006.44858		136.53400		875.00000 
 43692.65567		 305.27265			43387.38302		69.17400		324.00000 
 43692.65567		 686.20710			43006.44858		136.53400		875.00000 
 43692.65567		 305.27265			43387.38302		69.17400		324.00000 
 43692.65567		 686.20710			43006.44858		136.53400		875.00000 
 43692.65567		 305.27265			43387.38302		69.17400		324.00000 
 43692.65567		 686.20710			43006.44858		136.53400		875.00000 
 43692.65567		 305.27265			43387.38302		69.17400		324.00000 
 43692.65567		 686.20710			43006.44858		136.53400		875.00000 
 43692.65567		 305.27265			43387.38302		69.17400		324.00000 
 43692.65567		 686.20710			43006.44858		136.53400		875.00000 
 43692.65567		 305.27265			43387.38302		69.17400		324.00000 
 43692.65567		 686.20710			43006.44858		136.53400		875.00000 
 43692.65567		 305.27265			43387.38302		69.17400		324.00000 
 43692.65567		 686.20710			43006.44858		136.53400		875.00000 
 43692.65567		 305.27265			43387.38302		69.17400		324.00000 
 43692.65567		 686.20710			43006.44858		136.53400		875.00000 
 43692.65567		 305.27265			43387.38302		69.17400		324.00000 
 43692.65567		 686.20710			43006.44858		136.53400		875.00000 
 43692.65567		 305.27265			43387.38302		69.17400		324.00000 
 43692.65567		 686.20710			43006.44858		136.53400		875.00000 
 43692.65567		 305.27265			43387.38302		69.17400		324.00000 
 43692.65567		 686.20710			43006.44858		136.53400		875.00000 
 43692.65567		 305.27265			43387.38302		69.17400		324.00000 
 43692.65567		 686.20710			43006.44858		136.53400		875.00000 
 43692.65567		 305.27265			43387.38302		69.17400		324.00000 
 43692.65567		 686.20710			43006.44858		136.53400		875.00000 
 43692.65567		 305.27265			43387.38302		69.17400		324.00000 
 43692.65567		 686.20710			43006.44858		136.53400		875.00000 
 43692.65567		 305.27265			43387.38302		69.17400		324.00000 
 43692.65567		 686.20710			43006.44858		136.53400		875.00000 
 43692.65567		 305.27265			43387.38302		69.17400		324.00000 
 43692.65567		 686.20710			43006.44858		156.57600		875.00000 
 43692.65567		 305.27265			43387.38302		69.17400		324.00000 
 43692.65567		 686.20710			43006.44858		156.57600		875.00000 
 43692.65567		 305.27265			43387.38302		69.17400		324.00000 
 43692.65567		 686.20710			43006.44858		156.57600		875.00000 
 43692.65567		 305.27265			43387.38302		69.17400		324.00000 
 43692.65567		 686.20710			43006.44858		156.57600		875.00000 
 43692.65567		 305.27265			43387.38302		69.17400		324.00000 
 43692.65567		 686.20710			43006.44858		156.57600		875.00000 
 43692.65567		 305.27265			43387.38302		69.17400		324.00000 
 43692.65567		 686.20710			43006.44858		156.57600		875.00000 
 43692.65567		 305.27265			43387.38302		69.17400		324.00000 
 43692.65567		 686.20710			43006.44858		156.57600		875.00000 
 43692.65567		 305.27265			43387.38302		69.17400		324.00000 
 43692.65567		 686.20710			43006.44858		156.57600		875.00000 
 43692.65567		 305.27265			43387.38302		69.17400		324.00000 
 43692.65567		 686.20710			43006.44858		156.57600		875.00000 
 43692.65567		 305.27265			43387.38302		69.17400		324.00000 
 43692.65567		 686.20710			43006.44858		156.57600		875.00000 
 43692.65567		 305.27265			43387.38302		69.17400		324.00000 
 43692.65567		 686.20710			43006.44858		156.57600		875.00000 
 43692.65567		 305.27265			43387.38302		69.17400		324.00000 
 43692.65567		 686.20710			43006.44858		156.57600		875.00000 
 43692.65567		 305.27265			43387.38302		69.17400		324.00000 
 43692.65567		 686.20710			43006.44858		156.57600		875.00000 
 43692.65567		 305.27265			43387.38302		69.17400		324.00000 
 43692.65567		 686.20710			43006.44858		156.57600		875.00000 
 43692.65567		 305.27265			43387.38302		69.17400		324.00000 
 43692.65567		 686.20710			43006.44858		156.57600		875.00000 
 43692.65567		 305.27265			43387.38302		69.17400		324.00000 
 43692.65567		 686.20710			43006.44858		156.57600		875.00000 
 43692.65567		 305.27265			43387.38302		69.17400		324.00000 
 43692.65567		 686.20710			43006.44858		156.57600		875.00000 
 43692.65567		 305.27265			43387.38302		69.17400		324.00000 
 43692.65567		 686.20710			43006.44858		156.57600		875.00000 
 43692.65567		 305.27265			43387.38302		69.17400		324.00000 
 43692.65567		 686.20710			43006.44858		156.57600		875.00000 
 43692.65567		 305.27265			43387.38302		69.17400		324.00000 
 43692.65567		 686.20710			43006.44858		156.57600		875.00000 
 43692.65567		 305.27265			43387.38302		69.17400		324.00000 
 43692.65567		 686.20710			43006.44858		156.57600		875.00000 
 43692.65567		 305.27265			43387.38302		69.17400		324.00000 
 43692.65567		 686.20710			43006.44858		156.57600		875.00000 
 43692.65567		 305.27265			43387.38302		69.17400		324.00000 
 43692.65567		 686.20710			43006.44858		156.57600		875.00000 
 43692.65567		 305.27265			43387.38302		69.17400		324.00000 
 43692.65567		 686.20710			43006.44858		156.57600		875.00000 
 43692.65567		 305.27265			43387.38302		69.17400		324.00000 
 43692.65567		 686.20710			43006.44858		156.57600		875.00000 
 43692.65567		 305.27265			43387.38302		69.17400		324.00000 
 43692.65567		 686.20710			43006.44858		156.57600		875.00000 
 43692.65567		 305.27265			43387.38302		69.17400		324.00000 
 43692.65567		 686.20710			43006.44858		156.57600		875.00000 
 43692.65567		 305.27265			43387.38302		69.17400		324.00000 
 43692.65567		 686.20710			43006.44858		156.57600		875.00000 
 43692.65567		 305.27265			43387.38302		69.17400		324.00000 
 43692.65567		 686.20710			43006.44858		156.57600		875.00000 
 43692.65567		 305.27265			43387.38302		69.17400		324.00000 
 43692.65567		 686.20710			43006.44858		156.57600		875.00000 
 43692.65567		 305.27265			43387.38302		69.17400		324.00000 
 43692.65567		 686.20710			43006.44858		156.57600		875.00000 
 43692.65567		 305.27265			43387.38302		69.17400		324.00000 
 43692.65567		 686.20710			43006.44858		156.57600		875.00000 
 43692.65567		 305.27265			43387.38302		69.17400		324.00000 
 43692.65567		 686.20710			43006.44858		156.57600		875.00000 
 43692.65567		 305.27265			43387.38302		69.17400		324.00000 
 43692.65567		 686.20710			43006.44858		156.57600		875.00000 
 43692.65567		 305.27265			43387.38302		69.17400		324.00000 
 43692.65567		 686.20710			43006.44858		156.57600		875.00000 
 43692.65567		 305.27265			43387.38302		69.17400		324.00000 
 43692.65567		 686.20710			43006.44858		156.57600		875.00000 
 43692.65567		 305.27265			43387.38302		69.17400		324.00000 
 43692.65567		 686.20710			43006.44858		156.57600		875.00000 
 43692.65567		 305.27265			43387.38302		69.17400		324.00000 
 43692.65567		 686.20710			43006.44858		156.57600		875.00000 
 43692.65567		 305.27265			43387.38302		68.11000		324.00000 
 43692.65567		 686.20710			43006.44858		156.57600		875.00000 
 43692.65567		 305.27265			43387.38302		68.11000		324.00000 
 43692.65567		 686.20710			43006.44858		156.57600		875.00000 
 43692.65567		 305.27265			43387.38302		68.11000		324.00000 
 43692.65567		 686.20710			43006.44858		156.57600		875.00000 
 43692.65567		 305.27265			43387.38302		68.11000		324.00000 
 43692.65567		 686.20710			43006.44858		156.57600		875.00000 
 43692.65567		 305.27265			43387.38302		68.11000		324.00000 
 43692.65567		 686.20710			43006.44858		156.57600		875.00000 
 43692.65567		 305.27265			43387.38302		68.11000		324.00000 
 43692.65567		 686.20710			43006.44858		156.57600		875.00000 
 43692.65567		 305.27265			43387.38302		68.11000		324.00000 
 43692.65567		 686.20710			43006.44858		156.57600		875.00000 
 43692.65567		 305.27265			43387.38302		68.11000		324.00000 
 43692.65567		 686.20710			43006.44858		156.57600		875.00000 
 43692.65567		 305.27265			43387.38302		68.11000		324.00000 
 43692.65567		 686.20710			43006.44858		156.57600		875.00000 
 43692.65567		 305.27265			43387.38302		68.11000		324.00000 
 43692.65567		 686.20710			43006.44858		156.57600		875.00000 
 43692.65567		 305.27265			43387.38302		68.11000		324.00000 
 43692.65567		 686.20710			43006.44858		156.57600		875.00000 
 43692.65567		 305.27265			43387.38302		68.11000		324.00000 
 43692.65567		 686.20710			43006.44858		156.57600		875.00000 
 43692.65567		 305.27265			43387.38302		68.11000		324.00000 
 43692.65567		 686.20710			43006.44858		156.57600		875.00000 
 43692.65567		 305.27265			43387.38302		68.11000		324.00000 
 43692.65567		 686.20710			43006.44858		156.57600		875.00000 
 43692.65567		 305.27265			43387.38302		68.11000		324.00000 
 43692.65567		 686.20710			43006.44858		156.57600		875.00000 
 43692.65567		 305.27265			43387.38302		68.11000		324.00000 
 43692.65567		 686.20710			43006.44858		156.57600		875.00000 
 43692.65567		 305.27265			43387.38302		68.11000		324.00000 
 43692.65567		 686.20710			43006.44858		156.57600		875.00000 
 43692.65567		 305.27265			43387.38302		68.11000		324.00000 
 43692.65567		 686.20710			43006.44858		156.57600		875.00000 
 43692.65567		 305.27265			43387.38302		68.11000		324.00000 
 43692.65567		 686.20710			43006.44858		156.57600		875.00000 
 43692.65567		 305.27265			43387.38302		68.11000		324.00000 
 43692.65567		 686.20710			43006.44858		156.57600		875.00000 
 43692.65567		 305.27265			43387.38302		68.11000		324.00000 
 43692.65567		 686.20710			43006.44858		156.57600		875.00000 
 43692.65567		 305.27265			43387.38302		68.11000		324.00000 
 43692.65567		 686.20710			43006.44858		156.57600		875.00000 
 43692.65567		 305.27265			43387.38302		68.11000		324.00000 
 43692.65567		 686.20710			43006.44858		156.57600		875.00000 
 43692.65567		 305.27265			43387.38302		68.11000		324.00000 
 43692.65567		 686.20710			43006.44858		197.90000		875.00000 
 43692.65567		 305.27265			43387.38302		68.11000		324.00000 
 43692.65567		 686.20710			43006.44858		197.90000		875.00000 
 43692.65567		 305.27265			43387.38302		68.11000		324.00000 
 43692.65567		 686.20710			43006.44858		197.90000		875.00000 
 43692.65567		 305.27265			43387.38302		68.11000		324.00000 
 43692.65567		 686.20710			43006.44858		197.90000		875.00000 
 43692.65567		 305.27265			43387.38302		68.11000		324.00000 
 43692.65567		 686.20710			43006.44858		197.90000		875.00000 
 43692.65567		 305.27265			43387.38302		68.11000		324.00000 
 43692.65567		 686.20710			43006.44858		197.90000		875.00000 
 43692.65567		 305.27265			43387.38302		68.11000		324.00000 
 43692.65567		 686.20710			43006.44858		197.90000		875.00000 
 43692.65567		 305.27265			43387.38302		68.11000		324.00000 
 43692.65567		 686.20710			43006.44858		197.90000		875.00000 
 43692.65567		 305.27265			43387.38302		68.11000		324.00000 
 43692.65567		 686.20710			43006.44858		197.90000		875.00000 
 43692.65567		 305.27265			43387.38302		68.11000		324.00000 
 43692.65567		 686.20710			43006.44858		197.90000		875.00000 
 43692.65567		 305.27265			43387.38302		68.11000		324.00000 
 43692.65567		 686.20710			43006.44858		197.90000		875.00000 
 43692.65567		 305.27265			43387.38302		68.11000		324.00000 
 43692.65567		 686.20710			43006.44858		197.90000		875.00000 
 43692.65567		 305.27265			43387.38302		68.11000		324.00000 
 43692.65567		 686.20710			43006.44858		197.90000		875.00000 
 43692.65567		 305.27265			43387.38302		68.11000		324.00000 
 43692.65567		 686.20710			43006.44858		197.90000		875.00000 
 43692.65567		 305.27265			43387.38302		68.11000		324.00000 
 43692.65567		 686.20710			43006.44858		197.90000		875.00000 
 43692.65567		 305.27265			43387.38302		68.11000		324.00000 
 43692.65567		 686.20710			43006.44858		197.90000		875.00000 
 43692.65567		 305.27265			43387.38302		68.11000		324.00000 
 43692.65567		 686.20710			43006.44858		197.90000		875.00000 
 43692.65567		 305.27265			43387.38302		68.11000		324.00000 
 43692.65567		 686.20710			43006.44858		197.90000		875.00000 
 43692.65567		 305.27265			43387.38302		68.11000		324.00000 
 43692.65567		 686.20710			43006.44858		197.90000		875.00000 
 43692.65567		 305.27265			43387.38302		68.11000		324.00000 
 43692.65567		 686.20710			43006.44858		197.90000		875.00000 
 43692.65567		 305.27265			43387.38302		68.11000		324.00000 
 43692.65567		 686.20710			43006.44858		197.90000		875.00000 
 43692.65567		 305.27265			43387.38302		68.11000		324.00000 
 43692.65567		 686.20710			43006.44858		197.90000		875.00000 
 43692.65567		 305.27265			43387.38302		68.11000		324.00000 
 43692.65567		 686.20710			43006.44858		197.90000		875.00000 
 43692.65567		 305.27265			43387.38302		68.11000		324.00000 
 43692.65567		 686.20710			43006.44858		197.90000		875.00000 
 43692.65567		 305.27265			43387.38302		68.11000		324.00000 
 43692.65567		 686.20710			43006.44858		197.90000		875.00000 
 43692.65567		 305.27265			43387.38302		68.11000		324.00000 
 43692.65567		 686.20710			43006.44858		197.90000		875.00000 
 43692.65567		 305.27265			43387.38302		68.11000		324.00000 
 43692.65567		 686.20710			43006.44858		197.90000		875.00000 
 43692.65567		 305.27265			43387.38302		68.11000		324.00000 
 43692.65567		 686.20710			43006.44858		197.90000		875.00000 
 43692.65567		 305.27265			43387.38302		68.11000		324.00000 
 43692.65567		 686.20710			43006.44858		197.90000		875.00000 
 43692.65567		 305.27265			43387.38302		68.11000		324.00000 
 43692.65567		 686.20710			43006.44858		197.90000		875.00000 
 43692.65567		 305.27265			43387.38302		68.11000		324.00000 
 43692.65567		 686.20710			43006.44858		197.90000		875.00000 
 43692.65567		 305.27265			43387.38302		68.11000		324.00000 
 43692.65567		 686.20710			43006.44858		197.90000		875.00000 
 43692.65567		 305.27265			43387.38302		68.11000		324.00000 
 43692.65567		 686.20710			43006.44858		197.90000		875.00000 
 43692.65567		 305.27265			43387.38302		68.11000		324.00000 
 43692.65567		 686.20710			43006.44858		197.90000		875.00000 
 43692.65567		 305.27265			43387.38302		68.11000		324.00000 
 43692.65567		 686.20710			43006.44858		197.90000		875.00000 
 43692.65567		 305.27265			43387.38302		68.11000		324.00000 
 43692.65567		 686.20710			43006.44858		197.90000		875.00000 
 43692.65567		 305.27265			43387.38302		68.11000		324.00000 
 43692.65567		 686.20710			43006.44858		197.90000		875.00000 
 43692.65567		 305.27265			43387.38302		68.11000		324.00000 
 43692.65567		 686.20710			43006.44858		197.90000		875.00000 
 43692.65567		 305.27265			43387.38302		68.11000		324.00000 
 43692.65567		 686.20710			43006.44858		197.90000		875.00000 
 43692.65567		 305.27265			43387.38302		68.11000		324.00000 
 43692.65567		 686.20710			43006.44858		197.90000		875.00000 
 43692.65567		 305.27265			43387.38302		68.11000		324.00000 
 43692.65567		 686.20710			43006.44858		197.90000		875.00000 
 43692.65567		 305.27265			43387.38302		68.11000		324.00000 
 43692.65567		 686.20710			43006.44858		197.90000		875.00000 
 43692.65567		 305.27265			43387.38302		68.11000		324.00000 
 43692.65567		 686.20710			43006.44858		197.90000		875.00000 
 43692.65567		 305.27265			43387.38302		68.11000		324.00000 
 43692.65567		 686.20710			43006.44858		197.90000		875.00000 
 43692.65567		 305.27265			43387.38302		68.11000		324.00000 
 43692.65567		 686.20710			43006.44858		197.90000		875.00000 
 43692.65567		 305.27265			43387.38302		68.11000		324.00000 
 43692.65567		 686.20710			43006.44858		197.90000		875.00000 
 43692.65567		 305.27265			43387.38302		68.11000		324.00000 
 43692.65567		 686.20710			43006.44858		197.90000		875.00000 
 43692.65567		 305.27265			43387.38302		68.11000		324.00000 
 43692.65567		 686.20710			43006.44858		197.90000		875.00000 
 43692.65567		 305.27265			43387.38302		68.11000		324.00000 
 43692.65567		 686.20710			43006.44858		197.90000		875.00000 
 43692.65567		 305.27265			43387.38302		68.11000		324.00000 
 43692.65567		 686.20710			43006.44858		197.90000		875.00000 
 43692.65567		 305.27265			43387.38302		68.11000		324.00000 
 43692.65567		 686.20710			43006.44858		197.90000		875.00000 
 43692.65567		 305.27265			43387.38302		68.11000		324.00000 
 43692.65567		 686.20710			43006.44858		197.90000		875.00000 
 43692.65567		 305.27265			43387.38302		68.11000		324.00000 
 43692.65567		 686.20710			43006.44858		197.90000		875.00000 
 43692.65567		 305.27265			43387.38302		68.11000		324.00000 
 43692.65567		 686.20710			43006.44858		197.90000		875.00000 
 43692.65567		 305.27265			43387.38302		68.11000		324.00000 
 43692.65567		 686.20710			43006.44858		197.90000		875.00000 
 43692.65567		 305.27265			43387.38302		68.11000		324.00000 
 43692.65567		 686.20710			43006.44858		197.90000		875.00000 
 43692.65567		 305.27265			43387.38302		68.11000		324.00000 
 43692.65567		 686.20710			43006.44858		197.90000		875.00000 
 43692.65567		 305.27265			43387.38302		68.11000		324.00000 
 43692.65567		 686.20710			43006.44858		197.90000		875.00000 
 43692.65567		 305.27265			43387.38302		68.11000		324.00000 
 43692.65567		 686.20710			43006.44858		197.90000		875.00000 
 43692.65567		 305.27265			43387.38302		68.11000		324.00000 
 43692.65567		 686.20710			43006.44858		197.90000		875.00000 
 43692.65567		 305.27265			43387.38302		68.11000		324.00000 
 43692.65567		 686.20710			43006.44858		197.90000		875.00000 
 43692.65567		 305.27265			43387.38302		68.11000		324.00000 
 43692.65567		 686.20710			43006.44858		197.90000		875.00000 
 43692.65567		 305.27265			43387.38302		68.11000		324.00000 
 43692.65567		 686.20710			43006.44858		197.90000		875.00000 
 43692.65567		 305.27265			43387.38302		68.11000		324.00000 
 43692.65567		 686.20710			43006.44858		197.90000		875.00000 
 43692.65567		 305.27265			43387.38302		68.11000		324.00000 
 43692.65567		 686.20710			43006.44858		197.90000		875.00000 
 43692.65567		 305.27265			43387.38302		68.11000		324.00000 
 43692.65567		 686.20710			43006.44858		213.89800		875.00000 
 43692.65567		 305.27265			43387.38302		68.11000		324.00000 
 43692.65567		 686.20710			43006.44858		213.89800		875.00000 
 43692.65567		 305.27265			43387.38302		68.11000		324.00000 
 43692.65567		 686.20710			43006.44858		213.89800		875.00000 
 43692.65567		 305.27265			43387.38302		68.11000		324.00000 
 43692.65567		 686.20710			43006.44858		213.89800		875.00000 
 43692.65567		 305.27265			43387.38302		68.11000		324.00000 
 43692.65567		 686.20710			43006.44858		213.89800		875.00000 
 43692.65567		 305.27265			43387.38302		68.11000		324.00000 
 43692.65567		 686.20710			43006.44858		213.89800		875.00000 
 43692.65567		 305.27265			43387.38302		68.11000		324.00000 
 43692.65567		 686.20710			43006.44858		213.89800		875.00000 
 43692.65567		 305.27265			43387.38302		68.11000		324.00000 
 43692.65567		 686.20710			43006.44858		213.89800		875.00000 
 43692.65567		 305.27265			43387.38302		68.11000		324.00000 
 43692.65567		 686.20710			43006.44858		213.89800		875.00000 
 43692.65567		 305.27265			43387.38302		68.11000		324.00000 
 43692.65567		 686.20710			43006.44858		213.89800		875.00000 
 43692.65567		 305.27265			43387.38302		68.11000		324.00000 
 43692.65567		 686.20710			43006.44858		213.89800		875.00000 
 43692.65567		 305.27265			43387.38302		68.11000		324.00000 
 43692.65567		 686.20710			43006.44858		213.89800		875.00000 
 43692.65567		 305.27265			43387.38302		68.11000		324.00000 
 43692.65567		 686.20710			43006.44858		213.89800		875.00000 
 43692.65567		 305.27265			43387.38302		68.11000		324.00000 
 43692.65567		 686.20710			43006.44858		213.89800		875.00000 
 43692.65567		 305.27265			43387.38302		68.11000		324.00000 
 43692.65567		 686.20710			43006.44858		213.89800		875.00000 
 43692.65567		 305.27265			43387.38302		68.11000		324.00000 
 43692.65567		 686.20710			43006.44858		213.89800		875.00000 
 43692.65567		 305.27265			43387.38302		68.11000		324.00000 
 43692.65567		 686.20710			43006.44858		213.89800		875.00000 
 43692.65567		 305.27265			43387.38302		68.11000		324.00000 
 43692.65567		 686.20710			43006.44858		213.89800		875.00000 
 43692.65567		 305.27265			43387.38302		68.11000		324.00000 
 43692.65567		 686.20710			43006.44858		213.89800		875.00000 
 43692.65567		 305.27265			43387.38302		68.11000		324.00000 
 43692.65567		 686.20710			43006.44858		213.89800		875.00000 
 43692.65567		 305.27265			43387.38302		68.11000		324.00000 
 43692.65567		 686.20710			43006.44858		213.89800		875.00000 
 43692.65567		 305.27265			43387.38302		68.11000		324.00000 
 43692.65567		 686.20710			43006.44858		213.89800		875.00000 
 43692.65567		 305.27265			43387.38302		68.11000		324.00000 
 43692.65567		 686.20710			43006.44858		213.89800		875.00000 
 43692.65567		 305.27265			43387.38302		68.11000		324.00000 
 43692.65567		 686.20710			43006.44858		213.89800		875.00000 
 43692.65567		 305.27265			43387.38302		68.11000		324.00000 
 43692.65567		 686.20710			43006.44858		213.89800		875.00000 
 43692.65567		 305.27265			43387.38302		68.11000		324.00000 
 43692.65567		 686.20710			43006.44858		213.89800		875.00000 
 43692.65567		 305.27265			43387.38302		68.11000		324.00000 
 43692.65567		 686.20710			43006.44858		213.89800		875.00000 
 43692.65567		 305.27265			43387.38302		68.11000		324.00000 
 43692.65567		 686.20710			43006.44858		213.89800		875.00000 
 43692.65567		 305.27265			43387.38302		68.11000		324.00000 
 43692.65567		 686.20710			43006.44858		213.89800		875.00000 
 43692.65567		 305.27265			43387.38302		68.11000		324.00000 
 43692.65567		 686.20710			43006.44858		213.89800		875.00000 
 43692.65567		 305.27265			43387.38302		68.11000		324.00000 
 43692.65567		 686.20710			43006.44858		213.89800		875.00000 
 43692.65567		 305.27265			43387.38302		68.11000		324.00000 
 43692.65567		 686.20710			43006.44858		213.89800		875.00000 
 43692.65567		 305.27265			43387.38302		68.11000		324.00000 
 43692.65567		 686.20710			43006.44858		213.89800		875.00000 
 43692.65567		 305.27265			43387.38302		68.11000		324.00000 
 43692.65567		 686.20710			43006.44858		213.89800		875.00000 
 43692.65567		 305.27265			43387.38302		68.11000		324.00000 
 43692.65567		 686.20710			43006.44858		213.89800		875.00000 
 43692.65567		 305.27265			43387.38302		68.11000		324.00000 
 43692.65567		 686.20710			43006.44858		213.89800		875.00000 
 43692.65567		 305.27265			43387.38302		68.11000		324.00000 
 43692.65567		 686.20710			43006.44858		213.89800		875.00000 
 43692.65567		 305.27265			43387.38302		68.11000		324.00000 
 43692.65567		 686.20710			43006.44858		213.89800		875.00000 
 43692.65567		 305.27265			43387.38302		68.11000		324.00000 
 43692.65567		 686.20710			43006.44858		213.89800		875.00000 
 43692.65567		 305.27265			43387.38302		68.11000		324.00000 
 43692.65567		 686.20710			43006.44858		213.89800		875.00000 
 43692.65567		 305.27265			43387.38302		68.11000		324.00000 
 43692.65567		 686.20710			43006.44858		213.89800		875.00000 
 43692.65567		 305.27265			43387.38302		68.11000		324.00000 
 43692.65567		 686.20710			43006.44858		213.89800		875.00000 
 43692.65567		 305.27265			43387.38302		68.11000		324.00000 
 43692.65567		 686.20710			43006.44858		213.89800		875.00000 
 43692.65567		 305.27265			43387.38302		68.11000		324.00000 
 43692.65567		 686.20710			43006.44858		213.89800		875.00000 
 43692.65567		 305.27265			43387.38302		68.11000		324.00000 
 43692.65567		 686.20710			43006.44858		213.89800		875.00000 
 43692.65567		 305.27265			43387.38302		68.11000		324.00000 
 43692.65567		 686.20710			43006.44858		213.89800		875.00000 
 43692.65567		 305.27265			43387.38302		68.11000		324.00000 
 43692.65567		 686.20710			43006.44858		213.89800		875.00000 
 43692.65567		 305.27265			43387.38302		68.11000		324.00000 
 43692.65567		 686.20710			43006.44858		213.89800		875.00000 
 43692.65567		 305.27265			43387.38302		68.11000		324.00000 
 43692.65567		 686.20710			43006.44858		213.89800		875.00000 
 43692.65567		 305.27265			43387.38302		68.11000		324.00000 
 43692.65567		 686.20710			43006.44858		213.89800		875.00000 
 43692.65567		 305.27265			43387.38302		68.11000		324.00000 
 43692.65567		 686.20710			43006.44858		213.89800		875.00000 
 43692.65567		 305.27265			43387.38302		68.11000		324.00000 
 43692.65567		 686.20710			43006.44858		213.89800		875.00000 
 43692.65567		 305.27265			43387.38302		68.11000		324.00000 
 43692.65567		 686.20710			43006.44858		213.89800		875.00000 
 43692.65567		 305.27265			43387.38302		68.11000		324.00000 
 43692.65567		 686.20710			43006.44858		213.89800		875.00000 
 43692.65567		 305.27265			43387.38302		68.11000		324.00000 
 43692.65567		 686.20710			43006.44858		213.89800		875.00000 
 43692.65567		 305.27265			43387.38302		68.11000		324.00000 
 43692.65567		 686.20710			43006.44858		213.89800		875.00000 
 43692.65567		 305.27265			43387.38302		68.11000		324.00000 
 43692.65567		 686.20710			43006.44858		213.89800		875.00000 
 43692.65567		 305.27265			43387.38302		68.11000		324.00000 
 43692.65567		 686.20710			43006.44858		213.89800		875.00000 
 43692.65567		 305.27265			43387.38302		68.11000		324.00000 
 43692.65567		 686.20710			43006.44858		213.89800		875.00000 
 43692.65567		 305.27265			43387.38302		68.11000		324.00000 
 43692.65567		 686.20710			43006.44858		213.89800		875.00000 
 43692.65567		 305.27265			43387.38302		68.11000		324.00000 
 43692.65567		 686.20710			43006.44858		213.89800		875.00000 
 43692.65567		 305.27265			43387.38302		68.11000		324.00000 
 43692.65567		 686.20710			43006.44858		213.89800		875.00000 
 43692.65567		 305.27265			43387.38302		68.11000		324.00000 
 43692.65567		 686.20710			43006.44858		213.89800		875.00000 
 43692.65567		 305.27265			43387.38302		68.11000		324.00000 
 43692.65567		 686.20710			43006.44858		213.89800		875.00000 
 43692.65567		 305.27265			43387.38302		68.11000		324.00000 
 43692.65567		 686.20710			43006.44858		213.89800		875.00000 
 43692.65567		 305.27265			43387.38302		68.11000		324.00000 
 43692.65567		 686.20710			43006.44858		220.11600		875.00000 
 43692.65567		 305.27265			43387.38302		68.11000		324.00000 
 43692.65567		 686.20710			43006.44858		220.11600		875.00000 
 43692.65567		 305.27265			43387.38302		68.11000		324.00000 
 43692.65567		 686.20710			43006.44858		220.11600		875.00000 
 43692.65567		 305.27265			43387.38302		68.11000		324.00000 
 43692.65567		 686.20710			43006.44858		220.11600		875.00000 
 43692.65567		 305.27265			43387.38302		68.11000		324.00000 
 43692.65567		 686.20710			43006.44858		220.11600		875.00000 
 43692.65567		 305.27265			43387.38302		68.11000		324.00000 
 43692.65567		 686.20710			43006.44858		220.11600		875.00000 
 43692.65567		 305.27265			43387.38302		68.11000		324.00000 
 43692.65567		 686.20710			43006.44858		220.11600		875.00000 
 43692.65567		 305.27265			43387.38302		68.11000		324.00000 
 43692.65567		 686.20710			43006.44858		220.11600		875.00000 
 43692.65567		 305.27265			43387.38302		68.11000		324.00000 
 43692.65567		 686.20710			43006.44858		220.11600		875.00000 
 43692.65567		 305.27265			43387.38302		68.11000		324.00000 
 43692.65567		 686.20710			43006.44858		220.11600		875.00000 
 43692.65567		 305.27265			43387.38302		68.11000		324.00000 
 43692.65567		 686.20710			43006.44858		220.11600		875.00000 
 43692.65567		 305.27265			43387.38302		68.11000		324.00000 
 43692.65567		 686.20710			43006.44858		220.11600		875.00000 
 43692.65567		 305.27265			43387.38302		68.11000		324.00000 
 43692.65567		 686.20710			43006.44858		220.11600		875.00000 
 43692.65567		 305.27265			43387.38302		68.11000		324.00000 
 43692.65567		 686.20710			43006.44858		220.11600		875.00000 
 43692.65567		 305.27265			43387.38302		68.11000		324.00000 
 43692.65567		 686.20710			43006.44858		220.11600		875.00000 
 43692.65567		 305.27265			43387.38302		68.11000		324.00000 
 43692.65567		 686.20710			43006.44858		220.11600		875.00000 
 43692.65567		 305.27265			43387.38302		68.11000		324.00000 
 43692.65567		 686.20710			43006.44858		220.11600		875.00000 
 43692.65567		 305.27265			43387.38302		68.11000		324.00000 
 43692.65567		 686.20710			43006.44858		220.11600		875.00000 
 43692.65567		 305.27265			43387.38302		68.11000		324.00000 
 43692.65567		 686.20710			43006.44858		220.11600		875.00000 
 43692.65567		 305.27265			43387.38302		68.11000		324.00000 
 43692.65567		 686.20710			43006.44858		220.11600		875.00000 
 43692.65567		 305.27265			43387.38302		68.11000		324.00000 
 43692.65567		 686.20710			43006.44858		220.11600		875.00000 
 43692.65567		 305.27265			43387.38302		68.11000		324.00000 
 43692.65567		 686.20710			43006.44858		220.11600		875.00000 
 43692.65567		 305.27265			43387.38302		68.11000		324.00000 
 43692.65567		 686.20710			43006.44858		220.11600		875.00000 
 43692.65567		 305.27265			43387.38302		68.11000		324.00000 
 43692.65567		 686.20710			43006.44858		220.11600		875.00000 
 43692.65567		 305.27265			43387.38302		68.11000		324.00000 
 43692.65567		 686.20710			43006.44858		220.11600		875.00000 
 43692.65567		 305.27265			43387.38302		68.11000		324.00000 
 43692.65567		 686.20710			43006.44858		220.11600		875.00000 
 43692.65567		 305.27265			43387.38302		68.11000		324.00000 
 43692.65567		 686.20710			43006.44858		220.11600		875.00000 
 43692.65567		 305.27265			43387.38302		68.11000		324.00000 
 43692.65567		 686.20710			43006.44858		220.11600		875.00000 
 43692.65567		 305.27265			43387.38302		68.11000		324.00000 
 43692.65567		 686.20710			43006.44858		220.11600		875.00000 
 43692.65567		 305.27265			43387.38302		68.11000		324.00000 
 43692.65567		 686.20710			43006.44858		220.11600		875.00000 
 43692.65567		 305.27265			43387.38302		68.11000		324.00000 
 43692.65567		 686.20710			43006.44858		220.11600		875.00000 
 43692.65567		 305.27265			43387.38302		68.11000		324.00000 
 43692.65567		 686.20710			43006.44858		220.11600		875.00000 
 43692.65567		 305.27265			43387.38302		68.11000		324.00000 
 43692.65567		 686.20710			43006.44858		220.11600		875.00000 
 43692.65567		 305.27265			43387.38302		68.11000		324.00000 
 43692.65567		 686.20710			43006.44858		220.11600		875.00000 
 43692.65567		 305.27265			43387.38302		68.11000		324.00000 
 43692.65567		 686.20710			43006.44858		220.11600		875.00000 
 43692.65567		 305.27265			43387.38302		68.11000		324.00000 
 43692.65567		 686.20710			43006.44858		220.11600		875.00000 
 43692.65567		 305.27265			43387.38302		68.11000		324.00000 
 43692.65567		 686.20710			43006.44858		220.11600		875.00000 
 43692.65567		 305.27265			43387.38302		68.11000		324.00000 
 43692.65567		 686.20710			43006.44858		220.11600		875.00000 
 43692.65567		 305.27265			43387.38302		68.11000		324.00000 
 43692.65567		 686.20710			43006.44858		220.11600		875.00000 
 43692.65567		 305.27265			43387.38302		68.11000		324.00000 
 43692.65567		 686.20710			43006.44858		220.11600		875.00000 
 43692.65567		 305.27265			43387.38302		68.11000		324.00000 
 43692.65567		 686.20710			43006.44858		220.11600		875.00000 
 43692.65567		 305.27265			43387.38302		68.11000		324.00000 
 43692.65567		 686.20710			43006.44858		220.11600		875.00000 
 43692.65567		 305.27265			43387.38302		68.11000		324.00000 
 43692.65567		 686.20710			43006.44858		220.11600		875.00000 
 43692.65567		 305.27265			43387.38302		68.11000		324.00000 
 43692.65567		 686.20710			43006.44858		220.11600		875.00000 
 43692.65567		 305.27265			43387.38302		68.11000		324.00000 
 43692.65567		 686.20710			43006.44858		220.11600		875.00000 
 43692.65567		 305.27265			43387.38302		68.11000		324.00000 
 43692.65567		 686.20710			43006.44858		220.11600		875.00000 
 43692.65567		 305.27265			43387.38302		68.11000		324.00000 
 43692.65567		 686.20710			43006.44858		220.11600		875.00000 
 43692.65567		 305.27265			43387.38302		68.11000		324.00000 
 43692.65567		 686.20710			43006.44858		220.11600		875.00000 
 43692.65567		 305.27265			43387.38302		68.11000		324.00000 
 43692.65567		 686.20710			43006.44858		220.11600		875.00000 
 43692.65567		 305.27265			43387.38302		68.11000		324.00000 
 43692.65567		 686.20710			43006.44858		220.11600		875.00000 
 43692.65567		 305.27265			43387.38302		68.11000		324.00000 
 43692.65567		 686.20710			43006.44858		220.11600		875.00000 
 43692.65567		 305.27265			43387.38302		68.11000		324.00000 
 43692.65567		 686.20710			43006.44858		220.11600		875.00000 
 43692.65567		 305.27265			43387.38302		68.11000		324.00000 
 43692.65567		 686.20710			43006.44858		220.11600		875.00000 
 43692.65567		 305.27265			43387.38302		68.11000		324.00000 
 43692.65567		 686.20710			43006.44858		220.11600		875.00000 
 43692.65567		 305.27265			43387.38302		68.11000		324.00000 
 43692.65567		 686.20710			43006.44858		220.11600		875.00000 
 43692.65567		 305.27265			43387.38302		68.11000		324.00000 
 43692.65567		 686.20710			43006.44858		220.11600		875.00000 
 43692.65567		 305.27265			43387.38302		68.11000		324.00000 
 43692.65567		 686.20710			43006.44858		220.11600		875.00000 
 43692.65567		 305.27265			43387.38302		68.11000		324.00000 
 43692.65567		 686.20710			43006.44858		220.11600		875.00000 
 43692.65567		 305.27265			43387.38302		68.11000		324.00000 
 43692.65567		 686.20710			43006.44858		220.11600		875.00000 
 43692.65567		 305.27265			43387.38302		68.11000		324.00000 
 43692.65567		 686.20710			43006.44858		220.11600		875.00000 
 43692.65567		 305.27265			43387.38302		68.11000		324.00000 
 43692.65567		 686.20710			43006.44858		220.11600		875.00000 
 43692.65567		 305.27265			43387.38302		68.11000		324.00000 
 43692.65567		 686.20710			43006.44858		220.11600		875.00000 
 43692.65567		 305.27265			43387.38302		68.11000		324.00000 
 43692.65567		 686.20710			43006.44858		220.11600		875.00000 
 43692.65567		 305.27265			43387.38302		68.11000		324.00000 
 43692.65567		 686.20710			43006.44858		220.11600		875.00000 
 43692.65567		 305.27265			43387.38302		68.11000		324.00000 
 43692.65567		 686.20710			43006.44858		222.02600		875.00000 
 43692.65567		 305.27265			43387.38302		68.11000		324.00000 
 43692.65567		 686.20710			43006.44858		222.02600		875.00000 
 43692.65567		 305.27265			43387.38302		68.11000		324.00000 
 43692.65567		 686.20710			43006.44858		222.02600		875.00000 
 43692.65567		 305.27265			43387.38302		68.11000		324.00000 
 43692.65567		 686.20710			43006.44858		222.02600		875.00000 
 43692.65567		 305.27265			43387.38302		68.11000		324.00000 
 43692.65567		 686.20710			43006.44858		222.02600		875.00000 
 43692.65567		 305.27265			43387.38302		68.11000		324.00000 
 43692.65567		 686.20710			43006.44858		222.02600		875.00000 
 43692.65567		 305.27265			43387.38302		68.11000		324.00000 
 43692.65567		 686.20710			43006.44858		222.02600		875.00000 
 43692.65567		 305.27265			43387.38302		68.11000		324.00000 
 43692.65567		 686.20710			43006.44858		222.02600		875.00000 
 43692.65567		 305.27265			43387.38302		68.11000		324.00000 
 43692.65567		 686.20710			43006.44858		222.02600		875.00000 
 43692.65567		 305.27265			43387.38302		68.11000		324.00000 
 43692.65567		 686.20710			43006.44858		222.02600		875.00000 
 43692.65567		 305.27265			43387.38302		68.11000		324.00000 
 43692.65567		 686.20710			43006.44858		222.02600		875.00000 
 43692.65567		 305.27265			43387.38302		68.11000		324.00000 
 43692.65567		 686.20710			43006.44858		222.02600		875.00000 
 43692.65567		 305.27265			43387.38302		68.11000		324.00000 
 43692.65567		 686.20710			43006.44858		222.02600		875.00000 
 43692.65567		 305.27265			43387.38302		68.11000		324.00000 
 43692.65567		 686.20710			43006.44858		222.02600		875.00000 
 43692.65567		 305.27265			43387.38302		68.11000		324.00000 
 43692.65567		 686.20710			43006.44858		222.02600		875.00000 
 43692.65567		 305.27265			43387.38302		68.11000		324.00000 
 43692.65567		 686.20710			43006.44858		222.02600		875.00000 
 43692.65567		 305.27265			43387.38302		68.11000		324.00000 
 43692.65567		 686.20710			43006.44858		222.02600		875.00000 
 43692.65567		 305.27265			43387.38302		68.11000		324.00000 
 43692.65567		 686.20710			43006.44858		222.02600		875.00000 
 43692.65567		 305.27265			43387.38302		68.11000		324.00000 
 43692.65567		 686.20710			43006.44858		222.02600		875.00000 
 43692.65567		 305.27265			43387.38302		68.11000		324.00000 
 43692.65567		 686.20710			43006.44858		222.02600		875.00000 
 43692.65567		 305.27265			43387.38302		68.11000		324.00000 
 43692.65567		 686.20710			43006.44858		222.02600		875.00000 
 43692.65567		 305.27265			43387.38302		68.11000		324.00000 
 43692.65567		 686.20710			43006.44858		222.02600		875.00000 
 43692.65567		 305.27265			43387.38302		68.11000		324.00000 
 43692.65567		 686.20710			43006.44858		222.02600		875.00000 
 43692.65567		 305.27265			43387.38302		68.11000		324.00000 
 43692.65567		 686.20710			43006.44858		222.02600		875.00000 
 43692.65567		 305.27265			43387.38302		68.11000		324.00000 
 43692.65567		 686.20710			43006.44858		222.02600		875.00000 
 43692.65567		 305.27265			43387.38302		68.11000		324.00000 
 43692.65567		 686.20710			43006.44858		222.02600		875.00000 
 43692.65567		 305.27265			43387.38302		68.11000		324.00000 
 43692.65567		 686.20710			43006.44858		222.02600		875.00000 
 43692.65567		 305.27265			43387.38302		68.11000		324.00000 
 43692.65567		 686.20710			43006.44858		222.02600		875.00000 
 43692.65567		 305.27265			43387.38302		68.11000		324.00000 
 43692.65567		 686.20710			43006.44858		222.02600		875.00000 
 43692.65567		 305.27265			43387.38302		68.11000		324.00000 
 43692.65567		 686.20710			43006.44858		222.02600		875.00000 
 43692.65567		 305.27265			43387.38302		68.11000		324.00000 
 43692.65567		 686.20710			43006.44858		222.02600		875.00000 
 43692.65567		 305.27265			43387.38302		68.11000		324.00000 
 43692.65567		 686.20710			43006.44858		222.02600		875.00000 
 43692.65567		 305.27265			43387.38302		68.11000		324.00000 
 43692.65567		 686.20710			43006.44858		222.02600		875.00000 
 43692.65567		 305.27265			43387.38302		68.11000		324.00000 
 43692.65567		 686.20710			43006.44858		222.02600		875.00000 
 43692.65567		 305.27265			43387.38302		68.11000		324.00000 
 43692.65567		 686.20710			43006.44858		222.02600		875.00000 
 43692.65567		 305.27265			43387.38302		68.11000		324.00000 
 43692.65567		 686.20710			43006.44858		222.02600		875.00000 
 43692.65567		 305.27265			43387.38302		68.11000		324.00000 
 43692.65567		 686.20710			43006.44858		222.02600		875.00000 
 43692.65567		 305.27265			43387.38302		68.11000		324.00000 
 43692.65567		 686.20710			43006.44858		222.02600		875.00000 
 43692.65567		 305.27265			43387.38302		68.11000		324.00000 
 43692.65567		 686.20710			43006.44858		222.02600		875.00000 
 43692.65567		 305.27265			43387.38302		68.11000		324.00000 
 43692.65567		 686.20710			43006.44858		222.02600		875.00000 
 43692.65567		 305.27265			43387.38302		68.11000		324.00000 
 43692.65567		 686.20710			43006.44858		222.02600		875.00000 
 43692.65567		 305.27265			43387.38302		68.11000		324.00000 
 43692.65567		 686.20710			43006.44858		222.02600		875.00000 
 43692.65567		 305.27265			43387.38302		68.11000		324.00000 
 43692.65567		 686.20710			43006.44858		222.02600		875.00000 
 43692.65567		 305.27265			43387.38302		68.11000		324.00000 
 43692.65567		 686.20710			43006.44858		222.02600		875.00000 
 43692.65567		 305.27265			43387.38302		68.11000		324.00000 
 43692.65567		 686.20710			43006.44858		222.02600		875.00000 
 43692.65567		 305.27265			43387.38302		68.11000		324.00000 
 43692.65567		 686.20710			43006.44858		222.02600		875.00000 
 43692.65567		 305.27265			43387.38302		68.11000		324.00000 
 43692.65567		 686.20710			43006.44858		222.02600		875.00000 
 43692.65567		 305.27265			43387.38302		68.11000		324.00000 
 43692.65567		 686.20710			43006.44858		222.02600		875.00000 
 43692.65567		 305.27265			43387.38302		68.11000		324.00000 
 43692.65567		 686.20710			43006.44858		222.02600		875.00000 
 43692.65567		 305.27265			43387.38302		68.11000		324.00000 
 43692.65567		 686.20710			43006.44858		222.02600		875.00000 
 43692.65567		 305.27265			43387.38302		68.11000		324.00000 
 43692.65567		 686.20710			43006.44858		222.02600		875.00000 
 43692.65567		 305.27265			43387.38302		68.11000		324.00000 
 43692.65567		 686.20710			43006.44858		222.02600		875.00000 
 43692.65567		 305.27265			43387.38302		68.11000		324.00000 
 43692.65567		 686.20710			43006.44858		222.02600		875.00000 
 43692.65567		 305.27265			43387.38302		68.11000		324.00000 
 43692.65567		 686.20710			43006.44858		222.02600		875.00000 
 43692.65567		 305.27265			43387.38302		68.11000		324.00000 
 43692.65567		 686.20710			43006.44858		222.02600		875.00000 
 43692.65567		 305.27265			43387.38302		68.11000		324.00000 
 43692.65567		 686.20710			43006.44858		222.02600		875.00000 
 43692.65567		 305.27265			43387.38302		68.11000		324.00000 
 43692.65567		 686.20710			43006.44858		222.02600		875.00000 
 43692.65567		 305.27265			43387.38302		68.11000		324.00000 
 43692.65567		 686.20710			43006.44858		222.02600		875.00000 
 43692.65567		 305.27265			43387.38302		68.11000		324.00000 
 43692.65567		 686.20710			43006.44858		222.02600		875.00000 
 43692.65567		 305.27265			43387.38302		68.11000		324.00000 
 43692.65567		 686.20710			43006.44858		222.02600		875.00000 
 43692.65567		 305.27265			43387.38302		68.11000		324.00000 
 43692.65567		 686.20710			43006.44858		222.02600		875.00000 
 43692.65567		 305.27265			43387.38302		68.11000		324.00000 
 43692.65567		 686.20710			43006.44858		222.02600		875.00000 
 43692.65567		 305.27265			43387.38302		68.11000		324.00000 
 43692.65567		 686.20710			43006.44858		222.02600		875.00000 
 43692.65567		 305.27265			43387.38302		68.11000		324.00000 
 43692.65567		 686.20710			43006.44858		222.02600		875.00000 
 43692.65567		 305.27265			43387.38302		68.11000		324.00000 
 43692.65567		 686.20710			43006.44858		222.02600		875.00000 
 43692.65567		 305.27265			43387.38302		68.11000		324.00000 
 43692.65567		 686.20710			43006.44858		223.18800		875.00000 
 43692.65567		 305.27265			43387.38302		68.11000		324.00000 
 43692.65567		 686.20710			43006.44858		223.18800		875.00000 
 43692.65567		 305.27265			43387.38302		68.11000		324.00000 
 43692.65567		 686.20710			43006.44858		223.18800		875.00000 
 43692.65567		 305.27265			43387.38302		68.11000		324.00000 
 43692.65567		 686.20710			43006.44858		223.18800		875.00000 
 43692.65567		 305.27265			43387.38302		68.11000		324.00000 
 43692.65567		 686.20710			43006.44858		223.18800		875.00000 
 43692.65567		 305.27265			43387.38302		68.11000		324.00000 
 43692.65567		 686.20710			43006.44858		223.18800		875.00000 
 43692.65567		 305.27265			43387.38302		68.11000		324.00000 
 43692.65567		 686.20710			43006.44858		223.18800		875.00000 
 43692.65567		 305.27265			43387.38302		68.11000		324.00000 
 43692.65567		 686.20710			43006.44858		223.18800		875.00000 
 43692.65567		 305.27265			43387.38302		68.11000		324.00000 
 43692.65567		 686.20710			43006.44858		223.18800		875.00000 
 43692.65567		 305.27265			43387.38302		68.11000		324.00000 
 43692.65567		 686.20710			43006.44858		223.18800		875.00000 
 43692.65567		 305.27265			43387.38302		68.11000		324.00000 
 43692.65567		 686.20710			43006.44858		223.18800		875.00000 
 43692.65567		 305.27265			43387.38302		68.11000		324.00000 
 43692.65567		 686.20710			43006.44858		223.18800		875.00000 
 43692.65567		 305.27265			43387.38302		68.11000		324.00000 
 43692.65567		 686.20710			43006.44858		223.18800		875.00000 
 43692.65567		 305.27265			43387.38302		68.11000		324.00000 
 43692.65567		 686.20710			43006.44858		223.18800		875.00000 
 43692.65567		 305.27265			43387.38302		68.11000		324.00000 
 43692.65567		 686.20710			43006.44858		223.18800		875.00000 
 43692.65567		 305.27265			43387.38302		68.11000		324.00000 
 43692.65567		 686.20710			43006.44858		223.18800		875.00000 
 43692.65567		 305.27265			43387.38302		68.11000		324.00000 
 43692.65567		 686.20710			43006.44858		223.18800		875.00000 
 43692.65567		 305.27265			43387.38302		68.11000		324.00000 
 43692.65567		 686.20710			43006.44858		223.18800		875.00000 
 43692.65567		 305.27265			43387.38302		68.11000		324.00000 
 43692.65567		 686.20710			43006.44858		223.18800		875.00000 
 43692.65567		 305.27265			43387.38302		68.11000		324.00000 
 43692.65567		 686.20710			43006.44858		223.18800		875.00000 
 43692.65567		 305.27265			43387.38302		68.11000		324.00000 
 43692.65567		 686.20710			43006.44858		223.18800		875.00000 
 43692.65567		 305.27265			43387.38302		68.11000		324.00000 
 43692.65567		 686.20710			43006.44858		223.18800		875.00000 
 43692.65567		 305.27265			43387.38302		68.11000		324.00000 
 43692.65567		 686.20710			43006.44858		223.18800		875.00000 
 43692.65567		 305.27265			43387.38302		68.11000		324.00000 
 43692.65567		 686.20710			43006.44858		223.18800		875.00000 
 43692.65567		 305.27265			43387.38302		68.11000		324.00000 
 43692.65567		 686.20710			43006.44858		223.18800		875.00000 
 43692.65567		 305.27265			43387.38302		68.11000		324.00000 
 43692.65567		 686.20710			43006.44858		223.18800		875.00000 
 43692.65567		 305.27265			43387.38302		68.11000		324.00000 
 43692.65567		 686.20710			43006.44858		223.18800		875.00000 
 43692.65567		 305.27265			43387.38302		68.11000		324.00000 
 43692.65567		 686.20710			43006.44858		223.18800		875.00000 
 43692.65567		 305.27265			43387.38302		68.11000		324.00000 
 43692.65567		 686.20710			43006.44858		223.18800		875.00000 
 43692.65567		 305.27265			43387.38302		68.11000		324.00000 
 43692.65567		 686.20710			43006.44858		223.18800		875.00000 
 43692.65567		 305.27265			43387.38302		68.11000		324.00000 
 43692.65567		 686.20710			43006.44858		223.18800		875.00000 
 43692.65567		 305.27265			43387.38302		68.11000		324.00000 
 43692.65567		 686.20710			43006.44858		223.18800		875.00000 
 43692.65567		 305.27265			43387.38302		68.11000		324.00000 
 43692.65567		 686.20710			43006.44858		223.18800		875.00000 
 43692.65567		 305.27265			43387.38302		68.11000		324.00000 
 43692.65567		 686.20710			43006.44858		223.18800		875.00000 
 43692.65567		 305.27265			43387.38302		68.11000		324.00000 
 43692.65567		 686.20710			43006.44858		223.18800		875.00000 
 43692.65567		 305.27265			43387.38302		68.11000		324.00000 
 43692.65567		 686.20710			43006.44858		223.18800		875.00000 
 43692.65567		 305.27265			43387.38302		68.11000		324.00000 
 43692.65567		 686.20710			43006.44858		223.18800		875.00000 
 43692.65567		 305.27265			43387.38302		68.11000		324.00000 
 43692.65567		 686.20710			43006.44858		223.18800		875.00000 
 43692.65567		 305.27265			43387.38302		68.11000		324.00000 
 43692.65567		 686.20710			43006.44858		223.18800		875.00000 
 43692.65567		 305.27265			43387.38302		68.11000		324.00000 
 43692.65567		 686.20710			43006.44858		223.18800		875.00000 
 43692.65567		 305.27265			43387.38302		68.11000		324.00000 
 43692.65567		 686.20710			43006.44858		223.18800		875.00000 
 43692.65567		 305.27265			43387.38302		68.11000		324.00000 
 43692.65567		 686.20710			43006.44858		223.18800		875.00000 
 43692.65567		 305.27265			43387.38302		68.11000		324.00000 
 43692.65567		 686.20710			43006.44858		223.18800		875.00000 
 43692.65567		 305.27265			43387.38302		68.11000		324.00000 
 43692.65567		 686.20710			43006.44858		223.18800		875.00000 
 43692.65567		 305.27265			43387.38302		68.11000		324.00000 
 43692.65567		 686.20710			43006.44858		223.18800		875.00000 
 43692.65567		 305.27265			43387.38302		68.11000		324.00000 
 43692.65567		 686.20710			43006.44858		223.18800		875.00000 
 43692.65567		 305.27265			43387.38302		68.11000		324.00000 
 43692.65567		 686.20710			43006.44858		223.18800		875.00000 
 43692.65567		 305.27265			43387.38302		68.11000		324.00000 
 43692.65567		 686.20710			43006.44858		223.18800		875.00000 
 43692.65567		 305.27265			43387.38302		68.11000		324.00000 
 43692.65567		 686.20710			43006.44858		223.18800		875.00000 
 43692.65567		 305.27265			43387.38302		68.11000		324.00000 
 43692.65567		 686.20710			43006.44858		223.18800		875.00000 
 43692.65567		 305.27265			43387.38302		68.11000		324.00000 
 43692.65567		 686.20710			43006.44858		223.18800		875.00000 
 43692.65567		 305.27265			43387.38302		68.11000		324.00000 
 43692.65567		 686.20710			43006.44858		223.18800		875.00000 
 43692.65567		 305.27265			43387.38302		68.11000		324.00000 
 43692.65567		 686.20710			43006.44858		223.18800		875.00000 
 43692.65567		 305.27265			43387.38302		68.11000		324.00000 
 43692.65567		 686.20710			43006.44858		223.18800		875.00000 
 43692.65567		 305.27265			43387.38302		68.11000		324.00000 
 43692.65567		 686.20710			43006.44858		223.18800		875.00000 
 43692.65567		 305.27265			43387.38302		68.11000		324.00000 
 43692.65567		 686.20710			43006.44858		223.18800		875.00000 
 43692.65567		 305.27265			43387.38302		68.11000		324.00000 
 43692.65567		 686.20710			43006.44858		223.18800		875.00000 
 43692.65567		 305.27265			43387.38302		68.11000		324.00000 
 43692.65567		 686.20710			43006.44858		223.18800		875.00000 
 43692.65567		 305.27265			43387.38302		68.11000		324.00000 
 43692.65567		 686.20710			43006.44858		223.18800		875.00000 
 43692.65567		 305.27265			43387.38302		68.11000		324.00000 
 43692.65567		 686.20710			43006.44858		223.18800		875.00000 
 43692.65567		 305.27265			43387.38302		68.11000		324.00000 
 43692.65567		 686.20710			43006.44858		223.18800		875.00000 
 43692.65567		 305.27265			43387.38302		68.11000		324.00000 
 43692.65567		 686.20710			43006.44858		223.18800		875.00000 
 43692.65567		 305.27265			43387.38302		68.11000		324.00000 
 43692.65567		 686.20710			43006.44858		223.18800		875.00000 
 43692.65567		 305.27265			43387.38302		68.11000		324.00000 
 43692.65567		 686.20710			43006.44858		223.18800		875.00000 
 43692.65567		 305.27265			43387.38302		68.11000		324.00000 
 43692.65567		 686.20710			43006.44858		223.18800		875.00000 
 43692.65567		 305.27265			43387.38302		68.11000		324.00000 
 43692.65567		 686.20710			43006.44858		222.66000		875.00000 
 43692.65567		 305.27265			43387.38302		68.11000		324.00000 
 43692.65567		 686.20710			43006.44858		222.66000		875.00000 
 43692.65567		 305.27265			43387.38302		68.11000		324.00000 
 43692.65567		 686.20710			43006.44858		222.66000		875.00000 
 43692.65567		 305.27265			43387.38302		68.11000		324.00000 
 43692.65567		 686.20710			43006.44858		222.66000		875.00000 
 43692.65567		 305.27265			43387.38302		68.11000		324.00000 
 43692.65567		 686.20710			43006.44858		222.66000		875.00000 
 43692.65567		 305.27265			43387.38302		68.11000		324.00000 
 43692.65567		 686.20710			43006.44858		222.66000		875.00000 
 43692.65567		 305.27265			43387.38302		68.11000		324.00000 
 43692.65567		 686.20710			43006.44858		222.66000		875.00000 
 43692.65567		 305.27265			43387.38302		68.11000		324.00000 
 43692.65567		 686.20710			43006.44858		222.66000		875.00000 
 43692.65567		 305.27265			43387.38302		68.11000		324.00000 
 43692.65567		 686.20710			43006.44858		222.66000		875.00000 
 43692.65567		 305.27265			43387.38302		68.11000		324.00000 
 43692.65567		 686.20710			43006.44858		222.66000		875.00000 
 43692.65567		 305.27265			43387.38302		68.11000		324.00000 
 43692.65567		 686.20710			43006.44858		222.66000		875.00000 
 43692.65567		 305.27265			43387.38302		68.11000		324.00000 
 43692.65567		 686.20710			43006.44858		222.66000		875.00000 
 43692.65567		 305.27265			43387.38302		68.11000		324.00000 
 43692.65567		 686.20710			43006.44858		222.66000		875.00000 
 43692.65567		 305.27265			43387.38302		68.11000		324.00000 
 43692.65567		 686.20710			43006.44858		222.66000		875.00000 
 43692.65567		 305.27265			43387.38302		68.11000		324.00000 
 43692.65567		 686.20710			43006.44858		222.66000		875.00000 
 43692.65567		 305.27265			43387.38302		68.11000		324.00000 
 43692.65567		 686.20710			43006.44858		222.66000		875.00000 
 43692.65567		 305.27265			43387.38302		68.11000		324.00000 
 43692.65567		 686.20710			43006.44858		222.66000		875.00000 
 43692.65567		 305.27265			43387.38302		68.11000		324.00000 
 43692.65567		 686.20710			43006.44858		222.66000		875.00000 
 43692.65567		 305.27265			43387.38302		68.11000		324.00000 
 43692.65567		 686.20710			43006.44858		222.66000		875.00000 
 43692.65567		 305.27265			43387.38302		68.11000		324.00000 
 43692.65567		 686.20710			43006.44858		222.66000		875.00000 
 43692.65567		 305.27265			43387.38302		68.11000		324.00000 
 43692.65567		 686.20710			43006.44858		222.66000		875.00000 
 43692.65567		 305.27265			43387.38302		68.11000		324.00000 
 43692.65567		 686.20710			43006.44858		222.66000		875.00000 
 43692.65567		 305.27265			43387.38302		68.11000		324.00000 
 43692.65567		 686.20710			43006.44858		222.66000		875.00000 
 43692.65567		 305.27265			43387.38302		68.11000		324.00000 
 43692.65567		 686.20710			43006.44858		222.66000		875.00000 
 43692.65567		 305.27265			43387.38302		68.11000		324.00000 
 43692.65567		 686.20710			43006.44858		222.66000		875.00000 
 43692.65567		 305.27265			43387.38302		68.11000		324.00000 
 43692.65567		 686.20710			43006.44858		222.66000		875.00000 
 43692.65567		 305.27265			43387.38302		68.11000		324.00000 
 43692.65567		 686.20710			43006.44858		222.66000		875.00000 
 43692.65567		 305.27265			43387.38302		68.11000		324.00000 
 43692.65567		 686.20710			43006.44858		222.66000		875.00000 
 43692.65567		 305.27265			43387.38302		68.11000		324.00000 
 43692.65567		 686.20710			43006.44858		222.66000		875.00000 
 43692.65567		 305.27265			43387.38302		68.11000		324.00000 
 43692.65567		 686.20710			43006.44858		222.66000		875.00000 
 43692.65567		 305.27265			43387.38302		68.11000		324.00000 
 43692.65567		 686.20710			43006.44858		222.66000		875.00000 
 43692.65567		 305.27265			43387.38302		68.11000		324.00000 
 43692.65567		 686.20710			43006.44858		222.66000		875.00000 
 43692.65567		 305.27265			43387.38302		68.11000		324.00000 
 43692.65567		 686.20710			43006.44858		222.66000		875.00000 
 43692.65567		 305.27265			43387.38302		68.11000		324.00000 
 43692.65567		 686.20710			43006.44858		222.66000		875.00000 
 43692.65567		 305.27265			43387.38302		68.11000		324.00000 
 43692.65567		 686.20710			43006.44858		222.66000		875.00000 
 43692.65567		 305.27265			43387.38302		68.11000		324.00000 
 43692.65567		 686.20710			43006.44858		222.66000		875.00000 
 43692.65567		 305.27265			43387.38302		68.11000		324.00000 
 43692.65567		 686.20710			43006.44858		222.66000		875.00000 
 43692.65567		 305.27265			43387.38302		68.11000		324.00000 
 43692.65567		 686.20710			43006.44858		222.66000		875.00000 
 43692.65567		 305.27265			43387.38302		68.11000		324.00000 
 43692.65567		 686.20710			43006.44858		222.66000		875.00000 
 43692.65567		 305.27265			43387.38302		68.11000		324.00000 
 43692.65567		 686.20710			43006.44858		222.66000		875.00000 
 43692.65567		 305.27265			43387.38302		68.11000		324.00000 
 43692.65567		 686.20710			43006.44858		222.66000		875.00000 
 43692.65567		 305.27265			43387.38302		68.11000		324.00000 
 43692.65567		 686.20710			43006.44858		222.66000		875.00000 
 43692.65567		 305.27265			43387.38302		68.11000		324.00000 
 43692.65567		 686.20710			43006.44858		222.66000		875.00000 
 43692.65567		 305.27265			43387.38302		68.11000		324.00000 
 43692.65567		 686.20710			43006.44858		222.66000		875.00000 
 43692.65567		 305.27265			43387.38302		68.11000		324.00000 
 43692.65567		 686.20710			43006.44858		222.66000		875.00000 
 43692.65567		 305.27265			43387.38302		68.11000		324.00000 
 43692.65567		 686.20710			43006.44858		222.66000		875.00000 
 43692.65567		 305.27265			43387.38302		68.11000		324.00000 
 43692.65567		 686.20710			43006.44858		222.66000		875.00000 
 43692.65567		 305.27265			43387.38302		68.11000		324.00000 
 43692.65567		 686.20710			43006.44858		222.66000		875.00000 
 43692.65567		 305.27265			43387.38302		68.11000		324.00000 
 43692.65567		 686.20710			43006.44858		222.66000		875.00000 
 43692.65567		 305.27265			43387.38302		68.11000		324.00000 
 43692.65567		 686.20710			43006.44858		222.66000		875.00000 
 43692.65567		 305.27265			43387.38302		68.11000		324.00000 
 43692.65567		 686.20710			43006.44858		222.66000		875.00000 
 43692.65567		 305.27265			43387.38302		68.11000		324.00000 
 43692.65567		 686.20710			43006.44858		222.66000		875.00000 
 43692.65567		 305.27265			43387.38302		68.11000		324.00000 
 43692.65567		 686.20710			43006.44858		222.66000		875.00000 
 43692.65567		 305.27265			43387.38302		68.11000		324.00000 
 43692.65567		 686.20710			43006.44858		222.66000		875.00000 
 43692.65567		 305.27265			43387.38302		68.11000		324.00000 
 43692.65567		 686.20710			43006.44858		222.66000		875.00000 
 43692.65567		 305.27265			43387.38302		68.11000		324.00000 
 43692.65567		 686.20710			43006.44858		222.66000		875.00000 
 43692.65567		 305.27265			43387.38302		68.11000		324.00000 
 43692.65567		 686.20710			43006.44858		222.66000		875.00000 
 43692.65567		 305.27265			43387.38302		68.11000		324.00000 
 43692.65567		 686.20710			43006.44858		222.66000		875.00000 
 43692.65567		 305.27265			43387.38302		68.11000		324.00000 
 43692.65567		 686.20710			43006.44858		222.66000		875.00000 
 43692.65567		 305.27265			43387.38302		68.11000		324.00000 
 43692.65567		 686.20710			43006.44858		222.66000		875.00000 
 43692.65567		 305.27265			43387.38302		68.11000		324.00000 
 43692.65567		 686.20710			43006.44858		222.66000		875.00000 
 43692.65567		 305.27265			43387.38302		68.11000		324.00000 
 43692.65567		 686.20710			43006.44858		222.66000		875.00000 
 43692.65567		 305.27265			43387.38302		68.11000		324.00000 
 43692.65567		 686.20710			43006.44858		222.66000		875.00000 
 43692.65567		 305.27265			43387.38302		68.11000		324.00000 
 43692.65567		 686.20710			43006.44858		222.66000		875.00000 
 43692.65567		 305.27265			43387.38302		68.11000		324.00000 
 43692.65567		 686.20710			43006.44858		222.66000		875.00000 
 43692.65567		 305.27265			43387.38302		68.11000		324.00000 
 43692.65567		 686.20710			43006.44858		222.66000		875.00000 
 43692.65567		 305.27265			43387.38302		68.11000		324.00000 
 43692.65567		 686.20710			43006.44858		222.66000		875.00000 
 43692.65567		 305.27265			43387.38302		68.11000		324.00000 
 43692.65567		 686.20710			43006.44858		222.66000		875.00000 
 43692.65567		 305.27265			43387.38302		68.11000		324.00000 
 43692.65567		 686.20710			43006.44858		222.66000		875.00000 
 43692.65567		 305.27265			43387.38302		68.11000		324.00000 
 43692.65567		 686.20710			43006.44858		222.66000		875.00000 
 43692.65567		 305.27265			43387.38302		68.11000		324.00000 
 43692.65567		 686.20710			43006.44858		222.66000		875.00000 
 43692.65567		 305.27265			43387.38302		68.11000		324.00000 
 43692.65567		 686.20710			43006.44858		222.66000		875.00000 
 43692.65567		 305.27265			43387.38302		68.11000		324.00000 
 43692.65567		 686.20710			43006.44858		222.66000		875.00000 
 43692.65567		 305.27265			43387.38302		68.11000		324.00000 
 43692.65567		 686.20710			43006.44858		222.66000		875.00000 
 43692.65567		 305.27265			43387.38302		68.11000		324.00000 
 43692.65567		 686.20710			43006.44858		222.66000		875.00000 
 43692.65567		 305.27265			43387.38302		68.11000		324.00000 
 43692.65567		 686.20710			43006.44858		222.66000		875.00000 
 43692.65567		 305.27265			43387.38302		68.11000		324.00000 
 43692.65567		 686.20710			43006.44858		222.66000		875.00000 
 43692.65567		 305.27265			43387.38302		68.11000		324.00000 
 43692.65567		 686.20710			43006.44858		222.66000		875.00000 
 43692.65567		 305.27265			43387.38302		68.11000		324.00000 
 43692.65567		 686.20710			43006.44858		222.66000		875.00000 
 43692.65567		 305.27265			43387.38302		68.11000		324.00000 
 43692.65567		 686.20710			43006.44858		222.66000		875.00000 
 43692.65567		 305.27265			43387.38302		68.11000		324.00000 
 43692.65567		 686.20710			43006.44858		222.66000		875.00000 
 43692.65567		 305.27265			43387.38302		68.11000		324.00000 
 43692.65567		 686.20710			43006.44858		222.66000		875.00000 
 43692.65567		 305.27265			43387.38302		68.11000		324.00000 
 43692.65567		 686.20710			43006.44858		222.66000		875.00000 
 43692.65567		 305.27265			43387.38302		68.11000		324.00000 
 43692.65567		 686.20710			43006.44858		222.66000		875.00000 
 43692.65567		 305.27265			43387.38302		68.11000		324.00000 
 43692.65567		 686.20710			43006.44858		222.66000		875.00000 
 43692.65567		 305.27265			43387.38302		68.11000		324.00000 
 43692.65567		 686.20710			43006.44858		222.66000		875.00000 
 43692.65567		 305.27265			43387.38302		68.11000		324.00000 
 43692.65567		 686.20710			43006.44858		222.66000		875.00000 
 43692.65567		 305.27265			43387.38302		68.11000		324.00000 
 43692.65567		 686.20710			43006.44858		222.66000		875.00000 
 43692.65567		 305.27265			43387.38302		68.11000		324.00000 
 43692.65567		 686.20710			43006.44858		222.66000		875.00000 
 43692.65567		 305.27265			43387.38302		68.11000		324.00000 
 43692.65567		 686.20710			43006.44858		222.66000		875.00000 
 43692.65567		 305.27265			43387.38302		68.11000		324.00000 
 43692.65567		 686.20710			43006.44858		222.66000		875.00000 
 43692.65567		 305.27265			43387.38302		68.11000		324.00000 
 43692.65567		 686.20710			43006.44858		222.66000		875.00000 
 43692.65567		 305.27265			43387.38302		68.11000		324.00000 
 43692.65567		 686.20710			43006.44858		222.66000		875.00000 
 43692.65567		 305.27265			43387.38302		68.11000		324.00000 
 43692.65567		 686.20710			43006.44858		222.66000		875.00000 
 43692.65567		 305.27265			43387.38302		68.11000		324.00000 
 43692.65567		 686.20710			43006.44858		222.66000		875.00000 
 43692.65567		 305.27265			43387.38302		68.11000		324.00000 
 43692.65567		 686.20710			43006.44858		222.66000		875.00000 
 43692.65567		 305.27265			43387.38302		68.11000		324.00000 
 43692.65567		 686.20710			43006.44858		222.66000		875.00000 
 43692.65567		 305.27265			43387.38302		68.11000		324.00000 
 43692.65567		 686.20710			43006.44858		222.66000		875.00000 
 43692.65567		 305.27265			43387.38302		68.11000		324.00000 
 43692.65567		 686.20710			43006.44858		222.66000		875.00000 
 43692.65567		 305.27265			43387.38302		68.11000		324.00000 
 43692.65567		 686.20710			43006.44858		222.66000		875.00000 
 43692.65567		 305.27265			43387.38302		68.11000		324.00000 
 43692.65567		 686.20710			43006.44858		222.66000		875.00000 
 43692.65567		 305.27265			43387.38302		68.11000		324.00000 
 43692.65567		 686.20710			43006.44858		222.66000		875.00000 
 43692.65567		 305.27265			43387.38302		68.11000		324.00000 
 43692.65567		 686.20710			43006.44858		222.66000		875.00000 
 43692.65567		 305.27265			43387.38302		68.11000		324.00000 
 43692.65567		 686.20710			43006.44858		222.66000		875.00000 
 43692.65567		 305.27265			43387.38302		68.11000		324.00000 
 43692.65567		 686.20710			43006.44858		222.66000		875.00000 
 43692.65567		 305.27265			43387.38302		68.11000		324.00000 
 43692.65567		 686.20710			43006.44858		222.66000		875.00000 
 43692.65567		 305.27265			43387.38302		68.11000		324.00000 
 43692.65567		 686.20710			43006.44858		222.66000		875.00000 
 43692.65567		 305.27265			43387.38302		68.11000		324.00000 
 43692.65567		 686.20710			43006.44858		222.66000		875.00000 
 43692.65567		 305.27265			43387.38302		68.11000		324.00000 
 43692.65567		 686.20710			43006.44858		222.66000		875.00000 
 43692.65567		 305.27265			43387.38302		68.11000		324.00000 
 43692.65567		 686.20710			43006.44858		222.66000		875.00000 
 43692.65567		 305.27265			43387.38302		68.11000		324.00000 
 43692.65567		 686.20710			43006.44858		222.66000		875.00000 
 43692.65567		 305.27265			43387.38302		68.11000		324.00000 
 43692.65567		 686.20710			43006.44858		222.66000		875.00000 
 43692.65567		 305.27265			43387.38302		68.11000		324.00000 
 43692.65567		 686.20710			43006.44858		222.66000		875.00000 
 43692.65567		 305.27265			43387.38302		68.11000		324.00000 
 43692.65567		 686.20710			43006.44858		222.66000		875.00000 
 43692.65567		 305.27265			43387.38302		68.11000		324.00000 
 43692.65567		 686.20710			43006.44858		222.66000		875.00000 
 43692.65567		 305.27265			43387.38302		68.11000		324.00000 
 43692.65567		 686.20710			43006.44858		222.66000		875.00000 
 43692.65567		 305.27265			43387.38302		68.11000		324.00000 
 43692.65567		 686.20710			43006.44858		222.66000		875.00000 
 43692.65567		 305.27265			43387.38302		68.11000		324.00000 
 43692.65567		 686.20710			43006.44858		222.66000		875.00000 
 43692.65567		 305.27265			43387.38302		68.11000		324.00000 
 43692.65567		 686.20710			43006.44858		222.66000		875.00000 
 43692.65567		 305.27265			43387.38302		68.11000		324.00000 
 43692.65567		 686.20710			43006.44858		222.66000		875.00000 
 43692.65567		 305.27265			43387.38302		68.11000		324.00000 
 43692.65567		 686.20710			43006.44858		222.66000		875.00000 
 43692.65567		 305.27265			43387.38302		68.11000		324.00000 
 43692.65567		 686.20710			43006.44858		222.66000		875.00000 
 43692.65567		 305.27265			43387.38302		68.11000		324.00000 
 43692.65567		 686.20710			43006.44858		222.66000		875.00000 
 43692.65567		 305.27265			43387.38302		68.11000		324.00000 
 43692.65567		 686.20710			43006.44858		222.66000		875.00000 
 43692.65567		 305.27265			43387.38302		68.11000		324.00000 
 43692.65567		 686.20710			43006.44858		222.66000		875.00000 
 43692.65567		 305.27265			43387.38302		68.11000		324.00000 
 43692.65567		 686.20710			43006.44858		222.66000		875.00000 
 43692.65567		 305.27265			43387.38302		68.11000		324.00000 
 43692.65567		 686.20710			43006.44858		222.66000		875.00000 
 43692.65567		 305.27265			43387.38302		68.11000		324.00000 
 43692.65567		 686.20710			43006.44858		222.66000		875.00000 
 43692.65567		 305.27265			43387.38302		68.11000		324.00000 
 43692.65567		 686.20710			43006.44858		223.26000		875.00000 
 43692.65567		 305.27265			43387.38302		68.11000		324.00000 
 43692.65567		 686.20710			43006.44858		223.26000		875.00000 
 43692.65567		 305.27265			43387.38302		68.11000		324.00000 
 43692.65567		 686.20710			43006.44858		223.26000		875.00000 
 43692.65567		 305.27265			43387.38302		68.11000		324.00000 
 43692.65567		 686.20710			43006.44858		223.26000		875.00000 
 43692.65567		 305.27265			43387.38302		68.11000		324.00000 
 43692.65567		 686.20710			43006.44858		223.26000		875.00000 
 43692.65567		 305.27265			43387.38302		68.11000		324.00000 
 43692.65567		 686.20710			43006.44858		223.26000		875.00000 
 43692.65567		 305.27265			43387.38302		68.11000		324.00000 
 43692.65567		 686.20710			43006.44858		223.26000		875.00000 
 43692.65567		 305.27265			43387.38302		68.11000		324.00000 
 43692.65567		 686.20710			43006.44858		223.26000		875.00000 
 43692.65567		 305.27265			43387.38302		68.11000		324.00000 
 43692.65567		 686.20710			43006.44858		223.26000		875.00000 
 43692.65567		 305.27265			43387.38302		68.11000		324.00000 
 43692.65567		 686.20710			43006.44858		223.26000		875.00000 
 43692.65567		 305.27265			43387.38302		68.11000		324.00000 
 43692.65567		 686.20710			43006.44858		223.26000		875.00000 
 43692.65567		 305.27265			43387.38302		68.11000		324.00000 
 43692.65567		 636.56151			43056.09417		223.26000		875.00000 
 43692.65567		 305.27265			43387.38302		68.11000		324.00000 
 43692.65567		 586.91591			43105.73976		223.26000		875.00000 
 43692.65567		 305.27265			43387.38302		68.11000		324.00000 
 43692.65567		 537.27032			43155.38535		223.26000		875.00000 
 43692.65567		 305.27265			43387.38302		68.11000		324.00000 
 43692.65567		 537.27032			43155.38535		223.26000		875.00000 
 43692.65567		 305.27265			43387.38302		68.11000		324.00000 
 43692.65567		 537.27032			43155.38535		223.26000		875.00000 
 43692.65567		 305.27265			43387.38302		68.11000		324.00000 
 43692.65567		 537.27032			43155.38535		223.26000		875.00000 
 43692.65567		 305.27265			43387.38302		68.11000		324.00000 
 43692.65567		 537.27032			43155.38535		223.26000		875.00000 
 43692.65567		 305.27265			43387.38302		68.11000		324.00000 
 43692.65567		 537.27032			43155.38535		223.26000		875.00000 
 43692.65567		 305.27265			43387.38302		68.11000		324.00000 
 43692.65567		 537.27032			43155.38535		223.26000		875.00000 
 43692.65567		 305.27265			43387.38302		68.11000		324.00000 
 43692.65567		 537.27032			43155.38535		223.26000		875.00000 
 43692.65567		 305.27265			43387.38302		68.11000		324.00000 
 43692.65567		 537.27032			43155.38535		223.26000		875.00000 
 43692.65567		 305.27265			43387.38302		68.11000		324.00000 
 43692.65567		 537.27032			43155.38535		223.26000		875.00000 
 43692.65567		 305.27265			43387.38302		68.11000		324.00000 
 43692.65567		 537.27032			43155.38535		223.26000		875.00000 
 43692.65567		 305.27265			43387.38302		68.11000		324.00000 
 43692.65567		 537.27032			43155.38535		223.26000		875.00000 
 43692.65567		 305.27265			43387.38302		68.11000		324.00000 
 43692.65567		 537.27032			43155.38535		223.26000		875.00000 
 43692.65567		 305.27265			43387.38302		68.11000		324.00000 
 43692.65567		 537.27032			43155.38535		223.26000		875.00000 
 43692.65567		 305.27265			43387.38302		68.11000		324.00000 
 43692.65567		 537.27032			43155.38535		223.26000		875.00000 
 43692.65567		 305.27265			43387.38302		68.11000		324.00000 
 43692.65567		 537.27032			43155.38535		223.26000		875.00000 
 43692.65567		 305.27265			43387.38302		68.11000		324.00000 
 43692.65567		 537.27032			43155.38535		223.26000		875.00000 
 43692.65567		 305.27265			43387.38302		68.11000		324.00000 
 43692.65567		 537.27032			43155.38535		223.26000		875.00000 
 43692.65567		 305.27265			43387.38302		68.11000		324.00000 
 43692.65567		 537.27032			43155.38535		223.26000		875.00000 
 43692.65567		 305.27265			43387.38302		68.11000		324.00000 
 43692.65567		 537.27032			43155.38535		223.26000		875.00000 
 43692.65567		 305.27265			43387.38302		68.11000		324.00000 
 43692.65567		 537.27032			43155.38535		223.26000		875.00000 
 43692.65567		 305.27265			43387.38302		68.11000		324.00000 
 43692.65567		 529.63254			43163.02313		223.26000		875.00000 
 43692.65567		 305.27265			43387.38302		68.11000		324.00000 
 43692.65567		 525.81365			43166.84203		223.26000		875.00000 
 43692.65567		 297.63487			43395.02080		68.11000		324.00000 
 43692.65567		 261.35540			43431.30027		223.26000		875.00000 
 43692.65567		 261.35540			43431.30027		68.11000		324.00000 
