Memory Total (MiB) 	 Memory Used (MiB) 	    Memory Free (MiB) 	 Power Drawed (W) 	 Clocks (Mhz) 	 
 43692.65567		 261.35540			43431.30027		183.03800		875.00000 
 43692.65567		 261.35540			43431.30027		69.64400		324.00000 
 43692.65567		 261.35540			43431.30027		183.03800		875.00000 
 43692.65567		 261.35540			43431.30027		69.64400		324.00000 
 43692.65567		 261.35540			43431.30027		183.03800		875.00000 
 43692.65567		 261.35540			43431.30027		69.64400		324.00000 
 43692.65567		 261.35540			43431.30027		183.03800		875.00000 
 43692.65567		 261.35540			43431.30027		69.64400		324.00000 
 43692.65567		 261.35540			43431.30027		183.03800		875.00000 
 43692.65567		 261.35540			43431.30027		69.64400		324.00000 
 43692.65567		 261.35540			43431.30027		183.03800		875.00000 
 43692.65567		 261.35540			43431.30027		69.64400		324.00000 
 43692.65567		 261.35540			43431.30027		183.03800		875.00000 
 43692.65567		 261.35540			43431.30027		69.64400		324.00000 
 43692.65567		 261.35540			43431.30027		183.03800		875.00000 
 43692.65567		 261.35540			43431.30027		69.64400		324.00000 
 43692.65567		 261.35540			43431.30027		183.03800		875.00000 
 43692.65567		 261.35540			43431.30027		69.64400		324.00000 
 43692.65567		 261.35540			43431.30027		183.03800		875.00000 
 43692.65567		 261.35540			43431.30027		69.64400		324.00000 
 43692.65567		 261.35540			43431.30027		183.03800		875.00000 
 43692.65567		 261.35540			43431.30027		69.64400		324.00000 
 43692.65567		 261.35540			43431.30027		183.03800		875.00000 
 43692.65567		 261.35540			43431.30027		69.64400		324.00000 
 43692.65567		 261.35540			43431.30027		183.03800		875.00000 
 43692.65567		 261.35540			43431.30027		69.64400		324.00000 
 43692.65567		 261.35540			43431.30027		183.03800		875.00000 
 43692.65567		 261.35540			43431.30027		69.64400		324.00000 
 43692.65567		 261.35540			43431.30027		183.03800		875.00000 
 43692.65567		 261.35540			43431.30027		69.64400		324.00000 
 43692.65567		 261.35540			43431.30027		151.41800		875.00000 
 43692.65567		 261.35540			43431.30027		69.64400		324.00000 
 43692.65567		 261.35540			43431.30027		151.41800		875.00000 
 43692.65567		 261.35540			43431.30027		69.64400		324.00000 
 43692.65567		 261.35540			43431.30027		151.41800		875.00000 
 43692.65567		 261.35540			43431.30027		69.64400		324.00000 
 43692.65567		 265.17429			43427.48138		151.41800		875.00000 
 43692.65567		 261.35540			43431.30027		69.64400		324.00000 
 43692.65567		 265.17429			43427.48138		151.41800		875.00000 
 43692.65567		 261.35540			43431.30027		69.64400		324.00000 
 43692.65567		 272.81207			43419.84360		151.41800		875.00000 
 43692.65567		 261.35540			43431.30027		69.64400		324.00000 
 43692.65567		 272.81207			43419.84360		151.41800		875.00000 
 43692.65567		 261.35540			43431.30027		69.64400		324.00000 
 43692.65567		 272.81207			43419.84360		151.41800		875.00000 
 43692.65567		 265.17429			43427.48138		69.64400		324.00000 
 43692.65567		 272.81207			43419.84360		151.41800		875.00000 
 43692.65567		 265.17429			43427.48138		69.64400		324.00000 
 43692.65567		 272.81207			43419.84360		151.41800		875.00000 
 43692.65567		 265.17429			43427.48138		69.64400		324.00000 
 43692.65567		 272.81207			43419.84360		151.41800		875.00000 
 43692.65567		 272.81207			43419.84360		69.64400		324.00000 
 43692.65567		 272.81207			43419.84360		151.41800		875.00000 
 43692.65567		 272.81207			43419.84360		69.64400		324.00000 
 43692.65567		 272.81207			43419.84360		151.41800		875.00000 
 43692.65567		 272.81207			43419.84360		69.64400		324.00000 
 43692.65567		 305.27265			43387.38302		151.41800		875.00000 
 43692.65567		 305.27265			43387.38302		69.64400		324.00000 
 43692.65567		 305.27265			43387.38302		151.41800		875.00000 
 43692.65567		 305.27265			43387.38302		69.64400		324.00000 
 43692.65567		 305.27265			43387.38302		151.41800		875.00000 
 43692.65567		 305.27265			43387.38302		69.64400		324.00000 
 43692.65567		 305.27265			43387.38302		151.41800		875.00000 
 43692.65567		 305.27265			43387.38302		69.64400		324.00000 
 43692.65567		 305.27265			43387.38302		151.41800		875.00000 
 43692.65567		 305.27265			43387.38302		69.64400		324.00000 
 43692.65567		 310.04627			43382.60941		151.41800		875.00000 
 43692.65567		 305.27265			43387.38302		69.64400		324.00000 
 43692.65567		 311.00099			43381.65468		151.41800		875.00000 
 43692.65567		 305.27265			43387.38302		69.64400		324.00000 
 43692.65567		 311.00099			43381.65468		151.41800		875.00000 
 43692.65567		 305.27265			43387.38302		69.64400		324.00000 
 43692.65567		 311.00099			43381.65468		151.41800		875.00000 
 43692.65567		 305.27265			43387.38302		69.64400		324.00000 
 43692.65567		 311.00099			43381.65468		151.41800		875.00000 
 43692.65567		 305.27265			43387.38302		69.64400		324.00000 
 43692.65567		 311.00099			43381.65468		151.41800		875.00000 
 43692.65567		 305.27265			43387.38302		69.64400		324.00000 
 43692.65567		 311.00099			43381.65468		151.41800		875.00000 
 43692.65567		 305.27265			43387.38302		69.64400		324.00000 
 43692.65567		 311.00099			43381.65468		151.41800		875.00000 
 43692.65567		 305.27265			43387.38302		69.64400		324.00000 
 43692.65567		 311.00099			43381.65468		151.41800		875.00000 
 43692.65567		 305.27265			43387.38302		69.64400		324.00000 
 43692.65567		 311.00099			43381.65468		151.41800		875.00000 
 43692.65567		 305.27265			43387.38302		69.64400		324.00000 
 43692.65567		 311.00099			43381.65468		151.41800		875.00000 
 43692.65567		 305.27265			43387.38302		69.64400		324.00000 
 43692.65567		 311.00099			43381.65468		151.41800		875.00000 
 43692.65567		 305.27265			43387.38302		69.64400		324.00000 
 43692.65567		 311.00099			43381.65468		151.41800		875.00000 
 43692.65567		 305.27265			43387.38302		69.64400		324.00000 
 43692.65567		 311.00099			43381.65468		139.87400		875.00000 
 43692.65567		 305.27265			43387.38302		69.64400		324.00000 
 43692.65567		 311.00099			43381.65468		139.87400		875.00000 
 43692.65567		 305.27265			43387.38302		69.64400		324.00000 
 43692.65567		 311.00099			43381.65468		139.87400		875.00000 
 43692.65567		 305.27265			43387.38302		69.64400		324.00000 
 43692.65567		 311.00099			43381.65468		139.87400		875.00000 
 43692.65567		 305.27265			43387.38302		69.64400		324.00000 
 43692.65567		 311.00099			43381.65468		139.87400		875.00000 
 43692.65567		 305.27265			43387.38302		69.64400		324.00000 
 43692.65567		 311.00099			43381.65468		139.87400		875.00000 
 43692.65567		 305.27265			43387.38302		69.64400		324.00000 
 43692.65567		 311.00099			43381.65468		139.87400		875.00000 
 43692.65567		 305.27265			43387.38302		69.64400		324.00000 
 43692.65567		 311.00099			43381.65468		139.87400		875.00000 
 43692.65567		 305.27265			43387.38302		69.64400		324.00000 
 43692.65567		 311.00099			43381.65468		139.87400		875.00000 
 43692.65567		 305.27265			43387.38302		69.64400		324.00000 
 43692.65567		 311.00099			43381.65468		139.87400		875.00000 
 43692.65567		 305.27265			43387.38302		69.64400		324.00000 
 43692.65567		 311.00099			43381.65468		139.87400		875.00000 
 43692.65567		 305.27265			43387.38302		69.64400		324.00000 
 43692.65567		 311.00099			43381.65468		139.87400		875.00000 
 43692.65567		 305.27265			43387.38302		69.64400		324.00000 
 43692.65567		 311.00099			43381.65468		139.87400		875.00000 
 43692.65567		 305.27265			43387.38302		69.64400		324.00000 
 43692.65567		 311.00099			43381.65468		139.87400		875.00000 
 43692.65567		 305.27265			43387.38302		69.64400		324.00000 
 43692.65567		 311.00099			43381.65468		139.87400		875.00000 
 43692.65567		 305.27265			43387.38302		69.64400		324.00000 
 43692.65567		 311.00099			43381.65468		139.87400		875.00000 
 43692.65567		 305.27265			43387.38302		69.64400		324.00000 
 43692.65567		 311.00099			43381.65468		139.87400		875.00000 
 43692.65567		 305.27265			43387.38302		69.64400		324.00000 
 43692.65567		 311.00099			43381.65468		139.87400		875.00000 
 43692.65567		 305.27265			43387.38302		69.64400		324.00000 
 43692.65567		 311.00099			43381.65468		139.87400		875.00000 
 43692.65567		 305.27265			43387.38302		69.64400		324.00000 
 43692.65567		 311.00099			43381.65468		139.87400		875.00000 
 43692.65567		 305.27265			43387.38302		69.64400		324.00000 
 43692.65567		 311.00099			43381.65468		139.87400		875.00000 
 43692.65567		 305.27265			43387.38302		69.64400		324.00000 
 43692.65567		 311.00099			43381.65468		139.87400		875.00000 
 43692.65567		 305.27265			43387.38302		69.64400		324.00000 
 43692.65567		 311.00099			43381.65468		139.87400		875.00000 
 43692.65567		 305.27265			43387.38302		69.64400		324.00000 
 43692.65567		 311.00099			43381.65468		139.87400		875.00000 
 43692.65567		 305.27265			43387.38302		69.64400		324.00000 
 43692.65567		 311.00099			43381.65468		139.87400		875.00000 
 43692.65567		 305.27265			43387.38302		69.64400		324.00000 
 43692.65567		 311.00099			43381.65468		139.87400		875.00000 
 43692.65567		 305.27265			43387.38302		69.64400		324.00000 
 43692.65567		 311.00099			43381.65468		139.87400		875.00000 
 43692.65567		 305.27265			43387.38302		69.64400		324.00000 
 43692.65567		 311.00099			43381.65468		139.87400		875.00000 
 43692.65567		 305.27265			43387.38302		69.64400		324.00000 
 43692.65567		 311.00099			43381.65468		139.87400		875.00000 
 43692.65567		 305.27265			43387.38302		69.64400		324.00000 
 43692.65567		 311.00099			43381.65468		139.87400		875.00000 
 43692.65567		 305.27265			43387.38302		69.64400		324.00000 
 43692.65567		 311.00099			43381.65468		139.87400		875.00000 
 43692.65567		 305.27265			43387.38302		69.64400		324.00000 
 43692.65567		 311.00099			43381.65468		139.87400		875.00000 
 43692.65567		 305.27265			43387.38302		69.64400		324.00000 
 43692.65567		 311.00099			43381.65468		135.03600		875.00000 
 43692.65567		 305.27265			43387.38302		69.64400		324.00000 
 43692.65567		 311.00099			43381.65468		135.03600		875.00000 
 43692.65567		 305.27265			43387.38302		69.64400		324.00000 
 43692.65567		 311.00099			43381.65468		135.03600		875.00000 
 43692.65567		 305.27265			43387.38302		69.64400		324.00000 
 43692.65567		 311.00099			43381.65468		135.03600		875.00000 
 43692.65567		 305.27265			43387.38302		69.64400		324.00000 
 43692.65567		 311.00099			43381.65468		135.03600		875.00000 
 43692.65567		 305.27265			43387.38302		69.64400		324.00000 
 43692.65567		 311.00099			43381.65468		135.03600		875.00000 
 43692.65567		 305.27265			43387.38302		69.64400		324.00000 
 43692.65567		 314.81988			43377.83579		135.03600		875.00000 
 43692.65567		 305.27265			43387.38302		69.64400		324.00000 
 43692.65567		 314.81988			43377.83579		135.03600		875.00000 
 43692.65567		 305.27265			43387.38302		69.64400		324.00000 
 43692.65567		 314.81988			43377.83579		135.03600		875.00000 
 43692.65567		 305.27265			43387.38302		69.64400		324.00000 
 43692.65567		 318.63877			43374.01690		135.03600		875.00000 
 43692.65567		 305.27265			43387.38302		69.64400		324.00000 
 43692.65567		 322.45767			43370.19801		135.03600		875.00000 
 43692.65567		 305.27265			43387.38302		69.64400		324.00000 
 43692.65567		 326.27656			43366.37912		135.03600		875.00000 
 43692.65567		 305.27265			43387.38302		69.64400		324.00000 
 43692.65567		 326.27656			43366.37912		135.03600		875.00000 
 43692.65567		 305.27265			43387.38302		69.64400		324.00000 
 43692.65567		 326.27656			43366.37912		135.03600		875.00000 
 43692.65567		 305.27265			43387.38302		69.64400		324.00000 
 43692.65567		 537.27032			43155.38535		135.03600		875.00000 
 43692.65567		 305.27265			43387.38302		69.64400		324.00000 
 43692.65567		 813.18525			42879.47043		135.03600		875.00000 
 43692.65567		 305.27265			43387.38302		69.64400		324.00000 
 43692.65567		 951.14271			42741.51297		135.03600		875.00000 
 43692.65567		 305.27265			43387.38302		69.64400		324.00000 
 43692.65567		 951.14271			42741.51297		135.03600		875.00000 
 43692.65567		 305.27265			43387.38302		69.64400		324.00000 
 43692.65567		 951.14271			42741.51297		135.03600		875.00000 
 43692.65567		 305.27265			43387.38302		69.64400		324.00000 
 43692.65567		 951.14271			42741.51297		135.03600		875.00000 
 43692.65567		 305.27265			43387.38302		69.64400		324.00000 
 43692.65567		 951.14271			42741.51297		135.03600		875.00000 
 43692.65567		 305.27265			43387.38302		69.64400		324.00000 
 43692.65567		 951.14271			42741.51297		135.03600		875.00000 
 43692.65567		 305.27265			43387.38302		69.64400		324.00000 
 43692.65567		 951.14271			42741.51297		135.03600		875.00000 
 43692.65567		 305.27265			43387.38302		69.64400		324.00000 
 43692.65567		 951.14271			42741.51297		135.03600		875.00000 
 43692.65567		 305.27265			43387.38302		69.64400		324.00000 
 43692.65567		 951.14271			42741.51297		135.03600		875.00000 
 43692.65567		 305.27265			43387.38302		69.64400		324.00000 
 43692.65567		 951.14271			42741.51297		135.03600		875.00000 
 43692.65567		 305.27265			43387.38302		69.64400		324.00000 
 43692.65567		 951.14271			42741.51297		135.03600		875.00000 
 43692.65567		 305.27265			43387.38302		69.64400		324.00000 
 43692.65567		 951.14271			42741.51297		135.03600		875.00000 
 43692.65567		 305.27265			43387.38302		69.64400		324.00000 
 43692.65567		 951.14271			42741.51297		135.03600		875.00000 
 43692.65567		 305.27265			43387.38302		69.64400		324.00000 
 43692.65567		 951.14271			42741.51297		135.03600		875.00000 
 43692.65567		 305.27265			43387.38302		69.64400		324.00000 
 43692.65567		 951.14271			42741.51297		135.03600		875.00000 
 43692.65567		 305.27265			43387.38302		69.64400		324.00000 
 43692.65567		 951.14271			42741.51297		135.03600		875.00000 
 43692.65567		 305.27265			43387.38302		69.64400		324.00000 
 43692.65567		 951.14271			42741.51297		135.03600		875.00000 
 43692.65567		 305.27265			43387.38302		69.64400		324.00000 
 43692.65567		 951.14271			42741.51297		135.03600		875.00000 
 43692.65567		 305.27265			43387.38302		69.64400		324.00000 
 43692.65567		 951.14271			42741.51297		135.03600		875.00000 
 43692.65567		 305.27265			43387.38302		69.64400		324.00000 
 43692.65567		 951.14271			42741.51297		135.03600		875.00000 
 43692.65567		 305.27265			43387.38302		69.64400		324.00000 
 43692.65567		 951.14271			42741.51297		135.03600		875.00000 
 43692.65567		 305.27265			43387.38302		69.64400		324.00000 
 43692.65567		 951.14271			42741.51297		135.03600		875.00000 
 43692.65567		 305.27265			43387.38302		69.64400		324.00000 
 43692.65567		 951.14271			42741.51297		135.03600		875.00000 
 43692.65567		 305.27265			43387.38302		69.64400		324.00000 
 43692.65567		 951.14271			42741.51297		135.03600		875.00000 
 43692.65567		 305.27265			43387.38302		69.64400		324.00000 
 43692.65567		 951.14271			42741.51297		135.03600		875.00000 
 43692.65567		 305.27265			43387.38302		69.64400		324.00000 
 43692.65567		 951.14271			42741.51297		135.03600		875.00000 
 43692.65567		 305.27265			43387.38302		69.64400		324.00000 
 43692.65567		 951.14271			42741.51297		135.03600		875.00000 
 43692.65567		 305.27265			43387.38302		69.64400		324.00000 
 43692.65567		 951.14271			42741.51297		135.03600		875.00000 
 43692.65567		 305.27265			43387.38302		69.64400		324.00000 
 43692.65567		 951.14271			42741.51297		135.03600		875.00000 
 43692.65567		 305.27265			43387.38302		69.64400		324.00000 
 43692.65567		 951.14271			42741.51297		135.03600		875.00000 
 43692.65567		 305.27265			43387.38302		69.64400		324.00000 
 43692.65567		 951.14271			42741.51297		135.03600		875.00000 
 43692.65567		 305.27265			43387.38302		69.64400		324.00000 
 43692.65567		 951.14271			42741.51297		135.03600		875.00000 
 43692.65567		 305.27265			43387.38302		69.64400		324.00000 
 43692.65567		 951.14271			42741.51297		135.03600		875.00000 
 43692.65567		 305.27265			43387.38302		69.64400		324.00000 
 43692.65567		 951.14271			42741.51297		135.03600		875.00000 
 43692.65567		 305.27265			43387.38302		69.64400		324.00000 
 43692.65567		 951.14271			42741.51297		135.03600		875.00000 
 43692.65567		 305.27265			43387.38302		69.64400		324.00000 
 43692.65567		 951.14271			42741.51297		135.03600		875.00000 
 43692.65567		 305.27265			43387.38302		69.64400		324.00000 
 43692.65567		 951.14271			42741.51297		135.03600		875.00000 
 43692.65567		 305.27265			43387.38302		69.64400		324.00000 
 43692.65567		 951.14271			42741.51297		173.65600		875.00000 
 43692.65567		 305.27265			43387.38302		69.64400		324.00000 
 43692.65567		 951.14271			42741.51297		173.65600		875.00000 
 43692.65567		 305.27265			43387.38302		69.64400		324.00000 
 43692.65567		 951.14271			42741.51297		173.65600		875.00000 
 43692.65567		 305.27265			43387.38302		69.64400		324.00000 
 43692.65567		 951.14271			42741.51297		173.65600		875.00000 
 43692.65567		 305.27265			43387.38302		69.64400		324.00000 
 43692.65567		 951.14271			42741.51297		173.65600		875.00000 
 43692.65567		 305.27265			43387.38302		69.64400		324.00000 
 43692.65567		 951.14271			42741.51297		173.65600		875.00000 
 43692.65567		 305.27265			43387.38302		69.64400		324.00000 
 43692.65567		 951.14271			42741.51297		173.65600		875.00000 
 43692.65567		 305.27265			43387.38302		69.64400		324.00000 
 43692.65567		 951.14271			42741.51297		173.65600		875.00000 
 43692.65567		 305.27265			43387.38302		69.64400		324.00000 
 43692.65567		 951.14271			42741.51297		173.65600		875.00000 
 43692.65567		 305.27265			43387.38302		69.64400		324.00000 
 43692.65567		 951.14271			42741.51297		173.65600		875.00000 
 43692.65567		 305.27265			43387.38302		69.64400		324.00000 
 43692.65567		 951.14271			42741.51297		173.65600		875.00000 
 43692.65567		 305.27265			43387.38302		69.64400		324.00000 
 43692.65567		 951.14271			42741.51297		173.65600		875.00000 
 43692.65567		 305.27265			43387.38302		69.64400		324.00000 
 43692.65567		 951.14271			42741.51297		173.65600		875.00000 
 43692.65567		 305.27265			43387.38302		69.64400		324.00000 
 43692.65567		 951.14271			42741.51297		173.65600		875.00000 
 43692.65567		 305.27265			43387.38302		69.64400		324.00000 
 43692.65567		 951.14271			42741.51297		173.65600		875.00000 
 43692.65567		 305.27265			43387.38302		69.64400		324.00000 
 43692.65567		 951.14271			42741.51297		173.65600		875.00000 
 43692.65567		 305.27265			43387.38302		69.64400		324.00000 
 43692.65567		 951.14271			42741.51297		173.65600		875.00000 
 43692.65567		 305.27265			43387.38302		69.64400		324.00000 
 43692.65567		 951.14271			42741.51297		173.65600		875.00000 
 43692.65567		 305.27265			43387.38302		69.64400		324.00000 
 43692.65567		 951.14271			42741.51297		173.65600		875.00000 
 43692.65567		 305.27265			43387.38302		69.64400		324.00000 
 43692.65567		 951.14271			42741.51297		173.65600		875.00000 
 43692.65567		 305.27265			43387.38302		69.64400		324.00000 
 43692.65567		 951.14271			42741.51297		173.65600		875.00000 
 43692.65567		 305.27265			43387.38302		69.64400		324.00000 
 43692.65567		 951.14271			42741.51297		173.65600		875.00000 
 43692.65567		 305.27265			43387.38302		69.64400		324.00000 
 43692.65567		 951.14271			42741.51297		173.65600		875.00000 
 43692.65567		 305.27265			43387.38302		69.64400		324.00000 
 43692.65567		 951.14271			42741.51297		173.65600		875.00000 
 43692.65567		 305.27265			43387.38302		69.64400		324.00000 
 43692.65567		 951.14271			42741.51297		173.65600		875.00000 
 43692.65567		 305.27265			43387.38302		69.64400		324.00000 
 43692.65567		 951.14271			42741.51297		173.65600		875.00000 
 43692.65567		 305.27265			43387.38302		69.64400		324.00000 
 43692.65567		 951.14271			42741.51297		173.65600		875.00000 
 43692.65567		 305.27265			43387.38302		69.64400		324.00000 
 43692.65567		 951.14271			42741.51297		173.65600		875.00000 
 43692.65567		 305.27265			43387.38302		69.64400		324.00000 
 43692.65567		 951.14271			42741.51297		173.65600		875.00000 
 43692.65567		 305.27265			43387.38302		69.64400		324.00000 
 43692.65567		 951.14271			42741.51297		173.65600		875.00000 
 43692.65567		 305.27265			43387.38302		69.64400		324.00000 
 43692.65567		 951.14271			42741.51297		173.65600		875.00000 
 43692.65567		 305.27265			43387.38302		69.64400		324.00000 
 43692.65567		 951.14271			42741.51297		173.65600		875.00000 
 43692.65567		 305.27265			43387.38302		69.64400		324.00000 
 43692.65567		 951.14271			42741.51297		173.65600		875.00000 
 43692.65567		 305.27265			43387.38302		69.64400		324.00000 
 43692.65567		 951.14271			42741.51297		173.65600		875.00000 
 43692.65567		 305.27265			43387.38302		69.64400		324.00000 
 43692.65567		 951.14271			42741.51297		173.65600		875.00000 
 43692.65567		 305.27265			43387.38302		69.64400		324.00000 
 43692.65567		 951.14271			42741.51297		173.65600		875.00000 
 43692.65567		 305.27265			43387.38302		69.64400		324.00000 
 43692.65567		 951.14271			42741.51297		173.65600		875.00000 
 43692.65567		 305.27265			43387.38302		69.64400		324.00000 
 43692.65567		 951.14271			42741.51297		173.65600		875.00000 
 43692.65567		 305.27265			43387.38302		69.64400		324.00000 
 43692.65567		 951.14271			42741.51297		173.65600		875.00000 
 43692.65567		 305.27265			43387.38302		69.64400		324.00000 
 43692.65567		 951.14271			42741.51297		173.65600		875.00000 
 43692.65567		 305.27265			43387.38302		69.64400		324.00000 
 43692.65567		 951.14271			42741.51297		173.65600		875.00000 
 43692.65567		 305.27265			43387.38302		69.64400		324.00000 
 43692.65567		 951.14271			42741.51297		173.65600		875.00000 
 43692.65567		 305.27265			43387.38302		69.64400		324.00000 
 43692.65567		 951.14271			42741.51297		173.65600		875.00000 
 43692.65567		 305.27265			43387.38302		69.64400		324.00000 
 43692.65567		 951.14271			42741.51297		173.65600		875.00000 
 43692.65567		 305.27265			43387.38302		69.64400		324.00000 
 43692.65567		 951.14271			42741.51297		173.65600		875.00000 
 43692.65567		 305.27265			43387.38302		69.64400		324.00000 
 43692.65567		 951.14271			42741.51297		173.65600		875.00000 
 43692.65567		 305.27265			43387.38302		69.64400		324.00000 
 43692.65567		 951.14271			42741.51297		173.65600		875.00000 
 43692.65567		 305.27265			43387.38302		69.64400		324.00000 
 43692.65567		 951.14271			42741.51297		173.65600		875.00000 
 43692.65567		 305.27265			43387.38302		69.64400		324.00000 
 43692.65567		 951.14271			42741.51297		173.65600		875.00000 
 43692.65567		 305.27265			43387.38302		69.64400		324.00000 
 43692.65567		 951.14271			42741.51297		173.65600		875.00000 
 43692.65567		 305.27265			43387.38302		69.64400		324.00000 
 43692.65567		 951.14271			42741.51297		173.65600		875.00000 
 43692.65567		 305.27265			43387.38302		69.64400		324.00000 
 43692.65567		 951.14271			42741.51297		173.65600		875.00000 
 43692.65567		 305.27265			43387.38302		69.64400		324.00000 
 43692.65567		 951.14271			42741.51297		173.65600		875.00000 
 43692.65567		 305.27265			43387.38302		69.64400		324.00000 
 43692.65567		 951.14271			42741.51297		173.65600		875.00000 
 43692.65567		 305.27265			43387.38302		69.64400		324.00000 
 43692.65567		 951.14271			42741.51297		173.65600		875.00000 
 43692.65567		 305.27265			43387.38302		69.64400		324.00000 
 43692.65567		 951.14271			42741.51297		173.65600		875.00000 
 43692.65567		 305.27265			43387.38302		69.64400		324.00000 
 43692.65567		 951.14271			42741.51297		173.65600		875.00000 
 43692.65567		 305.27265			43387.38302		69.64400		324.00000 
 43692.65567		 951.14271			42741.51297		173.65600		875.00000 
 43692.65567		 305.27265			43387.38302		69.64400		324.00000 
 43692.65567		 951.14271			42741.51297		173.65600		875.00000 
 43692.65567		 305.27265			43387.38302		69.64400		324.00000 
 43692.65567		 951.14271			42741.51297		173.65600		875.00000 
 43692.65567		 305.27265			43387.38302		69.64400		324.00000 
 43692.65567		 951.14271			42741.51297		173.65600		875.00000 
 43692.65567		 305.27265			43387.38302		69.64400		324.00000 
 43692.65567		 951.14271			42741.51297		173.65600		875.00000 
 43692.65567		 305.27265			43387.38302		69.64400		324.00000 
 43692.65567		 951.14271			42741.51297		173.65600		875.00000 
 43692.65567		 305.27265			43387.38302		69.64400		324.00000 
 43692.65567		 951.14271			42741.51297		173.65600		875.00000 
 43692.65567		 305.27265			43387.38302		69.64400		324.00000 
 43692.65567		 951.14271			42741.51297		173.65600		875.00000 
 43692.65567		 305.27265			43387.38302		69.64400		324.00000 
 43692.65567		 951.14271			42741.51297		206.06400		875.00000 
 43692.65567		 305.27265			43387.38302		69.64400		324.00000 
 43692.65567		 951.14271			42741.51297		206.06400		875.00000 
 43692.65567		 305.27265			43387.38302		69.64400		324.00000 
 43692.65567		 951.14271			42741.51297		206.06400		875.00000 
 43692.65567		 305.27265			43387.38302		69.64400		324.00000 
 43692.65567		 951.14271			42741.51297		206.06400		875.00000 
 43692.65567		 305.27265			43387.38302		69.64400		324.00000 
 43692.65567		 951.14271			42741.51297		206.06400		875.00000 
 43692.65567		 305.27265			43387.38302		69.64400		324.00000 
 43692.65567		 951.14271			42741.51297		206.06400		875.00000 
 43692.65567		 305.27265			43387.38302		69.64400		324.00000 
 43692.65567		 951.14271			42741.51297		206.06400		875.00000 
 43692.65567		 305.27265			43387.38302		69.64400		324.00000 
 43692.65567		 951.14271			42741.51297		206.06400		875.00000 
 43692.65567		 305.27265			43387.38302		69.64400		324.00000 
 43692.65567		 951.14271			42741.51297		206.06400		875.00000 
 43692.65567		 305.27265			43387.38302		69.64400		324.00000 
 43692.65567		 951.14271			42741.51297		206.06400		875.00000 
 43692.65567		 305.27265			43387.38302		69.64400		324.00000 
 43692.65567		 951.14271			42741.51297		206.06400		875.00000 
 43692.65567		 305.27265			43387.38302		69.64400		324.00000 
 43692.65567		 951.14271			42741.51297		206.06400		875.00000 
 43692.65567		 305.27265			43387.38302		69.64400		324.00000 
 43692.65567		 951.14271			42741.51297		206.06400		875.00000 
 43692.65567		 305.27265			43387.38302		69.64400		324.00000 
 43692.65567		 951.14271			42741.51297		206.06400		875.00000 
 43692.65567		 305.27265			43387.38302		69.64400		324.00000 
 43692.65567		 951.14271			42741.51297		206.06400		875.00000 
 43692.65567		 305.27265			43387.38302		69.64400		324.00000 
 43692.65567		 951.14271			42741.51297		206.06400		875.00000 
 43692.65567		 305.27265			43387.38302		69.64400		324.00000 
 43692.65567		 951.14271			42741.51297		206.06400		875.00000 
 43692.65567		 305.27265			43387.38302		69.64400		324.00000 
 43692.65567		 951.14271			42741.51297		206.06400		875.00000 
 43692.65567		 305.27265			43387.38302		69.64400		324.00000 
 43692.65567		 951.14271			42741.51297		206.06400		875.00000 
 43692.65567		 305.27265			43387.38302		69.64400		324.00000 
 43692.65567		 951.14271			42741.51297		206.06400		875.00000 
 43692.65567		 305.27265			43387.38302		69.64400		324.00000 
 43692.65567		 951.14271			42741.51297		206.06400		875.00000 
 43692.65567		 305.27265			43387.38302		69.64400		324.00000 
 43692.65567		 951.14271			42741.51297		206.06400		875.00000 
 43692.65567		 305.27265			43387.38302		69.64400		324.00000 
 43692.65567		 951.14271			42741.51297		206.06400		875.00000 
 43692.65567		 305.27265			43387.38302		69.64400		324.00000 
 43692.65567		 951.14271			42741.51297		206.06400		875.00000 
 43692.65567		 305.27265			43387.38302		69.64400		324.00000 
 43692.65567		 951.14271			42741.51297		206.06400		875.00000 
 43692.65567		 305.27265			43387.38302		69.64400		324.00000 
 43692.65567		 951.14271			42741.51297		206.06400		875.00000 
 43692.65567		 305.27265			43387.38302		69.64400		324.00000 
 43692.65567		 951.14271			42741.51297		206.06400		875.00000 
 43692.65567		 305.27265			43387.38302		69.64400		324.00000 
 43692.65567		 951.14271			42741.51297		206.06400		875.00000 
 43692.65567		 305.27265			43387.38302		69.64400		324.00000 
 43692.65567		 951.14271			42741.51297		206.06400		875.00000 
 43692.65567		 305.27265			43387.38302		69.64400		324.00000 
 43692.65567		 951.14271			42741.51297		206.06400		875.00000 
 43692.65567		 305.27265			43387.38302		69.64400		324.00000 
 43692.65567		 951.14271			42741.51297		206.06400		875.00000 
 43692.65567		 305.27265			43387.38302		69.64400		324.00000 
 43692.65567		 951.14271			42741.51297		206.06400		875.00000 
 43692.65567		 305.27265			43387.38302		69.64400		324.00000 
 43692.65567		 951.14271			42741.51297		206.06400		875.00000 
 43692.65567		 305.27265			43387.38302		69.64400		324.00000 
 43692.65567		 951.14271			42741.51297		206.06400		875.00000 
 43692.65567		 305.27265			43387.38302		69.64400		324.00000 
 43692.65567		 951.14271			42741.51297		206.06400		875.00000 
 43692.65567		 305.27265			43387.38302		69.64400		324.00000 
 43692.65567		 951.14271			42741.51297		206.06400		875.00000 
 43692.65567		 305.27265			43387.38302		69.64400		324.00000 
 43692.65567		 951.14271			42741.51297		206.06400		875.00000 
 43692.65567		 305.27265			43387.38302		69.64400		324.00000 
 43692.65567		 951.14271			42741.51297		206.06400		875.00000 
 43692.65567		 305.27265			43387.38302		69.64400		324.00000 
 43692.65567		 951.14271			42741.51297		206.06400		875.00000 
 43692.65567		 305.27265			43387.38302		69.64400		324.00000 
 43692.65567		 951.14271			42741.51297		206.06400		875.00000 
 43692.65567		 305.27265			43387.38302		69.64400		324.00000 
 43692.65567		 951.14271			42741.51297		206.06400		875.00000 
 43692.65567		 305.27265			43387.38302		69.64400		324.00000 
 43692.65567		 951.14271			42741.51297		206.06400		875.00000 
 43692.65567		 305.27265			43387.38302		69.64400		324.00000 
 43692.65567		 951.14271			42741.51297		206.06400		875.00000 
 43692.65567		 305.27265			43387.38302		69.64400		324.00000 
 43692.65567		 951.14271			42741.51297		206.06400		875.00000 
 43692.65567		 305.27265			43387.38302		69.64400		324.00000 
 43692.65567		 951.14271			42741.51297		206.06400		875.00000 
 43692.65567		 305.27265			43387.38302		69.64400		324.00000 
 43692.65567		 951.14271			42741.51297		206.06400		875.00000 
 43692.65567		 305.27265			43387.38302		69.64400		324.00000 
 43692.65567		 951.14271			42741.51297		206.06400		875.00000 
 43692.65567		 305.27265			43387.38302		69.64400		324.00000 
 43692.65567		 951.14271			42741.51297		206.06400		875.00000 
 43692.65567		 305.27265			43387.38302		69.64400		324.00000 
 43692.65567		 951.14271			42741.51297		206.06400		875.00000 
 43692.65567		 305.27265			43387.38302		69.64400		324.00000 
 43692.65567		 951.14271			42741.51297		206.06400		875.00000 
 43692.65567		 305.27265			43387.38302		69.64400		324.00000 
 43692.65567		 951.14271			42741.51297		206.06400		875.00000 
 43692.65567		 305.27265			43387.38302		69.64400		324.00000 
 43692.65567		 951.14271			42741.51297		206.06400		875.00000 
 43692.65567		 305.27265			43387.38302		69.64400		324.00000 
 43692.65567		 951.14271			42741.51297		206.06400		875.00000 
 43692.65567		 305.27265			43387.38302		69.64400		324.00000 
 43692.65567		 951.14271			42741.51297		206.06400		875.00000 
 43692.65567		 305.27265			43387.38302		69.64400		324.00000 
 43692.65567		 951.14271			42741.51297		206.06400		875.00000 
 43692.65567		 305.27265			43387.38302		69.64400		324.00000 
 43692.65567		 951.14271			42741.51297		206.06400		875.00000 
 43692.65567		 305.27265			43387.38302		69.64400		324.00000 
 43692.65567		 951.14271			42741.51297		206.06400		875.00000 
 43692.65567		 305.27265			43387.38302		69.64400		324.00000 
 43692.65567		 951.14271			42741.51297		206.06400		875.00000 
 43692.65567		 305.27265			43387.38302		69.64400		324.00000 
 43692.65567		 951.14271			42741.51297		206.06400		875.00000 
 43692.65567		 305.27265			43387.38302		69.64400		324.00000 
 43692.65567		 951.14271			42741.51297		206.06400		875.00000 
 43692.65567		 305.27265			43387.38302		69.64400		324.00000 
 43692.65567		 951.14271			42741.51297		206.06400		875.00000 
 43692.65567		 305.27265			43387.38302		69.64400		324.00000 
 43692.65567		 951.14271			42741.51297		206.06400		875.00000 
 43692.65567		 305.27265			43387.38302		69.64400		324.00000 
 43692.65567		 951.14271			42741.51297		206.06400		875.00000 
 43692.65567		 305.27265			43387.38302		69.64400		324.00000 
 43692.65567		 951.14271			42741.51297		206.06400		875.00000 
 43692.65567		 305.27265			43387.38302		69.64400		324.00000 
 43692.65567		 951.14271			42741.51297		206.06400		875.00000 
 43692.65567		 305.27265			43387.38302		69.64400		324.00000 
 43692.65567		 951.14271			42741.51297		206.06400		875.00000 
 43692.65567		 305.27265			43387.38302		69.64400		324.00000 
 43692.65567		 951.14271			42741.51297		206.06400		875.00000 
 43692.65567		 305.27265			43387.38302		69.64400		324.00000 
 43692.65567		 951.14271			42741.51297		218.59400		875.00000 
 43692.65567		 305.27265			43387.38302		69.64400		324.00000 
 43692.65567		 951.14271			42741.51297		218.59400		875.00000 
 43692.65567		 305.27265			43387.38302		69.64400		324.00000 
 43692.65567		 951.14271			42741.51297		218.59400		875.00000 
 43692.65567		 305.27265			43387.38302		69.64400		324.00000 
 43692.65567		 951.14271			42741.51297		218.59400		875.00000 
 43692.65567		 305.27265			43387.38302		69.64400		324.00000 
 43692.65567		 951.14271			42741.51297		218.59400		875.00000 
 43692.65567		 305.27265			43387.38302		69.64400		324.00000 
 43692.65567		 951.14271			42741.51297		218.59400		875.00000 
 43692.65567		 305.27265			43387.38302		69.64400		324.00000 
 43692.65567		 951.14271			42741.51297		218.59400		875.00000 
 43692.65567		 305.27265			43387.38302		69.64400		324.00000 
 43692.65567		 951.14271			42741.51297		218.59400		875.00000 
 43692.65567		 305.27265			43387.38302		69.64400		324.00000 
 43692.65567		 951.14271			42741.51297		218.59400		875.00000 
 43692.65567		 305.27265			43387.38302		69.64400		324.00000 
 43692.65567		 951.14271			42741.51297		218.59400		875.00000 
 43692.65567		 305.27265			43387.38302		69.64400		324.00000 
 43692.65567		 951.14271			42741.51297		218.59400		875.00000 
 43692.65567		 305.27265			43387.38302		69.64400		324.00000 
 43692.65567		 951.14271			42741.51297		218.59400		875.00000 
 43692.65567		 305.27265			43387.38302		69.64400		324.00000 
 43692.65567		 951.14271			42741.51297		218.59400		875.00000 
 43692.65567		 305.27265			43387.38302		69.64400		324.00000 
 43692.65567		 951.14271			42741.51297		218.59400		875.00000 
 43692.65567		 305.27265			43387.38302		69.64400		324.00000 
 43692.65567		 951.14271			42741.51297		218.59400		875.00000 
 43692.65567		 305.27265			43387.38302		69.64400		324.00000 
 43692.65567		 951.14271			42741.51297		218.59400		875.00000 
 43692.65567		 305.27265			43387.38302		69.64400		324.00000 
 43692.65567		 951.14271			42741.51297		218.59400		875.00000 
 43692.65567		 305.27265			43387.38302		69.64400		324.00000 
 43692.65567		 951.14271			42741.51297		218.59400		875.00000 
 43692.65567		 305.27265			43387.38302		69.64400		324.00000 
 43692.65567		 951.14271			42741.51297		218.59400		875.00000 
 43692.65567		 305.27265			43387.38302		69.64400		324.00000 
 43692.65567		 951.14271			42741.51297		218.59400		875.00000 
 43692.65567		 305.27265			43387.38302		69.64400		324.00000 
 43692.65567		 951.14271			42741.51297		218.59400		875.00000 
 43692.65567		 305.27265			43387.38302		69.64400		324.00000 
 43692.65567		 951.14271			42741.51297		218.59400		875.00000 
 43692.65567		 305.27265			43387.38302		69.64400		324.00000 
 43692.65567		 951.14271			42741.51297		218.59400		875.00000 
 43692.65567		 305.27265			43387.38302		69.64400		324.00000 
 43692.65567		 951.14271			42741.51297		218.59400		875.00000 
 43692.65567		 305.27265			43387.38302		69.64400		324.00000 
 43692.65567		 951.14271			42741.51297		218.59400		875.00000 
 43692.65567		 305.27265			43387.38302		69.64400		324.00000 
 43692.65567		 951.14271			42741.51297		218.59400		875.00000 
 43692.65567		 305.27265			43387.38302		69.64400		324.00000 
 43692.65567		 951.14271			42741.51297		218.59400		875.00000 
 43692.65567		 305.27265			43387.38302		69.64400		324.00000 
 43692.65567		 951.14271			42741.51297		218.59400		875.00000 
 43692.65567		 305.27265			43387.38302		69.64400		324.00000 
 43692.65567		 951.14271			42741.51297		218.59400		875.00000 
 43692.65567		 305.27265			43387.38302		69.64400		324.00000 
 43692.65567		 951.14271			42741.51297		218.59400		875.00000 
 43692.65567		 305.27265			43387.38302		69.64400		324.00000 
 43692.65567		 951.14271			42741.51297		218.59400		875.00000 
 43692.65567		 305.27265			43387.38302		69.64400		324.00000 
 43692.65567		 951.14271			42741.51297		218.59400		875.00000 
 43692.65567		 305.27265			43387.38302		69.64400		324.00000 
 43692.65567		 951.14271			42741.51297		218.59400		875.00000 
 43692.65567		 305.27265			43387.38302		69.64400		324.00000 
 43692.65567		 951.14271			42741.51297		218.59400		875.00000 
 43692.65567		 305.27265			43387.38302		69.64400		324.00000 
 43692.65567		 951.14271			42741.51297		218.59400		875.00000 
 43692.65567		 305.27265			43387.38302		69.64400		324.00000 
 43692.65567		 951.14271			42741.51297		218.59400		875.00000 
 43692.65567		 305.27265			43387.38302		69.64400		324.00000 
 43692.65567		 951.14271			42741.51297		218.59400		875.00000 
 43692.65567		 305.27265			43387.38302		69.64400		324.00000 
 43692.65567		 951.14271			42741.51297		218.59400		875.00000 
 43692.65567		 305.27265			43387.38302		69.64400		324.00000 
 43692.65567		 951.14271			42741.51297		218.59400		875.00000 
 43692.65567		 305.27265			43387.38302		69.64400		324.00000 
 43692.65567		 951.14271			42741.51297		218.59400		875.00000 
 43692.65567		 305.27265			43387.38302		69.64400		324.00000 
 43692.65567		 951.14271			42741.51297		218.59400		875.00000 
 43692.65567		 305.27265			43387.38302		69.64400		324.00000 
 43692.65567		 951.14271			42741.51297		218.59400		875.00000 
 43692.65567		 305.27265			43387.38302		69.64400		324.00000 
 43692.65567		 951.14271			42741.51297		218.59400		875.00000 
 43692.65567		 305.27265			43387.38302		69.64400		324.00000 
 43692.65567		 951.14271			42741.51297		218.59400		875.00000 
 43692.65567		 305.27265			43387.38302		69.64400		324.00000 
 43692.65567		 951.14271			42741.51297		218.59400		875.00000 
 43692.65567		 305.27265			43387.38302		69.64400		324.00000 
 43692.65567		 951.14271			42741.51297		218.59400		875.00000 
 43692.65567		 305.27265			43387.38302		69.64400		324.00000 
 43692.65567		 951.14271			42741.51297		218.59400		875.00000 
 43692.65567		 305.27265			43387.38302		69.64400		324.00000 
 43692.65567		 951.14271			42741.51297		218.59400		875.00000 
 43692.65567		 305.27265			43387.38302		69.64400		324.00000 
 43692.65567		 951.14271			42741.51297		218.59400		875.00000 
 43692.65567		 305.27265			43387.38302		69.64400		324.00000 
 43692.65567		 951.14271			42741.51297		218.59400		875.00000 
 43692.65567		 305.27265			43387.38302		69.64400		324.00000 
 43692.65567		 951.14271			42741.51297		218.59400		875.00000 
 43692.65567		 305.27265			43387.38302		69.64400		324.00000 
 43692.65567		 951.14271			42741.51297		218.59400		875.00000 
 43692.65567		 305.27265			43387.38302		69.64400		324.00000 
 43692.65567		 951.14271			42741.51297		218.59400		875.00000 
 43692.65567		 305.27265			43387.38302		69.64400		324.00000 
 43692.65567		 951.14271			42741.51297		218.59400		875.00000 
 43692.65567		 305.27265			43387.38302		69.64400		324.00000 
 43692.65567		 951.14271			42741.51297		218.59400		875.00000 
 43692.65567		 305.27265			43387.38302		69.64400		324.00000 
 43692.65567		 951.14271			42741.51297		218.59400		875.00000 
 43692.65567		 305.27265			43387.38302		69.64400		324.00000 
 43692.65567		 951.14271			42741.51297		218.59400		875.00000 
 43692.65567		 305.27265			43387.38302		69.64400		324.00000 
 43692.65567		 951.14271			42741.51297		218.59400		875.00000 
 43692.65567		 305.27265			43387.38302		69.64400		324.00000 
 43692.65567		 951.14271			42741.51297		218.59400		875.00000 
 43692.65567		 305.27265			43387.38302		69.64400		324.00000 
 43692.65567		 951.14271			42741.51297		218.59400		875.00000 
 43692.65567		 305.27265			43387.38302		69.64400		324.00000 
 43692.65567		 951.14271			42741.51297		218.59400		875.00000 
 43692.65567		 305.27265			43387.38302		69.64400		324.00000 
 43692.65567		 951.14271			42741.51297		218.59400		875.00000 
 43692.65567		 305.27265			43387.38302		69.64400		324.00000 
 43692.65567		 951.14271			42741.51297		218.59400		875.00000 
 43692.65567		 305.27265			43387.38302		69.64400		324.00000 
 43692.65567		 951.14271			42741.51297		218.59400		875.00000 
 43692.65567		 305.27265			43387.38302		69.64400		324.00000 
 43692.65567		 951.14271			42741.51297		218.59400		875.00000 
 43692.65567		 305.27265			43387.38302		69.64400		324.00000 
 43692.65567		 951.14271			42741.51297		222.57800		875.00000 
 43692.65567		 305.27265			43387.38302		69.64400		324.00000 
 43692.65567		 951.14271			42741.51297		222.57800		875.00000 
 43692.65567		 305.27265			43387.38302		69.64400		324.00000 
 43692.65567		 951.14271			42741.51297		222.57800		875.00000 
 43692.65567		 305.27265			43387.38302		69.64400		324.00000 
 43692.65567		 951.14271			42741.51297		222.57800		875.00000 
 43692.65567		 305.27265			43387.38302		69.64400		324.00000 
 43692.65567		 951.14271			42741.51297		222.57800		875.00000 
 43692.65567		 305.27265			43387.38302		69.64400		324.00000 
 43692.65567		 951.14271			42741.51297		222.57800		875.00000 
 43692.65567		 305.27265			43387.38302		69.64400		324.00000 
 43692.65567		 951.14271			42741.51297		222.57800		875.00000 
 43692.65567		 305.27265			43387.38302		69.64400		324.00000 
 43692.65567		 951.14271			42741.51297		222.57800		875.00000 
 43692.65567		 305.27265			43387.38302		69.64400		324.00000 
 43692.65567		 951.14271			42741.51297		222.57800		875.00000 
 43692.65567		 305.27265			43387.38302		69.64400		324.00000 
 43692.65567		 951.14271			42741.51297		222.57800		875.00000 
 43692.65567		 305.27265			43387.38302		69.64400		324.00000 
 43692.65567		 951.14271			42741.51297		222.57800		875.00000 
 43692.65567		 305.27265			43387.38302		69.64400		324.00000 
 43692.65567		 951.14271			42741.51297		222.57800		875.00000 
 43692.65567		 305.27265			43387.38302		69.64400		324.00000 
 43692.65567		 951.14271			42741.51297		222.57800		875.00000 
 43692.65567		 305.27265			43387.38302		69.64400		324.00000 
 43692.65567		 951.14271			42741.51297		222.57800		875.00000 
 43692.65567		 305.27265			43387.38302		69.64400		324.00000 
 43692.65567		 951.14271			42741.51297		222.57800		875.00000 
 43692.65567		 305.27265			43387.38302		69.64400		324.00000 
 43692.65567		 951.14271			42741.51297		222.57800		875.00000 
 43692.65567		 305.27265			43387.38302		69.64400		324.00000 
 43692.65567		 951.14271			42741.51297		222.57800		875.00000 
 43692.65567		 305.27265			43387.38302		69.64400		324.00000 
 43692.65567		 951.14271			42741.51297		222.57800		875.00000 
 43692.65567		 305.27265			43387.38302		69.64400		324.00000 
 43692.65567		 951.14271			42741.51297		222.57800		875.00000 
 43692.65567		 305.27265			43387.38302		69.64400		324.00000 
 43692.65567		 951.14271			42741.51297		222.57800		875.00000 
 43692.65567		 305.27265			43387.38302		69.64400		324.00000 
 43692.65567		 951.14271			42741.51297		222.57800		875.00000 
 43692.65567		 305.27265			43387.38302		69.64400		324.00000 
 43692.65567		 951.14271			42741.51297		222.57800		875.00000 
 43692.65567		 305.27265			43387.38302		69.64400		324.00000 
 43692.65567		 951.14271			42741.51297		222.57800		875.00000 
 43692.65567		 305.27265			43387.38302		69.64400		324.00000 
 43692.65567		 951.14271			42741.51297		222.57800		875.00000 
 43692.65567		 305.27265			43387.38302		69.64400		324.00000 
 43692.65567		 951.14271			42741.51297		222.57800		875.00000 
 43692.65567		 305.27265			43387.38302		69.64400		324.00000 
 43692.65567		 951.14271			42741.51297		222.57800		875.00000 
 43692.65567		 305.27265			43387.38302		69.64400		324.00000 
 43692.65567		 951.14271			42741.51297		222.57800		875.00000 
 43692.65567		 305.27265			43387.38302		69.64400		324.00000 
 43692.65567		 951.14271			42741.51297		222.57800		875.00000 
 43692.65567		 305.27265			43387.38302		69.64400		324.00000 
 43692.65567		 951.14271			42741.51297		222.57800		875.00000 
 43692.65567		 305.27265			43387.38302		69.64400		324.00000 
 43692.65567		 951.14271			42741.51297		222.57800		875.00000 
 43692.65567		 305.27265			43387.38302		69.64400		324.00000 
 43692.65567		 951.14271			42741.51297		222.57800		875.00000 
 43692.65567		 305.27265			43387.38302		69.64400		324.00000 
 43692.65567		 951.14271			42741.51297		222.57800		875.00000 
 43692.65567		 305.27265			43387.38302		69.64400		324.00000 
 43692.65567		 951.14271			42741.51297		222.57800		875.00000 
 43692.65567		 305.27265			43387.38302		69.64400		324.00000 
 43692.65567		 951.14271			42741.51297		222.57800		875.00000 
 43692.65567		 305.27265			43387.38302		69.64400		324.00000 
 43692.65567		 951.14271			42741.51297		222.57800		875.00000 
 43692.65567		 305.27265			43387.38302		69.64400		324.00000 
 43692.65567		 951.14271			42741.51297		222.57800		875.00000 
 43692.65567		 305.27265			43387.38302		69.64400		324.00000 
 43692.65567		 951.14271			42741.51297		222.57800		875.00000 
 43692.65567		 305.27265			43387.38302		69.64400		324.00000 
 43692.65567		 951.14271			42741.51297		222.57800		875.00000 
 43692.65567		 305.27265			43387.38302		69.64400		324.00000 
 43692.65567		 951.14271			42741.51297		222.57800		875.00000 
 43692.65567		 305.27265			43387.38302		69.64400		324.00000 
 43692.65567		 951.14271			42741.51297		222.57800		875.00000 
 43692.65567		 305.27265			43387.38302		69.64400		324.00000 
 43692.65567		 951.14271			42741.51297		222.57800		875.00000 
 43692.65567		 305.27265			43387.38302		69.64400		324.00000 
 43692.65567		 951.14271			42741.51297		222.57800		875.00000 
 43692.65567		 305.27265			43387.38302		69.64400		324.00000 
 43692.65567		 951.14271			42741.51297		222.57800		875.00000 
 43692.65567		 305.27265			43387.38302		69.64400		324.00000 
 43692.65567		 951.14271			42741.51297		222.57800		875.00000 
 43692.65567		 305.27265			43387.38302		69.64400		324.00000 
 43692.65567		 951.14271			42741.51297		222.57800		875.00000 
 43692.65567		 305.27265			43387.38302		69.64400		324.00000 
 43692.65567		 951.14271			42741.51297		222.57800		875.00000 
 43692.65567		 305.27265			43387.38302		69.64400		324.00000 
 43692.65567		 951.14271			42741.51297		222.57800		875.00000 
 43692.65567		 305.27265			43387.38302		69.64400		324.00000 
 43692.65567		 951.14271			42741.51297		222.57800		875.00000 
 43692.65567		 305.27265			43387.38302		69.64400		324.00000 
 43692.65567		 951.14271			42741.51297		222.57800		875.00000 
 43692.65567		 305.27265			43387.38302		69.64400		324.00000 
 43692.65567		 951.14271			42741.51297		222.57800		875.00000 
 43692.65567		 305.27265			43387.38302		69.64400		324.00000 
 43692.65567		 951.14271			42741.51297		222.57800		875.00000 
 43692.65567		 305.27265			43387.38302		69.64400		324.00000 
 43692.65567		 951.14271			42741.51297		222.57800		875.00000 
 43692.65567		 305.27265			43387.38302		69.64400		324.00000 
 43692.65567		 951.14271			42741.51297		222.57800		875.00000 
 43692.65567		 305.27265			43387.38302		69.64400		324.00000 
 43692.65567		 951.14271			42741.51297		222.57800		875.00000 
 43692.65567		 305.27265			43387.38302		69.64400		324.00000 
 43692.65567		 951.14271			42741.51297		222.57800		875.00000 
 43692.65567		 305.27265			43387.38302		69.64400		324.00000 
 43692.65567		 951.14271			42741.51297		222.57800		875.00000 
 43692.65567		 305.27265			43387.38302		69.64400		324.00000 
 43692.65567		 951.14271			42741.51297		222.57800		875.00000 
 43692.65567		 305.27265			43387.38302		69.64400		324.00000 
 43692.65567		 951.14271			42741.51297		222.57800		875.00000 
 43692.65567		 305.27265			43387.38302		69.64400		324.00000 
 43692.65567		 951.14271			42741.51297		222.57800		875.00000 
 43692.65567		 305.27265			43387.38302		69.64400		324.00000 
 43692.65567		 951.14271			42741.51297		222.57800		875.00000 
 43692.65567		 305.27265			43387.38302		69.64400		324.00000 
 43692.65567		 951.14271			42741.51297		222.57800		875.00000 
 43692.65567		 305.27265			43387.38302		69.64400		324.00000 
 43692.65567		 951.14271			42741.51297		222.57800		875.00000 
 43692.65567		 305.27265			43387.38302		69.64400		324.00000 
 43692.65567		 951.14271			42741.51297		222.57800		875.00000 
 43692.65567		 305.27265			43387.38302		69.64400		324.00000 
 43692.65567		 951.14271			42741.51297		222.57800		875.00000 
 43692.65567		 305.27265			43387.38302		69.64400		324.00000 
 43692.65567		 951.14271			42741.51297		222.57800		875.00000 
 43692.65567		 305.27265			43387.38302		69.64400		324.00000 
 43692.65567		 951.14271			42741.51297		223.36600		875.00000 
 43692.65567		 305.27265			43387.38302		69.64400		324.00000 
 43692.65567		 951.14271			42741.51297		223.36600		875.00000 
 43692.65567		 305.27265			43387.38302		69.64400		324.00000 
 43692.65567		 951.14271			42741.51297		223.36600		875.00000 
 43692.65567		 305.27265			43387.38302		69.64400		324.00000 
 43692.65567		 951.14271			42741.51297		223.36600		875.00000 
 43692.65567		 305.27265			43387.38302		69.64400		324.00000 
 43692.65567		 951.14271			42741.51297		223.36600		875.00000 
 43692.65567		 305.27265			43387.38302		69.64400		324.00000 
 43692.65567		 951.14271			42741.51297		223.36600		875.00000 
 43692.65567		 305.27265			43387.38302		69.64400		324.00000 
 43692.65567		 951.14271			42741.51297		223.36600		875.00000 
 43692.65567		 305.27265			43387.38302		69.64400		324.00000 
 43692.65567		 951.14271			42741.51297		223.36600		875.00000 
 43692.65567		 305.27265			43387.38302		69.64400		324.00000 
 43692.65567		 951.14271			42741.51297		223.36600		875.00000 
 43692.65567		 305.27265			43387.38302		69.64400		324.00000 
 43692.65567		 951.14271			42741.51297		223.36600		875.00000 
 43692.65567		 305.27265			43387.38302		69.64400		324.00000 
 43692.65567		 951.14271			42741.51297		223.36600		875.00000 
 43692.65567		 305.27265			43387.38302		69.64400		324.00000 
 43692.65567		 951.14271			42741.51297		223.36600		875.00000 
 43692.65567		 305.27265			43387.38302		69.64400		324.00000 
 43692.65567		 951.14271			42741.51297		223.36600		875.00000 
 43692.65567		 305.27265			43387.38302		69.64400		324.00000 
 43692.65567		 951.14271			42741.51297		223.36600		875.00000 
 43692.65567		 305.27265			43387.38302		69.64400		324.00000 
 43692.65567		 951.14271			42741.51297		223.36600		875.00000 
 43692.65567		 305.27265			43387.38302		69.64400		324.00000 
 43692.65567		 951.14271			42741.51297		223.36600		875.00000 
 43692.65567		 305.27265			43387.38302		69.64400		324.00000 
 43692.65567		 951.14271			42741.51297		223.36600		875.00000 
 43692.65567		 305.27265			43387.38302		69.64400		324.00000 
 43692.65567		 951.14271			42741.51297		223.36600		875.00000 
 43692.65567		 305.27265			43387.38302		69.64400		324.00000 
 43692.65567		 951.14271			42741.51297		223.36600		875.00000 
 43692.65567		 305.27265			43387.38302		69.64400		324.00000 
 43692.65567		 951.14271			42741.51297		223.36600		875.00000 
 43692.65567		 305.27265			43387.38302		69.64400		324.00000 
 43692.65567		 951.14271			42741.51297		223.36600		875.00000 
 43692.65567		 305.27265			43387.38302		69.64400		324.00000 
 43692.65567		 951.14271			42741.51297		223.36600		875.00000 
 43692.65567		 305.27265			43387.38302		69.64400		324.00000 
 43692.65567		 951.14271			42741.51297		223.36600		875.00000 
 43692.65567		 305.27265			43387.38302		69.64400		324.00000 
 43692.65567		 951.14271			42741.51297		223.36600		875.00000 
 43692.65567		 305.27265			43387.38302		69.64400		324.00000 
 43692.65567		 951.14271			42741.51297		223.36600		875.00000 
 43692.65567		 305.27265			43387.38302		69.64400		324.00000 
 43692.65567		 951.14271			42741.51297		223.36600		875.00000 
 43692.65567		 305.27265			43387.38302		69.64400		324.00000 
 43692.65567		 951.14271			42741.51297		223.36600		875.00000 
 43692.65567		 305.27265			43387.38302		69.64400		324.00000 
 43692.65567		 951.14271			42741.51297		223.36600		875.00000 
 43692.65567		 305.27265			43387.38302		69.64400		324.00000 
 43692.65567		 951.14271			42741.51297		223.36600		875.00000 
 43692.65567		 305.27265			43387.38302		69.64400		324.00000 
 43692.65567		 951.14271			42741.51297		223.36600		875.00000 
 43692.65567		 305.27265			43387.38302		69.64400		324.00000 
 43692.65567		 951.14271			42741.51297		223.36600		875.00000 
 43692.65567		 305.27265			43387.38302		69.64400		324.00000 
 43692.65567		 951.14271			42741.51297		223.36600		875.00000 
 43692.65567		 305.27265			43387.38302		69.64400		324.00000 
 43692.65567		 951.14271			42741.51297		223.36600		875.00000 
 43692.65567		 305.27265			43387.38302		70.72800		324.00000 
 43692.65567		 951.14271			42741.51297		223.36600		875.00000 
 43692.65567		 305.27265			43387.38302		70.72800		324.00000 
 43692.65567		 951.14271			42741.51297		223.36600		875.00000 
 43692.65567		 305.27265			43387.38302		70.72800		324.00000 
 43692.65567		 951.14271			42741.51297		223.36600		875.00000 
 43692.65567		 305.27265			43387.38302		70.72800		324.00000 
 43692.65567		 951.14271			42741.51297		223.36600		875.00000 
 43692.65567		 305.27265			43387.38302		70.72800		324.00000 
 43692.65567		 951.14271			42741.51297		223.36600		875.00000 
 43692.65567		 305.27265			43387.38302		70.72800		324.00000 
 43692.65567		 951.14271			42741.51297		223.36600		875.00000 
 43692.65567		 305.27265			43387.38302		70.72800		324.00000 
 43692.65567		 951.14271			42741.51297		223.36600		875.00000 
 43692.65567		 305.27265			43387.38302		70.72800		324.00000 
 43692.65567		 951.14271			42741.51297		223.36600		875.00000 
 43692.65567		 305.27265			43387.38302		70.72800		324.00000 
 43692.65567		 951.14271			42741.51297		223.36600		875.00000 
 43692.65567		 305.27265			43387.38302		70.72800		324.00000 
 43692.65567		 951.14271			42741.51297		223.36600		875.00000 
 43692.65567		 305.27265			43387.38302		70.72800		324.00000 
 43692.65567		 951.14271			42741.51297		223.36600		875.00000 
 43692.65567		 305.27265			43387.38302		70.72800		324.00000 
 43692.65567		 951.14271			42741.51297		223.36600		875.00000 
 43692.65567		 305.27265			43387.38302		70.72800		324.00000 
 43692.65567		 951.14271			42741.51297		223.36600		875.00000 
 43692.65567		 305.27265			43387.38302		70.72800		324.00000 
 43692.65567		 951.14271			42741.51297		223.36600		875.00000 
 43692.65567		 305.27265			43387.38302		70.72800		324.00000 
 43692.65567		 951.14271			42741.51297		223.36600		875.00000 
 43692.65567		 305.27265			43387.38302		70.72800		324.00000 
 43692.65567		 951.14271			42741.51297		223.36600		875.00000 
 43692.65567		 305.27265			43387.38302		70.72800		324.00000 
 43692.65567		 951.14271			42741.51297		223.36600		875.00000 
 43692.65567		 305.27265			43387.38302		70.72800		324.00000 
 43692.65567		 951.14271			42741.51297		223.36600		875.00000 
 43692.65567		 305.27265			43387.38302		70.72800		324.00000 
 43692.65567		 951.14271			42741.51297		223.36600		875.00000 
 43692.65567		 305.27265			43387.38302		70.72800		324.00000 
 43692.65567		 951.14271			42741.51297		223.36600		875.00000 
 43692.65567		 305.27265			43387.38302		70.72800		324.00000 
 43692.65567		 951.14271			42741.51297		223.36600		875.00000 
 43692.65567		 305.27265			43387.38302		70.72800		324.00000 
 43692.65567		 951.14271			42741.51297		223.36600		875.00000 
 43692.65567		 305.27265			43387.38302		70.72800		324.00000 
 43692.65567		 951.14271			42741.51297		223.36600		875.00000 
 43692.65567		 305.27265			43387.38302		70.72800		324.00000 
 43692.65567		 951.14271			42741.51297		223.36600		875.00000 
 43692.65567		 305.27265			43387.38302		70.72800		324.00000 
 43692.65567		 951.14271			42741.51297		223.36600		875.00000 
 43692.65567		 305.27265			43387.38302		70.72800		324.00000 
 43692.65567		 951.14271			42741.51297		223.36600		875.00000 
 43692.65567		 305.27265			43387.38302		70.72800		324.00000 
 43692.65567		 951.14271			42741.51297		223.36600		875.00000 
 43692.65567		 305.27265			43387.38302		70.72800		324.00000 
 43692.65567		 951.14271			42741.51297		223.36600		875.00000 
 43692.65567		 305.27265			43387.38302		70.72800		324.00000 
 43692.65567		 951.14271			42741.51297		223.36600		875.00000 
 43692.65567		 305.27265			43387.38302		70.72800		324.00000 
 43692.65567		 951.14271			42741.51297		224.17600		875.00000 
 43692.65567		 305.27265			43387.38302		70.72800		324.00000 
 43692.65567		 951.14271			42741.51297		224.17600		875.00000 
 43692.65567		 305.27265			43387.38302		70.72800		324.00000 
 43692.65567		 951.14271			42741.51297		224.17600		875.00000 
 43692.65567		 305.27265			43387.38302		70.72800		324.00000 
 43692.65567		 951.14271			42741.51297		224.17600		875.00000 
 43692.65567		 305.27265			43387.38302		70.72800		324.00000 
 43692.65567		 951.14271			42741.51297		224.17600		875.00000 
 43692.65567		 305.27265			43387.38302		70.72800		324.00000 
 43692.65567		 951.14271			42741.51297		224.17600		875.00000 
 43692.65567		 305.27265			43387.38302		70.72800		324.00000 
 43692.65567		 951.14271			42741.51297		224.17600		875.00000 
 43692.65567		 305.27265			43387.38302		70.72800		324.00000 
 43692.65567		 951.14271			42741.51297		224.17600		875.00000 
 43692.65567		 305.27265			43387.38302		70.72800		324.00000 
 43692.65567		 951.14271			42741.51297		224.17600		875.00000 
 43692.65567		 305.27265			43387.38302		70.72800		324.00000 
 43692.65567		 951.14271			42741.51297		224.17600		875.00000 
 43692.65567		 305.27265			43387.38302		70.72800		324.00000 
 43692.65567		 951.14271			42741.51297		224.17600		875.00000 
 43692.65567		 305.27265			43387.38302		70.72800		324.00000 
 43692.65567		 951.14271			42741.51297		224.17600		875.00000 
 43692.65567		 305.27265			43387.38302		70.72800		324.00000 
 43692.65567		 951.14271			42741.51297		224.17600		875.00000 
 43692.65567		 305.27265			43387.38302		70.72800		324.00000 
 43692.65567		 951.14271			42741.51297		224.17600		875.00000 
 43692.65567		 305.27265			43387.38302		70.72800		324.00000 
 43692.65567		 951.14271			42741.51297		224.17600		875.00000 
 43692.65567		 305.27265			43387.38302		70.72800		324.00000 
 43692.65567		 951.14271			42741.51297		224.17600		875.00000 
 43692.65567		 305.27265			43387.38302		70.72800		324.00000 
 43692.65567		 951.14271			42741.51297		224.17600		875.00000 
 43692.65567		 305.27265			43387.38302		70.72800		324.00000 
 43692.65567		 951.14271			42741.51297		224.17600		875.00000 
 43692.65567		 305.27265			43387.38302		70.72800		324.00000 
 43692.65567		 951.14271			42741.51297		224.17600		875.00000 
 43692.65567		 305.27265			43387.38302		70.72800		324.00000 
 43692.65567		 951.14271			42741.51297		224.17600		875.00000 
 43692.65567		 305.27265			43387.38302		70.72800		324.00000 
 43692.65567		 951.14271			42741.51297		224.17600		875.00000 
 43692.65567		 305.27265			43387.38302		70.72800		324.00000 
 43692.65567		 951.14271			42741.51297		224.17600		875.00000 
 43692.65567		 305.27265			43387.38302		70.72800		324.00000 
 43692.65567		 951.14271			42741.51297		224.17600		875.00000 
 43692.65567		 305.27265			43387.38302		70.72800		324.00000 
 43692.65567		 951.14271			42741.51297		224.17600		875.00000 
 43692.65567		 305.27265			43387.38302		70.72800		324.00000 
 43692.65567		 951.14271			42741.51297		224.17600		875.00000 
 43692.65567		 305.27265			43387.38302		70.72800		324.00000 
 43692.65567		 951.14271			42741.51297		224.17600		875.00000 
 43692.65567		 305.27265			43387.38302		70.72800		324.00000 
 43692.65567		 951.14271			42741.51297		224.17600		875.00000 
 43692.65567		 305.27265			43387.38302		70.72800		324.00000 
 43692.65567		 951.14271			42741.51297		224.17600		875.00000 
 43692.65567		 305.27265			43387.38302		70.72800		324.00000 
 43692.65567		 951.14271			42741.51297		224.17600		875.00000 
 43692.65567		 305.27265			43387.38302		70.72800		324.00000 
 43692.65567		 951.14271			42741.51297		224.17600		875.00000 
 43692.65567		 305.27265			43387.38302		70.72800		324.00000 
 43692.65567		 951.14271			42741.51297		224.17600		875.00000 
 43692.65567		 305.27265			43387.38302		70.72800		324.00000 
 43692.65567		 951.14271			42741.51297		224.17600		875.00000 
 43692.65567		 305.27265			43387.38302		70.72800		324.00000 
 43692.65567		 951.14271			42741.51297		224.17600		875.00000 
 43692.65567		 305.27265			43387.38302		70.72800		324.00000 
 43692.65567		 951.14271			42741.51297		224.17600		875.00000 
 43692.65567		 305.27265			43387.38302		70.72800		324.00000 
 43692.65567		 951.14271			42741.51297		224.17600		875.00000 
 43692.65567		 305.27265			43387.38302		70.72800		324.00000 
 43692.65567		 951.14271			42741.51297		224.17600		875.00000 
 43692.65567		 305.27265			43387.38302		70.72800		324.00000 
 43692.65567		 951.14271			42741.51297		224.17600		875.00000 
 43692.65567		 305.27265			43387.38302		70.72800		324.00000 
 43692.65567		 951.14271			42741.51297		224.17600		875.00000 
 43692.65567		 305.27265			43387.38302		70.72800		324.00000 
 43692.65567		 951.14271			42741.51297		224.17600		875.00000 
 43692.65567		 305.27265			43387.38302		70.72800		324.00000 
 43692.65567		 951.14271			42741.51297		224.17600		875.00000 
 43692.65567		 305.27265			43387.38302		70.72800		324.00000 
 43692.65567		 951.14271			42741.51297		224.17600		875.00000 
 43692.65567		 305.27265			43387.38302		70.72800		324.00000 
 43692.65567		 951.14271			42741.51297		224.17600		875.00000 
 43692.65567		 305.27265			43387.38302		70.72800		324.00000 
 43692.65567		 951.14271			42741.51297		224.17600		875.00000 
 43692.65567		 305.27265			43387.38302		70.72800		324.00000 
 43692.65567		 951.14271			42741.51297		224.17600		875.00000 
 43692.65567		 305.27265			43387.38302		70.72800		324.00000 
 43692.65567		 951.14271			42741.51297		224.17600		875.00000 
 43692.65567		 305.27265			43387.38302		70.72800		324.00000 
 43692.65567		 951.14271			42741.51297		224.17600		875.00000 
 43692.65567		 305.27265			43387.38302		70.72800		324.00000 
 43692.65567		 951.14271			42741.51297		224.17600		875.00000 
 43692.65567		 305.27265			43387.38302		70.72800		324.00000 
 43692.65567		 951.14271			42741.51297		224.17600		875.00000 
 43692.65567		 305.27265			43387.38302		70.72800		324.00000 
 43692.65567		 951.14271			42741.51297		224.17600		875.00000 
 43692.65567		 305.27265			43387.38302		70.72800		324.00000 
 43692.65567		 951.14271			42741.51297		224.17600		875.00000 
 43692.65567		 305.27265			43387.38302		70.72800		324.00000 
 43692.65567		 951.14271			42741.51297		224.17600		875.00000 
 43692.65567		 305.27265			43387.38302		70.72800		324.00000 
 43692.65567		 951.14271			42741.51297		224.17600		875.00000 
 43692.65567		 305.27265			43387.38302		70.72800		324.00000 
 43692.65567		 951.14271			42741.51297		224.17600		875.00000 
 43692.65567		 305.27265			43387.38302		70.72800		324.00000 
 43692.65567		 951.14271			42741.51297		224.17600		875.00000 
 43692.65567		 305.27265			43387.38302		70.72800		324.00000 
 43692.65567		 951.14271			42741.51297		224.17600		875.00000 
 43692.65567		 305.27265			43387.38302		70.72800		324.00000 
 43692.65567		 951.14271			42741.51297		224.17600		875.00000 
 43692.65567		 305.27265			43387.38302		70.72800		324.00000 
 43692.65567		 951.14271			42741.51297		224.17600		875.00000 
 43692.65567		 305.27265			43387.38302		70.72800		324.00000 
 43692.65567		 951.14271			42741.51297		224.17600		875.00000 
 43692.65567		 305.27265			43387.38302		70.72800		324.00000 
 43692.65567		 951.14271			42741.51297		224.17600		875.00000 
 43692.65567		 305.27265			43387.38302		70.72800		324.00000 
 43692.65567		 951.14271			42741.51297		224.17600		875.00000 
 43692.65567		 305.27265			43387.38302		70.72800		324.00000 
 43692.65567		 951.14271			42741.51297		224.17600		875.00000 
 43692.65567		 305.27265			43387.38302		70.72800		324.00000 
 43692.65567		 951.14271			42741.51297		224.17600		875.00000 
 43692.65567		 305.27265			43387.38302		70.72800		324.00000 
 43692.65567		 951.14271			42741.51297		224.17600		875.00000 
 43692.65567		 305.27265			43387.38302		70.72800		324.00000 
 43692.65567		 951.14271			42741.51297		224.17600		875.00000 
 43692.65567		 305.27265			43387.38302		70.72800		324.00000 
 43692.65567		 951.14271			42741.51297		224.17600		875.00000 
 43692.65567		 305.27265			43387.38302		70.72800		324.00000 
 43692.65567		 951.14271			42741.51297		224.75200		875.00000 
 43692.65567		 305.27265			43387.38302		70.72800		324.00000 
 43692.65567		 951.14271			42741.51297		224.75200		875.00000 
 43692.65567		 305.27265			43387.38302		70.72800		324.00000 
 43692.65567		 951.14271			42741.51297		224.75200		875.00000 
 43692.65567		 305.27265			43387.38302		70.72800		324.00000 
 43692.65567		 951.14271			42741.51297		224.75200		875.00000 
 43692.65567		 305.27265			43387.38302		70.72800		324.00000 
 43692.65567		 951.14271			42741.51297		224.75200		875.00000 
 43692.65567		 305.27265			43387.38302		70.72800		324.00000 
 43692.65567		 951.14271			42741.51297		224.75200		875.00000 
 43692.65567		 305.27265			43387.38302		70.72800		324.00000 
 43692.65567		 951.14271			42741.51297		224.75200		875.00000 
 43692.65567		 305.27265			43387.38302		70.72800		324.00000 
 43692.65567		 951.14271			42741.51297		224.75200		875.00000 
 43692.65567		 305.27265			43387.38302		70.72800		324.00000 
 43692.65567		 951.14271			42741.51297		224.75200		875.00000 
 43692.65567		 305.27265			43387.38302		70.72800		324.00000 
 43692.65567		 951.14271			42741.51297		224.75200		875.00000 
 43692.65567		 305.27265			43387.38302		70.72800		324.00000 
 43692.65567		 951.14271			42741.51297		224.75200		875.00000 
 43692.65567		 305.27265			43387.38302		70.72800		324.00000 
 43692.65567		 951.14271			42741.51297		224.75200		875.00000 
 43692.65567		 305.27265			43387.38302		70.72800		324.00000 
 43692.65567		 951.14271			42741.51297		224.75200		875.00000 
 43692.65567		 305.27265			43387.38302		70.72800		324.00000 
 43692.65567		 951.14271			42741.51297		224.75200		875.00000 
 43692.65567		 305.27265			43387.38302		70.72800		324.00000 
 43692.65567		 951.14271			42741.51297		224.75200		875.00000 
 43692.65567		 305.27265			43387.38302		70.72800		324.00000 
 43692.65567		 951.14271			42741.51297		224.75200		875.00000 
 43692.65567		 305.27265			43387.38302		70.72800		324.00000 
 43692.65567		 951.14271			42741.51297		224.75200		875.00000 
 43692.65567		 305.27265			43387.38302		70.72800		324.00000 
 43692.65567		 951.14271			42741.51297		224.75200		875.00000 
 43692.65567		 305.27265			43387.38302		70.72800		324.00000 
 43692.65567		 951.14271			42741.51297		224.75200		875.00000 
 43692.65567		 305.27265			43387.38302		70.72800		324.00000 
 43692.65567		 951.14271			42741.51297		224.75200		875.00000 
 43692.65567		 305.27265			43387.38302		70.72800		324.00000 
 43692.65567		 951.14271			42741.51297		224.75200		875.00000 
 43692.65567		 305.27265			43387.38302		70.72800		324.00000 
 43692.65567		 951.14271			42741.51297		224.75200		875.00000 
 43692.65567		 305.27265			43387.38302		70.72800		324.00000 
 43692.65567		 951.14271			42741.51297		224.75200		875.00000 
 43692.65567		 305.27265			43387.38302		70.72800		324.00000 
 43692.65567		 951.14271			42741.51297		224.75200		875.00000 
 43692.65567		 305.27265			43387.38302		70.72800		324.00000 
 43692.65567		 951.14271			42741.51297		224.75200		875.00000 
 43692.65567		 305.27265			43387.38302		70.72800		324.00000 
 43692.65567		 951.14271			42741.51297		224.75200		875.00000 
 43692.65567		 305.27265			43387.38302		70.72800		324.00000 
 43692.65567		 951.14271			42741.51297		224.75200		875.00000 
 43692.65567		 305.27265			43387.38302		70.72800		324.00000 
 43692.65567		 951.14271			42741.51297		224.75200		875.00000 
 43692.65567		 305.27265			43387.38302		70.72800		324.00000 
 43692.65567		 951.14271			42741.51297		224.75200		875.00000 
 43692.65567		 305.27265			43387.38302		70.72800		324.00000 
 43692.65567		 951.14271			42741.51297		224.75200		875.00000 
 43692.65567		 305.27265			43387.38302		70.72800		324.00000 
 43692.65567		 951.14271			42741.51297		224.75200		875.00000 
 43692.65567		 305.27265			43387.38302		70.72800		324.00000 
 43692.65567		 951.14271			42741.51297		224.75200		875.00000 
 43692.65567		 305.27265			43387.38302		70.72800		324.00000 
 43692.65567		 951.14271			42741.51297		224.75200		875.00000 
 43692.65567		 305.27265			43387.38302		70.72800		324.00000 
 43692.65567		 951.14271			42741.51297		224.75200		875.00000 
 43692.65567		 305.27265			43387.38302		70.72800		324.00000 
 43692.65567		 951.14271			42741.51297		224.75200		875.00000 
 43692.65567		 305.27265			43387.38302		70.72800		324.00000 
 43692.65567		 951.14271			42741.51297		224.75200		875.00000 
 43692.65567		 305.27265			43387.38302		70.72800		324.00000 
 43692.65567		 951.14271			42741.51297		224.75200		875.00000 
 43692.65567		 305.27265			43387.38302		70.72800		324.00000 
 43692.65567		 951.14271			42741.51297		224.75200		875.00000 
 43692.65567		 305.27265			43387.38302		70.72800		324.00000 
 43692.65567		 951.14271			42741.51297		224.75200		875.00000 
 43692.65567		 305.27265			43387.38302		70.72800		324.00000 
 43692.65567		 951.14271			42741.51297		224.75200		875.00000 
 43692.65567		 305.27265			43387.38302		70.72800		324.00000 
 43692.65567		 951.14271			42741.51297		224.75200		875.00000 
 43692.65567		 305.27265			43387.38302		70.72800		324.00000 
 43692.65567		 951.14271			42741.51297		224.75200		875.00000 
 43692.65567		 305.27265			43387.38302		70.72800		324.00000 
 43692.65567		 951.14271			42741.51297		224.75200		875.00000 
 43692.65567		 305.27265			43387.38302		70.72800		324.00000 
 43692.65567		 951.14271			42741.51297		224.75200		875.00000 
 43692.65567		 305.27265			43387.38302		70.72800		324.00000 
 43692.65567		 951.14271			42741.51297		224.75200		875.00000 
 43692.65567		 305.27265			43387.38302		70.72800		324.00000 
 43692.65567		 951.14271			42741.51297		224.75200		875.00000 
 43692.65567		 305.27265			43387.38302		70.72800		324.00000 
 43692.65567		 951.14271			42741.51297		224.75200		875.00000 
 43692.65567		 305.27265			43387.38302		70.72800		324.00000 
 43692.65567		 951.14271			42741.51297		224.75200		875.00000 
 43692.65567		 305.27265			43387.38302		70.72800		324.00000 
 43692.65567		 951.14271			42741.51297		224.75200		875.00000 
 43692.65567		 305.27265			43387.38302		70.72800		324.00000 
 43692.65567		 951.14271			42741.51297		224.75200		875.00000 
 43692.65567		 305.27265			43387.38302		70.72800		324.00000 
 43692.65567		 951.14271			42741.51297		224.75200		875.00000 
 43692.65567		 305.27265			43387.38302		70.72800		324.00000 
 43692.65567		 951.14271			42741.51297		224.75200		875.00000 
 43692.65567		 305.27265			43387.38302		70.72800		324.00000 
 43692.65567		 951.14271			42741.51297		224.75200		875.00000 
 43692.65567		 305.27265			43387.38302		70.72800		324.00000 
 43692.65567		 951.14271			42741.51297		224.75200		875.00000 
 43692.65567		 305.27265			43387.38302		70.72800		324.00000 
 43692.65567		 951.14271			42741.51297		224.75200		875.00000 
 43692.65567		 305.27265			43387.38302		70.72800		324.00000 
 43692.65567		 951.14271			42741.51297		224.75200		875.00000 
 43692.65567		 305.27265			43387.38302		70.72800		324.00000 
 43692.65567		 951.14271			42741.51297		224.75200		875.00000 
 43692.65567		 305.27265			43387.38302		70.72800		324.00000 
 43692.65567		 951.14271			42741.51297		224.75200		875.00000 
 43692.65567		 305.27265			43387.38302		70.72800		324.00000 
 43692.65567		 951.14271			42741.51297		224.75200		875.00000 
 43692.65567		 305.27265			43387.38302		70.72800		324.00000 
 43692.65567		 951.14271			42741.51297		224.75200		875.00000 
 43692.65567		 305.27265			43387.38302		70.72800		324.00000 
 43692.65567		 951.14271			42741.51297		224.75200		875.00000 
 43692.65567		 305.27265			43387.38302		70.72800		324.00000 
 43692.65567		 951.14271			42741.51297		224.75200		875.00000 
 43692.65567		 305.27265			43387.38302		70.72800		324.00000 
 43692.65567		 951.14271			42741.51297		224.75200		875.00000 
 43692.65567		 305.27265			43387.38302		70.72800		324.00000 
 43692.65567		 951.14271			42741.51297		224.75200		875.00000 
 43692.65567		 305.27265			43387.38302		70.72800		324.00000 
 43692.65567		 951.14271			42741.51297		224.22400		875.00000 
 43692.65567		 305.27265			43387.38302		70.72800		324.00000 
 43692.65567		 951.14271			42741.51297		224.22400		875.00000 
 43692.65567		 305.27265			43387.38302		70.72800		324.00000 
 43692.65567		 951.14271			42741.51297		224.22400		875.00000 
 43692.65567		 305.27265			43387.38302		70.72800		324.00000 
 43692.65567		 951.14271			42741.51297		224.22400		875.00000 
 43692.65567		 305.27265			43387.38302		70.72800		324.00000 
 43692.65567		 951.14271			42741.51297		224.22400		875.00000 
 43692.65567		 305.27265			43387.38302		70.72800		324.00000 
 43692.65567		 951.14271			42741.51297		224.22400		875.00000 
 43692.65567		 305.27265			43387.38302		70.72800		324.00000 
 43692.65567		 951.14271			42741.51297		224.22400		875.00000 
 43692.65567		 305.27265			43387.38302		70.72800		324.00000 
 43692.65567		 951.14271			42741.51297		224.22400		875.00000 
 43692.65567		 305.27265			43387.38302		70.72800		324.00000 
 43692.65567		 951.14271			42741.51297		224.22400		875.00000 
 43692.65567		 305.27265			43387.38302		70.72800		324.00000 
 43692.65567		 951.14271			42741.51297		224.22400		875.00000 
 43692.65567		 305.27265			43387.38302		70.72800		324.00000 
 43692.65567		 951.14271			42741.51297		224.22400		875.00000 
 43692.65567		 305.27265			43387.38302		70.72800		324.00000 
 43692.65567		 951.14271			42741.51297		224.22400		875.00000 
 43692.65567		 305.27265			43387.38302		70.72800		324.00000 
 43692.65567		 951.14271			42741.51297		224.22400		875.00000 
 43692.65567		 305.27265			43387.38302		70.72800		324.00000 
 43692.65567		 951.14271			42741.51297		224.22400		875.00000 
 43692.65567		 305.27265			43387.38302		70.72800		324.00000 
 43692.65567		 951.14271			42741.51297		224.22400		875.00000 
 43692.65567		 305.27265			43387.38302		70.72800		324.00000 
 43692.65567		 951.14271			42741.51297		224.22400		875.00000 
 43692.65567		 305.27265			43387.38302		70.72800		324.00000 
 43692.65567		 951.14271			42741.51297		224.22400		875.00000 
 43692.65567		 305.27265			43387.38302		70.72800		324.00000 
 43692.65567		 951.14271			42741.51297		224.22400		875.00000 
 43692.65567		 305.27265			43387.38302		70.72800		324.00000 
 43692.65567		 951.14271			42741.51297		224.22400		875.00000 
 43692.65567		 305.27265			43387.38302		70.72800		324.00000 
 43692.65567		 951.14271			42741.51297		224.22400		875.00000 
 43692.65567		 305.27265			43387.38302		70.72800		324.00000 
 43692.65567		 951.14271			42741.51297		224.22400		875.00000 
 43692.65567		 305.27265			43387.38302		70.72800		324.00000 
 43692.65567		 951.14271			42741.51297		224.22400		875.00000 
 43692.65567		 305.27265			43387.38302		70.72800		324.00000 
 43692.65567		 951.14271			42741.51297		224.22400		875.00000 
 43692.65567		 305.27265			43387.38302		70.72800		324.00000 
 43692.65567		 951.14271			42741.51297		224.22400		875.00000 
 43692.65567		 305.27265			43387.38302		70.72800		324.00000 
 43692.65567		 951.14271			42741.51297		224.22400		875.00000 
 43692.65567		 305.27265			43387.38302		70.72800		324.00000 
 43692.65567		 951.14271			42741.51297		224.22400		875.00000 
 43692.65567		 305.27265			43387.38302		70.72800		324.00000 
 43692.65567		 951.14271			42741.51297		224.22400		875.00000 
 43692.65567		 305.27265			43387.38302		70.72800		324.00000 
 43692.65567		 951.14271			42741.51297		224.22400		875.00000 
 43692.65567		 305.27265			43387.38302		70.72800		324.00000 
 43692.65567		 951.14271			42741.51297		224.22400		875.00000 
 43692.65567		 305.27265			43387.38302		70.72800		324.00000 
 43692.65567		 951.14271			42741.51297		224.22400		875.00000 
 43692.65567		 305.27265			43387.38302		70.72800		324.00000 
 43692.65567		 951.14271			42741.51297		224.22400		875.00000 
 43692.65567		 305.27265			43387.38302		70.72800		324.00000 
 43692.65567		 951.14271			42741.51297		224.22400		875.00000 
 43692.65567		 305.27265			43387.38302		70.72800		324.00000 
 43692.65567		 951.14271			42741.51297		224.22400		875.00000 
 43692.65567		 305.27265			43387.38302		70.72800		324.00000 
 43692.65567		 951.14271			42741.51297		224.22400		875.00000 
 43692.65567		 305.27265			43387.38302		70.72800		324.00000 
 43692.65567		 951.14271			42741.51297		224.22400		875.00000 
 43692.65567		 305.27265			43387.38302		70.72800		324.00000 
 43692.65567		 951.14271			42741.51297		224.22400		875.00000 
 43692.65567		 305.27265			43387.38302		70.72800		324.00000 
 43692.65567		 951.14271			42741.51297		224.22400		875.00000 
 43692.65567		 305.27265			43387.38302		70.72800		324.00000 
 43692.65567		 951.14271			42741.51297		224.22400		875.00000 
 43692.65567		 305.27265			43387.38302		70.72800		324.00000 
 43692.65567		 951.14271			42741.51297		224.22400		875.00000 
 43692.65567		 305.27265			43387.38302		70.72800		324.00000 
 43692.65567		 951.14271			42741.51297		224.22400		875.00000 
 43692.65567		 305.27265			43387.38302		70.72800		324.00000 
 43692.65567		 951.14271			42741.51297		224.22400		875.00000 
 43692.65567		 305.27265			43387.38302		70.72800		324.00000 
 43692.65567		 951.14271			42741.51297		224.22400		875.00000 
 43692.65567		 305.27265			43387.38302		70.72800		324.00000 
 43692.65567		 951.14271			42741.51297		224.22400		875.00000 
 43692.65567		 305.27265			43387.38302		70.72800		324.00000 
 43692.65567		 951.14271			42741.51297		224.22400		875.00000 
 43692.65567		 305.27265			43387.38302		70.72800		324.00000 
 43692.65567		 951.14271			42741.51297		224.22400		875.00000 
 43692.65567		 305.27265			43387.38302		70.72800		324.00000 
 43692.65567		 951.14271			42741.51297		224.22400		875.00000 
 43692.65567		 305.27265			43387.38302		70.72800		324.00000 
 43692.65567		 951.14271			42741.51297		224.22400		875.00000 
 43692.65567		 305.27265			43387.38302		70.72800		324.00000 
 43692.65567		 951.14271			42741.51297		224.22400		875.00000 
 43692.65567		 305.27265			43387.38302		70.72800		324.00000 
 43692.65567		 951.14271			42741.51297		224.22400		875.00000 
 43692.65567		 305.27265			43387.38302		70.72800		324.00000 
 43692.65567		 951.14271			42741.51297		224.22400		875.00000 
 43692.65567		 305.27265			43387.38302		70.72800		324.00000 
 43692.65567		 951.14271			42741.51297		224.22400		875.00000 
 43692.65567		 305.27265			43387.38302		70.72800		324.00000 
 43692.65567		 951.14271			42741.51297		224.22400		875.00000 
 43692.65567		 305.27265			43387.38302		70.72800		324.00000 
 43692.65567		 951.14271			42741.51297		224.22400		875.00000 
 43692.65567		 305.27265			43387.38302		70.72800		324.00000 
 43692.65567		 951.14271			42741.51297		224.22400		875.00000 
 43692.65567		 305.27265			43387.38302		70.72800		324.00000 
 43692.65567		 951.14271			42741.51297		224.22400		875.00000 
 43692.65567		 305.27265			43387.38302		70.72800		324.00000 
 43692.65567		 951.14271			42741.51297		224.22400		875.00000 
 43692.65567		 305.27265			43387.38302		70.72800		324.00000 
 43692.65567		 951.14271			42741.51297		224.22400		875.00000 
 43692.65567		 305.27265			43387.38302		70.72800		324.00000 
 43692.65567		 951.14271			42741.51297		224.22400		875.00000 
 43692.65567		 305.27265			43387.38302		70.72800		324.00000 
 43692.65567		 951.14271			42741.51297		224.22400		875.00000 
 43692.65567		 305.27265			43387.38302		70.72800		324.00000 
 43692.65567		 951.14271			42741.51297		224.22400		875.00000 
 43692.65567		 305.27265			43387.38302		70.72800		324.00000 
 43692.65567		 951.14271			42741.51297		224.22400		875.00000 
 43692.65567		 305.27265			43387.38302		70.72800		324.00000 
 43692.65567		 951.14271			42741.51297		224.22400		875.00000 
 43692.65567		 305.27265			43387.38302		70.72800		324.00000 
 43692.65567		 951.14271			42741.51297		224.22400		875.00000 
 43692.65567		 305.27265			43387.38302		70.72800		324.00000 
 43692.65567		 951.14271			42741.51297		224.22400		875.00000 
 43692.65567		 305.27265			43387.38302		70.72800		324.00000 
 43692.65567		 951.14271			42741.51297		224.22400		875.00000 
 43692.65567		 305.27265			43387.38302		70.72800		324.00000 
 43692.65567		 951.14271			42741.51297		223.55400		875.00000 
 43692.65567		 305.27265			43387.38302		70.72800		324.00000 
 43692.65567		 951.14271			42741.51297		223.55400		875.00000 
 43692.65567		 305.27265			43387.38302		70.72800		324.00000 
 43692.65567		 951.14271			42741.51297		223.55400		875.00000 
 43692.65567		 305.27265			43387.38302		70.72800		324.00000 
 43692.65567		 951.14271			42741.51297		223.55400		875.00000 
 43692.65567		 305.27265			43387.38302		70.72800		324.00000 
 43692.65567		 951.14271			42741.51297		223.55400		875.00000 
 43692.65567		 305.27265			43387.38302		70.72800		324.00000 
 43692.65567		 951.14271			42741.51297		223.55400		875.00000 
 43692.65567		 305.27265			43387.38302		70.72800		324.00000 
 43692.65567		 951.14271			42741.51297		223.55400		875.00000 
 43692.65567		 305.27265			43387.38302		70.72800		324.00000 
 43692.65567		 951.14271			42741.51297		223.55400		875.00000 
 43692.65567		 305.27265			43387.38302		70.72800		324.00000 
 43692.65567		 951.14271			42741.51297		223.55400		875.00000 
 43692.65567		 305.27265			43387.38302		70.72800		324.00000 
 43692.65567		 951.14271			42741.51297		223.55400		875.00000 
 43692.65567		 305.27265			43387.38302		70.72800		324.00000 
 43692.65567		 951.14271			42741.51297		223.55400		875.00000 
 43692.65567		 305.27265			43387.38302		70.72800		324.00000 
 43692.65567		 951.14271			42741.51297		223.55400		875.00000 
 43692.65567		 305.27265			43387.38302		70.72800		324.00000 
 43692.65567		 951.14271			42741.51297		223.55400		875.00000 
 43692.65567		 305.27265			43387.38302		70.72800		324.00000 
 43692.65567		 951.14271			42741.51297		223.55400		875.00000 
 43692.65567		 305.27265			43387.38302		70.72800		324.00000 
 43692.65567		 951.14271			42741.51297		223.55400		875.00000 
 43692.65567		 305.27265			43387.38302		70.72800		324.00000 
 43692.65567		 951.14271			42741.51297		223.55400		875.00000 
 43692.65567		 305.27265			43387.38302		70.72800		324.00000 
 43692.65567		 951.14271			42741.51297		223.55400		875.00000 
 43692.65567		 305.27265			43387.38302		70.72800		324.00000 
 43692.65567		 951.14271			42741.51297		223.55400		875.00000 
 43692.65567		 305.27265			43387.38302		70.72800		324.00000 
 43692.65567		 951.14271			42741.51297		223.55400		875.00000 
 43692.65567		 305.27265			43387.38302		70.72800		324.00000 
 43692.65567		 951.14271			42741.51297		223.55400		875.00000 
 43692.65567		 305.27265			43387.38302		70.72800		324.00000 
 43692.65567		 951.14271			42741.51297		223.55400		875.00000 
 43692.65567		 305.27265			43387.38302		70.72800		324.00000 
 43692.65567		 951.14271			42741.51297		223.55400		875.00000 
 43692.65567		 305.27265			43387.38302		70.72800		324.00000 
 43692.65567		 951.14271			42741.51297		223.55400		875.00000 
 43692.65567		 305.27265			43387.38302		70.72800		324.00000 
 43692.65567		 951.14271			42741.51297		223.55400		875.00000 
 43692.65567		 305.27265			43387.38302		70.72800		324.00000 
 43692.65567		 951.14271			42741.51297		223.55400		875.00000 
 43692.65567		 305.27265			43387.38302		70.72800		324.00000 
 43692.65567		 951.14271			42741.51297		223.55400		875.00000 
 43692.65567		 305.27265			43387.38302		70.72800		324.00000 
 43692.65567		 951.14271			42741.51297		223.55400		875.00000 
 43692.65567		 305.27265			43387.38302		70.72800		324.00000 
 43692.65567		 951.14271			42741.51297		223.55400		875.00000 
 43692.65567		 305.27265			43387.38302		70.72800		324.00000 
 43692.65567		 951.14271			42741.51297		223.55400		875.00000 
 43692.65567		 305.27265			43387.38302		70.72800		324.00000 
 43692.65567		 951.14271			42741.51297		223.55400		875.00000 
 43692.65567		 305.27265			43387.38302		70.72800		324.00000 
 43692.65567		 951.14271			42741.51297		223.55400		875.00000 
 43692.65567		 305.27265			43387.38302		70.72800		324.00000 
 43692.65567		 951.14271			42741.51297		223.55400		875.00000 
 43692.65567		 305.27265			43387.38302		70.72800		324.00000 
 43692.65567		 951.14271			42741.51297		223.55400		875.00000 
 43692.65567		 305.27265			43387.38302		70.72800		324.00000 
 43692.65567		 951.14271			42741.51297		223.55400		875.00000 
 43692.65567		 305.27265			43387.38302		70.72800		324.00000 
 43692.65567		 951.14271			42741.51297		223.55400		875.00000 
 43692.65567		 305.27265			43387.38302		70.72800		324.00000 
 43692.65567		 951.14271			42741.51297		223.55400		875.00000 
 43692.65567		 305.27265			43387.38302		70.72800		324.00000 
 43692.65567		 951.14271			42741.51297		223.55400		875.00000 
 43692.65567		 305.27265			43387.38302		70.72800		324.00000 
 43692.65567		 951.14271			42741.51297		223.55400		875.00000 
 43692.65567		 305.27265			43387.38302		70.72800		324.00000 
 43692.65567		 951.14271			42741.51297		223.55400		875.00000 
 43692.65567		 305.27265			43387.38302		70.72800		324.00000 
 43692.65567		 951.14271			42741.51297		223.55400		875.00000 
 43692.65567		 305.27265			43387.38302		70.72800		324.00000 
 43692.65567		 951.14271			42741.51297		223.55400		875.00000 
 43692.65567		 305.27265			43387.38302		70.72800		324.00000 
 43692.65567		 951.14271			42741.51297		223.55400		875.00000 
 43692.65567		 305.27265			43387.38302		70.72800		324.00000 
 43692.65567		 951.14271			42741.51297		223.55400		875.00000 
 43692.65567		 305.27265			43387.38302		70.72800		324.00000 
 43692.65567		 951.14271			42741.51297		223.55400		875.00000 
 43692.65567		 305.27265			43387.38302		70.72800		324.00000 
 43692.65567		 951.14271			42741.51297		223.55400		875.00000 
 43692.65567		 305.27265			43387.38302		70.72800		324.00000 
 43692.65567		 951.14271			42741.51297		223.55400		875.00000 
 43692.65567		 305.27265			43387.38302		70.72800		324.00000 
 43692.65567		 951.14271			42741.51297		223.55400		875.00000 
 43692.65567		 305.27265			43387.38302		70.72800		324.00000 
 43692.65567		 951.14271			42741.51297		223.55400		875.00000 
 43692.65567		 305.27265			43387.38302		70.72800		324.00000 
 43692.65567		 951.14271			42741.51297		223.55400		875.00000 
 43692.65567		 305.27265			43387.38302		70.72800		324.00000 
 43692.65567		 951.14271			42741.51297		223.55400		875.00000 
 43692.65567		 305.27265			43387.38302		70.72800		324.00000 
 43692.65567		 951.14271			42741.51297		223.55400		875.00000 
 43692.65567		 305.27265			43387.38302		70.72800		324.00000 
 43692.65567		 951.14271			42741.51297		223.55400		875.00000 
 43692.65567		 305.27265			43387.38302		70.72800		324.00000 
 43692.65567		 951.14271			42741.51297		223.55400		875.00000 
 43692.65567		 305.27265			43387.38302		70.72800		324.00000 
 43692.65567		 951.14271			42741.51297		223.55400		875.00000 
 43692.65567		 305.27265			43387.38302		70.72800		324.00000 
 43692.65567		 951.14271			42741.51297		223.55400		875.00000 
 43692.65567		 305.27265			43387.38302		70.72800		324.00000 
 43692.65567		 951.14271			42741.51297		223.55400		875.00000 
 43692.65567		 305.27265			43387.38302		70.72800		324.00000 
 43692.65567		 951.14271			42741.51297		223.55400		875.00000 
 43692.65567		 305.27265			43387.38302		70.72800		324.00000 
 43692.65567		 951.14271			42741.51297		223.55400		875.00000 
 43692.65567		 305.27265			43387.38302		70.72800		324.00000 
 43692.65567		 951.14271			42741.51297		223.55400		875.00000 
 43692.65567		 305.27265			43387.38302		70.72800		324.00000 
 43692.65567		 951.14271			42741.51297		223.55400		875.00000 
 43692.65567		 305.27265			43387.38302		70.72800		324.00000 
 43692.65567		 951.14271			42741.51297		223.55400		875.00000 
 43692.65567		 305.27265			43387.38302		70.72800		324.00000 
 43692.65567		 951.14271			42741.51297		223.55400		875.00000 
 43692.65567		 305.27265			43387.38302		70.72800		324.00000 
 43692.65567		 951.14271			42741.51297		223.55400		875.00000 
 43692.65567		 305.27265			43387.38302		70.72800		324.00000 
 43692.65567		 951.14271			42741.51297		223.55400		875.00000 
 43692.65567		 305.27265			43387.38302		70.72800		324.00000 
 43692.65567		 951.14271			42741.51297		223.55400		875.00000 
 43692.65567		 305.27265			43387.38302		70.72800		324.00000 
 43692.65567		 951.14271			42741.51297		223.55400		875.00000 
 43692.65567		 305.27265			43387.38302		70.72800		324.00000 
 43692.65567		 951.14271			42741.51297		223.55400		875.00000 
 43692.65567		 305.27265			43387.38302		70.72800		324.00000 
 43692.65567		 951.14271			42741.51297		223.55400		875.00000 
 43692.65567		 305.27265			43387.38302		70.72800		324.00000 
 43692.65567		 951.14271			42741.51297		223.55400		875.00000 
 43692.65567		 305.27265			43387.38302		70.72800		324.00000 
 43692.65567		 951.14271			42741.51297		223.55400		875.00000 
 43692.65567		 305.27265			43387.38302		70.72800		324.00000 
 43692.65567		 951.14271			42741.51297		223.55400		875.00000 
 43692.65567		 305.27265			43387.38302		70.72800		324.00000 
 43692.65567		 951.14271			42741.51297		223.55400		875.00000 
 43692.65567		 305.27265			43387.38302		70.72800		324.00000 
 43692.65567		 951.14271			42741.51297		223.55400		875.00000 
 43692.65567		 305.27265			43387.38302		70.72800		324.00000 
 43692.65567		 951.14271			42741.51297		223.55400		875.00000 
 43692.65567		 305.27265			43387.38302		70.72800		324.00000 
 43692.65567		 951.14271			42741.51297		223.55400		875.00000 
 43692.65567		 305.27265			43387.38302		70.72800		324.00000 
 43692.65567		 951.14271			42741.51297		223.55400		875.00000 
 43692.65567		 305.27265			43387.38302		70.72800		324.00000 
 43692.65567		 951.14271			42741.51297		223.55400		875.00000 
 43692.65567		 305.27265			43387.38302		70.72800		324.00000 
 43692.65567		 951.14271			42741.51297		223.55400		875.00000 
 43692.65567		 305.27265			43387.38302		70.72800		324.00000 
 43692.65567		 951.14271			42741.51297		223.55400		875.00000 
 43692.65567		 305.27265			43387.38302		70.72800		324.00000 
 43692.65567		 951.14271			42741.51297		223.55400		875.00000 
 43692.65567		 305.27265			43387.38302		70.72800		324.00000 
 43692.65567		 951.14271			42741.51297		223.55400		875.00000 
 43692.65567		 305.27265			43387.38302		70.72800		324.00000 
 43692.65567		 951.14271			42741.51297		223.55400		875.00000 
 43692.65567		 305.27265			43387.38302		70.72800		324.00000 
 43692.65567		 951.14271			42741.51297		223.55400		875.00000 
 43692.65567		 305.27265			43387.38302		70.72800		324.00000 
 43692.65567		 951.14271			42741.51297		223.55400		875.00000 
 43692.65567		 305.27265			43387.38302		70.72800		324.00000 
 43692.65567		 951.14271			42741.51297		223.55400		875.00000 
 43692.65567		 305.27265			43387.38302		70.72800		324.00000 
 43692.65567		 951.14271			42741.51297		223.55400		875.00000 
 43692.65567		 305.27265			43387.38302		70.72800		324.00000 
 43692.65567		 951.14271			42741.51297		223.55400		875.00000 
 43692.65567		 305.27265			43387.38302		70.72800		324.00000 
 43692.65567		 951.14271			42741.51297		223.55400		875.00000 
 43692.65567		 305.27265			43387.38302		70.72800		324.00000 
 43692.65567		 951.14271			42741.51297		223.55400		875.00000 
 43692.65567		 305.27265			43387.38302		70.72800		324.00000 
 43692.65567		 951.14271			42741.51297		223.55400		875.00000 
 43692.65567		 305.27265			43387.38302		70.72800		324.00000 
 43692.65567		 951.14271			42741.51297		223.55400		875.00000 
 43692.65567		 305.27265			43387.38302		70.72800		324.00000 
 43692.65567		 951.14271			42741.51297		223.55400		875.00000 
 43692.65567		 305.27265			43387.38302		70.72800		324.00000 
 43692.65567		 951.14271			42741.51297		223.55400		875.00000 
 43692.65567		 305.27265			43387.38302		70.72800		324.00000 
 43692.65567		 951.14271			42741.51297		223.55400		875.00000 
 43692.65567		 305.27265			43387.38302		70.72800		324.00000 
 43692.65567		 951.14271			42741.51297		223.55400		875.00000 
 43692.65567		 305.27265			43387.38302		70.72800		324.00000 
 43692.65567		 951.14271			42741.51297		223.55400		875.00000 
 43692.65567		 305.27265			43387.38302		70.72800		324.00000 
 43692.65567		 951.14271			42741.51297		223.55400		875.00000 
 43692.65567		 305.27265			43387.38302		70.72800		324.00000 
 43692.65567		 951.14271			42741.51297		223.55400		875.00000 
 43692.65567		 305.27265			43387.38302		70.72800		324.00000 
 43692.65567		 951.14271			42741.51297		223.55400		875.00000 
 43692.65567		 305.27265			43387.38302		70.72800		324.00000 
 43692.65567		 951.14271			42741.51297		223.55400		875.00000 
 43692.65567		 305.27265			43387.38302		70.72800		324.00000 
 43692.65567		 951.14271			42741.51297		223.55400		875.00000 
 43692.65567		 305.27265			43387.38302		70.72800		324.00000 
 43692.65567		 951.14271			42741.51297		223.55400		875.00000 
 43692.65567		 305.27265			43387.38302		70.72800		324.00000 
 43692.65567		 951.14271			42741.51297		223.55400		875.00000 
 43692.65567		 305.27265			43387.38302		70.72800		324.00000 
 43692.65567		 951.14271			42741.51297		223.55400		875.00000 
 43692.65567		 305.27265			43387.38302		70.72800		324.00000 
 43692.65567		 951.14271			42741.51297		223.55400		875.00000 
 43692.65567		 305.27265			43387.38302		70.72800		324.00000 
 43692.65567		 951.14271			42741.51297		223.55400		875.00000 
 43692.65567		 305.27265			43387.38302		70.72800		324.00000 
 43692.65567		 951.14271			42741.51297		223.55400		875.00000 
 43692.65567		 305.27265			43387.38302		70.72800		324.00000 
 43692.65567		 951.14271			42741.51297		223.55400		875.00000 
 43692.65567		 305.27265			43387.38302		70.72800		324.00000 
 43692.65567		 951.14271			42741.51297		223.55400		875.00000 
 43692.65567		 305.27265			43387.38302		70.72800		324.00000 
 43692.65567		 951.14271			42741.51297		223.55400		875.00000 
 43692.65567		 305.27265			43387.38302		70.72800		324.00000 
 43692.65567		 951.14271			42741.51297		223.55400		875.00000 
 43692.65567		 305.27265			43387.38302		70.72800		324.00000 
 43692.65567		 951.14271			42741.51297		223.55400		875.00000 
 43692.65567		 305.27265			43387.38302		70.72800		324.00000 
 43692.65567		 951.14271			42741.51297		223.55400		875.00000 
 43692.65567		 305.27265			43387.38302		70.72800		324.00000 
 43692.65567		 951.14271			42741.51297		223.55400		875.00000 
 43692.65567		 305.27265			43387.38302		70.72800		324.00000 
 43692.65567		 951.14271			42741.51297		223.55400		875.00000 
 43692.65567		 305.27265			43387.38302		70.72800		324.00000 
 43692.65567		 951.14271			42741.51297		223.55400		875.00000 
 43692.65567		 305.27265			43387.38302		70.72800		324.00000 
 43692.65567		 951.14271			42741.51297		223.55400		875.00000 
 43692.65567		 305.27265			43387.38302		70.72800		324.00000 
 43692.65567		 951.14271			42741.51297		223.55400		875.00000 
 43692.65567		 305.27265			43387.38302		70.72800		324.00000 
 43692.65567		 951.14271			42741.51297		223.55400		875.00000 
 43692.65567		 305.27265			43387.38302		70.72800		324.00000 
 43692.65567		 951.14271			42741.51297		223.55400		875.00000 
 43692.65567		 305.27265			43387.38302		70.72800		324.00000 
 43692.65567		 951.14271			42741.51297		223.55400		875.00000 
 43692.65567		 305.27265			43387.38302		70.72800		324.00000 
 43692.65567		 951.14271			42741.51297		223.55400		875.00000 
 43692.65567		 305.27265			43387.38302		70.72800		324.00000 
 43692.65567		 951.14271			42741.51297		223.55400		875.00000 
 43692.65567		 305.27265			43387.38302		70.72800		324.00000 
 43692.65567		 951.14271			42741.51297		223.55400		875.00000 
 43692.65567		 305.27265			43387.38302		70.72800		324.00000 
 43692.65567		 951.14271			42741.51297		223.55400		875.00000 
 43692.65567		 305.27265			43387.38302		70.72800		324.00000 
 43692.65567		 951.14271			42741.51297		223.55400		875.00000 
 43692.65567		 305.27265			43387.38302		70.72800		324.00000 
 43692.65567		 951.14271			42741.51297		223.55400		875.00000 
 43692.65567		 305.27265			43387.38302		70.72800		324.00000 
 43692.65567		 951.14271			42741.51297		223.55400		875.00000 
 43692.65567		 305.27265			43387.38302		70.72800		324.00000 
 43692.65567		 951.14271			42741.51297		224.22400		875.00000 
 43692.65567		 305.27265			43387.38302		70.72800		324.00000 
 43692.65567		 951.14271			42741.51297		224.22400		875.00000 
 43692.65567		 305.27265			43387.38302		70.72800		324.00000 
 43692.65567		 951.14271			42741.51297		224.22400		875.00000 
 43692.65567		 305.27265			43387.38302		70.72800		324.00000 
 43692.65567		 951.14271			42741.51297		224.22400		875.00000 
 43692.65567		 305.27265			43387.38302		70.72800		324.00000 
 43692.65567		 951.14271			42741.51297		224.22400		875.00000 
 43692.65567		 305.27265			43387.38302		70.72800		324.00000 
 43692.65567		 951.14271			42741.51297		224.22400		875.00000 
 43692.65567		 305.27265			43387.38302		70.72800		324.00000 
 43692.65567		 951.14271			42741.51297		224.22400		875.00000 
 43692.65567		 305.27265			43387.38302		70.72800		324.00000 
 43692.65567		 951.14271			42741.51297		224.22400		875.00000 
 43692.65567		 305.27265			43387.38302		70.72800		324.00000 
 43692.65567		 951.14271			42741.51297		224.22400		875.00000 
 43692.65567		 305.27265			43387.38302		70.72800		324.00000 
 43692.65567		 951.14271			42741.51297		224.22400		875.00000 
 43692.65567		 305.27265			43387.38302		70.72800		324.00000 
 43692.65567		 951.14271			42741.51297		224.22400		875.00000 
 43692.65567		 305.27265			43387.38302		70.72800		324.00000 
 43692.65567		 951.14271			42741.51297		224.22400		875.00000 
 43692.65567		 305.27265			43387.38302		70.72800		324.00000 
 43692.65567		 951.14271			42741.51297		224.22400		875.00000 
 43692.65567		 305.27265			43387.38302		70.72800		324.00000 
 43692.65567		 951.14271			42741.51297		224.22400		875.00000 
 43692.65567		 305.27265			43387.38302		70.72800		324.00000 
 43692.65567		 951.14271			42741.51297		224.22400		875.00000 
 43692.65567		 305.27265			43387.38302		70.72800		324.00000 
 43692.65567		 951.14271			42741.51297		224.22400		875.00000 
 43692.65567		 305.27265			43387.38302		70.72800		324.00000 
 43692.65567		 951.14271			42741.51297		224.22400		875.00000 
 43692.65567		 305.27265			43387.38302		70.72800		324.00000 
 43692.65567		 951.14271			42741.51297		224.22400		875.00000 
 43692.65567		 305.27265			43387.38302		70.72800		324.00000 
 43692.65567		 951.14271			42741.51297		224.22400		875.00000 
 43692.65567		 305.27265			43387.38302		70.72800		324.00000 
 43692.65567		 951.14271			42741.51297		224.22400		875.00000 
 43692.65567		 305.27265			43387.38302		70.72800		324.00000 
 43692.65567		 951.14271			42741.51297		224.22400		875.00000 
 43692.65567		 305.27265			43387.38302		70.72800		324.00000 
 43692.65567		 951.14271			42741.51297		224.22400		875.00000 
 43692.65567		 305.27265			43387.38302		70.72800		324.00000 
 43692.65567		 951.14271			42741.51297		224.22400		875.00000 
 43692.65567		 305.27265			43387.38302		70.72800		324.00000 
 43692.65567		 951.14271			42741.51297		224.22400		875.00000 
 43692.65567		 305.27265			43387.38302		70.72800		324.00000 
 43692.65567		 951.14271			42741.51297		224.22400		875.00000 
 43692.65567		 305.27265			43387.38302		70.72800		324.00000 
 43692.65567		 951.14271			42741.51297		224.22400		875.00000 
 43692.65567		 305.27265			43387.38302		70.72800		324.00000 
 43692.65567		 951.14271			42741.51297		224.22400		875.00000 
 43692.65567		 305.27265			43387.38302		70.72800		324.00000 
 43692.65567		 951.14271			42741.51297		224.22400		875.00000 
 43692.65567		 305.27265			43387.38302		70.72800		324.00000 
 43692.65567		 951.14271			42741.51297		224.22400		875.00000 
 43692.65567		 305.27265			43387.38302		70.72800		324.00000 
 43692.65567		 951.14271			42741.51297		224.22400		875.00000 
 43692.65567		 305.27265			43387.38302		70.72800		324.00000 
 43692.65567		 951.14271			42741.51297		224.22400		875.00000 
 43692.65567		 305.27265			43387.38302		70.72800		324.00000 
 43692.65567		 951.14271			42741.51297		224.22400		875.00000 
 43692.65567		 305.27265			43387.38302		70.72800		324.00000 
 43692.65567		 951.14271			42741.51297		224.22400		875.00000 
 43692.65567		 305.27265			43387.38302		70.72800		324.00000 
 43692.65567		 951.14271			42741.51297		224.22400		875.00000 
 43692.65567		 305.27265			43387.38302		70.72800		324.00000 
 43692.65567		 951.14271			42741.51297		224.22400		875.00000 
 43692.65567		 305.27265			43387.38302		70.72800		324.00000 
 43692.65567		 951.14271			42741.51297		224.22400		875.00000 
 43692.65567		 305.27265			43387.38302		70.72800		324.00000 
 43692.65567		 951.14271			42741.51297		224.22400		875.00000 
 43692.65567		 305.27265			43387.38302		70.72800		324.00000 
 43692.65567		 951.14271			42741.51297		224.22400		875.00000 
 43692.65567		 305.27265			43387.38302		70.72800		324.00000 
 43692.65567		 951.14271			42741.51297		224.22400		875.00000 
 43692.65567		 305.27265			43387.38302		70.72800		324.00000 
 43692.65567		 951.14271			42741.51297		224.22400		875.00000 
 43692.65567		 305.27265			43387.38302		70.72800		324.00000 
 43692.65567		 951.14271			42741.51297		224.22400		875.00000 
 43692.65567		 305.27265			43387.38302		70.72800		324.00000 
 43692.65567		 951.14271			42741.51297		224.22400		875.00000 
 43692.65567		 305.27265			43387.38302		70.72800		324.00000 
 43692.65567		 951.14271			42741.51297		224.22400		875.00000 
 43692.65567		 305.27265			43387.38302		70.72800		324.00000 
 43692.65567		 951.14271			42741.51297		224.22400		875.00000 
 43692.65567		 305.27265			43387.38302		70.72800		324.00000 
 43692.65567		 951.14271			42741.51297		224.22400		875.00000 
 43692.65567		 305.27265			43387.38302		70.72800		324.00000 
 43692.65567		 951.14271			42741.51297		224.22400		875.00000 
 43692.65567		 305.27265			43387.38302		70.72800		324.00000 
 43692.65567		 951.14271			42741.51297		224.22400		875.00000 
 43692.65567		 305.27265			43387.38302		70.72800		324.00000 
 43692.65567		 951.14271			42741.51297		224.22400		875.00000 
 43692.65567		 305.27265			43387.38302		70.72800		324.00000 
 43692.65567		 951.14271			42741.51297		224.22400		875.00000 
 43692.65567		 305.27265			43387.38302		70.72800		324.00000 
 43692.65567		 951.14271			42741.51297		224.22400		875.00000 
 43692.65567		 305.27265			43387.38302		70.72800		324.00000 
 43692.65567		 951.14271			42741.51297		224.22400		875.00000 
 43692.65567		 305.27265			43387.38302		70.72800		324.00000 
 43692.65567		 951.14271			42741.51297		224.22400		875.00000 
 43692.65567		 305.27265			43387.38302		70.72800		324.00000 
 43692.65567		 951.14271			42741.51297		224.22400		875.00000 
 43692.65567		 305.27265			43387.38302		70.72800		324.00000 
 43692.65567		 951.14271			42741.51297		224.22400		875.00000 
 43692.65567		 305.27265			43387.38302		70.72800		324.00000 
 43692.65567		 951.14271			42741.51297		224.22400		875.00000 
 43692.65567		 305.27265			43387.38302		70.72800		324.00000 
 43692.65567		 951.14271			42741.51297		224.22400		875.00000 
 43692.65567		 305.27265			43387.38302		70.72800		324.00000 
 43692.65567		 951.14271			42741.51297		224.22400		875.00000 
 43692.65567		 305.27265			43387.38302		70.72800		324.00000 
 43692.65567		 951.14271			42741.51297		224.22400		875.00000 
 43692.65567		 305.27265			43387.38302		70.72800		324.00000 
 43692.65567		 951.14271			42741.51297		224.22400		875.00000 
 43692.65567		 305.27265			43387.38302		70.72800		324.00000 
 43692.65567		 951.14271			42741.51297		224.22400		875.00000 
 43692.65567		 305.27265			43387.38302		70.72800		324.00000 
 43692.65567		 951.14271			42741.51297		224.22400		875.00000 
 43692.65567		 305.27265			43387.38302		70.72800		324.00000 
 43692.65567		 951.14271			42741.51297		224.22400		875.00000 
 43692.65567		 305.27265			43387.38302		70.72800		324.00000 
 43692.65567		 951.14271			42741.51297		224.22400		875.00000 
 43692.65567		 305.27265			43387.38302		70.72800		324.00000 
 43692.65567		 951.14271			42741.51297		224.22400		875.00000 
 43692.65567		 305.27265			43387.38302		70.72800		324.00000 
 43692.65567		 951.14271			42741.51297		224.22400		875.00000 
 43692.65567		 305.27265			43387.38302		70.72800		324.00000 
 43692.65567		 951.14271			42741.51297		223.62400		875.00000 
 43692.65567		 305.27265			43387.38302		70.72800		324.00000 
 43692.65567		 951.14271			42741.51297		223.62400		875.00000 
 43692.65567		 305.27265			43387.38302		70.72800		324.00000 
 43692.65567		 951.14271			42741.51297		223.62400		875.00000 
 43692.65567		 305.27265			43387.38302		70.72800		324.00000 
 43692.65567		 951.14271			42741.51297		223.62400		875.00000 
 43692.65567		 305.27265			43387.38302		70.72800		324.00000 
 43692.65567		 951.14271			42741.51297		223.62400		875.00000 
 43692.65567		 305.27265			43387.38302		70.72800		324.00000 
 43692.65567		 951.14271			42741.51297		223.62400		875.00000 
 43692.65567		 305.27265			43387.38302		70.72800		324.00000 
 43692.65567		 951.14271			42741.51297		223.62400		875.00000 
 43692.65567		 305.27265			43387.38302		70.72800		324.00000 
 43692.65567		 951.14271			42741.51297		223.62400		875.00000 
 43692.65567		 305.27265			43387.38302		70.72800		324.00000 
 43692.65567		 951.14271			42741.51297		223.62400		875.00000 
 43692.65567		 305.27265			43387.38302		70.72800		324.00000 
 43692.65567		 951.14271			42741.51297		223.62400		875.00000 
 43692.65567		 305.27265			43387.38302		70.72800		324.00000 
 43692.65567		 951.14271			42741.51297		223.62400		875.00000 
 43692.65567		 305.27265			43387.38302		70.72800		324.00000 
 43692.65567		 951.14271			42741.51297		223.62400		875.00000 
 43692.65567		 305.27265			43387.38302		70.72800		324.00000 
 43692.65567		 951.14271			42741.51297		223.62400		875.00000 
 43692.65567		 305.27265			43387.38302		70.72800		324.00000 
 43692.65567		 951.14271			42741.51297		223.62400		875.00000 
 43692.65567		 305.27265			43387.38302		70.72800		324.00000 
 43692.65567		 951.14271			42741.51297		223.62400		875.00000 
 43692.65567		 305.27265			43387.38302		70.72800		324.00000 
 43692.65567		 951.14271			42741.51297		223.62400		875.00000 
 43692.65567		 305.27265			43387.38302		70.72800		324.00000 
 43692.65567		 951.14271			42741.51297		223.62400		875.00000 
 43692.65567		 305.27265			43387.38302		70.72800		324.00000 
 43692.65567		 951.14271			42741.51297		223.62400		875.00000 
 43692.65567		 305.27265			43387.38302		70.72800		324.00000 
 43692.65567		 951.14271			42741.51297		223.62400		875.00000 
 43692.65567		 305.27265			43387.38302		70.72800		324.00000 
 43692.65567		 951.14271			42741.51297		223.62400		875.00000 
 43692.65567		 305.27265			43387.38302		70.72800		324.00000 
 43692.65567		 951.14271			42741.51297		223.62400		875.00000 
 43692.65567		 305.27265			43387.38302		70.72800		324.00000 
 43692.65567		 951.14271			42741.51297		223.62400		875.00000 
 43692.65567		 305.27265			43387.38302		70.72800		324.00000 
 43692.65567		 951.14271			42741.51297		223.62400		875.00000 
 43692.65567		 305.27265			43387.38302		70.72800		324.00000 
 43692.65567		 951.14271			42741.51297		223.62400		875.00000 
 43692.65567		 305.27265			43387.38302		70.72800		324.00000 
 43692.65567		 951.14271			42741.51297		223.62400		875.00000 
 43692.65567		 305.27265			43387.38302		70.72800		324.00000 
 43692.65567		 951.14271			42741.51297		223.62400		875.00000 
 43692.65567		 305.27265			43387.38302		70.72800		324.00000 
 43692.65567		 951.14271			42741.51297		223.62400		875.00000 
 43692.65567		 305.27265			43387.38302		70.72800		324.00000 
 43692.65567		 951.14271			42741.51297		223.62400		875.00000 
 43692.65567		 305.27265			43387.38302		70.72800		324.00000 
 43692.65567		 951.14271			42741.51297		223.62400		875.00000 
 43692.65567		 305.27265			43387.38302		70.72800		324.00000 
 43692.65567		 951.14271			42741.51297		223.62400		875.00000 
 43692.65567		 305.27265			43387.38302		70.72800		324.00000 
 43692.65567		 951.14271			42741.51297		223.62400		875.00000 
 43692.65567		 305.27265			43387.38302		70.72800		324.00000 
 43692.65567		 951.14271			42741.51297		223.62400		875.00000 
 43692.65567		 305.27265			43387.38302		70.72800		324.00000 
 43692.65567		 951.14271			42741.51297		223.62400		875.00000 
 43692.65567		 305.27265			43387.38302		70.72800		324.00000 
 43692.65567		 951.14271			42741.51297		223.62400		875.00000 
 43692.65567		 305.27265			43387.38302		70.72800		324.00000 
 43692.65567		 951.14271			42741.51297		223.62400		875.00000 
 43692.65567		 305.27265			43387.38302		70.72800		324.00000 
 43692.65567		 951.14271			42741.51297		223.62400		875.00000 
 43692.65567		 305.27265			43387.38302		70.72800		324.00000 
 43692.65567		 951.14271			42741.51297		223.62400		875.00000 
 43692.65567		 305.27265			43387.38302		70.72800		324.00000 
 43692.65567		 951.14271			42741.51297		223.62400		875.00000 
 43692.65567		 305.27265			43387.38302		70.72800		324.00000 
 43692.65567		 951.14271			42741.51297		223.62400		875.00000 
 43692.65567		 305.27265			43387.38302		70.72800		324.00000 
 43692.65567		 951.14271			42741.51297		223.62400		875.00000 
 43692.65567		 305.27265			43387.38302		70.72800		324.00000 
 43692.65567		 951.14271			42741.51297		223.62400		875.00000 
 43692.65567		 305.27265			43387.38302		70.72800		324.00000 
 43692.65567		 951.14271			42741.51297		223.62400		875.00000 
 43692.65567		 305.27265			43387.38302		70.72800		324.00000 
 43692.65567		 951.14271			42741.51297		223.62400		875.00000 
 43692.65567		 305.27265			43387.38302		70.72800		324.00000 
 43692.65567		 951.14271			42741.51297		223.62400		875.00000 
 43692.65567		 305.27265			43387.38302		70.72800		324.00000 
 43692.65567		 951.14271			42741.51297		223.62400		875.00000 
 43692.65567		 305.27265			43387.38302		70.72800		324.00000 
 43692.65567		 951.14271			42741.51297		223.62400		875.00000 
 43692.65567		 305.27265			43387.38302		70.72800		324.00000 
 43692.65567		 951.14271			42741.51297		223.62400		875.00000 
 43692.65567		 305.27265			43387.38302		70.72800		324.00000 
 43692.65567		 951.14271			42741.51297		223.62400		875.00000 
 43692.65567		 305.27265			43387.38302		70.72800		324.00000 
 43692.65567		 951.14271			42741.51297		223.62400		875.00000 
 43692.65567		 305.27265			43387.38302		70.72800		324.00000 
 43692.65567		 951.14271			42741.51297		223.62400		875.00000 
 43692.65567		 305.27265			43387.38302		70.72800		324.00000 
 43692.65567		 951.14271			42741.51297		223.62400		875.00000 
 43692.65567		 305.27265			43387.38302		70.72800		324.00000 
 43692.65567		 951.14271			42741.51297		223.62400		875.00000 
 43692.65567		 305.27265			43387.38302		70.72800		324.00000 
 43692.65567		 951.14271			42741.51297		223.62400		875.00000 
 43692.65567		 305.27265			43387.38302		70.72800		324.00000 
 43692.65567		 951.14271			42741.51297		223.62400		875.00000 
 43692.65567		 305.27265			43387.38302		70.72800		324.00000 
 43692.65567		 951.14271			42741.51297		223.62400		875.00000 
 43692.65567		 305.27265			43387.38302		70.72800		324.00000 
 43692.65567		 951.14271			42741.51297		223.62400		875.00000 
 43692.65567		 305.27265			43387.38302		70.72800		324.00000 
 43692.65567		 951.14271			42741.51297		223.62400		875.00000 
 43692.65567		 305.27265			43387.38302		70.72800		324.00000 
 43692.65567		 951.14271			42741.51297		223.62400		875.00000 
 43692.65567		 305.27265			43387.38302		70.72800		324.00000 
 43692.65567		 951.14271			42741.51297		223.62400		875.00000 
 43692.65567		 305.27265			43387.38302		70.72800		324.00000 
 43692.65567		 951.14271			42741.51297		223.62400		875.00000 
 43692.65567		 305.27265			43387.38302		70.72800		324.00000 
 43692.65567		 951.14271			42741.51297		223.62400		875.00000 
 43692.65567		 305.27265			43387.38302		70.72800		324.00000 
 43692.65567		 951.14271			42741.51297		223.62400		875.00000 
 43692.65567		 305.27265			43387.38302		70.72800		324.00000 
 43692.65567		 951.14271			42741.51297		223.62400		875.00000 
 43692.65567		 305.27265			43387.38302		70.72800		324.00000 
 43692.65567		 951.14271			42741.51297		223.62400		875.00000 
 43692.65567		 305.27265			43387.38302		70.72800		324.00000 
 43692.65567		 951.14271			42741.51297		223.55400		875.00000 
 43692.65567		 305.27265			43387.38302		70.72800		324.00000 
 43692.65567		 951.14271			42741.51297		223.55400		875.00000 
 43692.65567		 305.27265			43387.38302		70.72800		324.00000 
 43692.65567		 951.14271			42741.51297		223.55400		875.00000 
 43692.65567		 305.27265			43387.38302		70.72800		324.00000 
 43692.65567		 951.14271			42741.51297		223.55400		875.00000 
 43692.65567		 305.27265			43387.38302		70.72800		324.00000 
 43692.65567		 951.14271			42741.51297		223.55400		875.00000 
 43692.65567		 305.27265			43387.38302		70.72800		324.00000 
 43692.65567		 951.14271			42741.51297		223.55400		875.00000 
 43692.65567		 305.27265			43387.38302		70.72800		324.00000 
 43692.65567		 951.14271			42741.51297		223.55400		875.00000 
 43692.65567		 305.27265			43387.38302		70.72800		324.00000 
 43692.65567		 951.14271			42741.51297		223.55400		875.00000 
 43692.65567		 305.27265			43387.38302		70.72800		324.00000 
 43692.65567		 951.14271			42741.51297		223.55400		875.00000 
 43692.65567		 305.27265			43387.38302		70.72800		324.00000 
 43692.65567		 951.14271			42741.51297		223.55400		875.00000 
 43692.65567		 305.27265			43387.38302		70.72800		324.00000 
 43692.65567		 951.14271			42741.51297		223.55400		875.00000 
 43692.65567		 305.27265			43387.38302		70.72800		324.00000 
 43692.65567		 951.14271			42741.51297		223.55400		875.00000 
 43692.65567		 305.27265			43387.38302		70.72800		324.00000 
 43692.65567		 951.14271			42741.51297		223.55400		875.00000 
 43692.65567		 305.27265			43387.38302		70.72800		324.00000 
 43692.65567		 951.14271			42741.51297		223.55400		875.00000 
 43692.65567		 305.27265			43387.38302		70.72800		324.00000 
 43692.65567		 951.14271			42741.51297		223.55400		875.00000 
 43692.65567		 305.27265			43387.38302		70.72800		324.00000 
 43692.65567		 951.14271			42741.51297		223.55400		875.00000 
 43692.65567		 305.27265			43387.38302		70.72800		324.00000 
 43692.65567		 951.14271			42741.51297		223.55400		875.00000 
 43692.65567		 305.27265			43387.38302		70.72800		324.00000 
 43692.65567		 951.14271			42741.51297		223.55400		875.00000 
 43692.65567		 305.27265			43387.38302		70.72800		324.00000 
 43692.65567		 951.14271			42741.51297		223.55400		875.00000 
 43692.65567		 305.27265			43387.38302		70.72800		324.00000 
 43692.65567		 951.14271			42741.51297		223.55400		875.00000 
 43692.65567		 305.27265			43387.38302		70.72800		324.00000 
 43692.65567		 951.14271			42741.51297		223.55400		875.00000 
 43692.65567		 305.27265			43387.38302		70.72800		324.00000 
 43692.65567		 951.14271			42741.51297		223.55400		875.00000 
 43692.65567		 305.27265			43387.38302		70.72800		324.00000 
 43692.65567		 951.14271			42741.51297		223.55400		875.00000 
 43692.65567		 305.27265			43387.38302		70.72800		324.00000 
 43692.65567		 951.14271			42741.51297		223.55400		875.00000 
 43692.65567		 305.27265			43387.38302		70.72800		324.00000 
 43692.65567		 951.14271			42741.51297		223.55400		875.00000 
 43692.65567		 305.27265			43387.38302		70.72800		324.00000 
 43692.65567		 951.14271			42741.51297		223.55400		875.00000 
 43692.65567		 305.27265			43387.38302		70.72800		324.00000 
 43692.65567		 951.14271			42741.51297		223.55400		875.00000 
 43692.65567		 305.27265			43387.38302		70.72800		324.00000 
 43692.65567		 951.14271			42741.51297		223.55400		875.00000 
 43692.65567		 305.27265			43387.38302		70.72800		324.00000 
 43692.65567		 951.14271			42741.51297		223.55400		875.00000 
 43692.65567		 305.27265			43387.38302		70.72800		324.00000 
 43692.65567		 951.14271			42741.51297		223.55400		875.00000 
 43692.65567		 305.27265			43387.38302		70.72800		324.00000 
 43692.65567		 951.14271			42741.51297		223.55400		875.00000 
 43692.65567		 305.27265			43387.38302		70.72800		324.00000 
 43692.65567		 951.14271			42741.51297		223.55400		875.00000 
 43692.65567		 305.27265			43387.38302		70.72800		324.00000 
 43692.65567		 951.14271			42741.51297		223.55400		875.00000 
 43692.65567		 305.27265			43387.38302		70.72800		324.00000 
 43692.65567		 951.14271			42741.51297		223.55400		875.00000 
 43692.65567		 305.27265			43387.38302		70.72800		324.00000 
 43692.65567		 951.14271			42741.51297		223.55400		875.00000 
 43692.65567		 305.27265			43387.38302		70.72800		324.00000 
 43692.65567		 951.14271			42741.51297		223.55400		875.00000 
 43692.65567		 305.27265			43387.38302		70.72800		324.00000 
 43692.65567		 951.14271			42741.51297		223.55400		875.00000 
 43692.65567		 305.27265			43387.38302		70.72800		324.00000 
 43692.65567		 951.14271			42741.51297		223.55400		875.00000 
 43692.65567		 305.27265			43387.38302		70.72800		324.00000 
 43692.65567		 951.14271			42741.51297		223.55400		875.00000 
 43692.65567		 305.27265			43387.38302		70.72800		324.00000 
 43692.65567		 951.14271			42741.51297		223.55400		875.00000 
 43692.65567		 305.27265			43387.38302		70.72800		324.00000 
 43692.65567		 951.14271			42741.51297		223.55400		875.00000 
 43692.65567		 305.27265			43387.38302		70.72800		324.00000 
 43692.65567		 951.14271			42741.51297		223.55400		875.00000 
 43692.65567		 305.27265			43387.38302		70.72800		324.00000 
 43692.65567		 951.14271			42741.51297		223.55400		875.00000 
 43692.65567		 305.27265			43387.38302		70.72800		324.00000 
 43692.65567		 951.14271			42741.51297		223.55400		875.00000 
 43692.65567		 305.27265			43387.38302		70.72800		324.00000 
 43692.65567		 951.14271			42741.51297		223.55400		875.00000 
 43692.65567		 305.27265			43387.38302		70.72800		324.00000 
 43692.65567		 951.14271			42741.51297		223.55400		875.00000 
 43692.65567		 305.27265			43387.38302		70.72800		324.00000 
 43692.65567		 951.14271			42741.51297		223.55400		875.00000 
 43692.65567		 305.27265			43387.38302		70.72800		324.00000 
 43692.65567		 951.14271			42741.51297		223.55400		875.00000 
 43692.65567		 305.27265			43387.38302		70.72800		324.00000 
 43692.65567		 951.14271			42741.51297		223.55400		875.00000 
 43692.65567		 305.27265			43387.38302		70.72800		324.00000 
 43692.65567		 951.14271			42741.51297		223.55400		875.00000 
 43692.65567		 305.27265			43387.38302		70.72800		324.00000 
 43692.65567		 951.14271			42741.51297		223.55400		875.00000 
 43692.65567		 305.27265			43387.38302		70.72800		324.00000 
 43692.65567		 951.14271			42741.51297		223.55400		875.00000 
 43692.65567		 305.27265			43387.38302		70.72800		324.00000 
 43692.65567		 951.14271			42741.51297		223.55400		875.00000 
 43692.65567		 305.27265			43387.38302		70.72800		324.00000 
 43692.65567		 951.14271			42741.51297		223.55400		875.00000 
 43692.65567		 305.27265			43387.38302		70.72800		324.00000 
 43692.65567		 951.14271			42741.51297		223.55400		875.00000 
 43692.65567		 305.27265			43387.38302		70.72800		324.00000 
 43692.65567		 951.14271			42741.51297		223.55400		875.00000 
 43692.65567		 305.27265			43387.38302		70.72800		324.00000 
 43692.65567		 951.14271			42741.51297		223.55400		875.00000 
 43692.65567		 305.27265			43387.38302		70.72800		324.00000 
 43692.65567		 951.14271			42741.51297		223.55400		875.00000 
 43692.65567		 305.27265			43387.38302		70.72800		324.00000 
 43692.65567		 951.14271			42741.51297		223.55400		875.00000 
 43692.65567		 305.27265			43387.38302		70.72800		324.00000 
 43692.65567		 951.14271			42741.51297		223.55400		875.00000 
 43692.65567		 305.27265			43387.38302		70.72800		324.00000 
 43692.65567		 951.14271			42741.51297		223.55400		875.00000 
 43692.65567		 305.27265			43387.38302		70.72800		324.00000 
 43692.65567		 951.14271			42741.51297		223.55400		875.00000 
 43692.65567		 305.27265			43387.38302		70.72800		324.00000 
 43692.65567		 951.14271			42741.51297		223.55400		875.00000 
 43692.65567		 305.27265			43387.38302		70.72800		324.00000 
 43692.65567		 951.14271			42741.51297		223.55400		875.00000 
 43692.65567		 305.27265			43387.38302		70.72800		324.00000 
 43692.65567		 951.14271			42741.51297		223.62400		875.00000 
 43692.65567		 305.27265			43387.38302		70.72800		324.00000 
 43692.65567		 951.14271			42741.51297		223.62400		875.00000 
 43692.65567		 305.27265			43387.38302		70.72800		324.00000 
 43692.65567		 951.14271			42741.51297		223.62400		875.00000 
 43692.65567		 305.27265			43387.38302		70.72800		324.00000 
 43692.65567		 951.14271			42741.51297		223.62400		875.00000 
 43692.65567		 305.27265			43387.38302		70.72800		324.00000 
 43692.65567		 951.14271			42741.51297		223.62400		875.00000 
 43692.65567		 305.27265			43387.38302		70.72800		324.00000 
 43692.65567		 951.14271			42741.51297		223.62400		875.00000 
 43692.65567		 305.27265			43387.38302		70.72800		324.00000 
 43692.65567		 951.14271			42741.51297		223.62400		875.00000 
 43692.65567		 305.27265			43387.38302		70.72800		324.00000 
 43692.65567		 951.14271			42741.51297		223.62400		875.00000 
 43692.65567		 305.27265			43387.38302		70.72800		324.00000 
 43692.65567		 951.14271			42741.51297		223.62400		875.00000 
 43692.65567		 305.27265			43387.38302		70.72800		324.00000 
 43692.65567		 951.14271			42741.51297		223.62400		875.00000 
 43692.65567		 305.27265			43387.38302		70.72800		324.00000 
 43692.65567		 951.14271			42741.51297		223.62400		875.00000 
 43692.65567		 305.27265			43387.38302		70.72800		324.00000 
 43692.65567		 951.14271			42741.51297		223.62400		875.00000 
 43692.65567		 305.27265			43387.38302		70.72800		324.00000 
 43692.65567		 951.14271			42741.51297		223.62400		875.00000 
 43692.65567		 305.27265			43387.38302		70.72800		324.00000 
 43692.65567		 951.14271			42741.51297		223.62400		875.00000 
 43692.65567		 305.27265			43387.38302		70.72800		324.00000 
 43692.65567		 951.14271			42741.51297		223.62400		875.00000 
 43692.65567		 305.27265			43387.38302		70.72800		324.00000 
 43692.65567		 951.14271			42741.51297		223.62400		875.00000 
 43692.65567		 305.27265			43387.38302		70.72800		324.00000 
 43692.65567		 951.14271			42741.51297		223.62400		875.00000 
 43692.65567		 305.27265			43387.38302		70.72800		324.00000 
 43692.65567		 951.14271			42741.51297		223.62400		875.00000 
 43692.65567		 305.27265			43387.38302		70.72800		324.00000 
 43692.65567		 951.14271			42741.51297		223.62400		875.00000 
 43692.65567		 305.27265			43387.38302		70.72800		324.00000 
 43692.65567		 951.14271			42741.51297		223.62400		875.00000 
 43692.65567		 305.27265			43387.38302		70.72800		324.00000 
 43692.65567		 951.14271			42741.51297		223.62400		875.00000 
 43692.65567		 305.27265			43387.38302		70.72800		324.00000 
 43692.65567		 951.14271			42741.51297		223.62400		875.00000 
 43692.65567		 305.27265			43387.38302		70.72800		324.00000 
 43692.65567		 951.14271			42741.51297		223.62400		875.00000 
 43692.65567		 305.27265			43387.38302		70.72800		324.00000 
 43692.65567		 951.14271			42741.51297		223.62400		875.00000 
 43692.65567		 305.27265			43387.38302		70.72800		324.00000 
 43692.65567		 951.14271			42741.51297		223.62400		875.00000 
 43692.65567		 305.27265			43387.38302		70.72800		324.00000 
 43692.65567		 951.14271			42741.51297		223.62400		875.00000 
 43692.65567		 305.27265			43387.38302		70.72800		324.00000 
 43692.65567		 951.14271			42741.51297		223.62400		875.00000 
 43692.65567		 305.27265			43387.38302		70.72800		324.00000 
 43692.65567		 951.14271			42741.51297		223.62400		875.00000 
 43692.65567		 305.27265			43387.38302		70.72800		324.00000 
 43692.65567		 951.14271			42741.51297		223.62400		875.00000 
 43692.65567		 305.27265			43387.38302		70.72800		324.00000 
 43692.65567		 951.14271			42741.51297		223.62400		875.00000 
 43692.65567		 305.27265			43387.38302		70.72800		324.00000 
 43692.65567		 951.14271			42741.51297		223.62400		875.00000 
 43692.65567		 305.27265			43387.38302		70.72800		324.00000 
 43692.65567		 951.14271			42741.51297		223.62400		875.00000 
 43692.65567		 305.27265			43387.38302		70.72800		324.00000 
 43692.65567		 951.14271			42741.51297		223.62400		875.00000 
 43692.65567		 305.27265			43387.38302		70.72800		324.00000 
 43692.65567		 951.14271			42741.51297		223.62400		875.00000 
 43692.65567		 305.27265			43387.38302		70.72800		324.00000 
 43692.65567		 951.14271			42741.51297		223.62400		875.00000 
 43692.65567		 305.27265			43387.38302		70.72800		324.00000 
 43692.65567		 951.14271			42741.51297		223.62400		875.00000 
 43692.65567		 305.27265			43387.38302		70.72800		324.00000 
 43692.65567		 951.14271			42741.51297		223.62400		875.00000 
 43692.65567		 305.27265			43387.38302		70.72800		324.00000 
 43692.65567		 951.14271			42741.51297		223.62400		875.00000 
 43692.65567		 305.27265			43387.38302		70.72800		324.00000 
 43692.65567		 951.14271			42741.51297		223.62400		875.00000 
 43692.65567		 305.27265			43387.38302		70.72800		324.00000 
 43692.65567		 951.14271			42741.51297		223.62400		875.00000 
 43692.65567		 305.27265			43387.38302		70.72800		324.00000 
 43692.65567		 951.14271			42741.51297		223.62400		875.00000 
 43692.65567		 305.27265			43387.38302		70.72800		324.00000 
 43692.65567		 951.14271			42741.51297		223.62400		875.00000 
 43692.65567		 305.27265			43387.38302		70.72800		324.00000 
 43692.65567		 951.14271			42741.51297		223.62400		875.00000 
 43692.65567		 305.27265			43387.38302		70.72800		324.00000 
 43692.65567		 951.14271			42741.51297		223.62400		875.00000 
 43692.65567		 305.27265			43387.38302		70.72800		324.00000 
 43692.65567		 951.14271			42741.51297		223.62400		875.00000 
 43692.65567		 305.27265			43387.38302		70.72800		324.00000 
 43692.65567		 951.14271			42741.51297		223.62400		875.00000 
 43692.65567		 305.27265			43387.38302		70.72800		324.00000 
 43692.65567		 951.14271			42741.51297		223.62400		875.00000 
 43692.65567		 305.27265			43387.38302		70.72800		324.00000 
 43692.65567		 951.14271			42741.51297		223.62400		875.00000 
 43692.65567		 305.27265			43387.38302		70.72800		324.00000 
 43692.65567		 951.14271			42741.51297		223.62400		875.00000 
 43692.65567		 305.27265			43387.38302		70.72800		324.00000 
 43692.65567		 951.14271			42741.51297		223.62400		875.00000 
 43692.65567		 305.27265			43387.38302		70.72800		324.00000 
 43692.65567		 951.14271			42741.51297		223.62400		875.00000 
 43692.65567		 305.27265			43387.38302		70.72800		324.00000 
 43692.65567		 951.14271			42741.51297		223.62400		875.00000 
 43692.65567		 305.27265			43387.38302		70.72800		324.00000 
 43692.65567		 951.14271			42741.51297		223.62400		875.00000 
 43692.65567		 305.27265			43387.38302		70.72800		324.00000 
 43692.65567		 951.14271			42741.51297		223.62400		875.00000 
 43692.65567		 305.27265			43387.38302		70.72800		324.00000 
 43692.65567		 951.14271			42741.51297		223.62400		875.00000 
 43692.65567		 305.27265			43387.38302		70.72800		324.00000 
 43692.65567		 951.14271			42741.51297		223.62400		875.00000 
 43692.65567		 305.27265			43387.38302		70.72800		324.00000 
 43692.65567		 951.14271			42741.51297		223.62400		875.00000 
 43692.65567		 305.27265			43387.38302		70.72800		324.00000 
 43692.65567		 951.14271			42741.51297		223.62400		875.00000 
 43692.65567		 305.27265			43387.38302		70.72800		324.00000 
 43692.65567		 951.14271			42741.51297		223.62400		875.00000 
 43692.65567		 305.27265			43387.38302		70.72800		324.00000 
 43692.65567		 951.14271			42741.51297		223.62400		875.00000 
 43692.65567		 305.27265			43387.38302		70.72800		324.00000 
 43692.65567		 951.14271			42741.51297		223.62400		875.00000 
 43692.65567		 305.27265			43387.38302		70.72800		324.00000 
 43692.65567		 951.14271			42741.51297		223.62400		875.00000 
 43692.65567		 305.27265			43387.38302		70.72800		324.00000 
 43692.65567		 951.14271			42741.51297		223.62400		875.00000 
 43692.65567		 305.27265			43387.38302		70.72800		324.00000 
 43692.65567		 951.14271			42741.51297		223.62400		875.00000 
 43692.65567		 305.27265			43387.38302		70.72800		324.00000 
 43692.65567		 951.14271			42741.51297		224.22400		875.00000 
 43692.65567		 305.27265			43387.38302		70.72800		324.00000 
 43692.65567		 951.14271			42741.51297		224.22400		875.00000 
 43692.65567		 305.27265			43387.38302		70.72800		324.00000 
 43692.65567		 951.14271			42741.51297		224.22400		875.00000 
 43692.65567		 305.27265			43387.38302		70.72800		324.00000 
 43692.65567		 951.14271			42741.51297		224.22400		875.00000 
 43692.65567		 305.27265			43387.38302		70.72800		324.00000 
 43692.65567		 951.14271			42741.51297		224.22400		875.00000 
 43692.65567		 305.27265			43387.38302		70.72800		324.00000 
 43692.65567		 951.14271			42741.51297		224.22400		875.00000 
 43692.65567		 305.27265			43387.38302		70.72800		324.00000 
 43692.65567		 951.14271			42741.51297		224.22400		875.00000 
 43692.65567		 305.27265			43387.38302		70.72800		324.00000 
 43692.65567		 951.14271			42741.51297		224.22400		875.00000 
 43692.65567		 305.27265			43387.38302		70.72800		324.00000 
 43692.65567		 951.14271			42741.51297		224.22400		875.00000 
 43692.65567		 305.27265			43387.38302		70.72800		324.00000 
 43692.65567		 951.14271			42741.51297		224.22400		875.00000 
 43692.65567		 305.27265			43387.38302		70.72800		324.00000 
 43692.65567		 951.14271			42741.51297		224.22400		875.00000 
 43692.65567		 305.27265			43387.38302		70.72800		324.00000 
 43692.65567		 951.14271			42741.51297		224.22400		875.00000 
 43692.65567		 305.27265			43387.38302		70.72800		324.00000 
 43692.65567		 951.14271			42741.51297		224.22400		875.00000 
 43692.65567		 305.27265			43387.38302		70.72800		324.00000 
 43692.65567		 951.14271			42741.51297		224.22400		875.00000 
 43692.65567		 305.27265			43387.38302		70.72800		324.00000 
 43692.65567		 951.14271			42741.51297		224.22400		875.00000 
 43692.65567		 305.27265			43387.38302		70.72800		324.00000 
 43692.65567		 951.14271			42741.51297		224.22400		875.00000 
 43692.65567		 305.27265			43387.38302		70.72800		324.00000 
 43692.65567		 951.14271			42741.51297		224.22400		875.00000 
 43692.65567		 305.27265			43387.38302		70.72800		324.00000 
 43692.65567		 951.14271			42741.51297		224.22400		875.00000 
 43692.65567		 305.27265			43387.38302		70.72800		324.00000 
 43692.65567		 951.14271			42741.51297		224.22400		875.00000 
 43692.65567		 305.27265			43387.38302		70.72800		324.00000 
 43692.65567		 951.14271			42741.51297		224.22400		875.00000 
 43692.65567		 305.27265			43387.38302		70.72800		324.00000 
 43692.65567		 951.14271			42741.51297		224.22400		875.00000 
 43692.65567		 305.27265			43387.38302		70.72800		324.00000 
 43692.65567		 951.14271			42741.51297		224.22400		875.00000 
 43692.65567		 305.27265			43387.38302		70.72800		324.00000 
 43692.65567		 951.14271			42741.51297		224.22400		875.00000 
 43692.65567		 305.27265			43387.38302		70.72800		324.00000 
 43692.65567		 951.14271			42741.51297		224.22400		875.00000 
 43692.65567		 305.27265			43387.38302		70.72800		324.00000 
 43692.65567		 951.14271			42741.51297		224.22400		875.00000 
 43692.65567		 305.27265			43387.38302		70.72800		324.00000 
 43692.65567		 951.14271			42741.51297		224.22400		875.00000 
 43692.65567		 305.27265			43387.38302		70.72800		324.00000 
 43692.65567		 951.14271			42741.51297		224.22400		875.00000 
 43692.65567		 305.27265			43387.38302		70.72800		324.00000 
 43692.65567		 951.14271			42741.51297		224.22400		875.00000 
 43692.65567		 305.27265			43387.38302		70.72800		324.00000 
 43692.65567		 951.14271			42741.51297		224.22400		875.00000 
 43692.65567		 305.27265			43387.38302		70.72800		324.00000 
 43692.65567		 951.14271			42741.51297		224.22400		875.00000 
 43692.65567		 305.27265			43387.38302		70.72800		324.00000 
 43692.65567		 951.14271			42741.51297		224.22400		875.00000 
 43692.65567		 305.27265			43387.38302		70.72800		324.00000 
 43692.65567		 951.14271			42741.51297		224.22400		875.00000 
 43692.65567		 305.27265			43387.38302		70.72800		324.00000 
 43692.65567		 951.14271			42741.51297		224.22400		875.00000 
 43692.65567		 305.27265			43387.38302		70.72800		324.00000 
 43692.65567		 951.14271			42741.51297		224.22400		875.00000 
 43692.65567		 305.27265			43387.38302		70.72800		324.00000 
 43692.65567		 951.14271			42741.51297		224.22400		875.00000 
 43692.65567		 305.27265			43387.38302		70.72800		324.00000 
 43692.65567		 951.14271			42741.51297		224.22400		875.00000 
 43692.65567		 305.27265			43387.38302		70.72800		324.00000 
 43692.65567		 951.14271			42741.51297		224.22400		875.00000 
 43692.65567		 305.27265			43387.38302		70.72800		324.00000 
 43692.65567		 951.14271			42741.51297		224.22400		875.00000 
 43692.65567		 305.27265			43387.38302		70.72800		324.00000 
 43692.65567		 951.14271			42741.51297		224.22400		875.00000 
 43692.65567		 305.27265			43387.38302		70.72800		324.00000 
 43692.65567		 951.14271			42741.51297		224.22400		875.00000 
 43692.65567		 305.27265			43387.38302		70.72800		324.00000 
 43692.65567		 951.14271			42741.51297		224.22400		875.00000 
 43692.65567		 305.27265			43387.38302		70.72800		324.00000 
 43692.65567		 951.14271			42741.51297		224.22400		875.00000 
 43692.65567		 305.27265			43387.38302		70.72800		324.00000 
 43692.65567		 951.14271			42741.51297		224.22400		875.00000 
 43692.65567		 305.27265			43387.38302		70.72800		324.00000 
 43692.65567		 951.14271			42741.51297		224.22400		875.00000 
 43692.65567		 305.27265			43387.38302		70.72800		324.00000 
 43692.65567		 951.14271			42741.51297		224.22400		875.00000 
 43692.65567		 305.27265			43387.38302		70.72800		324.00000 
 43692.65567		 951.14271			42741.51297		224.22400		875.00000 
 43692.65567		 305.27265			43387.38302		70.72800		324.00000 
 43692.65567		 951.14271			42741.51297		224.22400		875.00000 
 43692.65567		 305.27265			43387.38302		70.72800		324.00000 
 43692.65567		 951.14271			42741.51297		224.22400		875.00000 
 43692.65567		 305.27265			43387.38302		70.72800		324.00000 
 43692.65567		 951.14271			42741.51297		224.22400		875.00000 
 43692.65567		 305.27265			43387.38302		70.72800		324.00000 
 43692.65567		 951.14271			42741.51297		224.22400		875.00000 
 43692.65567		 305.27265			43387.38302		70.72800		324.00000 
 43692.65567		 951.14271			42741.51297		224.22400		875.00000 
 43692.65567		 305.27265			43387.38302		70.72800		324.00000 
 43692.65567		 951.14271			42741.51297		224.22400		875.00000 
 43692.65567		 305.27265			43387.38302		70.72800		324.00000 
 43692.65567		 951.14271			42741.51297		224.22400		875.00000 
 43692.65567		 305.27265			43387.38302		70.72800		324.00000 
 43692.65567		 951.14271			42741.51297		224.22400		875.00000 
 43692.65567		 305.27265			43387.38302		70.72800		324.00000 
 43692.65567		 951.14271			42741.51297		224.22400		875.00000 
 43692.65567		 305.27265			43387.38302		70.72800		324.00000 
 43692.65567		 951.14271			42741.51297		224.22400		875.00000 
 43692.65567		 305.27265			43387.38302		71.21000		324.00000 
 43692.65567		 951.14271			42741.51297		224.22400		875.00000 
 43692.65567		 305.27265			43387.38302		71.21000		324.00000 
 43692.65567		 951.14271			42741.51297		224.22400		875.00000 
 43692.65567		 305.27265			43387.38302		71.21000		324.00000 
 43692.65567		 951.14271			42741.51297		224.22400		875.00000 
 43692.65567		 305.27265			43387.38302		71.21000		324.00000 
 43692.65567		 951.14271			42741.51297		224.22400		875.00000 
 43692.65567		 305.27265			43387.38302		71.21000		324.00000 
 43692.65567		 951.14271			42741.51297		224.22400		875.00000 
 43692.65567		 305.27265			43387.38302		71.21000		324.00000 
 43692.65567		 951.14271			42741.51297		224.22400		875.00000 
 43692.65567		 305.27265			43387.38302		71.21000		324.00000 
 43692.65567		 951.14271			42741.51297		224.22400		875.00000 
 43692.65567		 305.27265			43387.38302		71.21000		324.00000 
 43692.65567		 951.14271			42741.51297		224.22400		875.00000 
 43692.65567		 305.27265			43387.38302		71.21000		324.00000 
 43692.65567		 951.14271			42741.51297		223.55400		875.00000 
 43692.65567		 305.27265			43387.38302		71.21000		324.00000 
 43692.65567		 951.14271			42741.51297		223.55400		875.00000 
 43692.65567		 305.27265			43387.38302		71.21000		324.00000 
 43692.65567		 951.14271			42741.51297		223.55400		875.00000 
 43692.65567		 305.27265			43387.38302		71.21000		324.00000 
 43692.65567		 951.14271			42741.51297		223.55400		875.00000 
 43692.65567		 305.27265			43387.38302		71.21000		324.00000 
 43692.65567		 951.14271			42741.51297		223.55400		875.00000 
 43692.65567		 305.27265			43387.38302		71.21000		324.00000 
 43692.65567		 951.14271			42741.51297		223.55400		875.00000 
 43692.65567		 305.27265			43387.38302		71.21000		324.00000 
 43692.65567		 951.14271			42741.51297		223.55400		875.00000 
 43692.65567		 305.27265			43387.38302		71.21000		324.00000 
 43692.65567		 951.14271			42741.51297		223.55400		875.00000 
 43692.65567		 305.27265			43387.38302		71.21000		324.00000 
 43692.65567		 951.14271			42741.51297		223.55400		875.00000 
 43692.65567		 305.27265			43387.38302		71.21000		324.00000 
 43692.65567		 951.14271			42741.51297		223.55400		875.00000 
 43692.65567		 305.27265			43387.38302		71.21000		324.00000 
 43692.65567		 951.14271			42741.51297		223.55400		875.00000 
 43692.65567		 305.27265			43387.38302		71.21000		324.00000 
 43692.65567		 951.14271			42741.51297		223.55400		875.00000 
 43692.65567		 305.27265			43387.38302		71.21000		324.00000 
 43692.65567		 951.14271			42741.51297		223.55400		875.00000 
 43692.65567		 305.27265			43387.38302		71.21000		324.00000 
 43692.65567		 951.14271			42741.51297		223.55400		875.00000 
 43692.65567		 305.27265			43387.38302		71.21000		324.00000 
 43692.65567		 951.14271			42741.51297		223.55400		875.00000 
 43692.65567		 305.27265			43387.38302		71.21000		324.00000 
 43692.65567		 951.14271			42741.51297		223.55400		875.00000 
 43692.65567		 305.27265			43387.38302		71.21000		324.00000 
 43692.65567		 951.14271			42741.51297		223.55400		875.00000 
 43692.65567		 305.27265			43387.38302		71.21000		324.00000 
 43692.65567		 951.14271			42741.51297		223.55400		875.00000 
 43692.65567		 305.27265			43387.38302		71.21000		324.00000 
 43692.65567		 951.14271			42741.51297		223.55400		875.00000 
 43692.65567		 305.27265			43387.38302		71.21000		324.00000 
 43692.65567		 951.14271			42741.51297		223.55400		875.00000 
 43692.65567		 305.27265			43387.38302		71.21000		324.00000 
 43692.65567		 951.14271			42741.51297		223.55400		875.00000 
 43692.65567		 305.27265			43387.38302		71.21000		324.00000 
 43692.65567		 951.14271			42741.51297		223.55400		875.00000 
 43692.65567		 305.27265			43387.38302		71.21000		324.00000 
 43692.65567		 951.14271			42741.51297		223.55400		875.00000 
 43692.65567		 305.27265			43387.38302		71.21000		324.00000 
 43692.65567		 951.14271			42741.51297		223.55400		875.00000 
 43692.65567		 305.27265			43387.38302		71.21000		324.00000 
 43692.65567		 951.14271			42741.51297		223.55400		875.00000 
 43692.65567		 305.27265			43387.38302		71.21000		324.00000 
 43692.65567		 951.14271			42741.51297		223.55400		875.00000 
 43692.65567		 305.27265			43387.38302		71.21000		324.00000 
 43692.65567		 951.14271			42741.51297		223.55400		875.00000 
 43692.65567		 305.27265			43387.38302		71.21000		324.00000 
 43692.65567		 951.14271			42741.51297		223.55400		875.00000 
 43692.65567		 305.27265			43387.38302		71.21000		324.00000 
 43692.65567		 951.14271			42741.51297		223.55400		875.00000 
 43692.65567		 305.27265			43387.38302		71.21000		324.00000 
 43692.65567		 951.14271			42741.51297		223.55400		875.00000 
 43692.65567		 305.27265			43387.38302		71.21000		324.00000 
 43692.65567		 951.14271			42741.51297		223.55400		875.00000 
 43692.65567		 305.27265			43387.38302		71.21000		324.00000 
 43692.65567		 951.14271			42741.51297		223.55400		875.00000 
 43692.65567		 305.27265			43387.38302		71.21000		324.00000 
 43692.65567		 951.14271			42741.51297		223.55400		875.00000 
 43692.65567		 305.27265			43387.38302		71.21000		324.00000 
 43692.65567		 951.14271			42741.51297		223.55400		875.00000 
 43692.65567		 305.27265			43387.38302		71.21000		324.00000 
 43692.65567		 951.14271			42741.51297		223.55400		875.00000 
 43692.65567		 305.27265			43387.38302		71.21000		324.00000 
 43692.65567		 951.14271			42741.51297		223.55400		875.00000 
 43692.65567		 305.27265			43387.38302		71.21000		324.00000 
 43692.65567		 951.14271			42741.51297		223.55400		875.00000 
 43692.65567		 305.27265			43387.38302		71.21000		324.00000 
 43692.65567		 951.14271			42741.51297		223.55400		875.00000 
 43692.65567		 305.27265			43387.38302		71.21000		324.00000 
 43692.65567		 951.14271			42741.51297		223.55400		875.00000 
 43692.65567		 305.27265			43387.38302		71.21000		324.00000 
 43692.65567		 951.14271			42741.51297		223.55400		875.00000 
 43692.65567		 305.27265			43387.38302		71.21000		324.00000 
 43692.65567		 951.14271			42741.51297		223.55400		875.00000 
 43692.65567		 305.27265			43387.38302		71.21000		324.00000 
 43692.65567		 951.14271			42741.51297		223.55400		875.00000 
 43692.65567		 305.27265			43387.38302		71.21000		324.00000 
 43692.65567		 951.14271			42741.51297		223.55400		875.00000 
 43692.65567		 305.27265			43387.38302		71.21000		324.00000 
 43692.65567		 951.14271			42741.51297		223.55400		875.00000 
 43692.65567		 305.27265			43387.38302		71.21000		324.00000 
 43692.65567		 951.14271			42741.51297		223.55400		875.00000 
 43692.65567		 305.27265			43387.38302		71.21000		324.00000 
 43692.65567		 951.14271			42741.51297		223.55400		875.00000 
 43692.65567		 305.27265			43387.38302		71.21000		324.00000 
 43692.65567		 951.14271			42741.51297		223.55400		875.00000 
 43692.65567		 305.27265			43387.38302		71.21000		324.00000 
 43692.65567		 951.14271			42741.51297		223.55400		875.00000 
 43692.65567		 305.27265			43387.38302		71.21000		324.00000 
 43692.65567		 951.14271			42741.51297		223.55400		875.00000 
 43692.65567		 305.27265			43387.38302		71.21000		324.00000 
 43692.65567		 951.14271			42741.51297		223.55400		875.00000 
 43692.65567		 305.27265			43387.38302		71.21000		324.00000 
 43692.65567		 951.14271			42741.51297		223.55400		875.00000 
 43692.65567		 305.27265			43387.38302		71.21000		324.00000 
 43692.65567		 951.14271			42741.51297		223.55400		875.00000 
 43692.65567		 305.27265			43387.38302		71.21000		324.00000 
 43692.65567		 951.14271			42741.51297		223.55400		875.00000 
 43692.65567		 305.27265			43387.38302		71.21000		324.00000 
 43692.65567		 951.14271			42741.51297		223.55400		875.00000 
 43692.65567		 305.27265			43387.38302		71.21000		324.00000 
 43692.65567		 951.14271			42741.51297		223.55400		875.00000 
 43692.65567		 305.27265			43387.38302		71.21000		324.00000 
 43692.65567		 951.14271			42741.51297		223.55400		875.00000 
 43692.65567		 305.27265			43387.38302		71.21000		324.00000 
 43692.65567		 951.14271			42741.51297		223.55400		875.00000 
 43692.65567		 305.27265			43387.38302		71.21000		324.00000 
 43692.65567		 951.14271			42741.51297		223.55400		875.00000 
 43692.65567		 305.27265			43387.38302		71.21000		324.00000 
 43692.65567		 951.14271			42741.51297		223.55400		875.00000 
 43692.65567		 305.27265			43387.38302		71.21000		324.00000 
 43692.65567		 951.14271			42741.51297		223.55400		875.00000 
 43692.65567		 305.27265			43387.38302		71.21000		324.00000 
 43692.65567		 951.14271			42741.51297		223.55400		875.00000 
 43692.65567		 305.27265			43387.38302		71.21000		324.00000 
 43692.65567		 951.14271			42741.51297		223.55400		875.00000 
 43692.65567		 305.27265			43387.38302		71.21000		324.00000 
 43692.65567		 951.14271			42741.51297		223.55400		875.00000 
 43692.65567		 305.27265			43387.38302		71.21000		324.00000 
 43692.65567		 951.14271			42741.51297		223.55400		875.00000 
 43692.65567		 305.27265			43387.38302		71.21000		324.00000 
 43692.65567		 951.14271			42741.51297		224.15200		875.00000 
 43692.65567		 305.27265			43387.38302		71.21000		324.00000 
 43692.65567		 951.14271			42741.51297		224.15200		875.00000 
 43692.65567		 305.27265			43387.38302		71.21000		324.00000 
 43692.65567		 951.14271			42741.51297		224.15200		875.00000 
 43692.65567		 305.27265			43387.38302		71.21000		324.00000 
 43692.65567		 951.14271			42741.51297		224.15200		875.00000 
 43692.65567		 305.27265			43387.38302		71.21000		324.00000 
 43692.65567		 951.14271			42741.51297		224.15200		875.00000 
 43692.65567		 305.27265			43387.38302		71.21000		324.00000 
 43692.65567		 951.14271			42741.51297		224.15200		875.00000 
 43692.65567		 305.27265			43387.38302		71.21000		324.00000 
 43692.65567		 951.14271			42741.51297		224.15200		875.00000 
 43692.65567		 305.27265			43387.38302		71.21000		324.00000 
 43692.65567		 951.14271			42741.51297		224.15200		875.00000 
 43692.65567		 305.27265			43387.38302		71.21000		324.00000 
 43692.65567		 951.14271			42741.51297		224.15200		875.00000 
 43692.65567		 305.27265			43387.38302		71.21000		324.00000 
 43692.65567		 951.14271			42741.51297		224.15200		875.00000 
 43692.65567		 305.27265			43387.38302		71.21000		324.00000 
 43692.65567		 951.14271			42741.51297		224.15200		875.00000 
 43692.65567		 305.27265			43387.38302		71.21000		324.00000 
 43692.65567		 951.14271			42741.51297		224.15200		875.00000 
 43692.65567		 305.27265			43387.38302		71.21000		324.00000 
 43692.65567		 951.14271			42741.51297		224.15200		875.00000 
 43692.65567		 305.27265			43387.38302		71.21000		324.00000 
 43692.65567		 951.14271			42741.51297		224.15200		875.00000 
 43692.65567		 305.27265			43387.38302		71.21000		324.00000 
 43692.65567		 951.14271			42741.51297		224.15200		875.00000 
 43692.65567		 305.27265			43387.38302		71.21000		324.00000 
 43692.65567		 951.14271			42741.51297		224.15200		875.00000 
 43692.65567		 305.27265			43387.38302		71.21000		324.00000 
 43692.65567		 951.14271			42741.51297		224.15200		875.00000 
 43692.65567		 305.27265			43387.38302		71.21000		324.00000 
 43692.65567		 951.14271			42741.51297		224.15200		875.00000 
 43692.65567		 305.27265			43387.38302		71.21000		324.00000 
 43692.65567		 951.14271			42741.51297		224.15200		875.00000 
 43692.65567		 305.27265			43387.38302		71.21000		324.00000 
 43692.65567		 951.14271			42741.51297		224.15200		875.00000 
 43692.65567		 305.27265			43387.38302		71.21000		324.00000 
 43692.65567		 951.14271			42741.51297		224.15200		875.00000 
 43692.65567		 305.27265			43387.38302		71.21000		324.00000 
 43692.65567		 951.14271			42741.51297		224.15200		875.00000 
 43692.65567		 305.27265			43387.38302		71.21000		324.00000 
 43692.65567		 951.14271			42741.51297		224.15200		875.00000 
 43692.65567		 305.27265			43387.38302		71.21000		324.00000 
 43692.65567		 951.14271			42741.51297		224.15200		875.00000 
 43692.65567		 305.27265			43387.38302		71.21000		324.00000 
 43692.65567		 951.14271			42741.51297		224.15200		875.00000 
 43692.65567		 305.27265			43387.38302		71.21000		324.00000 
 43692.65567		 951.14271			42741.51297		224.15200		875.00000 
 43692.65567		 305.27265			43387.38302		71.21000		324.00000 
 43692.65567		 951.14271			42741.51297		224.15200		875.00000 
 43692.65567		 305.27265			43387.38302		71.21000		324.00000 
 43692.65567		 951.14271			42741.51297		224.15200		875.00000 
 43692.65567		 305.27265			43387.38302		71.21000		324.00000 
 43692.65567		 951.14271			42741.51297		224.15200		875.00000 
 43692.65567		 305.27265			43387.38302		71.21000		324.00000 
 43692.65567		 951.14271			42741.51297		224.15200		875.00000 
 43692.65567		 305.27265			43387.38302		71.21000		324.00000 
 43692.65567		 951.14271			42741.51297		224.15200		875.00000 
 43692.65567		 305.27265			43387.38302		71.21000		324.00000 
 43692.65567		 951.14271			42741.51297		224.15200		875.00000 
 43692.65567		 305.27265			43387.38302		71.21000		324.00000 
 43692.65567		 951.14271			42741.51297		224.15200		875.00000 
 43692.65567		 305.27265			43387.38302		71.21000		324.00000 
 43692.65567		 951.14271			42741.51297		224.15200		875.00000 
 43692.65567		 305.27265			43387.38302		71.21000		324.00000 
 43692.65567		 951.14271			42741.51297		224.15200		875.00000 
 43692.65567		 305.27265			43387.38302		71.21000		324.00000 
 43692.65567		 951.14271			42741.51297		224.15200		875.00000 
 43692.65567		 305.27265			43387.38302		71.21000		324.00000 
 43692.65567		 951.14271			42741.51297		224.15200		875.00000 
 43692.65567		 305.27265			43387.38302		71.21000		324.00000 
 43692.65567		 951.14271			42741.51297		224.15200		875.00000 
 43692.65567		 305.27265			43387.38302		71.21000		324.00000 
 43692.65567		 951.14271			42741.51297		224.15200		875.00000 
 43692.65567		 305.27265			43387.38302		71.21000		324.00000 
 43692.65567		 951.14271			42741.51297		224.15200		875.00000 
 43692.65567		 305.27265			43387.38302		71.21000		324.00000 
 43692.65567		 951.14271			42741.51297		224.15200		875.00000 
 43692.65567		 305.27265			43387.38302		71.21000		324.00000 
 43692.65567		 951.14271			42741.51297		224.15200		875.00000 
 43692.65567		 305.27265			43387.38302		71.21000		324.00000 
 43692.65567		 951.14271			42741.51297		224.15200		875.00000 
 43692.65567		 305.27265			43387.38302		71.21000		324.00000 
 43692.65567		 951.14271			42741.51297		224.15200		875.00000 
 43692.65567		 305.27265			43387.38302		71.21000		324.00000 
 43692.65567		 951.14271			42741.51297		224.15200		875.00000 
 43692.65567		 305.27265			43387.38302		71.21000		324.00000 
 43692.65567		 951.14271			42741.51297		224.15200		875.00000 
 43692.65567		 305.27265			43387.38302		71.21000		324.00000 
 43692.65567		 951.14271			42741.51297		224.15200		875.00000 
 43692.65567		 305.27265			43387.38302		71.21000		324.00000 
 43692.65567		 951.14271			42741.51297		224.15200		875.00000 
 43692.65567		 305.27265			43387.38302		71.21000		324.00000 
 43692.65567		 951.14271			42741.51297		224.15200		875.00000 
 43692.65567		 305.27265			43387.38302		71.21000		324.00000 
 43692.65567		 951.14271			42741.51297		224.15200		875.00000 
 43692.65567		 305.27265			43387.38302		71.21000		324.00000 
 43692.65567		 951.14271			42741.51297		224.15200		875.00000 
 43692.65567		 305.27265			43387.38302		71.21000		324.00000 
 43692.65567		 951.14271			42741.51297		224.15200		875.00000 
 43692.65567		 305.27265			43387.38302		71.21000		324.00000 
 43692.65567		 951.14271			42741.51297		224.15200		875.00000 
 43692.65567		 305.27265			43387.38302		71.21000		324.00000 
 43692.65567		 951.14271			42741.51297		224.15200		875.00000 
 43692.65567		 305.27265			43387.38302		71.21000		324.00000 
 43692.65567		 951.14271			42741.51297		224.15200		875.00000 
 43692.65567		 305.27265			43387.38302		71.21000		324.00000 
 43692.65567		 951.14271			42741.51297		224.15200		875.00000 
 43692.65567		 305.27265			43387.38302		71.21000		324.00000 
 43692.65567		 951.14271			42741.51297		224.15200		875.00000 
 43692.65567		 305.27265			43387.38302		71.21000		324.00000 
 43692.65567		 951.14271			42741.51297		224.15200		875.00000 
 43692.65567		 305.27265			43387.38302		71.21000		324.00000 
 43692.65567		 951.14271			42741.51297		224.15200		875.00000 
 43692.65567		 305.27265			43387.38302		71.21000		324.00000 
 43692.65567		 951.14271			42741.51297		224.15200		875.00000 
 43692.65567		 305.27265			43387.38302		71.21000		324.00000 
 43692.65567		 951.14271			42741.51297		224.15200		875.00000 
 43692.65567		 305.27265			43387.38302		71.21000		324.00000 
 43692.65567		 951.14271			42741.51297		224.15200		875.00000 
 43692.65567		 305.27265			43387.38302		71.21000		324.00000 
 43692.65567		 951.14271			42741.51297		224.15200		875.00000 
 43692.65567		 305.27265			43387.38302		71.21000		324.00000 
 43692.65567		 951.14271			42741.51297		224.15200		875.00000 
 43692.65567		 305.27265			43387.38302		71.21000		324.00000 
 43692.65567		 951.14271			42741.51297		224.15200		875.00000 
 43692.65567		 305.27265			43387.38302		71.21000		324.00000 
 43692.65567		 951.14271			42741.51297		223.62400		875.00000 
 43692.65567		 305.27265			43387.38302		71.21000		324.00000 
 43692.65567		 951.14271			42741.51297		223.62400		875.00000 
 43692.65567		 305.27265			43387.38302		71.21000		324.00000 
 43692.65567		 951.14271			42741.51297		223.62400		875.00000 
 43692.65567		 305.27265			43387.38302		71.21000		324.00000 
 43692.65567		 951.14271			42741.51297		223.62400		875.00000 
 43692.65567		 305.27265			43387.38302		71.21000		324.00000 
 43692.65567		 951.14271			42741.51297		223.62400		875.00000 
 43692.65567		 305.27265			43387.38302		71.21000		324.00000 
 43692.65567		 951.14271			42741.51297		223.62400		875.00000 
 43692.65567		 305.27265			43387.38302		71.21000		324.00000 
 43692.65567		 951.14271			42741.51297		223.62400		875.00000 
 43692.65567		 305.27265			43387.38302		71.21000		324.00000 
 43692.65567		 951.14271			42741.51297		223.62400		875.00000 
 43692.65567		 305.27265			43387.38302		71.21000		324.00000 
 43692.65567		 951.14271			42741.51297		223.62400		875.00000 
 43692.65567		 305.27265			43387.38302		71.21000		324.00000 
 43692.65567		 951.14271			42741.51297		223.62400		875.00000 
 43692.65567		 305.27265			43387.38302		71.21000		324.00000 
 43692.65567		 951.14271			42741.51297		223.62400		875.00000 
 43692.65567		 305.27265			43387.38302		71.21000		324.00000 
 43692.65567		 951.14271			42741.51297		223.62400		875.00000 
 43692.65567		 305.27265			43387.38302		71.21000		324.00000 
 43692.65567		 951.14271			42741.51297		223.62400		875.00000 
 43692.65567		 305.27265			43387.38302		71.21000		324.00000 
 43692.65567		 951.14271			42741.51297		223.62400		875.00000 
 43692.65567		 305.27265			43387.38302		71.21000		324.00000 
 43692.65567		 951.14271			42741.51297		223.62400		875.00000 
 43692.65567		 305.27265			43387.38302		71.21000		324.00000 
 43692.65567		 951.14271			42741.51297		223.62400		875.00000 
 43692.65567		 305.27265			43387.38302		71.21000		324.00000 
 43692.65567		 951.14271			42741.51297		223.62400		875.00000 
 43692.65567		 305.27265			43387.38302		71.21000		324.00000 
 43692.65567		 951.14271			42741.51297		223.62400		875.00000 
 43692.65567		 305.27265			43387.38302		71.21000		324.00000 
 43692.65567		 951.14271			42741.51297		223.62400		875.00000 
 43692.65567		 305.27265			43387.38302		71.21000		324.00000 
 43692.65567		 951.14271			42741.51297		223.62400		875.00000 
 43692.65567		 305.27265			43387.38302		71.21000		324.00000 
 43692.65567		 951.14271			42741.51297		223.62400		875.00000 
 43692.65567		 305.27265			43387.38302		71.21000		324.00000 
 43692.65567		 951.14271			42741.51297		223.62400		875.00000 
 43692.65567		 305.27265			43387.38302		71.21000		324.00000 
 43692.65567		 951.14271			42741.51297		223.62400		875.00000 
 43692.65567		 305.27265			43387.38302		71.21000		324.00000 
 43692.65567		 951.14271			42741.51297		223.62400		875.00000 
 43692.65567		 305.27265			43387.38302		71.21000		324.00000 
 43692.65567		 951.14271			42741.51297		223.62400		875.00000 
 43692.65567		 305.27265			43387.38302		71.21000		324.00000 
 43692.65567		 951.14271			42741.51297		223.62400		875.00000 
 43692.65567		 305.27265			43387.38302		71.21000		324.00000 
 43692.65567		 951.14271			42741.51297		223.62400		875.00000 
 43692.65567		 305.27265			43387.38302		71.21000		324.00000 
 43692.65567		 951.14271			42741.51297		223.62400		875.00000 
 43692.65567		 305.27265			43387.38302		71.21000		324.00000 
 43692.65567		 951.14271			42741.51297		223.62400		875.00000 
 43692.65567		 305.27265			43387.38302		71.21000		324.00000 
 43692.65567		 951.14271			42741.51297		223.62400		875.00000 
 43692.65567		 305.27265			43387.38302		71.21000		324.00000 
 43692.65567		 951.14271			42741.51297		223.62400		875.00000 
 43692.65567		 305.27265			43387.38302		71.21000		324.00000 
 43692.65567		 951.14271			42741.51297		223.62400		875.00000 
 43692.65567		 305.27265			43387.38302		71.21000		324.00000 
 43692.65567		 951.14271			42741.51297		223.62400		875.00000 
 43692.65567		 305.27265			43387.38302		71.21000		324.00000 
 43692.65567		 951.14271			42741.51297		223.62400		875.00000 
 43692.65567		 305.27265			43387.38302		71.21000		324.00000 
 43692.65567		 951.14271			42741.51297		223.62400		875.00000 
 43692.65567		 305.27265			43387.38302		71.21000		324.00000 
 43692.65567		 951.14271			42741.51297		223.62400		875.00000 
 43692.65567		 305.27265			43387.38302		71.21000		324.00000 
 43692.65567		 951.14271			42741.51297		223.62400		875.00000 
 43692.65567		 305.27265			43387.38302		71.21000		324.00000 
 43692.65567		 951.14271			42741.51297		223.62400		875.00000 
 43692.65567		 305.27265			43387.38302		71.21000		324.00000 
 43692.65567		 951.14271			42741.51297		223.62400		875.00000 
 43692.65567		 305.27265			43387.38302		71.21000		324.00000 
 43692.65567		 951.14271			42741.51297		223.62400		875.00000 
 43692.65567		 305.27265			43387.38302		71.21000		324.00000 
 43692.65567		 951.14271			42741.51297		223.62400		875.00000 
 43692.65567		 305.27265			43387.38302		71.21000		324.00000 
 43692.65567		 951.14271			42741.51297		223.62400		875.00000 
 43692.65567		 305.27265			43387.38302		71.21000		324.00000 
 43692.65567		 951.14271			42741.51297		223.62400		875.00000 
 43692.65567		 305.27265			43387.38302		71.21000		324.00000 
 43692.65567		 951.14271			42741.51297		223.62400		875.00000 
 43692.65567		 305.27265			43387.38302		71.21000		324.00000 
 43692.65567		 951.14271			42741.51297		223.62400		875.00000 
 43692.65567		 305.27265			43387.38302		71.21000		324.00000 
 43692.65567		 951.14271			42741.51297		223.62400		875.00000 
 43692.65567		 305.27265			43387.38302		71.21000		324.00000 
 43692.65567		 951.14271			42741.51297		223.62400		875.00000 
 43692.65567		 305.27265			43387.38302		71.21000		324.00000 
 43692.65567		 951.14271			42741.51297		223.62400		875.00000 
 43692.65567		 305.27265			43387.38302		71.21000		324.00000 
 43692.65567		 951.14271			42741.51297		223.62400		875.00000 
 43692.65567		 305.27265			43387.38302		71.21000		324.00000 
 43692.65567		 951.14271			42741.51297		223.62400		875.00000 
 43692.65567		 305.27265			43387.38302		71.21000		324.00000 
 43692.65567		 951.14271			42741.51297		223.62400		875.00000 
 43692.65567		 305.27265			43387.38302		71.21000		324.00000 
 43692.65567		 951.14271			42741.51297		223.62400		875.00000 
 43692.65567		 305.27265			43387.38302		71.21000		324.00000 
 43692.65567		 951.14271			42741.51297		223.62400		875.00000 
 43692.65567		 305.27265			43387.38302		71.21000		324.00000 
 43692.65567		 951.14271			42741.51297		223.62400		875.00000 
 43692.65567		 305.27265			43387.38302		71.21000		324.00000 
 43692.65567		 951.14271			42741.51297		223.62400		875.00000 
 43692.65567		 305.27265			43387.38302		71.21000		324.00000 
 43692.65567		 951.14271			42741.51297		223.62400		875.00000 
 43692.65567		 305.27265			43387.38302		71.21000		324.00000 
 43692.65567		 951.14271			42741.51297		223.62400		875.00000 
 43692.65567		 305.27265			43387.38302		71.21000		324.00000 
 43692.65567		 951.14271			42741.51297		223.62400		875.00000 
 43692.65567		 305.27265			43387.38302		71.21000		324.00000 
 43692.65567		 951.14271			42741.51297		223.62400		875.00000 
 43692.65567		 305.27265			43387.38302		71.21000		324.00000 
 43692.65567		 951.14271			42741.51297		223.62400		875.00000 
 43692.65567		 305.27265			43387.38302		71.21000		324.00000 
 43692.65567		 951.14271			42741.51297		223.62400		875.00000 
 43692.65567		 305.27265			43387.38302		71.21000		324.00000 
 43692.65567		 951.14271			42741.51297		223.62400		875.00000 
 43692.65567		 305.27265			43387.38302		71.21000		324.00000 
 43692.65567		 951.14271			42741.51297		223.62400		875.00000 
 43692.65567		 305.27265			43387.38302		71.21000		324.00000 
 43692.65567		 951.14271			42741.51297		223.62400		875.00000 
 43692.65567		 305.27265			43387.38302		71.21000		324.00000 
 43692.65567		 951.14271			42741.51297		223.62400		875.00000 
 43692.65567		 305.27265			43387.38302		71.21000		324.00000 
 43692.65567		 951.14271			42741.51297		224.15200		875.00000 
 43692.65567		 305.27265			43387.38302		71.21000		324.00000 
 43692.65567		 951.14271			42741.51297		224.15200		875.00000 
 43692.65567		 305.27265			43387.38302		71.21000		324.00000 
 43692.65567		 951.14271			42741.51297		224.15200		875.00000 
 43692.65567		 305.27265			43387.38302		71.21000		324.00000 
 43692.65567		 951.14271			42741.51297		224.15200		875.00000 
 43692.65567		 305.27265			43387.38302		71.21000		324.00000 
 43692.65567		 951.14271			42741.51297		224.15200		875.00000 
 43692.65567		 305.27265			43387.38302		71.21000		324.00000 
 43692.65567		 951.14271			42741.51297		224.15200		875.00000 
 43692.65567		 305.27265			43387.38302		71.21000		324.00000 
 43692.65567		 951.14271			42741.51297		224.15200		875.00000 
 43692.65567		 305.27265			43387.38302		71.21000		324.00000 
 43692.65567		 951.14271			42741.51297		224.15200		875.00000 
 43692.65567		 305.27265			43387.38302		71.21000		324.00000 
 43692.65567		 951.14271			42741.51297		224.15200		875.00000 
 43692.65567		 305.27265			43387.38302		71.21000		324.00000 
 43692.65567		 951.14271			42741.51297		224.15200		875.00000 
 43692.65567		 305.27265			43387.38302		71.21000		324.00000 
 43692.65567		 951.14271			42741.51297		224.15200		875.00000 
 43692.65567		 305.27265			43387.38302		71.21000		324.00000 
 43692.65567		 951.14271			42741.51297		224.15200		875.00000 
 43692.65567		 305.27265			43387.38302		71.21000		324.00000 
 43692.65567		 951.14271			42741.51297		224.15200		875.00000 
 43692.65567		 305.27265			43387.38302		71.21000		324.00000 
 43692.65567		 951.14271			42741.51297		224.15200		875.00000 
 43692.65567		 305.27265			43387.38302		71.21000		324.00000 
 43692.65567		 951.14271			42741.51297		224.15200		875.00000 
 43692.65567		 305.27265			43387.38302		71.21000		324.00000 
 43692.65567		 951.14271			42741.51297		224.15200		875.00000 
 43692.65567		 305.27265			43387.38302		71.21000		324.00000 
 43692.65567		 951.14271			42741.51297		224.15200		875.00000 
 43692.65567		 305.27265			43387.38302		71.21000		324.00000 
 43692.65567		 951.14271			42741.51297		224.15200		875.00000 
 43692.65567		 305.27265			43387.38302		71.21000		324.00000 
 43692.65567		 951.14271			42741.51297		224.15200		875.00000 
 43692.65567		 305.27265			43387.38302		71.21000		324.00000 
 43692.65567		 951.14271			42741.51297		224.15200		875.00000 
 43692.65567		 305.27265			43387.38302		71.21000		324.00000 
 43692.65567		 951.14271			42741.51297		224.15200		875.00000 
 43692.65567		 305.27265			43387.38302		71.21000		324.00000 
 43692.65567		 951.14271			42741.51297		224.15200		875.00000 
 43692.65567		 305.27265			43387.38302		71.21000		324.00000 
 43692.65567		 951.14271			42741.51297		224.15200		875.00000 
 43692.65567		 305.27265			43387.38302		71.21000		324.00000 
 43692.65567		 951.14271			42741.51297		224.15200		875.00000 
 43692.65567		 305.27265			43387.38302		71.21000		324.00000 
 43692.65567		 951.14271			42741.51297		224.15200		875.00000 
 43692.65567		 305.27265			43387.38302		71.21000		324.00000 
 43692.65567		 951.14271			42741.51297		224.15200		875.00000 
 43692.65567		 305.27265			43387.38302		71.21000		324.00000 
 43692.65567		 951.14271			42741.51297		224.15200		875.00000 
 43692.65567		 305.27265			43387.38302		71.21000		324.00000 
 43692.65567		 951.14271			42741.51297		224.15200		875.00000 
 43692.65567		 305.27265			43387.38302		71.21000		324.00000 
 43692.65567		 951.14271			42741.51297		224.15200		875.00000 
 43692.65567		 305.27265			43387.38302		71.21000		324.00000 
 43692.65567		 951.14271			42741.51297		224.15200		875.00000 
 43692.65567		 305.27265			43387.38302		71.21000		324.00000 
 43692.65567		 951.14271			42741.51297		224.15200		875.00000 
 43692.65567		 305.27265			43387.38302		71.21000		324.00000 
 43692.65567		 951.14271			42741.51297		224.15200		875.00000 
 43692.65567		 305.27265			43387.38302		71.21000		324.00000 
 43692.65567		 951.14271			42741.51297		224.15200		875.00000 
 43692.65567		 305.27265			43387.38302		71.21000		324.00000 
 43692.65567		 951.14271			42741.51297		224.15200		875.00000 
 43692.65567		 305.27265			43387.38302		71.21000		324.00000 
 43692.65567		 951.14271			42741.51297		224.15200		875.00000 
 43692.65567		 305.27265			43387.38302		71.21000		324.00000 
 43692.65567		 951.14271			42741.51297		224.15200		875.00000 
 43692.65567		 305.27265			43387.38302		71.21000		324.00000 
 43692.65567		 951.14271			42741.51297		224.15200		875.00000 
 43692.65567		 305.27265			43387.38302		71.21000		324.00000 
 43692.65567		 951.14271			42741.51297		224.15200		875.00000 
 43692.65567		 305.27265			43387.38302		71.21000		324.00000 
 43692.65567		 951.14271			42741.51297		224.15200		875.00000 
 43692.65567		 305.27265			43387.38302		71.21000		324.00000 
 43692.65567		 951.14271			42741.51297		224.15200		875.00000 
 43692.65567		 305.27265			43387.38302		71.21000		324.00000 
 43692.65567		 951.14271			42741.51297		224.15200		875.00000 
 43692.65567		 305.27265			43387.38302		71.21000		324.00000 
 43692.65567		 951.14271			42741.51297		224.15200		875.00000 
 43692.65567		 305.27265			43387.38302		71.21000		324.00000 
 43692.65567		 951.14271			42741.51297		224.15200		875.00000 
 43692.65567		 305.27265			43387.38302		71.21000		324.00000 
 43692.65567		 951.14271			42741.51297		224.15200		875.00000 
 43692.65567		 305.27265			43387.38302		71.21000		324.00000 
 43692.65567		 951.14271			42741.51297		224.15200		875.00000 
 43692.65567		 305.27265			43387.38302		71.21000		324.00000 
 43692.65567		 951.14271			42741.51297		224.15200		875.00000 
 43692.65567		 305.27265			43387.38302		71.21000		324.00000 
 43692.65567		 951.14271			42741.51297		224.15200		875.00000 
 43692.65567		 305.27265			43387.38302		71.21000		324.00000 
 43692.65567		 951.14271			42741.51297		224.15200		875.00000 
 43692.65567		 305.27265			43387.38302		71.21000		324.00000 
 43692.65567		 951.14271			42741.51297		224.15200		875.00000 
 43692.65567		 305.27265			43387.38302		71.21000		324.00000 
 43692.65567		 951.14271			42741.51297		224.15200		875.00000 
 43692.65567		 305.27265			43387.38302		71.21000		324.00000 
 43692.65567		 951.14271			42741.51297		224.15200		875.00000 
 43692.65567		 305.27265			43387.38302		71.21000		324.00000 
 43692.65567		 951.14271			42741.51297		224.15200		875.00000 
 43692.65567		 305.27265			43387.38302		71.21000		324.00000 
 43692.65567		 951.14271			42741.51297		224.15200		875.00000 
 43692.65567		 305.27265			43387.38302		71.21000		324.00000 
 43692.65567		 951.14271			42741.51297		224.15200		875.00000 
 43692.65567		 305.27265			43387.38302		71.21000		324.00000 
 43692.65567		 951.14271			42741.51297		224.15200		875.00000 
 43692.65567		 305.27265			43387.38302		71.21000		324.00000 
 43692.65567		 951.14271			42741.51297		224.15200		875.00000 
 43692.65567		 305.27265			43387.38302		71.21000		324.00000 
 43692.65567		 951.14271			42741.51297		224.15200		875.00000 
 43692.65567		 305.27265			43387.38302		71.21000		324.00000 
 43692.65567		 951.14271			42741.51297		224.15200		875.00000 
 43692.65567		 305.27265			43387.38302		71.21000		324.00000 
 43692.65567		 951.14271			42741.51297		224.15200		875.00000 
 43692.65567		 305.27265			43387.38302		71.21000		324.00000 
 43692.65567		 951.14271			42741.51297		224.22400		875.00000 
 43692.65567		 305.27265			43387.38302		71.21000		324.00000 
 43692.65567		 951.14271			42741.51297		224.22400		875.00000 
 43692.65567		 305.27265			43387.38302		71.21000		324.00000 
 43692.65567		 951.14271			42741.51297		224.22400		875.00000 
 43692.65567		 305.27265			43387.38302		71.21000		324.00000 
 43692.65567		 951.14271			42741.51297		224.22400		875.00000 
 43692.65567		 305.27265			43387.38302		71.21000		324.00000 
 43692.65567		 951.14271			42741.51297		224.22400		875.00000 
 43692.65567		 305.27265			43387.38302		71.21000		324.00000 
 43692.65567		 951.14271			42741.51297		224.22400		875.00000 
 43692.65567		 305.27265			43387.38302		71.21000		324.00000 
 43692.65567		 951.14271			42741.51297		224.22400		875.00000 
 43692.65567		 305.27265			43387.38302		71.21000		324.00000 
 43692.65567		 951.14271			42741.51297		224.22400		875.00000 
 43692.65567		 305.27265			43387.38302		71.21000		324.00000 
 43692.65567		 951.14271			42741.51297		224.22400		875.00000 
 43692.65567		 305.27265			43387.38302		71.21000		324.00000 
 43692.65567		 951.14271			42741.51297		224.22400		875.00000 
 43692.65567		 305.27265			43387.38302		71.21000		324.00000 
 43692.65567		 951.14271			42741.51297		224.22400		875.00000 
 43692.65567		 305.27265			43387.38302		71.21000		324.00000 
 43692.65567		 951.14271			42741.51297		224.22400		875.00000 
 43692.65567		 305.27265			43387.38302		71.21000		324.00000 
 43692.65567		 951.14271			42741.51297		224.22400		875.00000 
 43692.65567		 305.27265			43387.38302		71.21000		324.00000 
 43692.65567		 951.14271			42741.51297		224.22400		875.00000 
 43692.65567		 305.27265			43387.38302		71.21000		324.00000 
 43692.65567		 951.14271			42741.51297		224.22400		875.00000 
 43692.65567		 305.27265			43387.38302		71.21000		324.00000 
 43692.65567		 951.14271			42741.51297		224.22400		875.00000 
 43692.65567		 305.27265			43387.38302		71.21000		324.00000 
 43692.65567		 951.14271			42741.51297		224.22400		875.00000 
 43692.65567		 305.27265			43387.38302		71.21000		324.00000 
 43692.65567		 951.14271			42741.51297		224.22400		875.00000 
 43692.65567		 305.27265			43387.38302		71.21000		324.00000 
 43692.65567		 951.14271			42741.51297		224.22400		875.00000 
 43692.65567		 305.27265			43387.38302		71.21000		324.00000 
 43692.65567		 951.14271			42741.51297		224.22400		875.00000 
 43692.65567		 305.27265			43387.38302		71.21000		324.00000 
 43692.65567		 951.14271			42741.51297		224.22400		875.00000 
 43692.65567		 305.27265			43387.38302		71.21000		324.00000 
 43692.65567		 951.14271			42741.51297		224.22400		875.00000 
 43692.65567		 305.27265			43387.38302		71.21000		324.00000 
 43692.65567		 951.14271			42741.51297		224.22400		875.00000 
 43692.65567		 305.27265			43387.38302		71.21000		324.00000 
 43692.65567		 951.14271			42741.51297		224.22400		875.00000 
 43692.65567		 305.27265			43387.38302		71.21000		324.00000 
 43692.65567		 951.14271			42741.51297		224.22400		875.00000 
 43692.65567		 305.27265			43387.38302		71.21000		324.00000 
 43692.65567		 951.14271			42741.51297		224.22400		875.00000 
 43692.65567		 305.27265			43387.38302		71.21000		324.00000 
 43692.65567		 951.14271			42741.51297		224.22400		875.00000 
 43692.65567		 305.27265			43387.38302		71.21000		324.00000 
 43692.65567		 951.14271			42741.51297		224.22400		875.00000 
 43692.65567		 305.27265			43387.38302		71.21000		324.00000 
 43692.65567		 951.14271			42741.51297		224.22400		875.00000 
 43692.65567		 305.27265			43387.38302		71.21000		324.00000 
 43692.65567		 951.14271			42741.51297		224.22400		875.00000 
 43692.65567		 305.27265			43387.38302		71.21000		324.00000 
 43692.65567		 951.14271			42741.51297		224.22400		875.00000 
 43692.65567		 305.27265			43387.38302		71.21000		324.00000 
 43692.65567		 951.14271			42741.51297		224.22400		875.00000 
 43692.65567		 305.27265			43387.38302		71.21000		324.00000 
 43692.65567		 951.14271			42741.51297		224.22400		875.00000 
 43692.65567		 305.27265			43387.38302		71.21000		324.00000 
 43692.65567		 951.14271			42741.51297		224.22400		875.00000 
 43692.65567		 305.27265			43387.38302		71.21000		324.00000 
 43692.65567		 951.14271			42741.51297		224.22400		875.00000 
 43692.65567		 305.27265			43387.38302		71.21000		324.00000 
 43692.65567		 951.14271			42741.51297		224.22400		875.00000 
 43692.65567		 305.27265			43387.38302		71.21000		324.00000 
 43692.65567		 951.14271			42741.51297		224.22400		875.00000 
 43692.65567		 305.27265			43387.38302		71.21000		324.00000 
 43692.65567		 951.14271			42741.51297		224.22400		875.00000 
 43692.65567		 305.27265			43387.38302		71.21000		324.00000 
 43692.65567		 951.14271			42741.51297		224.22400		875.00000 
 43692.65567		 305.27265			43387.38302		71.21000		324.00000 
 43692.65567		 951.14271			42741.51297		224.22400		875.00000 
 43692.65567		 305.27265			43387.38302		71.21000		324.00000 
 43692.65567		 951.14271			42741.51297		224.22400		875.00000 
 43692.65567		 305.27265			43387.38302		71.21000		324.00000 
 43692.65567		 951.14271			42741.51297		224.22400		875.00000 
 43692.65567		 305.27265			43387.38302		71.21000		324.00000 
 43692.65567		 951.14271			42741.51297		224.22400		875.00000 
 43692.65567		 305.27265			43387.38302		71.21000		324.00000 
 43692.65567		 951.14271			42741.51297		224.22400		875.00000 
 43692.65567		 305.27265			43387.38302		71.21000		324.00000 
 43692.65567		 951.14271			42741.51297		224.22400		875.00000 
 43692.65567		 305.27265			43387.38302		71.21000		324.00000 
 43692.65567		 951.14271			42741.51297		224.22400		875.00000 
 43692.65567		 305.27265			43387.38302		71.21000		324.00000 
 43692.65567		 951.14271			42741.51297		224.22400		875.00000 
 43692.65567		 305.27265			43387.38302		71.21000		324.00000 
 43692.65567		 951.14271			42741.51297		224.22400		875.00000 
 43692.65567		 305.27265			43387.38302		71.21000		324.00000 
 43692.65567		 951.14271			42741.51297		224.22400		875.00000 
 43692.65567		 305.27265			43387.38302		71.21000		324.00000 
 43692.65567		 951.14271			42741.51297		224.22400		875.00000 
 43692.65567		 305.27265			43387.38302		71.21000		324.00000 
 43692.65567		 951.14271			42741.51297		224.22400		875.00000 
 43692.65567		 305.27265			43387.38302		71.21000		324.00000 
 43692.65567		 951.14271			42741.51297		224.22400		875.00000 
 43692.65567		 305.27265			43387.38302		71.21000		324.00000 
 43692.65567		 951.14271			42741.51297		224.22400		875.00000 
 43692.65567		 305.27265			43387.38302		71.21000		324.00000 
 43692.65567		 951.14271			42741.51297		224.22400		875.00000 
 43692.65567		 305.27265			43387.38302		71.21000		324.00000 
 43692.65567		 951.14271			42741.51297		224.22400		875.00000 
 43692.65567		 305.27265			43387.38302		71.21000		324.00000 
 43692.65567		 951.14271			42741.51297		224.22400		875.00000 
 43692.65567		 305.27265			43387.38302		71.21000		324.00000 
 43692.65567		 951.14271			42741.51297		224.22400		875.00000 
 43692.65567		 305.27265			43387.38302		71.21000		324.00000 
 43692.65567		 951.14271			42741.51297		224.22400		875.00000 
 43692.65567		 305.27265			43387.38302		71.21000		324.00000 
 43692.65567		 951.14271			42741.51297		224.22400		875.00000 
 43692.65567		 305.27265			43387.38302		71.21000		324.00000 
 43692.65567		 951.14271			42741.51297		224.22400		875.00000 
 43692.65567		 305.27265			43387.38302		71.21000		324.00000 
 43692.65567		 951.14271			42741.51297		224.22400		875.00000 
 43692.65567		 305.27265			43387.38302		71.21000		324.00000 
 43692.65567		 951.14271			42741.51297		224.22400		875.00000 
 43692.65567		 305.27265			43387.38302		71.21000		324.00000 
 43692.65567		 951.14271			42741.51297		224.22400		875.00000 
 43692.65567		 305.27265			43387.38302		71.21000		324.00000 
 43692.65567		 951.14271			42741.51297		224.75200		875.00000 
 43692.65567		 305.27265			43387.38302		71.21000		324.00000 
 43692.65567		 951.14271			42741.51297		224.75200		875.00000 
 43692.65567		 305.27265			43387.38302		71.21000		324.00000 
 43692.65567		 951.14271			42741.51297		224.75200		875.00000 
 43692.65567		 305.27265			43387.38302		71.21000		324.00000 
 43692.65567		 951.14271			42741.51297		224.75200		875.00000 
 43692.65567		 305.27265			43387.38302		71.21000		324.00000 
 43692.65567		 951.14271			42741.51297		224.75200		875.00000 
 43692.65567		 305.27265			43387.38302		71.21000		324.00000 
 43692.65567		 951.14271			42741.51297		224.75200		875.00000 
 43692.65567		 305.27265			43387.38302		71.21000		324.00000 
 43692.65567		 951.14271			42741.51297		224.75200		875.00000 
 43692.65567		 305.27265			43387.38302		71.21000		324.00000 
 43692.65567		 951.14271			42741.51297		224.75200		875.00000 
 43692.65567		 305.27265			43387.38302		71.21000		324.00000 
 43692.65567		 951.14271			42741.51297		224.75200		875.00000 
 43692.65567		 305.27265			43387.38302		71.21000		324.00000 
 43692.65567		 951.14271			42741.51297		224.75200		875.00000 
 43692.65567		 305.27265			43387.38302		71.21000		324.00000 
 43692.65567		 951.14271			42741.51297		224.75200		875.00000 
 43692.65567		 305.27265			43387.38302		71.21000		324.00000 
 43692.65567		 951.14271			42741.51297		224.75200		875.00000 
 43692.65567		 305.27265			43387.38302		71.21000		324.00000 
 43692.65567		 951.14271			42741.51297		224.75200		875.00000 
 43692.65567		 305.27265			43387.38302		71.21000		324.00000 
 43692.65567		 951.14271			42741.51297		224.75200		875.00000 
 43692.65567		 305.27265			43387.38302		71.21000		324.00000 
 43692.65567		 951.14271			42741.51297		224.75200		875.00000 
 43692.65567		 305.27265			43387.38302		71.21000		324.00000 
 43692.65567		 951.14271			42741.51297		224.75200		875.00000 
 43692.65567		 305.27265			43387.38302		71.21000		324.00000 
 43692.65567		 951.14271			42741.51297		224.75200		875.00000 
 43692.65567		 305.27265			43387.38302		71.21000		324.00000 
 43692.65567		 951.14271			42741.51297		224.75200		875.00000 
 43692.65567		 305.27265			43387.38302		71.21000		324.00000 
 43692.65567		 951.14271			42741.51297		224.75200		875.00000 
 43692.65567		 305.27265			43387.38302		71.21000		324.00000 
 43692.65567		 951.14271			42741.51297		224.75200		875.00000 
 43692.65567		 305.27265			43387.38302		71.21000		324.00000 
 43692.65567		 951.14271			42741.51297		224.75200		875.00000 
 43692.65567		 305.27265			43387.38302		71.21000		324.00000 
 43692.65567		 951.14271			42741.51297		224.75200		875.00000 
 43692.65567		 305.27265			43387.38302		71.21000		324.00000 
 43692.65567		 951.14271			42741.51297		224.75200		875.00000 
 43692.65567		 305.27265			43387.38302		71.21000		324.00000 
 43692.65567		 951.14271			42741.51297		224.75200		875.00000 
 43692.65567		 305.27265			43387.38302		71.21000		324.00000 
 43692.65567		 951.14271			42741.51297		224.75200		875.00000 
 43692.65567		 305.27265			43387.38302		71.21000		324.00000 
 43692.65567		 951.14271			42741.51297		224.75200		875.00000 
 43692.65567		 305.27265			43387.38302		71.21000		324.00000 
 43692.65567		 951.14271			42741.51297		224.75200		875.00000 
 43692.65567		 305.27265			43387.38302		71.21000		324.00000 
 43692.65567		 951.14271			42741.51297		224.75200		875.00000 
 43692.65567		 305.27265			43387.38302		71.21000		324.00000 
 43692.65567		 951.14271			42741.51297		224.75200		875.00000 
 43692.65567		 305.27265			43387.38302		71.21000		324.00000 
 43692.65567		 951.14271			42741.51297		224.75200		875.00000 
 43692.65567		 305.27265			43387.38302		71.21000		324.00000 
 43692.65567		 951.14271			42741.51297		224.75200		875.00000 
 43692.65567		 305.27265			43387.38302		71.21000		324.00000 
 43692.65567		 951.14271			42741.51297		224.75200		875.00000 
 43692.65567		 305.27265			43387.38302		71.21000		324.00000 
 43692.65567		 951.14271			42741.51297		224.75200		875.00000 
 43692.65567		 305.27265			43387.38302		71.21000		324.00000 
 43692.65567		 951.14271			42741.51297		224.75200		875.00000 
 43692.65567		 305.27265			43387.38302		71.21000		324.00000 
 43692.65567		 951.14271			42741.51297		224.75200		875.00000 
 43692.65567		 305.27265			43387.38302		71.21000		324.00000 
 43692.65567		 951.14271			42741.51297		224.75200		875.00000 
 43692.65567		 305.27265			43387.38302		71.21000		324.00000 
 43692.65567		 951.14271			42741.51297		224.75200		875.00000 
 43692.65567		 305.27265			43387.38302		71.21000		324.00000 
 43692.65567		 951.14271			42741.51297		224.75200		875.00000 
 43692.65567		 305.27265			43387.38302		71.21000		324.00000 
 43692.65567		 951.14271			42741.51297		224.75200		875.00000 
 43692.65567		 305.27265			43387.38302		71.21000		324.00000 
 43692.65567		 951.14271			42741.51297		224.75200		875.00000 
 43692.65567		 305.27265			43387.38302		71.21000		324.00000 
 43692.65567		 951.14271			42741.51297		224.75200		875.00000 
 43692.65567		 305.27265			43387.38302		71.21000		324.00000 
 43692.65567		 951.14271			42741.51297		224.75200		875.00000 
 43692.65567		 305.27265			43387.38302		71.21000		324.00000 
 43692.65567		 951.14271			42741.51297		224.75200		875.00000 
 43692.65567		 305.27265			43387.38302		71.21000		324.00000 
 43692.65567		 951.14271			42741.51297		224.75200		875.00000 
 43692.65567		 305.27265			43387.38302		71.21000		324.00000 
 43692.65567		 951.14271			42741.51297		224.75200		875.00000 
 43692.65567		 305.27265			43387.38302		71.21000		324.00000 
 43692.65567		 951.14271			42741.51297		224.75200		875.00000 
 43692.65567		 305.27265			43387.38302		71.21000		324.00000 
 43692.65567		 951.14271			42741.51297		224.75200		875.00000 
 43692.65567		 305.27265			43387.38302		71.21000		324.00000 
 43692.65567		 951.14271			42741.51297		224.75200		875.00000 
 43692.65567		 305.27265			43387.38302		71.21000		324.00000 
 43692.65567		 951.14271			42741.51297		224.75200		875.00000 
 43692.65567		 305.27265			43387.38302		71.21000		324.00000 
 43692.65567		 951.14271			42741.51297		224.75200		875.00000 
 43692.65567		 305.27265			43387.38302		71.21000		324.00000 
 43692.65567		 951.14271			42741.51297		224.75200		875.00000 
 43692.65567		 305.27265			43387.38302		71.21000		324.00000 
 43692.65567		 951.14271			42741.51297		224.75200		875.00000 
 43692.65567		 305.27265			43387.38302		71.21000		324.00000 
 43692.65567		 951.14271			42741.51297		224.75200		875.00000 
 43692.65567		 305.27265			43387.38302		71.21000		324.00000 
 43692.65567		 951.14271			42741.51297		224.75200		875.00000 
 43692.65567		 305.27265			43387.38302		71.21000		324.00000 
 43692.65567		 951.14271			42741.51297		224.75200		875.00000 
 43692.65567		 305.27265			43387.38302		71.21000		324.00000 
 43692.65567		 951.14271			42741.51297		224.75200		875.00000 
 43692.65567		 305.27265			43387.38302		71.21000		324.00000 
 43692.65567		 951.14271			42741.51297		224.75200		875.00000 
 43692.65567		 305.27265			43387.38302		71.21000		324.00000 
 43692.65567		 951.14271			42741.51297		224.75200		875.00000 
 43692.65567		 305.27265			43387.38302		71.21000		324.00000 
 43692.65567		 951.14271			42741.51297		224.75200		875.00000 
 43692.65567		 305.27265			43387.38302		71.21000		324.00000 
 43692.65567		 951.14271			42741.51297		224.75200		875.00000 
 43692.65567		 305.27265			43387.38302		71.21000		324.00000 
 43692.65567		 951.14271			42741.51297		224.75200		875.00000 
 43692.65567		 305.27265			43387.38302		71.21000		324.00000 
 43692.65567		 951.14271			42741.51297		224.75200		875.00000 
 43692.65567		 305.27265			43387.38302		71.21000		324.00000 
 43692.65567		 951.14271			42741.51297		224.75200		875.00000 
 43692.65567		 305.27265			43387.38302		71.21000		324.00000 
 43692.65567		 951.14271			42741.51297		224.75200		875.00000 
 43692.65567		 305.27265			43387.38302		71.21000		324.00000 
 43692.65567		 951.14271			42741.51297		224.75200		875.00000 
 43692.65567		 305.27265			43387.38302		71.21000		324.00000 
 43692.65567		 951.14271			42741.51297		224.75200		875.00000 
 43692.65567		 305.27265			43387.38302		71.21000		324.00000 
 43692.65567		 951.14271			42741.51297		224.75200		875.00000 
 43692.65567		 305.27265			43387.38302		71.21000		324.00000 
 43692.65567		 951.14271			42741.51297		224.22400		875.00000 
 43692.65567		 305.27265			43387.38302		71.21000		324.00000 
 43692.65567		 951.14271			42741.51297		224.22400		875.00000 
 43692.65567		 305.27265			43387.38302		71.21000		324.00000 
 43692.65567		 951.14271			42741.51297		224.22400		875.00000 
 43692.65567		 305.27265			43387.38302		71.21000		324.00000 
 43692.65567		 951.14271			42741.51297		224.22400		875.00000 
 43692.65567		 305.27265			43387.38302		71.21000		324.00000 
 43692.65567		 951.14271			42741.51297		224.22400		875.00000 
 43692.65567		 305.27265			43387.38302		71.21000		324.00000 
 43692.65567		 951.14271			42741.51297		224.22400		875.00000 
 43692.65567		 305.27265			43387.38302		71.21000		324.00000 
 43692.65567		 951.14271			42741.51297		224.22400		875.00000 
 43692.65567		 305.27265			43387.38302		71.21000		324.00000 
 43692.65567		 951.14271			42741.51297		224.22400		875.00000 
 43692.65567		 305.27265			43387.38302		71.21000		324.00000 
 43692.65567		 951.14271			42741.51297		224.22400		875.00000 
 43692.65567		 305.27265			43387.38302		71.21000		324.00000 
 43692.65567		 951.14271			42741.51297		224.22400		875.00000 
 43692.65567		 305.27265			43387.38302		71.21000		324.00000 
 43692.65567		 951.14271			42741.51297		224.22400		875.00000 
 43692.65567		 305.27265			43387.38302		71.21000		324.00000 
 43692.65567		 951.14271			42741.51297		224.22400		875.00000 
 43692.65567		 305.27265			43387.38302		71.21000		324.00000 
 43692.65567		 951.14271			42741.51297		224.22400		875.00000 
 43692.65567		 305.27265			43387.38302		71.21000		324.00000 
 43692.65567		 951.14271			42741.51297		224.22400		875.00000 
 43692.65567		 305.27265			43387.38302		71.21000		324.00000 
 43692.65567		 951.14271			42741.51297		224.22400		875.00000 
 43692.65567		 305.27265			43387.38302		71.21000		324.00000 
 43692.65567		 951.14271			42741.51297		224.22400		875.00000 
 43692.65567		 305.27265			43387.38302		71.21000		324.00000 
 43692.65567		 951.14271			42741.51297		224.22400		875.00000 
 43692.65567		 305.27265			43387.38302		71.21000		324.00000 
 43692.65567		 951.14271			42741.51297		224.22400		875.00000 
 43692.65567		 305.27265			43387.38302		71.21000		324.00000 
 43692.65567		 951.14271			42741.51297		224.22400		875.00000 
 43692.65567		 305.27265			43387.38302		71.21000		324.00000 
 43692.65567		 951.14271			42741.51297		224.22400		875.00000 
 43692.65567		 305.27265			43387.38302		71.21000		324.00000 
 43692.65567		 951.14271			42741.51297		224.22400		875.00000 
 43692.65567		 305.27265			43387.38302		71.21000		324.00000 
 43692.65567		 951.14271			42741.51297		224.22400		875.00000 
 43692.65567		 305.27265			43387.38302		71.21000		324.00000 
 43692.65567		 951.14271			42741.51297		224.22400		875.00000 
 43692.65567		 305.27265			43387.38302		71.21000		324.00000 
 43692.65567		 951.14271			42741.51297		224.22400		875.00000 
 43692.65567		 305.27265			43387.38302		71.21000		324.00000 
 43692.65567		 951.14271			42741.51297		224.22400		875.00000 
 43692.65567		 305.27265			43387.38302		71.21000		324.00000 
 43692.65567		 951.14271			42741.51297		224.22400		875.00000 
 43692.65567		 305.27265			43387.38302		71.21000		324.00000 
 43692.65567		 951.14271			42741.51297		224.22400		875.00000 
 43692.65567		 305.27265			43387.38302		71.21000		324.00000 
 43692.65567		 951.14271			42741.51297		224.22400		875.00000 
 43692.65567		 305.27265			43387.38302		71.21000		324.00000 
 43692.65567		 951.14271			42741.51297		224.22400		875.00000 
 43692.65567		 305.27265			43387.38302		71.21000		324.00000 
 43692.65567		 951.14271			42741.51297		224.22400		875.00000 
 43692.65567		 305.27265			43387.38302		71.21000		324.00000 
 43692.65567		 951.14271			42741.51297		224.22400		875.00000 
 43692.65567		 305.27265			43387.38302		71.21000		324.00000 
 43692.65567		 951.14271			42741.51297		224.22400		875.00000 
 43692.65567		 305.27265			43387.38302		71.21000		324.00000 
 43692.65567		 951.14271			42741.51297		224.22400		875.00000 
 43692.65567		 305.27265			43387.38302		71.21000		324.00000 
 43692.65567		 951.14271			42741.51297		224.22400		875.00000 
 43692.65567		 305.27265			43387.38302		71.21000		324.00000 
 43692.65567		 951.14271			42741.51297		224.22400		875.00000 
 43692.65567		 305.27265			43387.38302		71.21000		324.00000 
 43692.65567		 951.14271			42741.51297		224.22400		875.00000 
 43692.65567		 305.27265			43387.38302		71.21000		324.00000 
 43692.65567		 951.14271			42741.51297		224.22400		875.00000 
 43692.65567		 305.27265			43387.38302		71.21000		324.00000 
 43692.65567		 951.14271			42741.51297		224.22400		875.00000 
 43692.65567		 305.27265			43387.38302		71.21000		324.00000 
 43692.65567		 951.14271			42741.51297		224.22400		875.00000 
 43692.65567		 305.27265			43387.38302		71.21000		324.00000 
 43692.65567		 951.14271			42741.51297		224.22400		875.00000 
 43692.65567		 305.27265			43387.38302		71.21000		324.00000 
 43692.65567		 951.14271			42741.51297		224.22400		875.00000 
 43692.65567		 305.27265			43387.38302		71.21000		324.00000 
 43692.65567		 951.14271			42741.51297		224.22400		875.00000 
 43692.65567		 305.27265			43387.38302		71.21000		324.00000 
 43692.65567		 951.14271			42741.51297		224.22400		875.00000 
 43692.65567		 305.27265			43387.38302		71.21000		324.00000 
 43692.65567		 951.14271			42741.51297		224.22400		875.00000 
 43692.65567		 305.27265			43387.38302		71.21000		324.00000 
 43692.65567		 951.14271			42741.51297		224.22400		875.00000 
 43692.65567		 305.27265			43387.38302		71.21000		324.00000 
 43692.65567		 951.14271			42741.51297		224.22400		875.00000 
 43692.65567		 305.27265			43387.38302		71.21000		324.00000 
 43692.65567		 951.14271			42741.51297		224.22400		875.00000 
 43692.65567		 305.27265			43387.38302		71.21000		324.00000 
 43692.65567		 951.14271			42741.51297		224.22400		875.00000 
 43692.65567		 305.27265			43387.38302		71.21000		324.00000 
 43692.65567		 951.14271			42741.51297		224.22400		875.00000 
 43692.65567		 305.27265			43387.38302		71.21000		324.00000 
 43692.65567		 951.14271			42741.51297		224.22400		875.00000 
 43692.65567		 305.27265			43387.38302		71.21000		324.00000 
 43692.65567		 951.14271			42741.51297		224.22400		875.00000 
 43692.65567		 305.27265			43387.38302		71.21000		324.00000 
 43692.65567		 951.14271			42741.51297		224.22400		875.00000 
 43692.65567		 305.27265			43387.38302		71.21000		324.00000 
 43692.65567		 951.14271			42741.51297		224.22400		875.00000 
 43692.65567		 305.27265			43387.38302		71.21000		324.00000 
 43692.65567		 951.14271			42741.51297		224.22400		875.00000 
 43692.65567		 305.27265			43387.38302		71.21000		324.00000 
 43692.65567		 951.14271			42741.51297		224.22400		875.00000 
 43692.65567		 305.27265			43387.38302		71.21000		324.00000 
 43692.65567		 951.14271			42741.51297		224.22400		875.00000 
 43692.65567		 305.27265			43387.38302		71.21000		324.00000 
 43692.65567		 951.14271			42741.51297		224.22400		875.00000 
 43692.65567		 305.27265			43387.38302		71.21000		324.00000 
 43692.65567		 951.14271			42741.51297		224.22400		875.00000 
 43692.65567		 305.27265			43387.38302		71.21000		324.00000 
 43692.65567		 951.14271			42741.51297		224.22400		875.00000 
 43692.65567		 305.27265			43387.38302		71.21000		324.00000 
 43692.65567		 951.14271			42741.51297		224.22400		875.00000 
 43692.65567		 305.27265			43387.38302		71.21000		324.00000 
 43692.65567		 951.14271			42741.51297		224.22400		875.00000 
 43692.65567		 305.27265			43387.38302		71.21000		324.00000 
 43692.65567		 951.14271			42741.51297		224.22400		875.00000 
 43692.65567		 305.27265			43387.38302		71.21000		324.00000 
 43692.65567		 951.14271			42741.51297		224.22400		875.00000 
 43692.65567		 305.27265			43387.38302		71.21000		324.00000 
 43692.65567		 951.14271			42741.51297		224.22400		875.00000 
 43692.65567		 305.27265			43387.38302		71.21000		324.00000 
 43692.65567		 951.14271			42741.51297		224.22400		875.00000 
 43692.65567		 305.27265			43387.38302		71.21000		324.00000 
 43692.65567		 951.14271			42741.51297		224.15200		875.00000 
 43692.65567		 305.27265			43387.38302		71.21000		324.00000 
 43692.65567		 951.14271			42741.51297		224.15200		875.00000 
 43692.65567		 305.27265			43387.38302		71.21000		324.00000 
 43692.65567		 951.14271			42741.51297		224.15200		875.00000 
 43692.65567		 305.27265			43387.38302		71.21000		324.00000 
 43692.65567		 951.14271			42741.51297		224.15200		875.00000 
 43692.65567		 305.27265			43387.38302		71.21000		324.00000 
 43692.65567		 951.14271			42741.51297		224.15200		875.00000 
 43692.65567		 305.27265			43387.38302		71.21000		324.00000 
 43692.65567		 951.14271			42741.51297		224.15200		875.00000 
 43692.65567		 305.27265			43387.38302		71.21000		324.00000 
 43692.65567		 951.14271			42741.51297		224.15200		875.00000 
 43692.65567		 305.27265			43387.38302		71.21000		324.00000 
 43692.65567		 951.14271			42741.51297		224.15200		875.00000 
 43692.65567		 305.27265			43387.38302		71.21000		324.00000 
 43692.65567		 951.14271			42741.51297		224.15200		875.00000 
 43692.65567		 305.27265			43387.38302		71.21000		324.00000 
 43692.65567		 951.14271			42741.51297		224.15200		875.00000 
 43692.65567		 305.27265			43387.38302		71.21000		324.00000 
 43692.65567		 951.14271			42741.51297		224.15200		875.00000 
 43692.65567		 305.27265			43387.38302		71.21000		324.00000 
 43692.65567		 951.14271			42741.51297		224.15200		875.00000 
 43692.65567		 305.27265			43387.38302		71.21000		324.00000 
 43692.65567		 951.14271			42741.51297		224.15200		875.00000 
 43692.65567		 305.27265			43387.38302		71.21000		324.00000 
 43692.65567		 951.14271			42741.51297		224.15200		875.00000 
 43692.65567		 305.27265			43387.38302		71.21000		324.00000 
 43692.65567		 951.14271			42741.51297		224.15200		875.00000 
 43692.65567		 305.27265			43387.38302		71.21000		324.00000 
 43692.65567		 951.14271			42741.51297		224.15200		875.00000 
 43692.65567		 305.27265			43387.38302		71.21000		324.00000 
 43692.65567		 951.14271			42741.51297		224.15200		875.00000 
 43692.65567		 305.27265			43387.38302		71.21000		324.00000 
 43692.65567		 951.14271			42741.51297		224.15200		875.00000 
 43692.65567		 305.27265			43387.38302		71.21000		324.00000 
 43692.65567		 951.14271			42741.51297		224.15200		875.00000 
 43692.65567		 305.27265			43387.38302		71.21000		324.00000 
 43692.65567		 951.14271			42741.51297		224.15200		875.00000 
 43692.65567		 305.27265			43387.38302		71.21000		324.00000 
 43692.65567		 951.14271			42741.51297		224.15200		875.00000 
 43692.65567		 305.27265			43387.38302		71.21000		324.00000 
 43692.65567		 951.14271			42741.51297		224.15200		875.00000 
 43692.65567		 305.27265			43387.38302		71.21000		324.00000 
 43692.65567		 951.14271			42741.51297		224.15200		875.00000 
 43692.65567		 305.27265			43387.38302		71.21000		324.00000 
 43692.65567		 951.14271			42741.51297		224.15200		875.00000 
 43692.65567		 305.27265			43387.38302		71.21000		324.00000 
 43692.65567		 951.14271			42741.51297		224.15200		875.00000 
 43692.65567		 305.27265			43387.38302		71.21000		324.00000 
 43692.65567		 951.14271			42741.51297		224.15200		875.00000 
 43692.65567		 305.27265			43387.38302		71.21000		324.00000 
 43692.65567		 951.14271			42741.51297		224.15200		875.00000 
 43692.65567		 305.27265			43387.38302		71.21000		324.00000 
 43692.65567		 951.14271			42741.51297		224.15200		875.00000 
 43692.65567		 305.27265			43387.38302		71.21000		324.00000 
 43692.65567		 951.14271			42741.51297		224.15200		875.00000 
 43692.65567		 305.27265			43387.38302		71.21000		324.00000 
 43692.65567		 951.14271			42741.51297		224.15200		875.00000 
 43692.65567		 305.27265			43387.38302		71.21000		324.00000 
 43692.65567		 951.14271			42741.51297		224.15200		875.00000 
 43692.65567		 305.27265			43387.38302		71.21000		324.00000 
 43692.65567		 813.18525			42879.47043		224.15200		875.00000 
 43692.65567		 305.27265			43387.38302		71.21000		324.00000 
 43692.65567		 813.18525			42879.47043		224.15200		875.00000 
 43692.65567		 305.27265			43387.38302		71.21000		324.00000 
 43692.65567		 675.22778			43017.42789		224.15200		875.00000 
 43692.65567		 305.27265			43387.38302		71.21000		324.00000 
 43692.65567		 675.22778			43017.42789		224.15200		875.00000 
 43692.65567		 305.27265			43387.38302		71.21000		324.00000 
 43692.65567		 537.27032			43155.38535		224.15200		875.00000 
 43692.65567		 305.27265			43387.38302		71.21000		324.00000 
 43692.65567		 537.27032			43155.38535		224.15200		875.00000 
 43692.65567		 305.27265			43387.38302		71.21000		324.00000 
 43692.65567		 537.27032			43155.38535		224.15200		875.00000 
 43692.65567		 305.27265			43387.38302		71.21000		324.00000 
 43692.65567		 537.27032			43155.38535		224.15200		875.00000 
 43692.65567		 305.27265			43387.38302		71.21000		324.00000 
 43692.65567		 537.27032			43155.38535		224.15200		875.00000 
 43692.65567		 305.27265			43387.38302		71.21000		324.00000 
 43692.65567		 537.27032			43155.38535		224.15200		875.00000 
 43692.65567		 305.27265			43387.38302		71.21000		324.00000 
 43692.65567		 537.27032			43155.38535		224.15200		875.00000 
 43692.65567		 305.27265			43387.38302		71.21000		324.00000 
 43692.65567		 537.27032			43155.38535		224.15200		875.00000 
 43692.65567		 305.27265			43387.38302		71.21000		324.00000 
 43692.65567		 537.27032			43155.38535		224.15200		875.00000 
 43692.65567		 305.27265			43387.38302		71.21000		324.00000 
 43692.65567		 537.27032			43155.38535		224.15200		875.00000 
 43692.65567		 305.27265			43387.38302		71.21000		324.00000 
 43692.65567		 537.27032			43155.38535		224.15200		875.00000 
 43692.65567		 305.27265			43387.38302		71.21000		324.00000 
 43692.65567		 537.27032			43155.38535		224.15200		875.00000 
 43692.65567		 305.27265			43387.38302		71.21000		324.00000 
 43692.65567		 537.27032			43155.38535		224.15200		875.00000 
 43692.65567		 305.27265			43387.38302		71.21000		324.00000 
 43692.65567		 537.27032			43155.38535		224.15200		875.00000 
 43692.65567		 305.27265			43387.38302		71.21000		324.00000 
 43692.65567		 537.27032			43155.38535		224.15200		875.00000 
 43692.65567		 305.27265			43387.38302		71.21000		324.00000 
 43692.65567		 537.27032			43155.38535		224.15200		875.00000 
 43692.65567		 305.27265			43387.38302		71.21000		324.00000 
 43692.65567		 537.27032			43155.38535		224.15200		875.00000 
 43692.65567		 305.27265			43387.38302		71.21000		324.00000 
 43692.65567		 537.27032			43155.38535		224.15200		875.00000 
 43692.65567		 305.27265			43387.38302		71.21000		324.00000 
 43692.65567		 537.27032			43155.38535		224.15200		875.00000 
 43692.65567		 305.27265			43387.38302		71.21000		324.00000 
 43692.65567		 537.27032			43155.38535		224.15200		875.00000 
 43692.65567		 305.27265			43387.38302		71.21000		324.00000 
 43692.65567		 529.63254			43163.02313		224.15200		875.00000 
 43692.65567		 305.27265			43387.38302		71.21000		324.00000 
 43692.65567		 525.81365			43166.84203		188.20800		875.00000 
 43692.65567		 297.63487			43395.02080		71.21000		324.00000 
 43692.65567		 261.35540			43431.30027		188.20800		875.00000 
 43692.65567		 261.35540			43431.30027		71.21000		324.00000 
