Memory Total (MiB) 	 Memory Used (MiB) 	    Memory Free (MiB) 	 Power Drawed (W) 	 Clocks (Mhz) 	 
 43692.65567		 261.35540			43431.30027		224.38800		875.00000 
 43692.65567		 261.35540			43431.30027		67.62800		324.00000 
 43692.65567		 261.35540			43431.30027		224.38800		875.00000 
 43692.65567		 261.35540			43431.30027		67.62800		324.00000 
 43692.65567		 261.35540			43431.30027		224.38800		875.00000 
 43692.65567		 261.35540			43431.30027		67.62800		324.00000 
 43692.65567		 261.35540			43431.30027		224.38800		875.00000 
 43692.65567		 261.35540			43431.30027		67.62800		324.00000 
 43692.65567		 261.35540			43431.30027		224.38800		875.00000 
 43692.65567		 261.35540			43431.30027		67.62800		324.00000 
 43692.65567		 261.35540			43431.30027		224.38800		875.00000 
 43692.65567		 261.35540			43431.30027		67.62800		324.00000 
 43692.65567		 261.35540			43431.30027		224.38800		875.00000 
 43692.65567		 261.35540			43431.30027		67.62800		324.00000 
 43692.65567		 261.35540			43431.30027		224.38800		875.00000 
 43692.65567		 261.35540			43431.30027		67.62800		324.00000 
 43692.65567		 261.35540			43431.30027		169.15400		875.00000 
 43692.65567		 261.35540			43431.30027		67.62800		324.00000 
 43692.65567		 261.35540			43431.30027		169.15400		875.00000 
 43692.65567		 261.35540			43431.30027		67.62800		324.00000 
 43692.65567		 261.35540			43431.30027		169.15400		875.00000 
 43692.65567		 261.35540			43431.30027		67.62800		324.00000 
 43692.65567		 261.35540			43431.30027		169.15400		875.00000 
 43692.65567		 261.35540			43431.30027		67.62800		324.00000 
 43692.65567		 261.35540			43431.30027		169.15400		875.00000 
 43692.65567		 261.35540			43431.30027		67.62800		324.00000 
 43692.65567		 261.35540			43431.30027		169.15400		875.00000 
 43692.65567		 261.35540			43431.30027		67.62800		324.00000 
 43692.65567		 261.35540			43431.30027		169.15400		875.00000 
 43692.65567		 261.35540			43431.30027		67.62800		324.00000 
 43692.65567		 261.35540			43431.30027		169.15400		875.00000 
 43692.65567		 261.35540			43431.30027		67.62800		324.00000 
 43692.65567		 261.35540			43431.30027		169.15400		875.00000 
 43692.65567		 261.35540			43431.30027		67.62800		324.00000 
 43692.65567		 261.35540			43431.30027		169.15400		875.00000 
 43692.65567		 261.35540			43431.30027		67.62800		324.00000 
 43692.65567		 265.17429			43427.48138		169.15400		875.00000 
 43692.65567		 261.35540			43431.30027		67.62800		324.00000 
 43692.65567		 272.81207			43419.84360		169.15400		875.00000 
 43692.65567		 261.35540			43431.30027		67.62800		324.00000 
 43692.65567		 272.81207			43419.84360		169.15400		875.00000 
 43692.65567		 261.35540			43431.30027		67.62800		324.00000 
 43692.65567		 272.81207			43419.84360		169.15400		875.00000 
 43692.65567		 265.17429			43427.48138		67.62800		324.00000 
 43692.65567		 272.81207			43419.84360		169.15400		875.00000 
 43692.65567		 265.17429			43427.48138		67.62800		324.00000 
 43692.65567		 272.81207			43419.84360		169.15400		875.00000 
 43692.65567		 265.17429			43427.48138		67.62800		324.00000 
 43692.65567		 272.81207			43419.84360		169.15400		875.00000 
 43692.65567		 272.81207			43419.84360		67.62800		324.00000 
 43692.65567		 272.81207			43419.84360		169.15400		875.00000 
 43692.65567		 272.81207			43419.84360		67.62800		324.00000 
 43692.65567		 272.81207			43419.84360		169.15400		875.00000 
 43692.65567		 272.81207			43419.84360		67.62800		324.00000 
 43692.65567		 305.27265			43387.38302		169.15400		875.00000 
 43692.65567		 305.27265			43387.38302		67.62800		324.00000 
 43692.65567		 305.27265			43387.38302		169.15400		875.00000 
 43692.65567		 305.27265			43387.38302		67.62800		324.00000 
 43692.65567		 305.27265			43387.38302		169.15400		875.00000 
 43692.65567		 305.27265			43387.38302		67.62800		324.00000 
 43692.65567		 305.27265			43387.38302		169.15400		875.00000 
 43692.65567		 305.27265			43387.38302		67.62800		324.00000 
 43692.65567		 305.27265			43387.38302		169.15400		875.00000 
 43692.65567		 305.27265			43387.38302		67.62800		324.00000 
 43692.65567		 309.56891			43383.08677		169.15400		875.00000 
 43692.65567		 305.27265			43387.38302		67.62800		324.00000 
 43692.65567		 311.00099			43381.65468		169.15400		875.00000 
 43692.65567		 305.27265			43387.38302		67.62800		324.00000 
 43692.65567		 311.00099			43381.65468		169.15400		875.00000 
 43692.65567		 305.27265			43387.38302		67.62800		324.00000 
 43692.65567		 311.00099			43381.65468		169.15400		875.00000 
 43692.65567		 305.27265			43387.38302		67.62800		324.00000 
 43692.65567		 311.00099			43381.65468		169.15400		875.00000 
 43692.65567		 305.27265			43387.38302		67.62800		324.00000 
 43692.65567		 311.00099			43381.65468		169.15400		875.00000 
 43692.65567		 305.27265			43387.38302		67.62800		324.00000 
 43692.65567		 311.00099			43381.65468		169.15400		875.00000 
 43692.65567		 305.27265			43387.38302		67.62800		324.00000 
 43692.65567		 311.00099			43381.65468		169.15400		875.00000 
 43692.65567		 305.27265			43387.38302		67.62800		324.00000 
 43692.65567		 311.00099			43381.65468		169.15400		875.00000 
 43692.65567		 305.27265			43387.38302		67.62800		324.00000 
 43692.65567		 311.00099			43381.65468		169.15400		875.00000 
 43692.65567		 305.27265			43387.38302		67.62800		324.00000 
 43692.65567		 311.00099			43381.65468		145.70600		875.00000 
 43692.65567		 305.27265			43387.38302		67.62800		324.00000 
 43692.65567		 311.00099			43381.65468		145.70600		875.00000 
 43692.65567		 305.27265			43387.38302		67.62800		324.00000 
 43692.65567		 311.00099			43381.65468		145.70600		875.00000 
 43692.65567		 305.27265			43387.38302		67.62800		324.00000 
 43692.65567		 311.00099			43381.65468		145.70600		875.00000 
 43692.65567		 305.27265			43387.38302		67.62800		324.00000 
 43692.65567		 311.00099			43381.65468		145.70600		875.00000 
 43692.65567		 305.27265			43387.38302		67.62800		324.00000 
 43692.65567		 311.00099			43381.65468		145.70600		875.00000 
 43692.65567		 305.27265			43387.38302		67.62800		324.00000 
 43692.65567		 311.00099			43381.65468		145.70600		875.00000 
 43692.65567		 305.27265			43387.38302		67.62800		324.00000 
 43692.65567		 311.00099			43381.65468		145.70600		875.00000 
 43692.65567		 305.27265			43387.38302		67.62800		324.00000 
 43692.65567		 311.00099			43381.65468		145.70600		875.00000 
 43692.65567		 305.27265			43387.38302		67.62800		324.00000 
 43692.65567		 311.00099			43381.65468		145.70600		875.00000 
 43692.65567		 305.27265			43387.38302		67.62800		324.00000 
 43692.65567		 311.00099			43381.65468		145.70600		875.00000 
 43692.65567		 305.27265			43387.38302		67.62800		324.00000 
 43692.65567		 311.00099			43381.65468		145.70600		875.00000 
 43692.65567		 305.27265			43387.38302		67.62800		324.00000 
 43692.65567		 311.00099			43381.65468		145.70600		875.00000 
 43692.65567		 305.27265			43387.38302		67.62800		324.00000 
 43692.65567		 311.00099			43381.65468		145.70600		875.00000 
 43692.65567		 305.27265			43387.38302		67.62800		324.00000 
 43692.65567		 311.00099			43381.65468		145.70600		875.00000 
 43692.65567		 305.27265			43387.38302		67.62800		324.00000 
 43692.65567		 311.00099			43381.65468		145.70600		875.00000 
 43692.65567		 305.27265			43387.38302		67.62800		324.00000 
 43692.65567		 311.00099			43381.65468		145.70600		875.00000 
 43692.65567		 305.27265			43387.38302		67.62800		324.00000 
 43692.65567		 311.00099			43381.65468		145.70600		875.00000 
 43692.65567		 305.27265			43387.38302		67.62800		324.00000 
 43692.65567		 311.00099			43381.65468		145.70600		875.00000 
 43692.65567		 305.27265			43387.38302		67.62800		324.00000 
 43692.65567		 311.00099			43381.65468		145.70600		875.00000 
 43692.65567		 305.27265			43387.38302		67.62800		324.00000 
 43692.65567		 311.00099			43381.65468		145.70600		875.00000 
 43692.65567		 305.27265			43387.38302		67.62800		324.00000 
 43692.65567		 311.00099			43381.65468		145.70600		875.00000 
 43692.65567		 305.27265			43387.38302		67.62800		324.00000 
 43692.65567		 311.00099			43381.65468		145.70600		875.00000 
 43692.65567		 305.27265			43387.38302		67.62800		324.00000 
 43692.65567		 311.00099			43381.65468		145.70600		875.00000 
 43692.65567		 305.27265			43387.38302		67.62800		324.00000 
 43692.65567		 311.00099			43381.65468		145.70600		875.00000 
 43692.65567		 305.27265			43387.38302		67.62800		324.00000 
 43692.65567		 311.00099			43381.65468		145.70600		875.00000 
 43692.65567		 305.27265			43387.38302		67.62800		324.00000 
 43692.65567		 311.00099			43381.65468		145.70600		875.00000 
 43692.65567		 305.27265			43387.38302		67.62800		324.00000 
 43692.65567		 311.00099			43381.65468		145.70600		875.00000 
 43692.65567		 305.27265			43387.38302		67.62800		324.00000 
 43692.65567		 311.00099			43381.65468		145.70600		875.00000 
 43692.65567		 305.27265			43387.38302		67.62800		324.00000 
 43692.65567		 311.00099			43381.65468		145.70600		875.00000 
 43692.65567		 305.27265			43387.38302		67.62800		324.00000 
 43692.65567		 311.00099			43381.65468		145.70600		875.00000 
 43692.65567		 305.27265			43387.38302		67.62800		324.00000 
 43692.65567		 311.00099			43381.65468		145.70600		875.00000 
 43692.65567		 305.27265			43387.38302		67.62800		324.00000 
 43692.65567		 311.00099			43381.65468		136.53400		875.00000 
 43692.65567		 305.27265			43387.38302		67.62800		324.00000 
 43692.65567		 311.00099			43381.65468		136.53400		875.00000 
 43692.65567		 305.27265			43387.38302		67.62800		324.00000 
 43692.65567		 311.00099			43381.65468		136.53400		875.00000 
 43692.65567		 305.27265			43387.38302		67.62800		324.00000 
 43692.65567		 311.00099			43381.65468		136.53400		875.00000 
 43692.65567		 305.27265			43387.38302		67.62800		324.00000 
 43692.65567		 311.00099			43381.65468		136.53400		875.00000 
 43692.65567		 305.27265			43387.38302		67.62800		324.00000 
 43692.65567		 311.00099			43381.65468		136.53400		875.00000 
 43692.65567		 305.27265			43387.38302		67.62800		324.00000 
 43692.65567		 311.00099			43381.65468		136.53400		875.00000 
 43692.65567		 305.27265			43387.38302		67.62800		324.00000 
 43692.65567		 311.00099			43381.65468		136.53400		875.00000 
 43692.65567		 305.27265			43387.38302		67.62800		324.00000 
 43692.65567		 311.00099			43381.65468		136.53400		875.00000 
 43692.65567		 305.27265			43387.38302		67.62800		324.00000 
 43692.65567		 311.00099			43381.65468		136.53400		875.00000 
 43692.65567		 305.27265			43387.38302		67.62800		324.00000 
 43692.65567		 311.00099			43381.65468		136.53400		875.00000 
 43692.65567		 305.27265			43387.38302		67.62800		324.00000 
 43692.65567		 311.00099			43381.65468		136.53400		875.00000 
 43692.65567		 305.27265			43387.38302		67.62800		324.00000 
 43692.65567		 314.81988			43377.83579		136.53400		875.00000 
 43692.65567		 305.27265			43387.38302		67.62800		324.00000 
 43692.65567		 314.81988			43377.83579		136.53400		875.00000 
 43692.65567		 305.27265			43387.38302		67.62800		324.00000 
 43692.65567		 314.81988			43377.83579		136.53400		875.00000 
 43692.65567		 305.27265			43387.38302		67.62800		324.00000 
 43692.65567		 318.63877			43374.01690		136.53400		875.00000 
 43692.65567		 305.27265			43387.38302		67.62800		324.00000 
 43692.65567		 322.45767			43370.19801		136.53400		875.00000 
 43692.65567		 305.27265			43387.38302		67.62800		324.00000 
 43692.65567		 326.27656			43366.37912		136.53400		875.00000 
 43692.65567		 305.27265			43387.38302		67.62800		324.00000 
 43692.65567		 326.27656			43366.37912		136.53400		875.00000 
 43692.65567		 305.27265			43387.38302		67.62800		324.00000 
 43692.65567		 326.27656			43366.37912		136.53400		875.00000 
 43692.65567		 305.27265			43387.38302		67.62800		324.00000 
 43692.65567		 537.27032			43155.38535		136.53400		875.00000 
 43692.65567		 305.27265			43387.38302		67.62800		324.00000 
 43692.65567		 624.15011			43068.50556		136.53400		875.00000 
 43692.65567		 305.27265			43387.38302		67.62800		324.00000 
 43692.65567		 667.59000			43025.06567		136.53400		875.00000 
 43692.65567		 305.27265			43387.38302		67.62800		324.00000 
 43692.65567		 667.59000			43025.06567		136.53400		875.00000 
 43692.65567		 305.27265			43387.38302		67.62800		324.00000 
 43692.65567		 667.59000			43025.06567		136.53400		875.00000 
 43692.65567		 305.27265			43387.38302		67.62800		324.00000 
 43692.65567		 667.59000			43025.06567		136.53400		875.00000 
 43692.65567		 305.27265			43387.38302		67.62800		324.00000 
 43692.65567		 667.59000			43025.06567		136.53400		875.00000 
 43692.65567		 305.27265			43387.38302		67.62800		324.00000 
 43692.65567		 667.59000			43025.06567		136.53400		875.00000 
 43692.65567		 305.27265			43387.38302		67.62800		324.00000 
 43692.65567		 667.59000			43025.06567		136.53400		875.00000 
 43692.65567		 305.27265			43387.38302		67.62800		324.00000 
 43692.65567		 667.59000			43025.06567		136.53400		875.00000 
 43692.65567		 305.27265			43387.38302		66.69000		324.00000 
 43692.65567		 667.59000			43025.06567		136.53400		875.00000 
 43692.65567		 305.27265			43387.38302		66.69000		324.00000 
 43692.65567		 667.59000			43025.06567		136.53400		875.00000 
 43692.65567		 305.27265			43387.38302		66.69000		324.00000 
 43692.65567		 667.59000			43025.06567		136.53400		875.00000 
 43692.65567		 305.27265			43387.38302		66.69000		324.00000 
 43692.65567		 667.59000			43025.06567		136.53400		875.00000 
 43692.65567		 305.27265			43387.38302		66.69000		324.00000 
 43692.65567		 667.59000			43025.06567		136.53400		875.00000 
 43692.65567		 305.27265			43387.38302		66.69000		324.00000 
 43692.65567		 667.59000			43025.06567		136.53400		875.00000 
 43692.65567		 305.27265			43387.38302		66.69000		324.00000 
 43692.65567		 667.59000			43025.06567		136.53400		875.00000 
 43692.65567		 305.27265			43387.38302		66.69000		324.00000 
 43692.65567		 667.59000			43025.06567		136.53400		875.00000 
 43692.65567		 305.27265			43387.38302		66.69000		324.00000 
 43692.65567		 667.59000			43025.06567		136.53400		875.00000 
 43692.65567		 305.27265			43387.38302		66.69000		324.00000 
 43692.65567		 667.59000			43025.06567		136.53400		875.00000 
 43692.65567		 305.27265			43387.38302		66.69000		324.00000 
 43692.65567		 667.59000			43025.06567		136.53400		875.00000 
 43692.65567		 305.27265			43387.38302		66.69000		324.00000 
 43692.65567		 667.59000			43025.06567		136.53400		875.00000 
 43692.65567		 305.27265			43387.38302		66.69000		324.00000 
 43692.65567		 667.59000			43025.06567		136.53400		875.00000 
 43692.65567		 305.27265			43387.38302		66.69000		324.00000 
 43692.65567		 667.59000			43025.06567		161.62200		875.00000 
 43692.65567		 305.27265			43387.38302		66.69000		324.00000 
 43692.65567		 667.59000			43025.06567		161.62200		875.00000 
 43692.65567		 305.27265			43387.38302		66.69000		324.00000 
 43692.65567		 667.59000			43025.06567		161.62200		875.00000 
 43692.65567		 305.27265			43387.38302		66.69000		324.00000 
 43692.65567		 667.59000			43025.06567		161.62200		875.00000 
 43692.65567		 305.27265			43387.38302		66.69000		324.00000 
 43692.65567		 667.59000			43025.06567		161.62200		875.00000 
 43692.65567		 305.27265			43387.38302		66.69000		324.00000 
 43692.65567		 667.59000			43025.06567		161.62200		875.00000 
 43692.65567		 305.27265			43387.38302		66.69000		324.00000 
 43692.65567		 667.59000			43025.06567		161.62200		875.00000 
 43692.65567		 305.27265			43387.38302		66.69000		324.00000 
 43692.65567		 667.59000			43025.06567		161.62200		875.00000 
 43692.65567		 305.27265			43387.38302		66.69000		324.00000 
 43692.65567		 667.59000			43025.06567		161.62200		875.00000 
 43692.65567		 305.27265			43387.38302		66.69000		324.00000 
 43692.65567		 667.59000			43025.06567		161.62200		875.00000 
 43692.65567		 305.27265			43387.38302		66.69000		324.00000 
 43692.65567		 667.59000			43025.06567		161.62200		875.00000 
 43692.65567		 305.27265			43387.38302		66.69000		324.00000 
 43692.65567		 667.59000			43025.06567		161.62200		875.00000 
 43692.65567		 305.27265			43387.38302		66.69000		324.00000 
 43692.65567		 667.59000			43025.06567		161.62200		875.00000 
 43692.65567		 305.27265			43387.38302		66.69000		324.00000 
 43692.65567		 667.59000			43025.06567		161.62200		875.00000 
 43692.65567		 305.27265			43387.38302		66.69000		324.00000 
 43692.65567		 667.59000			43025.06567		161.62200		875.00000 
 43692.65567		 305.27265			43387.38302		66.69000		324.00000 
 43692.65567		 667.59000			43025.06567		161.62200		875.00000 
 43692.65567		 305.27265			43387.38302		66.69000		324.00000 
 43692.65567		 667.59000			43025.06567		161.62200		875.00000 
 43692.65567		 305.27265			43387.38302		66.69000		324.00000 
 43692.65567		 667.59000			43025.06567		161.62200		875.00000 
 43692.65567		 305.27265			43387.38302		66.69000		324.00000 
 43692.65567		 667.59000			43025.06567		161.62200		875.00000 
 43692.65567		 305.27265			43387.38302		66.69000		324.00000 
 43692.65567		 667.59000			43025.06567		161.62200		875.00000 
 43692.65567		 305.27265			43387.38302		66.69000		324.00000 
 43692.65567		 667.59000			43025.06567		161.62200		875.00000 
 43692.65567		 305.27265			43387.38302		66.69000		324.00000 
 43692.65567		 667.59000			43025.06567		161.62200		875.00000 
 43692.65567		 305.27265			43387.38302		66.69000		324.00000 
 43692.65567		 667.59000			43025.06567		161.62200		875.00000 
 43692.65567		 305.27265			43387.38302		66.69000		324.00000 
 43692.65567		 667.59000			43025.06567		161.62200		875.00000 
 43692.65567		 305.27265			43387.38302		66.69000		324.00000 
 43692.65567		 667.59000			43025.06567		161.62200		875.00000 
 43692.65567		 305.27265			43387.38302		66.69000		324.00000 
 43692.65567		 667.59000			43025.06567		161.62200		875.00000 
 43692.65567		 305.27265			43387.38302		66.69000		324.00000 
 43692.65567		 667.59000			43025.06567		161.62200		875.00000 
 43692.65567		 305.27265			43387.38302		66.69000		324.00000 
 43692.65567		 667.59000			43025.06567		161.62200		875.00000 
 43692.65567		 305.27265			43387.38302		66.69000		324.00000 
 43692.65567		 667.59000			43025.06567		161.62200		875.00000 
 43692.65567		 305.27265			43387.38302		66.69000		324.00000 
 43692.65567		 667.59000			43025.06567		161.62200		875.00000 
 43692.65567		 305.27265			43387.38302		66.69000		324.00000 
 43692.65567		 667.59000			43025.06567		161.62200		875.00000 
 43692.65567		 305.27265			43387.38302		66.69000		324.00000 
 43692.65567		 667.59000			43025.06567		161.62200		875.00000 
 43692.65567		 305.27265			43387.38302		66.69000		324.00000 
 43692.65567		 667.59000			43025.06567		161.62200		875.00000 
 43692.65567		 305.27265			43387.38302		66.69000		324.00000 
 43692.65567		 667.59000			43025.06567		161.62200		875.00000 
 43692.65567		 305.27265			43387.38302		66.69000		324.00000 
 43692.65567		 667.59000			43025.06567		161.62200		875.00000 
 43692.65567		 305.27265			43387.38302		66.69000		324.00000 
 43692.65567		 667.59000			43025.06567		161.62200		875.00000 
 43692.65567		 305.27265			43387.38302		66.69000		324.00000 
 43692.65567		 667.59000			43025.06567		161.62200		875.00000 
 43692.65567		 305.27265			43387.38302		66.69000		324.00000 
 43692.65567		 667.59000			43025.06567		161.62200		875.00000 
 43692.65567		 305.27265			43387.38302		66.69000		324.00000 
 43692.65567		 667.59000			43025.06567		161.62200		875.00000 
 43692.65567		 305.27265			43387.38302		66.69000		324.00000 
 43692.65567		 667.59000			43025.06567		161.62200		875.00000 
 43692.65567		 305.27265			43387.38302		66.69000		324.00000 
 43692.65567		 667.59000			43025.06567		161.62200		875.00000 
 43692.65567		 305.27265			43387.38302		66.69000		324.00000 
 43692.65567		 667.59000			43025.06567		161.62200		875.00000 
 43692.65567		 305.27265			43387.38302		66.69000		324.00000 
 43692.65567		 667.59000			43025.06567		161.62200		875.00000 
 43692.65567		 305.27265			43387.38302		66.69000		324.00000 
 43692.65567		 667.59000			43025.06567		161.62200		875.00000 
 43692.65567		 305.27265			43387.38302		66.69000		324.00000 
 43692.65567		 667.59000			43025.06567		161.62200		875.00000 
 43692.65567		 305.27265			43387.38302		66.69000		324.00000 
 43692.65567		 667.59000			43025.06567		161.62200		875.00000 
 43692.65567		 305.27265			43387.38302		66.69000		324.00000 
 43692.65567		 667.59000			43025.06567		161.62200		875.00000 
 43692.65567		 305.27265			43387.38302		66.69000		324.00000 
 43692.65567		 667.59000			43025.06567		161.62200		875.00000 
 43692.65567		 305.27265			43387.38302		66.69000		324.00000 
 43692.65567		 667.59000			43025.06567		161.62200		875.00000 
 43692.65567		 305.27265			43387.38302		66.69000		324.00000 
 43692.65567		 667.59000			43025.06567		161.62200		875.00000 
 43692.65567		 305.27265			43387.38302		66.69000		324.00000 
 43692.65567		 667.59000			43025.06567		161.62200		875.00000 
 43692.65567		 305.27265			43387.38302		66.69000		324.00000 
 43692.65567		 667.59000			43025.06567		161.62200		875.00000 
 43692.65567		 305.27265			43387.38302		66.69000		324.00000 
 43692.65567		 667.59000			43025.06567		161.62200		875.00000 
 43692.65567		 305.27265			43387.38302		66.69000		324.00000 
 43692.65567		 667.59000			43025.06567		161.62200		875.00000 
 43692.65567		 305.27265			43387.38302		66.69000		324.00000 
 43692.65567		 667.59000			43025.06567		161.62200		875.00000 
 43692.65567		 305.27265			43387.38302		66.69000		324.00000 
 43692.65567		 667.59000			43025.06567		161.62200		875.00000 
 43692.65567		 305.27265			43387.38302		66.69000		324.00000 
 43692.65567		 667.59000			43025.06567		161.62200		875.00000 
 43692.65567		 305.27265			43387.38302		66.69000		324.00000 
 43692.65567		 667.59000			43025.06567		161.62200		875.00000 
 43692.65567		 305.27265			43387.38302		66.69000		324.00000 
 43692.65567		 667.59000			43025.06567		161.62200		875.00000 
 43692.65567		 305.27265			43387.38302		66.69000		324.00000 
 43692.65567		 667.59000			43025.06567		161.62200		875.00000 
 43692.65567		 305.27265			43387.38302		66.69000		324.00000 
 43692.65567		 667.59000			43025.06567		161.62200		875.00000 
 43692.65567		 305.27265			43387.38302		66.69000		324.00000 
 43692.65567		 667.59000			43025.06567		161.62200		875.00000 
 43692.65567		 305.27265			43387.38302		66.69000		324.00000 
 43692.65567		 667.59000			43025.06567		161.62200		875.00000 
 43692.65567		 305.27265			43387.38302		66.69000		324.00000 
 43692.65567		 667.59000			43025.06567		161.62200		875.00000 
 43692.65567		 305.27265			43387.38302		66.69000		324.00000 
 43692.65567		 667.59000			43025.06567		199.00800		875.00000 
 43692.65567		 305.27265			43387.38302		66.69000		324.00000 
 43692.65567		 667.59000			43025.06567		199.00800		875.00000 
 43692.65567		 305.27265			43387.38302		66.69000		324.00000 
 43692.65567		 667.59000			43025.06567		199.00800		875.00000 
 43692.65567		 305.27265			43387.38302		66.69000		324.00000 
 43692.65567		 667.59000			43025.06567		199.00800		875.00000 
 43692.65567		 305.27265			43387.38302		66.69000		324.00000 
 43692.65567		 667.59000			43025.06567		199.00800		875.00000 
 43692.65567		 305.27265			43387.38302		66.69000		324.00000 
 43692.65567		 667.59000			43025.06567		199.00800		875.00000 
 43692.65567		 305.27265			43387.38302		66.69000		324.00000 
 43692.65567		 667.59000			43025.06567		199.00800		875.00000 
 43692.65567		 305.27265			43387.38302		66.69000		324.00000 
 43692.65567		 667.59000			43025.06567		199.00800		875.00000 
 43692.65567		 305.27265			43387.38302		66.69000		324.00000 
 43692.65567		 667.59000			43025.06567		199.00800		875.00000 
 43692.65567		 305.27265			43387.38302		66.69000		324.00000 
 43692.65567		 667.59000			43025.06567		199.00800		875.00000 
 43692.65567		 305.27265			43387.38302		66.69000		324.00000 
 43692.65567		 667.59000			43025.06567		199.00800		875.00000 
 43692.65567		 305.27265			43387.38302		66.69000		324.00000 
 43692.65567		 667.59000			43025.06567		199.00800		875.00000 
 43692.65567		 305.27265			43387.38302		66.69000		324.00000 
 43692.65567		 667.59000			43025.06567		199.00800		875.00000 
 43692.65567		 305.27265			43387.38302		66.69000		324.00000 
 43692.65567		 667.59000			43025.06567		199.00800		875.00000 
 43692.65567		 305.27265			43387.38302		66.69000		324.00000 
 43692.65567		 667.59000			43025.06567		199.00800		875.00000 
 43692.65567		 305.27265			43387.38302		66.69000		324.00000 
 43692.65567		 667.59000			43025.06567		199.00800		875.00000 
 43692.65567		 305.27265			43387.38302		66.69000		324.00000 
 43692.65567		 667.59000			43025.06567		199.00800		875.00000 
 43692.65567		 305.27265			43387.38302		66.69000		324.00000 
 43692.65567		 667.59000			43025.06567		199.00800		875.00000 
 43692.65567		 305.27265			43387.38302		66.69000		324.00000 
 43692.65567		 667.59000			43025.06567		199.00800		875.00000 
 43692.65567		 305.27265			43387.38302		66.69000		324.00000 
 43692.65567		 667.59000			43025.06567		199.00800		875.00000 
 43692.65567		 305.27265			43387.38302		66.69000		324.00000 
 43692.65567		 667.59000			43025.06567		199.00800		875.00000 
 43692.65567		 305.27265			43387.38302		66.69000		324.00000 
 43692.65567		 667.59000			43025.06567		199.00800		875.00000 
 43692.65567		 305.27265			43387.38302		66.69000		324.00000 
 43692.65567		 667.59000			43025.06567		199.00800		875.00000 
 43692.65567		 305.27265			43387.38302		66.69000		324.00000 
 43692.65567		 667.59000			43025.06567		199.00800		875.00000 
 43692.65567		 305.27265			43387.38302		66.69000		324.00000 
 43692.65567		 667.59000			43025.06567		199.00800		875.00000 
 43692.65567		 305.27265			43387.38302		66.69000		324.00000 
 43692.65567		 667.59000			43025.06567		199.00800		875.00000 
 43692.65567		 305.27265			43387.38302		66.69000		324.00000 
 43692.65567		 667.59000			43025.06567		199.00800		875.00000 
 43692.65567		 305.27265			43387.38302		66.69000		324.00000 
 43692.65567		 667.59000			43025.06567		199.00800		875.00000 
 43692.65567		 305.27265			43387.38302		66.69000		324.00000 
 43692.65567		 667.59000			43025.06567		199.00800		875.00000 
 43692.65567		 305.27265			43387.38302		66.69000		324.00000 
 43692.65567		 667.59000			43025.06567		199.00800		875.00000 
 43692.65567		 305.27265			43387.38302		66.69000		324.00000 
 43692.65567		 667.59000			43025.06567		199.00800		875.00000 
 43692.65567		 305.27265			43387.38302		66.69000		324.00000 
 43692.65567		 667.59000			43025.06567		199.00800		875.00000 
 43692.65567		 305.27265			43387.38302		66.69000		324.00000 
 43692.65567		 667.59000			43025.06567		199.00800		875.00000 
 43692.65567		 305.27265			43387.38302		66.69000		324.00000 
 43692.65567		 667.59000			43025.06567		199.00800		875.00000 
 43692.65567		 305.27265			43387.38302		66.69000		324.00000 
 43692.65567		 667.59000			43025.06567		199.00800		875.00000 
 43692.65567		 305.27265			43387.38302		66.69000		324.00000 
 43692.65567		 667.59000			43025.06567		199.00800		875.00000 
 43692.65567		 305.27265			43387.38302		66.69000		324.00000 
 43692.65567		 667.59000			43025.06567		199.00800		875.00000 
 43692.65567		 305.27265			43387.38302		66.69000		324.00000 
 43692.65567		 667.59000			43025.06567		199.00800		875.00000 
 43692.65567		 305.27265			43387.38302		66.69000		324.00000 
 43692.65567		 667.59000			43025.06567		199.00800		875.00000 
 43692.65567		 305.27265			43387.38302		66.69000		324.00000 
 43692.65567		 667.59000			43025.06567		199.00800		875.00000 
 43692.65567		 305.27265			43387.38302		66.69000		324.00000 
 43692.65567		 667.59000			43025.06567		199.00800		875.00000 
 43692.65567		 305.27265			43387.38302		66.69000		324.00000 
 43692.65567		 667.59000			43025.06567		199.00800		875.00000 
 43692.65567		 305.27265			43387.38302		66.69000		324.00000 
 43692.65567		 667.59000			43025.06567		199.00800		875.00000 
 43692.65567		 305.27265			43387.38302		66.69000		324.00000 
 43692.65567		 667.59000			43025.06567		199.00800		875.00000 
 43692.65567		 305.27265			43387.38302		66.69000		324.00000 
 43692.65567		 667.59000			43025.06567		199.00800		875.00000 
 43692.65567		 305.27265			43387.38302		66.69000		324.00000 
 43692.65567		 667.59000			43025.06567		199.00800		875.00000 
 43692.65567		 305.27265			43387.38302		66.69000		324.00000 
 43692.65567		 667.59000			43025.06567		199.00800		875.00000 
 43692.65567		 305.27265			43387.38302		66.69000		324.00000 
 43692.65567		 667.59000			43025.06567		199.00800		875.00000 
 43692.65567		 305.27265			43387.38302		66.69000		324.00000 
 43692.65567		 667.59000			43025.06567		199.00800		875.00000 
 43692.65567		 305.27265			43387.38302		66.69000		324.00000 
 43692.65567		 667.59000			43025.06567		199.00800		875.00000 
 43692.65567		 305.27265			43387.38302		66.69000		324.00000 
 43692.65567		 667.59000			43025.06567		199.00800		875.00000 
 43692.65567		 305.27265			43387.38302		66.69000		324.00000 
 43692.65567		 667.59000			43025.06567		199.00800		875.00000 
 43692.65567		 305.27265			43387.38302		66.69000		324.00000 
 43692.65567		 667.59000			43025.06567		199.00800		875.00000 
 43692.65567		 305.27265			43387.38302		66.69000		324.00000 
 43692.65567		 667.59000			43025.06567		199.00800		875.00000 
 43692.65567		 305.27265			43387.38302		66.69000		324.00000 
 43692.65567		 667.59000			43025.06567		199.00800		875.00000 
 43692.65567		 305.27265			43387.38302		66.69000		324.00000 
 43692.65567		 667.59000			43025.06567		199.00800		875.00000 
 43692.65567		 305.27265			43387.38302		66.69000		324.00000 
 43692.65567		 667.59000			43025.06567		199.00800		875.00000 
 43692.65567		 305.27265			43387.38302		66.69000		324.00000 
 43692.65567		 667.59000			43025.06567		199.00800		875.00000 
 43692.65567		 305.27265			43387.38302		66.69000		324.00000 
 43692.65567		 667.59000			43025.06567		199.00800		875.00000 
 43692.65567		 305.27265			43387.38302		66.69000		324.00000 
 43692.65567		 667.59000			43025.06567		199.00800		875.00000 
 43692.65567		 305.27265			43387.38302		66.69000		324.00000 
 43692.65567		 667.59000			43025.06567		199.00800		875.00000 
 43692.65567		 305.27265			43387.38302		66.69000		324.00000 
 43692.65567		 667.59000			43025.06567		199.00800		875.00000 
 43692.65567		 305.27265			43387.38302		66.69000		324.00000 
 43692.65567		 667.59000			43025.06567		199.00800		875.00000 
 43692.65567		 305.27265			43387.38302		66.69000		324.00000 
 43692.65567		 667.59000			43025.06567		199.00800		875.00000 
 43692.65567		 305.27265			43387.38302		66.69000		324.00000 
 43692.65567		 667.59000			43025.06567		199.00800		875.00000 
 43692.65567		 305.27265			43387.38302		66.69000		324.00000 
 43692.65567		 667.59000			43025.06567		213.89800		875.00000 
 43692.65567		 305.27265			43387.38302		66.69000		324.00000 
 43692.65567		 667.59000			43025.06567		213.89800		875.00000 
 43692.65567		 305.27265			43387.38302		66.69000		324.00000 
 43692.65567		 667.59000			43025.06567		213.89800		875.00000 
 43692.65567		 305.27265			43387.38302		66.69000		324.00000 
 43692.65567		 667.59000			43025.06567		213.89800		875.00000 
 43692.65567		 305.27265			43387.38302		66.69000		324.00000 
 43692.65567		 667.59000			43025.06567		213.89800		875.00000 
 43692.65567		 305.27265			43387.38302		66.69000		324.00000 
 43692.65567		 667.59000			43025.06567		213.89800		875.00000 
 43692.65567		 305.27265			43387.38302		66.69000		324.00000 
 43692.65567		 667.59000			43025.06567		213.89800		875.00000 
 43692.65567		 305.27265			43387.38302		66.69000		324.00000 
 43692.65567		 667.59000			43025.06567		213.89800		875.00000 
 43692.65567		 305.27265			43387.38302		66.69000		324.00000 
 43692.65567		 667.59000			43025.06567		213.89800		875.00000 
 43692.65567		 305.27265			43387.38302		66.69000		324.00000 
 43692.65567		 667.59000			43025.06567		213.89800		875.00000 
 43692.65567		 305.27265			43387.38302		66.69000		324.00000 
 43692.65567		 667.59000			43025.06567		213.89800		875.00000 
 43692.65567		 305.27265			43387.38302		66.69000		324.00000 
 43692.65567		 667.59000			43025.06567		213.89800		875.00000 
 43692.65567		 305.27265			43387.38302		66.69000		324.00000 
 43692.65567		 667.59000			43025.06567		213.89800		875.00000 
 43692.65567		 305.27265			43387.38302		66.69000		324.00000 
 43692.65567		 667.59000			43025.06567		213.89800		875.00000 
 43692.65567		 305.27265			43387.38302		66.69000		324.00000 
 43692.65567		 667.59000			43025.06567		213.89800		875.00000 
 43692.65567		 305.27265			43387.38302		66.69000		324.00000 
 43692.65567		 667.59000			43025.06567		213.89800		875.00000 
 43692.65567		 305.27265			43387.38302		66.69000		324.00000 
 43692.65567		 667.59000			43025.06567		213.89800		875.00000 
 43692.65567		 305.27265			43387.38302		66.69000		324.00000 
 43692.65567		 667.59000			43025.06567		213.89800		875.00000 
 43692.65567		 305.27265			43387.38302		66.69000		324.00000 
 43692.65567		 667.59000			43025.06567		213.89800		875.00000 
 43692.65567		 305.27265			43387.38302		66.69000		324.00000 
 43692.65567		 667.59000			43025.06567		213.89800		875.00000 
 43692.65567		 305.27265			43387.38302		66.69000		324.00000 
 43692.65567		 667.59000			43025.06567		213.89800		875.00000 
 43692.65567		 305.27265			43387.38302		66.69000		324.00000 
 43692.65567		 667.59000			43025.06567		213.89800		875.00000 
 43692.65567		 305.27265			43387.38302		66.69000		324.00000 
 43692.65567		 667.59000			43025.06567		213.89800		875.00000 
 43692.65567		 305.27265			43387.38302		66.69000		324.00000 
 43692.65567		 667.59000			43025.06567		213.89800		875.00000 
 43692.65567		 305.27265			43387.38302		66.69000		324.00000 
 43692.65567		 667.59000			43025.06567		213.89800		875.00000 
 43692.65567		 305.27265			43387.38302		66.69000		324.00000 
 43692.65567		 667.59000			43025.06567		213.89800		875.00000 
 43692.65567		 305.27265			43387.38302		66.69000		324.00000 
 43692.65567		 667.59000			43025.06567		213.89800		875.00000 
 43692.65567		 305.27265			43387.38302		66.69000		324.00000 
 43692.65567		 667.59000			43025.06567		213.89800		875.00000 
 43692.65567		 305.27265			43387.38302		66.69000		324.00000 
 43692.65567		 667.59000			43025.06567		213.89800		875.00000 
 43692.65567		 305.27265			43387.38302		66.69000		324.00000 
 43692.65567		 667.59000			43025.06567		213.89800		875.00000 
 43692.65567		 305.27265			43387.38302		66.69000		324.00000 
 43692.65567		 667.59000			43025.06567		213.89800		875.00000 
 43692.65567		 305.27265			43387.38302		66.69000		324.00000 
 43692.65567		 667.59000			43025.06567		213.89800		875.00000 
 43692.65567		 305.27265			43387.38302		66.69000		324.00000 
 43692.65567		 667.59000			43025.06567		213.89800		875.00000 
 43692.65567		 305.27265			43387.38302		66.69000		324.00000 
 43692.65567		 667.59000			43025.06567		213.89800		875.00000 
 43692.65567		 305.27265			43387.38302		66.69000		324.00000 
 43692.65567		 667.59000			43025.06567		213.89800		875.00000 
 43692.65567		 305.27265			43387.38302		66.69000		324.00000 
 43692.65567		 667.59000			43025.06567		213.89800		875.00000 
 43692.65567		 305.27265			43387.38302		66.69000		324.00000 
 43692.65567		 667.59000			43025.06567		213.89800		875.00000 
 43692.65567		 305.27265			43387.38302		66.69000		324.00000 
 43692.65567		 667.59000			43025.06567		213.89800		875.00000 
 43692.65567		 305.27265			43387.38302		66.69000		324.00000 
 43692.65567		 667.59000			43025.06567		213.89800		875.00000 
 43692.65567		 305.27265			43387.38302		66.69000		324.00000 
 43692.65567		 667.59000			43025.06567		213.89800		875.00000 
 43692.65567		 305.27265			43387.38302		66.69000		324.00000 
 43692.65567		 667.59000			43025.06567		213.89800		875.00000 
 43692.65567		 305.27265			43387.38302		66.69000		324.00000 
 43692.65567		 667.59000			43025.06567		213.89800		875.00000 
 43692.65567		 305.27265			43387.38302		66.69000		324.00000 
 43692.65567		 667.59000			43025.06567		213.89800		875.00000 
 43692.65567		 305.27265			43387.38302		66.69000		324.00000 
 43692.65567		 667.59000			43025.06567		213.89800		875.00000 
 43692.65567		 305.27265			43387.38302		66.69000		324.00000 
 43692.65567		 667.59000			43025.06567		213.89800		875.00000 
 43692.65567		 305.27265			43387.38302		66.69000		324.00000 
 43692.65567		 667.59000			43025.06567		213.89800		875.00000 
 43692.65567		 305.27265			43387.38302		66.69000		324.00000 
 43692.65567		 667.59000			43025.06567		213.89800		875.00000 
 43692.65567		 305.27265			43387.38302		66.69000		324.00000 
 43692.65567		 667.59000			43025.06567		213.89800		875.00000 
 43692.65567		 305.27265			43387.38302		66.69000		324.00000 
 43692.65567		 667.59000			43025.06567		213.89800		875.00000 
 43692.65567		 305.27265			43387.38302		66.69000		324.00000 
 43692.65567		 667.59000			43025.06567		213.89800		875.00000 
 43692.65567		 305.27265			43387.38302		66.69000		324.00000 
 43692.65567		 667.59000			43025.06567		213.89800		875.00000 
 43692.65567		 305.27265			43387.38302		66.69000		324.00000 
 43692.65567		 667.59000			43025.06567		213.89800		875.00000 
 43692.65567		 305.27265			43387.38302		66.69000		324.00000 
 43692.65567		 667.59000			43025.06567		213.89800		875.00000 
 43692.65567		 305.27265			43387.38302		66.69000		324.00000 
 43692.65567		 667.59000			43025.06567		213.89800		875.00000 
 43692.65567		 305.27265			43387.38302		66.69000		324.00000 
 43692.65567		 667.59000			43025.06567		213.89800		875.00000 
 43692.65567		 305.27265			43387.38302		66.69000		324.00000 
 43692.65567		 667.59000			43025.06567		213.89800		875.00000 
 43692.65567		 305.27265			43387.38302		66.69000		324.00000 
 43692.65567		 667.59000			43025.06567		213.89800		875.00000 
 43692.65567		 305.27265			43387.38302		66.69000		324.00000 
 43692.65567		 667.59000			43025.06567		213.89800		875.00000 
 43692.65567		 305.27265			43387.38302		66.69000		324.00000 
 43692.65567		 667.59000			43025.06567		213.89800		875.00000 
 43692.65567		 305.27265			43387.38302		66.69000		324.00000 
 43692.65567		 667.59000			43025.06567		213.89800		875.00000 
 43692.65567		 305.27265			43387.38302		66.69000		324.00000 
 43692.65567		 667.59000			43025.06567		213.89800		875.00000 
 43692.65567		 305.27265			43387.38302		66.69000		324.00000 
 43692.65567		 667.59000			43025.06567		213.89800		875.00000 
 43692.65567		 305.27265			43387.38302		66.69000		324.00000 
 43692.65567		 667.59000			43025.06567		213.89800		875.00000 
 43692.65567		 305.27265			43387.38302		66.69000		324.00000 
 43692.65567		 667.59000			43025.06567		213.89800		875.00000 
 43692.65567		 305.27265			43387.38302		66.69000		324.00000 
 43692.65567		 667.59000			43025.06567		213.89800		875.00000 
 43692.65567		 305.27265			43387.38302		66.69000		324.00000 
 43692.65567		 667.59000			43025.06567		220.11600		875.00000 
 43692.65567		 305.27265			43387.38302		66.69000		324.00000 
 43692.65567		 667.59000			43025.06567		220.11600		875.00000 
 43692.65567		 305.27265			43387.38302		66.69000		324.00000 
 43692.65567		 667.59000			43025.06567		220.11600		875.00000 
 43692.65567		 305.27265			43387.38302		66.69000		324.00000 
 43692.65567		 667.59000			43025.06567		220.11600		875.00000 
 43692.65567		 305.27265			43387.38302		66.69000		324.00000 
 43692.65567		 667.59000			43025.06567		220.11600		875.00000 
 43692.65567		 305.27265			43387.38302		66.69000		324.00000 
 43692.65567		 667.59000			43025.06567		220.11600		875.00000 
 43692.65567		 305.27265			43387.38302		66.69000		324.00000 
 43692.65567		 667.59000			43025.06567		220.11600		875.00000 
 43692.65567		 305.27265			43387.38302		66.69000		324.00000 
 43692.65567		 667.59000			43025.06567		220.11600		875.00000 
 43692.65567		 305.27265			43387.38302		66.69000		324.00000 
 43692.65567		 667.59000			43025.06567		220.11600		875.00000 
 43692.65567		 305.27265			43387.38302		66.69000		324.00000 
 43692.65567		 667.59000			43025.06567		220.11600		875.00000 
 43692.65567		 305.27265			43387.38302		66.69000		324.00000 
 43692.65567		 667.59000			43025.06567		220.11600		875.00000 
 43692.65567		 305.27265			43387.38302		66.69000		324.00000 
 43692.65567		 667.59000			43025.06567		220.11600		875.00000 
 43692.65567		 305.27265			43387.38302		66.69000		324.00000 
 43692.65567		 667.59000			43025.06567		220.11600		875.00000 
 43692.65567		 305.27265			43387.38302		66.69000		324.00000 
 43692.65567		 667.59000			43025.06567		220.11600		875.00000 
 43692.65567		 305.27265			43387.38302		66.69000		324.00000 
 43692.65567		 667.59000			43025.06567		220.11600		875.00000 
 43692.65567		 305.27265			43387.38302		66.69000		324.00000 
 43692.65567		 667.59000			43025.06567		220.11600		875.00000 
 43692.65567		 305.27265			43387.38302		66.69000		324.00000 
 43692.65567		 667.59000			43025.06567		220.11600		875.00000 
 43692.65567		 305.27265			43387.38302		66.69000		324.00000 
 43692.65567		 667.59000			43025.06567		220.11600		875.00000 
 43692.65567		 305.27265			43387.38302		66.69000		324.00000 
 43692.65567		 667.59000			43025.06567		220.11600		875.00000 
 43692.65567		 305.27265			43387.38302		66.69000		324.00000 
 43692.65567		 667.59000			43025.06567		220.11600		875.00000 
 43692.65567		 305.27265			43387.38302		66.69000		324.00000 
 43692.65567		 667.59000			43025.06567		220.11600		875.00000 
 43692.65567		 305.27265			43387.38302		66.69000		324.00000 
 43692.65567		 667.59000			43025.06567		220.11600		875.00000 
 43692.65567		 305.27265			43387.38302		66.69000		324.00000 
 43692.65567		 667.59000			43025.06567		220.11600		875.00000 
 43692.65567		 305.27265			43387.38302		66.69000		324.00000 
 43692.65567		 667.59000			43025.06567		220.11600		875.00000 
 43692.65567		 305.27265			43387.38302		66.69000		324.00000 
 43692.65567		 667.59000			43025.06567		220.11600		875.00000 
 43692.65567		 305.27265			43387.38302		66.69000		324.00000 
 43692.65567		 667.59000			43025.06567		220.11600		875.00000 
 43692.65567		 305.27265			43387.38302		66.69000		324.00000 
 43692.65567		 667.59000			43025.06567		220.11600		875.00000 
 43692.65567		 305.27265			43387.38302		66.69000		324.00000 
 43692.65567		 667.59000			43025.06567		220.11600		875.00000 
 43692.65567		 305.27265			43387.38302		66.69000		324.00000 
 43692.65567		 667.59000			43025.06567		220.11600		875.00000 
 43692.65567		 305.27265			43387.38302		66.69000		324.00000 
 43692.65567		 667.59000			43025.06567		220.11600		875.00000 
 43692.65567		 305.27265			43387.38302		66.69000		324.00000 
 43692.65567		 667.59000			43025.06567		220.11600		875.00000 
 43692.65567		 305.27265			43387.38302		66.69000		324.00000 
 43692.65567		 667.59000			43025.06567		220.11600		875.00000 
 43692.65567		 305.27265			43387.38302		66.69000		324.00000 
 43692.65567		 667.59000			43025.06567		220.11600		875.00000 
 43692.65567		 305.27265			43387.38302		66.69000		324.00000 
 43692.65567		 667.59000			43025.06567		220.11600		875.00000 
 43692.65567		 305.27265			43387.38302		66.69000		324.00000 
 43692.65567		 667.59000			43025.06567		220.11600		875.00000 
 43692.65567		 305.27265			43387.38302		66.69000		324.00000 
 43692.65567		 667.59000			43025.06567		220.11600		875.00000 
 43692.65567		 305.27265			43387.38302		66.69000		324.00000 
 43692.65567		 667.59000			43025.06567		220.11600		875.00000 
 43692.65567		 305.27265			43387.38302		66.69000		324.00000 
 43692.65567		 667.59000			43025.06567		220.11600		875.00000 
 43692.65567		 305.27265			43387.38302		66.69000		324.00000 
 43692.65567		 667.59000			43025.06567		220.11600		875.00000 
 43692.65567		 305.27265			43387.38302		66.69000		324.00000 
 43692.65567		 667.59000			43025.06567		220.11600		875.00000 
 43692.65567		 305.27265			43387.38302		66.69000		324.00000 
 43692.65567		 667.59000			43025.06567		220.11600		875.00000 
 43692.65567		 305.27265			43387.38302		66.69000		324.00000 
 43692.65567		 667.59000			43025.06567		220.11600		875.00000 
 43692.65567		 305.27265			43387.38302		66.69000		324.00000 
 43692.65567		 667.59000			43025.06567		220.11600		875.00000 
 43692.65567		 305.27265			43387.38302		66.69000		324.00000 
 43692.65567		 667.59000			43025.06567		220.11600		875.00000 
 43692.65567		 305.27265			43387.38302		66.69000		324.00000 
 43692.65567		 667.59000			43025.06567		220.11600		875.00000 
 43692.65567		 305.27265			43387.38302		66.69000		324.00000 
 43692.65567		 667.59000			43025.06567		220.11600		875.00000 
 43692.65567		 305.27265			43387.38302		66.69000		324.00000 
 43692.65567		 667.59000			43025.06567		220.11600		875.00000 
 43692.65567		 305.27265			43387.38302		66.69000		324.00000 
 43692.65567		 667.59000			43025.06567		220.11600		875.00000 
 43692.65567		 305.27265			43387.38302		66.69000		324.00000 
 43692.65567		 667.59000			43025.06567		220.11600		875.00000 
 43692.65567		 305.27265			43387.38302		66.69000		324.00000 
 43692.65567		 667.59000			43025.06567		220.11600		875.00000 
 43692.65567		 305.27265			43387.38302		66.69000		324.00000 
 43692.65567		 667.59000			43025.06567		220.11600		875.00000 
 43692.65567		 305.27265			43387.38302		66.69000		324.00000 
 43692.65567		 667.59000			43025.06567		220.11600		875.00000 
 43692.65567		 305.27265			43387.38302		66.69000		324.00000 
 43692.65567		 667.59000			43025.06567		220.11600		875.00000 
 43692.65567		 305.27265			43387.38302		66.69000		324.00000 
 43692.65567		 667.59000			43025.06567		220.11600		875.00000 
 43692.65567		 305.27265			43387.38302		66.69000		324.00000 
 43692.65567		 667.59000			43025.06567		220.11600		875.00000 
 43692.65567		 305.27265			43387.38302		66.69000		324.00000 
 43692.65567		 667.59000			43025.06567		220.11600		875.00000 
 43692.65567		 305.27265			43387.38302		66.69000		324.00000 
 43692.65567		 667.59000			43025.06567		220.11600		875.00000 
 43692.65567		 305.27265			43387.38302		66.69000		324.00000 
 43692.65567		 667.59000			43025.06567		220.11600		875.00000 
 43692.65567		 305.27265			43387.38302		66.69000		324.00000 
 43692.65567		 667.59000			43025.06567		220.11600		875.00000 
 43692.65567		 305.27265			43387.38302		66.69000		324.00000 
 43692.65567		 667.59000			43025.06567		220.11600		875.00000 
 43692.65567		 305.27265			43387.38302		66.69000		324.00000 
 43692.65567		 667.59000			43025.06567		220.11600		875.00000 
 43692.65567		 305.27265			43387.38302		66.69000		324.00000 
 43692.65567		 667.59000			43025.06567		220.11600		875.00000 
 43692.65567		 305.27265			43387.38302		66.69000		324.00000 
 43692.65567		 667.59000			43025.06567		220.11600		875.00000 
 43692.65567		 305.27265			43387.38302		66.69000		324.00000 
 43692.65567		 667.59000			43025.06567		220.11600		875.00000 
 43692.65567		 305.27265			43387.38302		66.69000		324.00000 
 43692.65567		 667.59000			43025.06567		220.11600		875.00000 
 43692.65567		 305.27265			43387.38302		66.69000		324.00000 
 43692.65567		 667.59000			43025.06567		221.43000		875.00000 
 43692.65567		 305.27265			43387.38302		66.69000		324.00000 
 43692.65567		 667.59000			43025.06567		221.43000		875.00000 
 43692.65567		 305.27265			43387.38302		66.69000		324.00000 
 43692.65567		 667.59000			43025.06567		221.43000		875.00000 
 43692.65567		 305.27265			43387.38302		66.69000		324.00000 
 43692.65567		 667.59000			43025.06567		221.43000		875.00000 
 43692.65567		 305.27265			43387.38302		66.69000		324.00000 
 43692.65567		 667.59000			43025.06567		221.43000		875.00000 
 43692.65567		 305.27265			43387.38302		66.69000		324.00000 
 43692.65567		 667.59000			43025.06567		221.43000		875.00000 
 43692.65567		 305.27265			43387.38302		66.69000		324.00000 
 43692.65567		 667.59000			43025.06567		221.43000		875.00000 
 43692.65567		 305.27265			43387.38302		66.69000		324.00000 
 43692.65567		 667.59000			43025.06567		221.43000		875.00000 
 43692.65567		 305.27265			43387.38302		66.69000		324.00000 
 43692.65567		 667.59000			43025.06567		221.43000		875.00000 
 43692.65567		 305.27265			43387.38302		66.69000		324.00000 
 43692.65567		 667.59000			43025.06567		221.43000		875.00000 
 43692.65567		 305.27265			43387.38302		66.69000		324.00000 
 43692.65567		 667.59000			43025.06567		221.43000		875.00000 
 43692.65567		 305.27265			43387.38302		66.69000		324.00000 
 43692.65567		 667.59000			43025.06567		221.43000		875.00000 
 43692.65567		 305.27265			43387.38302		66.69000		324.00000 
 43692.65567		 667.59000			43025.06567		221.43000		875.00000 
 43692.65567		 305.27265			43387.38302		66.69000		324.00000 
 43692.65567		 667.59000			43025.06567		221.43000		875.00000 
 43692.65567		 305.27265			43387.38302		66.69000		324.00000 
 43692.65567		 667.59000			43025.06567		221.43000		875.00000 
 43692.65567		 305.27265			43387.38302		66.69000		324.00000 
 43692.65567		 667.59000			43025.06567		221.43000		875.00000 
 43692.65567		 305.27265			43387.38302		66.69000		324.00000 
 43692.65567		 667.59000			43025.06567		221.43000		875.00000 
 43692.65567		 305.27265			43387.38302		66.69000		324.00000 
 43692.65567		 667.59000			43025.06567		221.43000		875.00000 
 43692.65567		 305.27265			43387.38302		66.69000		324.00000 
 43692.65567		 667.59000			43025.06567		221.43000		875.00000 
 43692.65567		 305.27265			43387.38302		66.69000		324.00000 
 43692.65567		 667.59000			43025.06567		221.43000		875.00000 
 43692.65567		 305.27265			43387.38302		66.69000		324.00000 
 43692.65567		 667.59000			43025.06567		221.43000		875.00000 
 43692.65567		 305.27265			43387.38302		66.69000		324.00000 
 43692.65567		 667.59000			43025.06567		221.43000		875.00000 
 43692.65567		 305.27265			43387.38302		66.69000		324.00000 
 43692.65567		 667.59000			43025.06567		221.43000		875.00000 
 43692.65567		 305.27265			43387.38302		66.69000		324.00000 
 43692.65567		 667.59000			43025.06567		221.43000		875.00000 
 43692.65567		 305.27265			43387.38302		66.69000		324.00000 
 43692.65567		 667.59000			43025.06567		221.43000		875.00000 
 43692.65567		 305.27265			43387.38302		66.69000		324.00000 
 43692.65567		 667.59000			43025.06567		221.43000		875.00000 
 43692.65567		 305.27265			43387.38302		66.69000		324.00000 
 43692.65567		 667.59000			43025.06567		221.43000		875.00000 
 43692.65567		 305.27265			43387.38302		66.69000		324.00000 
 43692.65567		 667.59000			43025.06567		221.43000		875.00000 
 43692.65567		 305.27265			43387.38302		66.69000		324.00000 
 43692.65567		 667.59000			43025.06567		221.43000		875.00000 
 43692.65567		 305.27265			43387.38302		66.69000		324.00000 
 43692.65567		 667.59000			43025.06567		221.43000		875.00000 
 43692.65567		 305.27265			43387.38302		66.69000		324.00000 
 43692.65567		 667.59000			43025.06567		221.43000		875.00000 
 43692.65567		 305.27265			43387.38302		66.69000		324.00000 
 43692.65567		 667.59000			43025.06567		221.43000		875.00000 
 43692.65567		 305.27265			43387.38302		66.69000		324.00000 
 43692.65567		 667.59000			43025.06567		221.43000		875.00000 
 43692.65567		 305.27265			43387.38302		66.69000		324.00000 
 43692.65567		 667.59000			43025.06567		221.43000		875.00000 
 43692.65567		 305.27265			43387.38302		66.69000		324.00000 
 43692.65567		 667.59000			43025.06567		221.43000		875.00000 
 43692.65567		 305.27265			43387.38302		66.69000		324.00000 
 43692.65567		 667.59000			43025.06567		221.43000		875.00000 
 43692.65567		 305.27265			43387.38302		66.69000		324.00000 
 43692.65567		 667.59000			43025.06567		221.43000		875.00000 
 43692.65567		 305.27265			43387.38302		66.69000		324.00000 
 43692.65567		 667.59000			43025.06567		221.43000		875.00000 
 43692.65567		 305.27265			43387.38302		66.69000		324.00000 
 43692.65567		 667.59000			43025.06567		221.43000		875.00000 
 43692.65567		 305.27265			43387.38302		66.69000		324.00000 
 43692.65567		 667.59000			43025.06567		221.43000		875.00000 
 43692.65567		 305.27265			43387.38302		66.69000		324.00000 
 43692.65567		 667.59000			43025.06567		221.43000		875.00000 
 43692.65567		 305.27265			43387.38302		66.69000		324.00000 
 43692.65567		 667.59000			43025.06567		221.43000		875.00000 
 43692.65567		 305.27265			43387.38302		66.69000		324.00000 
 43692.65567		 667.59000			43025.06567		221.43000		875.00000 
 43692.65567		 305.27265			43387.38302		66.69000		324.00000 
 43692.65567		 667.59000			43025.06567		221.43000		875.00000 
 43692.65567		 305.27265			43387.38302		66.69000		324.00000 
 43692.65567		 667.59000			43025.06567		221.43000		875.00000 
 43692.65567		 305.27265			43387.38302		66.69000		324.00000 
 43692.65567		 667.59000			43025.06567		221.43000		875.00000 
 43692.65567		 305.27265			43387.38302		66.69000		324.00000 
 43692.65567		 667.59000			43025.06567		221.43000		875.00000 
 43692.65567		 305.27265			43387.38302		66.69000		324.00000 
 43692.65567		 667.59000			43025.06567		221.43000		875.00000 
 43692.65567		 305.27265			43387.38302		66.69000		324.00000 
 43692.65567		 667.59000			43025.06567		221.43000		875.00000 
 43692.65567		 305.27265			43387.38302		66.69000		324.00000 
 43692.65567		 667.59000			43025.06567		221.43000		875.00000 
 43692.65567		 305.27265			43387.38302		66.69000		324.00000 
 43692.65567		 667.59000			43025.06567		221.43000		875.00000 
 43692.65567		 305.27265			43387.38302		66.69000		324.00000 
 43692.65567		 667.59000			43025.06567		221.43000		875.00000 
 43692.65567		 305.27265			43387.38302		66.69000		324.00000 
 43692.65567		 667.59000			43025.06567		221.43000		875.00000 
 43692.65567		 305.27265			43387.38302		66.69000		324.00000 
 43692.65567		 667.59000			43025.06567		221.43000		875.00000 
 43692.65567		 305.27265			43387.38302		66.69000		324.00000 
 43692.65567		 667.59000			43025.06567		221.43000		875.00000 
 43692.65567		 305.27265			43387.38302		66.69000		324.00000 
 43692.65567		 667.59000			43025.06567		221.43000		875.00000 
 43692.65567		 305.27265			43387.38302		66.69000		324.00000 
 43692.65567		 667.59000			43025.06567		221.43000		875.00000 
 43692.65567		 305.27265			43387.38302		66.69000		324.00000 
 43692.65567		 667.59000			43025.06567		221.43000		875.00000 
 43692.65567		 305.27265			43387.38302		66.69000		324.00000 
 43692.65567		 667.59000			43025.06567		221.43000		875.00000 
 43692.65567		 305.27265			43387.38302		66.69000		324.00000 
 43692.65567		 667.59000			43025.06567		221.43000		875.00000 
 43692.65567		 305.27265			43387.38302		66.69000		324.00000 
 43692.65567		 667.59000			43025.06567		221.43000		875.00000 
 43692.65567		 305.27265			43387.38302		66.69000		324.00000 
 43692.65567		 667.59000			43025.06567		221.43000		875.00000 
 43692.65567		 305.27265			43387.38302		66.69000		324.00000 
 43692.65567		 667.59000			43025.06567		221.43000		875.00000 
 43692.65567		 305.27265			43387.38302		66.69000		324.00000 
 43692.65567		 667.59000			43025.06567		221.43000		875.00000 
 43692.65567		 305.27265			43387.38302		66.69000		324.00000 
 43692.65567		 667.59000			43025.06567		221.43000		875.00000 
 43692.65567		 305.27265			43387.38302		66.69000		324.00000 
 43692.65567		 667.59000			43025.06567		222.66000		875.00000 
 43692.65567		 305.27265			43387.38302		66.69000		324.00000 
 43692.65567		 667.59000			43025.06567		222.66000		875.00000 
 43692.65567		 305.27265			43387.38302		66.69000		324.00000 
 43692.65567		 667.59000			43025.06567		222.66000		875.00000 
 43692.65567		 305.27265			43387.38302		66.69000		324.00000 
 43692.65567		 667.59000			43025.06567		222.66000		875.00000 
 43692.65567		 305.27265			43387.38302		66.69000		324.00000 
 43692.65567		 667.59000			43025.06567		222.66000		875.00000 
 43692.65567		 305.27265			43387.38302		66.69000		324.00000 
 43692.65567		 667.59000			43025.06567		222.66000		875.00000 
 43692.65567		 305.27265			43387.38302		66.69000		324.00000 
 43692.65567		 667.59000			43025.06567		222.66000		875.00000 
 43692.65567		 305.27265			43387.38302		66.69000		324.00000 
 43692.65567		 667.59000			43025.06567		222.66000		875.00000 
 43692.65567		 305.27265			43387.38302		66.69000		324.00000 
 43692.65567		 667.59000			43025.06567		222.66000		875.00000 
 43692.65567		 305.27265			43387.38302		66.69000		324.00000 
 43692.65567		 667.59000			43025.06567		222.66000		875.00000 
 43692.65567		 305.27265			43387.38302		66.69000		324.00000 
 43692.65567		 667.59000			43025.06567		222.66000		875.00000 
 43692.65567		 305.27265			43387.38302		66.69000		324.00000 
 43692.65567		 667.59000			43025.06567		222.66000		875.00000 
 43692.65567		 305.27265			43387.38302		66.69000		324.00000 
 43692.65567		 667.59000			43025.06567		222.66000		875.00000 
 43692.65567		 305.27265			43387.38302		66.69000		324.00000 
 43692.65567		 667.59000			43025.06567		222.66000		875.00000 
 43692.65567		 305.27265			43387.38302		66.69000		324.00000 
 43692.65567		 667.59000			43025.06567		222.66000		875.00000 
 43692.65567		 305.27265			43387.38302		66.69000		324.00000 
 43692.65567		 667.59000			43025.06567		222.66000		875.00000 
 43692.65567		 305.27265			43387.38302		66.69000		324.00000 
 43692.65567		 667.59000			43025.06567		222.66000		875.00000 
 43692.65567		 305.27265			43387.38302		66.69000		324.00000 
 43692.65567		 667.59000			43025.06567		222.66000		875.00000 
 43692.65567		 305.27265			43387.38302		66.69000		324.00000 
 43692.65567		 667.59000			43025.06567		222.66000		875.00000 
 43692.65567		 305.27265			43387.38302		66.69000		324.00000 
 43692.65567		 667.59000			43025.06567		222.66000		875.00000 
 43692.65567		 305.27265			43387.38302		66.69000		324.00000 
 43692.65567		 667.59000			43025.06567		222.66000		875.00000 
 43692.65567		 305.27265			43387.38302		66.69000		324.00000 
 43692.65567		 667.59000			43025.06567		222.66000		875.00000 
 43692.65567		 305.27265			43387.38302		66.69000		324.00000 
 43692.65567		 667.59000			43025.06567		222.66000		875.00000 
 43692.65567		 305.27265			43387.38302		66.69000		324.00000 
 43692.65567		 667.59000			43025.06567		222.66000		875.00000 
 43692.65567		 305.27265			43387.38302		66.69000		324.00000 
 43692.65567		 667.59000			43025.06567		222.66000		875.00000 
 43692.65567		 305.27265			43387.38302		66.69000		324.00000 
 43692.65567		 667.59000			43025.06567		222.66000		875.00000 
 43692.65567		 305.27265			43387.38302		66.69000		324.00000 
 43692.65567		 667.59000			43025.06567		222.66000		875.00000 
 43692.65567		 305.27265			43387.38302		66.69000		324.00000 
 43692.65567		 667.59000			43025.06567		222.66000		875.00000 
 43692.65567		 305.27265			43387.38302		66.69000		324.00000 
 43692.65567		 667.59000			43025.06567		222.66000		875.00000 
 43692.65567		 305.27265			43387.38302		66.69000		324.00000 
 43692.65567		 667.59000			43025.06567		222.66000		875.00000 
 43692.65567		 305.27265			43387.38302		66.69000		324.00000 
 43692.65567		 667.59000			43025.06567		222.66000		875.00000 
 43692.65567		 305.27265			43387.38302		66.69000		324.00000 
 43692.65567		 667.59000			43025.06567		222.66000		875.00000 
 43692.65567		 305.27265			43387.38302		66.69000		324.00000 
 43692.65567		 667.59000			43025.06567		222.66000		875.00000 
 43692.65567		 305.27265			43387.38302		66.69000		324.00000 
 43692.65567		 667.59000			43025.06567		222.66000		875.00000 
 43692.65567		 305.27265			43387.38302		66.69000		324.00000 
 43692.65567		 667.59000			43025.06567		222.66000		875.00000 
 43692.65567		 305.27265			43387.38302		66.69000		324.00000 
 43692.65567		 667.59000			43025.06567		222.66000		875.00000 
 43692.65567		 305.27265			43387.38302		66.69000		324.00000 
 43692.65567		 667.59000			43025.06567		222.66000		875.00000 
 43692.65567		 305.27265			43387.38302		66.69000		324.00000 
 43692.65567		 667.59000			43025.06567		222.66000		875.00000 
 43692.65567		 305.27265			43387.38302		66.69000		324.00000 
 43692.65567		 667.59000			43025.06567		222.66000		875.00000 
 43692.65567		 305.27265			43387.38302		66.69000		324.00000 
 43692.65567		 667.59000			43025.06567		222.66000		875.00000 
 43692.65567		 305.27265			43387.38302		66.69000		324.00000 
 43692.65567		 667.59000			43025.06567		222.66000		875.00000 
 43692.65567		 305.27265			43387.38302		66.69000		324.00000 
 43692.65567		 667.59000			43025.06567		222.66000		875.00000 
 43692.65567		 305.27265			43387.38302		66.69000		324.00000 
 43692.65567		 667.59000			43025.06567		222.66000		875.00000 
 43692.65567		 305.27265			43387.38302		66.69000		324.00000 
 43692.65567		 667.59000			43025.06567		222.66000		875.00000 
 43692.65567		 305.27265			43387.38302		66.69000		324.00000 
 43692.65567		 667.59000			43025.06567		222.66000		875.00000 
 43692.65567		 305.27265			43387.38302		66.69000		324.00000 
 43692.65567		 667.59000			43025.06567		222.66000		875.00000 
 43692.65567		 305.27265			43387.38302		66.69000		324.00000 
 43692.65567		 667.59000			43025.06567		222.66000		875.00000 
 43692.65567		 305.27265			43387.38302		66.69000		324.00000 
 43692.65567		 667.59000			43025.06567		222.66000		875.00000 
 43692.65567		 305.27265			43387.38302		66.69000		324.00000 
 43692.65567		 667.59000			43025.06567		222.66000		875.00000 
 43692.65567		 305.27265			43387.38302		66.69000		324.00000 
 43692.65567		 667.59000			43025.06567		222.66000		875.00000 
 43692.65567		 305.27265			43387.38302		66.69000		324.00000 
 43692.65567		 667.59000			43025.06567		222.66000		875.00000 
 43692.65567		 305.27265			43387.38302		66.69000		324.00000 
 43692.65567		 667.59000			43025.06567		222.66000		875.00000 
 43692.65567		 305.27265			43387.38302		66.69000		324.00000 
 43692.65567		 667.59000			43025.06567		222.66000		875.00000 
 43692.65567		 305.27265			43387.38302		66.69000		324.00000 
 43692.65567		 667.59000			43025.06567		222.66000		875.00000 
 43692.65567		 305.27265			43387.38302		66.69000		324.00000 
 43692.65567		 667.59000			43025.06567		222.66000		875.00000 
 43692.65567		 305.27265			43387.38302		66.69000		324.00000 
 43692.65567		 667.59000			43025.06567		222.66000		875.00000 
 43692.65567		 305.27265			43387.38302		66.69000		324.00000 
 43692.65567		 667.59000			43025.06567		222.66000		875.00000 
 43692.65567		 305.27265			43387.38302		66.69000		324.00000 
 43692.65567		 667.59000			43025.06567		222.66000		875.00000 
 43692.65567		 305.27265			43387.38302		66.69000		324.00000 
 43692.65567		 667.59000			43025.06567		222.66000		875.00000 
 43692.65567		 305.27265			43387.38302		66.69000		324.00000 
 43692.65567		 667.59000			43025.06567		222.66000		875.00000 
 43692.65567		 305.27265			43387.38302		66.69000		324.00000 
 43692.65567		 667.59000			43025.06567		222.66000		875.00000 
 43692.65567		 305.27265			43387.38302		66.69000		324.00000 
 43692.65567		 667.59000			43025.06567		222.66000		875.00000 
 43692.65567		 305.27265			43387.38302		66.69000		324.00000 
 43692.65567		 667.59000			43025.06567		222.66000		875.00000 
 43692.65567		 305.27265			43387.38302		66.69000		324.00000 
 43692.65567		 667.59000			43025.06567		222.66000		875.00000 
 43692.65567		 305.27265			43387.38302		66.69000		324.00000 
 43692.65567		 667.59000			43025.06567		222.66000		875.00000 
 43692.65567		 305.27265			43387.38302		66.69000		324.00000 
 43692.65567		 667.59000			43025.06567		222.66000		875.00000 
 43692.65567		 305.27265			43387.38302		66.69000		324.00000 
 43692.65567		 667.59000			43025.06567		222.66000		875.00000 
 43692.65567		 305.27265			43387.38302		66.69000		324.00000 
 43692.65567		 667.59000			43025.06567		222.66000		875.00000 
 43692.65567		 305.27265			43387.38302		66.69000		324.00000 
 43692.65567		 667.59000			43025.06567		222.66000		875.00000 
 43692.65567		 305.27265			43387.38302		66.69000		324.00000 
 43692.65567		 667.59000			43025.06567		222.66000		875.00000 
 43692.65567		 305.27265			43387.38302		66.69000		324.00000 
 43692.65567		 667.59000			43025.06567		222.66000		875.00000 
 43692.65567		 305.27265			43387.38302		66.69000		324.00000 
 43692.65567		 667.59000			43025.06567		222.66000		875.00000 
 43692.65567		 305.27265			43387.38302		66.69000		324.00000 
 43692.65567		 667.59000			43025.06567		222.66000		875.00000 
 43692.65567		 305.27265			43387.38302		66.69000		324.00000 
 43692.65567		 667.59000			43025.06567		222.66000		875.00000 
 43692.65567		 305.27265			43387.38302		66.69000		324.00000 
 43692.65567		 667.59000			43025.06567		222.66000		875.00000 
 43692.65567		 305.27265			43387.38302		66.69000		324.00000 
 43692.65567		 667.59000			43025.06567		222.66000		875.00000 
 43692.65567		 305.27265			43387.38302		66.69000		324.00000 
 43692.65567		 667.59000			43025.06567		222.66000		875.00000 
 43692.65567		 305.27265			43387.38302		66.69000		324.00000 
 43692.65567		 667.59000			43025.06567		222.66000		875.00000 
 43692.65567		 305.27265			43387.38302		66.69000		324.00000 
 43692.65567		 667.59000			43025.06567		222.66000		875.00000 
 43692.65567		 305.27265			43387.38302		66.69000		324.00000 
 43692.65567		 667.59000			43025.06567		222.66000		875.00000 
 43692.65567		 305.27265			43387.38302		66.69000		324.00000 
 43692.65567		 667.59000			43025.06567		222.66000		875.00000 
 43692.65567		 305.27265			43387.38302		66.69000		324.00000 
 43692.65567		 667.59000			43025.06567		222.66000		875.00000 
 43692.65567		 305.27265			43387.38302		66.69000		324.00000 
 43692.65567		 667.59000			43025.06567		222.66000		875.00000 
 43692.65567		 305.27265			43387.38302		66.69000		324.00000 
 43692.65567		 667.59000			43025.06567		222.66000		875.00000 
 43692.65567		 305.27265			43387.38302		66.69000		324.00000 
 43692.65567		 667.59000			43025.06567		222.66000		875.00000 
 43692.65567		 305.27265			43387.38302		66.69000		324.00000 
 43692.65567		 667.59000			43025.06567		222.66000		875.00000 
 43692.65567		 305.27265			43387.38302		66.69000		324.00000 
 43692.65567		 667.59000			43025.06567		222.66000		875.00000 
 43692.65567		 305.27265			43387.38302		66.69000		324.00000 
 43692.65567		 667.59000			43025.06567		222.66000		875.00000 
 43692.65567		 305.27265			43387.38302		66.69000		324.00000 
 43692.65567		 667.59000			43025.06567		222.66000		875.00000 
 43692.65567		 305.27265			43387.38302		66.69000		324.00000 
 43692.65567		 667.59000			43025.06567		222.66000		875.00000 
 43692.65567		 305.27265			43387.38302		66.69000		324.00000 
 43692.65567		 667.59000			43025.06567		222.66000		875.00000 
 43692.65567		 305.27265			43387.38302		66.69000		324.00000 
 43692.65567		 667.59000			43025.06567		222.66000		875.00000 
 43692.65567		 305.27265			43387.38302		66.69000		324.00000 
 43692.65567		 667.59000			43025.06567		222.66000		875.00000 
 43692.65567		 305.27265			43387.38302		66.69000		324.00000 
 43692.65567		 667.59000			43025.06567		222.66000		875.00000 
 43692.65567		 305.27265			43387.38302		66.69000		324.00000 
 43692.65567		 667.59000			43025.06567		222.66000		875.00000 
 43692.65567		 305.27265			43387.38302		66.69000		324.00000 
 43692.65567		 667.59000			43025.06567		222.66000		875.00000 
 43692.65567		 305.27265			43387.38302		66.69000		324.00000 
 43692.65567		 667.59000			43025.06567		222.66000		875.00000 
 43692.65567		 305.27265			43387.38302		66.69000		324.00000 
 43692.65567		 667.59000			43025.06567		222.66000		875.00000 
 43692.65567		 305.27265			43387.38302		66.69000		324.00000 
 43692.65567		 667.59000			43025.06567		222.66000		875.00000 
 43692.65567		 305.27265			43387.38302		66.69000		324.00000 
 43692.65567		 667.59000			43025.06567		222.66000		875.00000 
 43692.65567		 305.27265			43387.38302		66.69000		324.00000 
 43692.65567		 667.59000			43025.06567		222.66000		875.00000 
 43692.65567		 305.27265			43387.38302		66.69000		324.00000 
 43692.65567		 667.59000			43025.06567		222.66000		875.00000 
 43692.65567		 305.27265			43387.38302		66.69000		324.00000 
 43692.65567		 667.59000			43025.06567		222.66000		875.00000 
 43692.65567		 305.27265			43387.38302		66.69000		324.00000 
 43692.65567		 667.59000			43025.06567		222.66000		875.00000 
 43692.65567		 305.27265			43387.38302		66.69000		324.00000 
 43692.65567		 667.59000			43025.06567		222.66000		875.00000 
 43692.65567		 305.27265			43387.38302		66.69000		324.00000 
 43692.65567		 667.59000			43025.06567		222.66000		875.00000 
 43692.65567		 305.27265			43387.38302		66.69000		324.00000 
 43692.65567		 667.59000			43025.06567		222.66000		875.00000 
 43692.65567		 305.27265			43387.38302		66.69000		324.00000 
 43692.65567		 667.59000			43025.06567		222.66000		875.00000 
 43692.65567		 305.27265			43387.38302		66.69000		324.00000 
 43692.65567		 667.59000			43025.06567		222.66000		875.00000 
 43692.65567		 305.27265			43387.38302		66.69000		324.00000 
 43692.65567		 667.59000			43025.06567		222.66000		875.00000 
 43692.65567		 305.27265			43387.38302		66.69000		324.00000 
 43692.65567		 667.59000			43025.06567		222.66000		875.00000 
 43692.65567		 305.27265			43387.38302		66.69000		324.00000 
 43692.65567		 667.59000			43025.06567		222.66000		875.00000 
 43692.65567		 305.27265			43387.38302		66.69000		324.00000 
 43692.65567		 667.59000			43025.06567		222.66000		875.00000 
 43692.65567		 305.27265			43387.38302		66.69000		324.00000 
 43692.65567		 667.59000			43025.06567		222.66000		875.00000 
 43692.65567		 305.27265			43387.38302		66.69000		324.00000 
 43692.65567		 667.59000			43025.06567		222.66000		875.00000 
 43692.65567		 305.27265			43387.38302		66.69000		324.00000 
 43692.65567		 667.59000			43025.06567		222.66000		875.00000 
 43692.65567		 305.27265			43387.38302		66.69000		324.00000 
 43692.65567		 667.59000			43025.06567		222.66000		875.00000 
 43692.65567		 305.27265			43387.38302		66.69000		324.00000 
 43692.65567		 667.59000			43025.06567		222.66000		875.00000 
 43692.65567		 305.27265			43387.38302		66.69000		324.00000 
 43692.65567		 667.59000			43025.06567		222.66000		875.00000 
 43692.65567		 305.27265			43387.38302		66.69000		324.00000 
 43692.65567		 667.59000			43025.06567		222.66000		875.00000 
 43692.65567		 305.27265			43387.38302		66.69000		324.00000 
 43692.65567		 667.59000			43025.06567		222.66000		875.00000 
 43692.65567		 305.27265			43387.38302		66.69000		324.00000 
 43692.65567		 667.59000			43025.06567		222.66000		875.00000 
 43692.65567		 305.27265			43387.38302		66.69000		324.00000 
 43692.65567		 667.59000			43025.06567		222.66000		875.00000 
 43692.65567		 305.27265			43387.38302		66.69000		324.00000 
 43692.65567		 667.59000			43025.06567		222.66000		875.00000 
 43692.65567		 305.27265			43387.38302		66.69000		324.00000 
 43692.65567		 667.59000			43025.06567		222.66000		875.00000 
 43692.65567		 305.27265			43387.38302		66.69000		324.00000 
 43692.65567		 667.59000			43025.06567		222.66000		875.00000 
 43692.65567		 305.27265			43387.38302		66.69000		324.00000 
 43692.65567		 667.59000			43025.06567		222.66000		875.00000 
 43692.65567		 305.27265			43387.38302		66.69000		324.00000 
 43692.65567		 667.59000			43025.06567		222.66000		875.00000 
 43692.65567		 305.27265			43387.38302		66.69000		324.00000 
 43692.65567		 667.59000			43025.06567		222.66000		875.00000 
 43692.65567		 305.27265			43387.38302		66.69000		324.00000 
 43692.65567		 667.59000			43025.06567		222.66000		875.00000 
 43692.65567		 305.27265			43387.38302		66.69000		324.00000 
 43692.65567		 667.59000			43025.06567		222.66000		875.00000 
 43692.65567		 305.27265			43387.38302		66.69000		324.00000 
 43692.65567		 580.71022			43111.94546		222.66000		875.00000 
 43692.65567		 305.27265			43387.38302		66.69000		324.00000 
 43692.65567		 537.27032			43155.38535		222.66000		875.00000 
 43692.65567		 305.27265			43387.38302		66.69000		324.00000 
 43692.65567		 537.27032			43155.38535		222.66000		875.00000 
 43692.65567		 305.27265			43387.38302		66.69000		324.00000 
 43692.65567		 537.27032			43155.38535		222.66000		875.00000 
 43692.65567		 305.27265			43387.38302		66.69000		324.00000 
 43692.65567		 537.27032			43155.38535		222.66000		875.00000 
 43692.65567		 305.27265			43387.38302		66.69000		324.00000 
 43692.65567		 537.27032			43155.38535		222.66000		875.00000 
 43692.65567		 305.27265			43387.38302		66.69000		324.00000 
 43692.65567		 537.27032			43155.38535		222.66000		875.00000 
 43692.65567		 305.27265			43387.38302		66.69000		324.00000 
 43692.65567		 537.27032			43155.38535		222.66000		875.00000 
 43692.65567		 305.27265			43387.38302		66.69000		324.00000 
 43692.65567		 537.27032			43155.38535		222.66000		875.00000 
 43692.65567		 305.27265			43387.38302		66.69000		324.00000 
 43692.65567		 537.27032			43155.38535		222.66000		875.00000 
 43692.65567		 305.27265			43387.38302		66.69000		324.00000 
 43692.65567		 537.27032			43155.38535		222.66000		875.00000 
 43692.65567		 305.27265			43387.38302		66.69000		324.00000 
 43692.65567		 537.27032			43155.38535		222.66000		875.00000 
 43692.65567		 305.27265			43387.38302		66.69000		324.00000 
 43692.65567		 537.27032			43155.38535		222.66000		875.00000 
 43692.65567		 305.27265			43387.38302		66.69000		324.00000 
 43692.65567		 537.27032			43155.38535		222.66000		875.00000 
 43692.65567		 305.27265			43387.38302		66.69000		324.00000 
 43692.65567		 537.27032			43155.38535		222.66000		875.00000 
 43692.65567		 305.27265			43387.38302		66.69000		324.00000 
 43692.65567		 525.81365			43166.84203		222.66000		875.00000 
 43692.65567		 305.27265			43387.38302		66.69000		324.00000 
 43692.65567		 525.81365			43166.84203		222.66000		875.00000 
 43692.65567		 261.35540			43431.30027		66.69000		324.00000 
 43692.65567		 261.35540			43431.30027		222.66000		875.00000 
 43692.65567		 261.35540			43431.30027		66.69000		324.00000 
