Memory Total (MiB) 	 Memory Used (MiB) 	    Memory Free (MiB) 	 Power Drawed (W) 	 Clocks (Mhz) 	 
 43692.65567		 261.35540			43431.30027		176.35800		875.00000 
 43692.65567		 261.35540			43431.30027		65.73800		324.00000 
 43692.65567		 261.35540			43431.30027		176.35800		875.00000 
 43692.65567		 261.35540			43431.30027		65.73800		324.00000 
 43692.65567		 261.35540			43431.30027		176.35800		875.00000 
 43692.65567		 261.35540			43431.30027		65.73800		324.00000 
 43692.65567		 261.35540			43431.30027		176.35800		875.00000 
 43692.65567		 261.35540			43431.30027		65.73800		324.00000 
 43692.65567		 261.35540			43431.30027		176.35800		875.00000 
 43692.65567		 261.35540			43431.30027		65.73800		324.00000 
 43692.65567		 261.35540			43431.30027		176.35800		875.00000 
 43692.65567		 261.35540			43431.30027		65.73800		324.00000 
 43692.65567		 261.35540			43431.30027		176.35800		875.00000 
 43692.65567		 261.35540			43431.30027		65.73800		324.00000 
 43692.65567		 261.35540			43431.30027		176.35800		875.00000 
 43692.65567		 261.35540			43431.30027		65.73800		324.00000 
 43692.65567		 261.35540			43431.30027		176.35800		875.00000 
 43692.65567		 261.35540			43431.30027		65.73800		324.00000 
 43692.65567		 261.35540			43431.30027		176.35800		875.00000 
 43692.65567		 261.35540			43431.30027		65.73800		324.00000 
 43692.65567		 261.35540			43431.30027		176.35800		875.00000 
 43692.65567		 261.35540			43431.30027		65.73800		324.00000 
 43692.65567		 261.35540			43431.30027		176.35800		875.00000 
 43692.65567		 261.35540			43431.30027		65.73800		324.00000 
 43692.65567		 261.35540			43431.30027		176.35800		875.00000 
 43692.65567		 261.35540			43431.30027		65.73800		324.00000 
 43692.65567		 261.35540			43431.30027		176.35800		875.00000 
 43692.65567		 261.35540			43431.30027		65.73800		324.00000 
 43692.65567		 261.35540			43431.30027		176.35800		875.00000 
 43692.65567		 261.35540			43431.30027		65.73800		324.00000 
 43692.65567		 261.35540			43431.30027		176.35800		875.00000 
 43692.65567		 261.35540			43431.30027		65.73800		324.00000 
 43692.65567		 261.35540			43431.30027		176.35800		875.00000 
 43692.65567		 261.35540			43431.30027		65.73800		324.00000 
 43692.65567		 265.17429			43427.48138		176.35800		875.00000 
 43692.65567		 261.35540			43431.30027		65.73800		324.00000 
 43692.65567		 265.17429			43427.48138		176.35800		875.00000 
 43692.65567		 261.35540			43431.30027		65.73800		324.00000 
 43692.65567		 272.81207			43419.84360		176.35800		875.00000 
 43692.65567		 261.35540			43431.30027		65.73800		324.00000 
 43692.65567		 272.81207			43419.84360		176.35800		875.00000 
 43692.65567		 261.35540			43431.30027		65.73800		324.00000 
 43692.65567		 272.81207			43419.84360		176.35800		875.00000 
 43692.65567		 265.17429			43427.48138		65.73800		324.00000 
 43692.65567		 272.81207			43419.84360		176.35800		875.00000 
 43692.65567		 265.17429			43427.48138		65.73800		324.00000 
 43692.65567		 272.81207			43419.84360		176.35800		875.00000 
 43692.65567		 272.81207			43419.84360		65.73800		324.00000 
 43692.65567		 272.81207			43419.84360		176.35800		875.00000 
 43692.65567		 272.81207			43419.84360		65.73800		324.00000 
 43692.65567		 272.81207			43419.84360		176.35800		875.00000 
 43692.65567		 272.81207			43419.84360		65.73800		324.00000 
 43692.65567		 272.81207			43419.84360		176.35800		875.00000 
 43692.65567		 305.27265			43387.38302		65.73800		324.00000 
 43692.65567		 305.27265			43387.38302		176.35800		875.00000 
 43692.65567		 305.27265			43387.38302		65.73800		324.00000 
 43692.65567		 305.27265			43387.38302		176.35800		875.00000 
 43692.65567		 305.27265			43387.38302		65.73800		324.00000 
 43692.65567		 305.27265			43387.38302		176.35800		875.00000 
 43692.65567		 305.27265			43387.38302		65.73800		324.00000 
 43692.65567		 305.27265			43387.38302		176.35800		875.00000 
 43692.65567		 305.27265			43387.38302		65.73800		324.00000 
 43692.65567		 309.09154			43383.56413		176.35800		875.00000 
 43692.65567		 305.27265			43387.38302		65.73800		324.00000 
 43692.65567		 310.52363			43382.13204		176.35800		875.00000 
 43692.65567		 305.27265			43387.38302		65.73800		324.00000 
 43692.65567		 311.00099			43381.65468		149.06200		875.00000 
 43692.65567		 305.27265			43387.38302		65.73800		324.00000 
 43692.65567		 311.00099			43381.65468		149.06200		875.00000 
 43692.65567		 305.27265			43387.38302		65.73800		324.00000 
 43692.65567		 311.00099			43381.65468		149.06200		875.00000 
 43692.65567		 305.27265			43387.38302		65.73800		324.00000 
 43692.65567		 311.00099			43381.65468		149.06200		875.00000 
 43692.65567		 305.27265			43387.38302		65.73800		324.00000 
 43692.65567		 311.00099			43381.65468		149.06200		875.00000 
 43692.65567		 305.27265			43387.38302		65.73800		324.00000 
 43692.65567		 311.00099			43381.65468		149.06200		875.00000 
 43692.65567		 305.27265			43387.38302		65.73800		324.00000 
 43692.65567		 311.00099			43381.65468		149.06200		875.00000 
 43692.65567		 305.27265			43387.38302		65.73800		324.00000 
 43692.65567		 311.00099			43381.65468		149.06200		875.00000 
 43692.65567		 305.27265			43387.38302		65.73800		324.00000 
 43692.65567		 311.00099			43381.65468		149.06200		875.00000 
 43692.65567		 305.27265			43387.38302		65.73800		324.00000 
 43692.65567		 311.00099			43381.65468		149.06200		875.00000 
 43692.65567		 305.27265			43387.38302		65.73800		324.00000 
 43692.65567		 311.00099			43381.65468		149.06200		875.00000 
 43692.65567		 305.27265			43387.38302		65.73800		324.00000 
 43692.65567		 311.00099			43381.65468		149.06200		875.00000 
 43692.65567		 305.27265			43387.38302		65.73800		324.00000 
 43692.65567		 311.00099			43381.65468		149.06200		875.00000 
 43692.65567		 305.27265			43387.38302		65.73800		324.00000 
 43692.65567		 311.00099			43381.65468		149.06200		875.00000 
 43692.65567		 305.27265			43387.38302		65.73800		324.00000 
 43692.65567		 311.00099			43381.65468		149.06200		875.00000 
 43692.65567		 305.27265			43387.38302		65.73800		324.00000 
 43692.65567		 311.00099			43381.65468		149.06200		875.00000 
 43692.65567		 305.27265			43387.38302		65.73800		324.00000 
 43692.65567		 311.00099			43381.65468		149.06200		875.00000 
 43692.65567		 305.27265			43387.38302		65.73800		324.00000 
 43692.65567		 311.00099			43381.65468		149.06200		875.00000 
 43692.65567		 305.27265			43387.38302		65.73800		324.00000 
 43692.65567		 311.00099			43381.65468		149.06200		875.00000 
 43692.65567		 305.27265			43387.38302		65.73800		324.00000 
 43692.65567		 311.00099			43381.65468		149.06200		875.00000 
 43692.65567		 305.27265			43387.38302		65.73800		324.00000 
 43692.65567		 311.00099			43381.65468		149.06200		875.00000 
 43692.65567		 305.27265			43387.38302		65.73800		324.00000 
 43692.65567		 311.00099			43381.65468		149.06200		875.00000 
 43692.65567		 305.27265			43387.38302		65.73800		324.00000 
 43692.65567		 311.00099			43381.65468		149.06200		875.00000 
 43692.65567		 305.27265			43387.38302		65.73800		324.00000 
 43692.65567		 311.00099			43381.65468		149.06200		875.00000 
 43692.65567		 305.27265			43387.38302		65.73800		324.00000 
 43692.65567		 311.00099			43381.65468		149.06200		875.00000 
 43692.65567		 305.27265			43387.38302		65.73800		324.00000 
 43692.65567		 311.00099			43381.65468		149.06200		875.00000 
 43692.65567		 305.27265			43387.38302		65.73800		324.00000 
 43692.65567		 311.00099			43381.65468		149.06200		875.00000 
 43692.65567		 305.27265			43387.38302		65.73800		324.00000 
 43692.65567		 311.00099			43381.65468		149.06200		875.00000 
 43692.65567		 305.27265			43387.38302		65.73800		324.00000 
 43692.65567		 311.00099			43381.65468		149.06200		875.00000 
 43692.65567		 305.27265			43387.38302		65.73800		324.00000 
 43692.65567		 311.00099			43381.65468		149.06200		875.00000 
 43692.65567		 305.27265			43387.38302		65.73800		324.00000 
 43692.65567		 311.00099			43381.65468		149.06200		875.00000 
 43692.65567		 305.27265			43387.38302		65.73800		324.00000 
 43692.65567		 311.00099			43381.65468		149.06200		875.00000 
 43692.65567		 305.27265			43387.38302		65.73800		324.00000 
 43692.65567		 311.00099			43381.65468		138.09000		875.00000 
 43692.65567		 305.27265			43387.38302		65.73800		324.00000 
 43692.65567		 311.00099			43381.65468		138.09000		875.00000 
 43692.65567		 305.27265			43387.38302		65.73800		324.00000 
 43692.65567		 311.00099			43381.65468		138.09000		875.00000 
 43692.65567		 305.27265			43387.38302		65.73800		324.00000 
 43692.65567		 311.00099			43381.65468		138.09000		875.00000 
 43692.65567		 305.27265			43387.38302		65.73800		324.00000 
 43692.65567		 311.00099			43381.65468		138.09000		875.00000 
 43692.65567		 305.27265			43387.38302		65.73800		324.00000 
 43692.65567		 311.00099			43381.65468		138.09000		875.00000 
 43692.65567		 305.27265			43387.38302		65.73800		324.00000 
 43692.65567		 311.00099			43381.65468		138.09000		875.00000 
 43692.65567		 305.27265			43387.38302		65.73800		324.00000 
 43692.65567		 311.00099			43381.65468		138.09000		875.00000 
 43692.65567		 305.27265			43387.38302		65.73800		324.00000 
 43692.65567		 311.00099			43381.65468		138.09000		875.00000 
 43692.65567		 305.27265			43387.38302		65.73800		324.00000 
 43692.65567		 311.00099			43381.65468		138.09000		875.00000 
 43692.65567		 305.27265			43387.38302		65.73800		324.00000 
 43692.65567		 311.00099			43381.65468		138.09000		875.00000 
 43692.65567		 305.27265			43387.38302		65.73800		324.00000 
 43692.65567		 311.00099			43381.65468		138.09000		875.00000 
 43692.65567		 305.27265			43387.38302		65.73800		324.00000 
 43692.65567		 311.00099			43381.65468		138.09000		875.00000 
 43692.65567		 305.27265			43387.38302		65.73800		324.00000 
 43692.65567		 311.00099			43381.65468		138.09000		875.00000 
 43692.65567		 305.27265			43387.38302		65.73800		324.00000 
 43692.65567		 311.00099			43381.65468		138.09000		875.00000 
 43692.65567		 305.27265			43387.38302		65.73800		324.00000 
 43692.65567		 311.00099			43381.65468		138.09000		875.00000 
 43692.65567		 305.27265			43387.38302		65.73800		324.00000 
 43692.65567		 311.00099			43381.65468		138.09000		875.00000 
 43692.65567		 305.27265			43387.38302		65.73800		324.00000 
 43692.65567		 311.00099			43381.65468		138.09000		875.00000 
 43692.65567		 305.27265			43387.38302		65.73800		324.00000 
 43692.65567		 314.81988			43377.83579		138.09000		875.00000 
 43692.65567		 305.27265			43387.38302		65.73800		324.00000 
 43692.65567		 314.81988			43377.83579		138.09000		875.00000 
 43692.65567		 305.27265			43387.38302		65.73800		324.00000 
 43692.65567		 314.81988			43377.83579		138.09000		875.00000 
 43692.65567		 305.27265			43387.38302		65.73800		324.00000 
 43692.65567		 318.63877			43374.01690		138.09000		875.00000 
 43692.65567		 305.27265			43387.38302		65.73800		324.00000 
 43692.65567		 322.45767			43370.19801		138.09000		875.00000 
 43692.65567		 305.27265			43387.38302		65.73800		324.00000 
 43692.65567		 326.27656			43366.37912		138.09000		875.00000 
 43692.65567		 305.27265			43387.38302		65.73800		324.00000 
 43692.65567		 326.27656			43366.37912		138.09000		875.00000 
 43692.65567		 305.27265			43387.38302		65.73800		324.00000 
 43692.65567		 326.27656			43366.37912		138.09000		875.00000 
 43692.65567		 305.27265			43387.38302		65.73800		324.00000 
 43692.65567		 537.27032			43155.38535		138.09000		875.00000 
 43692.65567		 305.27265			43387.38302		65.73800		324.00000 
 43692.65567		 602.19148			43090.46419		138.09000		875.00000 
 43692.65567		 305.27265			43387.38302		65.73800		324.00000 
 43692.65567		 634.65206			43058.00361		138.09000		875.00000 
 43692.65567		 305.27265			43387.38302		65.73800		324.00000 
 43692.65567		 634.65206			43058.00361		138.09000		875.00000 
 43692.65567		 305.27265			43387.38302		65.73800		324.00000 
 43692.65567		 634.65206			43058.00361		138.09000		875.00000 
 43692.65567		 305.27265			43387.38302		65.73800		324.00000 
 43692.65567		 634.65206			43058.00361		138.09000		875.00000 
 43692.65567		 305.27265			43387.38302		65.73800		324.00000 
 43692.65567		 634.65206			43058.00361		138.09000		875.00000 
 43692.65567		 305.27265			43387.38302		65.73800		324.00000 
 43692.65567		 634.65206			43058.00361		138.09000		875.00000 
 43692.65567		 305.27265			43387.38302		65.73800		324.00000 
 43692.65567		 634.65206			43058.00361		138.09000		875.00000 
 43692.65567		 305.27265			43387.38302		65.73800		324.00000 
 43692.65567		 634.65206			43058.00361		138.09000		875.00000 
 43692.65567		 305.27265			43387.38302		65.73800		324.00000 
 43692.65567		 634.65206			43058.00361		138.09000		875.00000 
 43692.65567		 305.27265			43387.38302		65.73800		324.00000 
 43692.65567		 634.65206			43058.00361		138.09000		875.00000 
 43692.65567		 305.27265			43387.38302		65.73800		324.00000 
 43692.65567		 634.65206			43058.00361		138.09000		875.00000 
 43692.65567		 305.27265			43387.38302		65.73800		324.00000 
 43692.65567		 634.65206			43058.00361		147.70600		875.00000 
 43692.65567		 305.27265			43387.38302		66.69000		324.00000 
 43692.65567		 634.65206			43058.00361		147.70600		875.00000 
 43692.65567		 305.27265			43387.38302		66.69000		324.00000 
 43692.65567		 634.65206			43058.00361		147.70600		875.00000 
 43692.65567		 305.27265			43387.38302		66.69000		324.00000 
 43692.65567		 634.65206			43058.00361		147.70600		875.00000 
 43692.65567		 305.27265			43387.38302		66.69000		324.00000 
 43692.65567		 634.65206			43058.00361		147.70600		875.00000 
 43692.65567		 305.27265			43387.38302		66.69000		324.00000 
 43692.65567		 634.65206			43058.00361		147.70600		875.00000 
 43692.65567		 305.27265			43387.38302		66.69000		324.00000 
 43692.65567		 634.65206			43058.00361		147.70600		875.00000 
 43692.65567		 305.27265			43387.38302		66.69000		324.00000 
 43692.65567		 634.65206			43058.00361		147.70600		875.00000 
 43692.65567		 305.27265			43387.38302		66.69000		324.00000 
 43692.65567		 634.65206			43058.00361		147.70600		875.00000 
 43692.65567		 305.27265			43387.38302		66.69000		324.00000 
 43692.65567		 634.65206			43058.00361		147.70600		875.00000 
 43692.65567		 305.27265			43387.38302		66.69000		324.00000 
 43692.65567		 634.65206			43058.00361		147.70600		875.00000 
 43692.65567		 305.27265			43387.38302		66.69000		324.00000 
 43692.65567		 634.65206			43058.00361		147.70600		875.00000 
 43692.65567		 305.27265			43387.38302		66.69000		324.00000 
 43692.65567		 634.65206			43058.00361		147.70600		875.00000 
 43692.65567		 305.27265			43387.38302		66.69000		324.00000 
 43692.65567		 634.65206			43058.00361		147.70600		875.00000 
 43692.65567		 305.27265			43387.38302		66.69000		324.00000 
 43692.65567		 634.65206			43058.00361		147.70600		875.00000 
 43692.65567		 305.27265			43387.38302		66.69000		324.00000 
 43692.65567		 634.65206			43058.00361		147.70600		875.00000 
 43692.65567		 305.27265			43387.38302		66.69000		324.00000 
 43692.65567		 634.65206			43058.00361		147.70600		875.00000 
 43692.65567		 305.27265			43387.38302		66.69000		324.00000 
 43692.65567		 634.65206			43058.00361		147.70600		875.00000 
 43692.65567		 305.27265			43387.38302		66.69000		324.00000 
 43692.65567		 634.65206			43058.00361		147.70600		875.00000 
 43692.65567		 305.27265			43387.38302		66.69000		324.00000 
 43692.65567		 634.65206			43058.00361		147.70600		875.00000 
 43692.65567		 305.27265			43387.38302		66.69000		324.00000 
 43692.65567		 634.65206			43058.00361		147.70600		875.00000 
 43692.65567		 305.27265			43387.38302		66.69000		324.00000 
 43692.65567		 634.65206			43058.00361		147.70600		875.00000 
 43692.65567		 305.27265			43387.38302		66.69000		324.00000 
 43692.65567		 634.65206			43058.00361		147.70600		875.00000 
 43692.65567		 305.27265			43387.38302		66.69000		324.00000 
 43692.65567		 634.65206			43058.00361		147.70600		875.00000 
 43692.65567		 305.27265			43387.38302		66.69000		324.00000 
 43692.65567		 634.65206			43058.00361		147.70600		875.00000 
 43692.65567		 305.27265			43387.38302		66.69000		324.00000 
 43692.65567		 634.65206			43058.00361		147.70600		875.00000 
 43692.65567		 305.27265			43387.38302		66.69000		324.00000 
 43692.65567		 634.65206			43058.00361		147.70600		875.00000 
 43692.65567		 305.27265			43387.38302		66.69000		324.00000 
 43692.65567		 634.65206			43058.00361		147.70600		875.00000 
 43692.65567		 305.27265			43387.38302		66.69000		324.00000 
 43692.65567		 634.65206			43058.00361		147.70600		875.00000 
 43692.65567		 305.27265			43387.38302		66.69000		324.00000 
 43692.65567		 634.65206			43058.00361		147.70600		875.00000 
 43692.65567		 305.27265			43387.38302		66.69000		324.00000 
 43692.65567		 634.65206			43058.00361		147.70600		875.00000 
 43692.65567		 305.27265			43387.38302		66.69000		324.00000 
 43692.65567		 634.65206			43058.00361		147.70600		875.00000 
 43692.65567		 305.27265			43387.38302		66.69000		324.00000 
 43692.65567		 634.65206			43058.00361		147.70600		875.00000 
 43692.65567		 305.27265			43387.38302		66.69000		324.00000 
 43692.65567		 634.65206			43058.00361		147.70600		875.00000 
 43692.65567		 305.27265			43387.38302		66.69000		324.00000 
 43692.65567		 634.65206			43058.00361		147.70600		875.00000 
 43692.65567		 305.27265			43387.38302		66.69000		324.00000 
 43692.65567		 634.65206			43058.00361		147.70600		875.00000 
 43692.65567		 305.27265			43387.38302		66.69000		324.00000 
 43692.65567		 634.65206			43058.00361		147.70600		875.00000 
 43692.65567		 305.27265			43387.38302		66.69000		324.00000 
 43692.65567		 634.65206			43058.00361		147.70600		875.00000 
 43692.65567		 305.27265			43387.38302		66.69000		324.00000 
 43692.65567		 634.65206			43058.00361		147.70600		875.00000 
 43692.65567		 305.27265			43387.38302		66.69000		324.00000 
 43692.65567		 634.65206			43058.00361		147.70600		875.00000 
 43692.65567		 305.27265			43387.38302		66.69000		324.00000 
 43692.65567		 634.65206			43058.00361		147.70600		875.00000 
 43692.65567		 305.27265			43387.38302		66.69000		324.00000 
 43692.65567		 634.65206			43058.00361		147.70600		875.00000 
 43692.65567		 305.27265			43387.38302		66.69000		324.00000 
 43692.65567		 634.65206			43058.00361		147.70600		875.00000 
 43692.65567		 305.27265			43387.38302		66.69000		324.00000 
 43692.65567		 634.65206			43058.00361		147.70600		875.00000 
 43692.65567		 305.27265			43387.38302		66.69000		324.00000 
 43692.65567		 634.65206			43058.00361		147.70600		875.00000 
 43692.65567		 305.27265			43387.38302		66.69000		324.00000 
 43692.65567		 634.65206			43058.00361		147.70600		875.00000 
 43692.65567		 305.27265			43387.38302		66.69000		324.00000 
 43692.65567		 634.65206			43058.00361		147.70600		875.00000 
 43692.65567		 305.27265			43387.38302		66.69000		324.00000 
 43692.65567		 634.65206			43058.00361		147.70600		875.00000 
 43692.65567		 305.27265			43387.38302		66.69000		324.00000 
 43692.65567		 634.65206			43058.00361		147.70600		875.00000 
 43692.65567		 305.27265			43387.38302		66.69000		324.00000 
 43692.65567		 634.65206			43058.00361		147.70600		875.00000 
 43692.65567		 305.27265			43387.38302		66.69000		324.00000 
 43692.65567		 634.65206			43058.00361		147.70600		875.00000 
 43692.65567		 305.27265			43387.38302		66.69000		324.00000 
 43692.65567		 634.65206			43058.00361		147.70600		875.00000 
 43692.65567		 305.27265			43387.38302		66.69000		324.00000 
 43692.65567		 634.65206			43058.00361		147.70600		875.00000 
 43692.65567		 305.27265			43387.38302		66.69000		324.00000 
 43692.65567		 634.65206			43058.00361		147.70600		875.00000 
 43692.65567		 305.27265			43387.38302		66.69000		324.00000 
 43692.65567		 634.65206			43058.00361		147.70600		875.00000 
 43692.65567		 305.27265			43387.38302		66.69000		324.00000 
 43692.65567		 634.65206			43058.00361		147.70600		875.00000 
 43692.65567		 305.27265			43387.38302		66.69000		324.00000 
 43692.65567		 634.65206			43058.00361		147.70600		875.00000 
 43692.65567		 305.27265			43387.38302		66.69000		324.00000 
 43692.65567		 634.65206			43058.00361		147.70600		875.00000 
 43692.65567		 305.27265			43387.38302		66.69000		324.00000 
 43692.65567		 634.65206			43058.00361		147.70600		875.00000 
 43692.65567		 305.27265			43387.38302		66.69000		324.00000 
 43692.65567		 634.65206			43058.00361		147.70600		875.00000 
 43692.65567		 305.27265			43387.38302		66.69000		324.00000 
 43692.65567		 634.65206			43058.00361		147.70600		875.00000 
 43692.65567		 305.27265			43387.38302		66.69000		324.00000 
 43692.65567		 634.65206			43058.00361		147.70600		875.00000 
 43692.65567		 305.27265			43387.38302		66.69000		324.00000 
 43692.65567		 634.65206			43058.00361		147.70600		875.00000 
 43692.65567		 305.27265			43387.38302		66.69000		324.00000 
 43692.65567		 634.65206			43058.00361		188.97600		875.00000 
 43692.65567		 305.27265			43387.38302		66.69000		324.00000 
 43692.65567		 634.65206			43058.00361		188.97600		875.00000 
 43692.65567		 305.27265			43387.38302		66.69000		324.00000 
 43692.65567		 634.65206			43058.00361		188.97600		875.00000 
 43692.65567		 305.27265			43387.38302		66.69000		324.00000 
 43692.65567		 634.65206			43058.00361		188.97600		875.00000 
 43692.65567		 305.27265			43387.38302		66.69000		324.00000 
 43692.65567		 634.65206			43058.00361		188.97600		875.00000 
 43692.65567		 305.27265			43387.38302		66.69000		324.00000 
 43692.65567		 634.65206			43058.00361		188.97600		875.00000 
 43692.65567		 305.27265			43387.38302		66.69000		324.00000 
 43692.65567		 634.65206			43058.00361		188.97600		875.00000 
 43692.65567		 305.27265			43387.38302		66.69000		324.00000 
 43692.65567		 634.65206			43058.00361		188.97600		875.00000 
 43692.65567		 305.27265			43387.38302		66.69000		324.00000 
 43692.65567		 634.65206			43058.00361		188.97600		875.00000 
 43692.65567		 305.27265			43387.38302		66.69000		324.00000 
 43692.65567		 634.65206			43058.00361		188.97600		875.00000 
 43692.65567		 305.27265			43387.38302		66.69000		324.00000 
 43692.65567		 634.65206			43058.00361		188.97600		875.00000 
 43692.65567		 305.27265			43387.38302		66.69000		324.00000 
 43692.65567		 634.65206			43058.00361		188.97600		875.00000 
 43692.65567		 305.27265			43387.38302		66.69000		324.00000 
 43692.65567		 634.65206			43058.00361		188.97600		875.00000 
 43692.65567		 305.27265			43387.38302		66.69000		324.00000 
 43692.65567		 634.65206			43058.00361		188.97600		875.00000 
 43692.65567		 305.27265			43387.38302		66.69000		324.00000 
 43692.65567		 634.65206			43058.00361		188.97600		875.00000 
 43692.65567		 305.27265			43387.38302		66.69000		324.00000 
 43692.65567		 634.65206			43058.00361		188.97600		875.00000 
 43692.65567		 305.27265			43387.38302		66.69000		324.00000 
 43692.65567		 634.65206			43058.00361		188.97600		875.00000 
 43692.65567		 305.27265			43387.38302		66.69000		324.00000 
 43692.65567		 634.65206			43058.00361		188.97600		875.00000 
 43692.65567		 305.27265			43387.38302		66.69000		324.00000 
 43692.65567		 634.65206			43058.00361		188.97600		875.00000 
 43692.65567		 305.27265			43387.38302		66.69000		324.00000 
 43692.65567		 634.65206			43058.00361		188.97600		875.00000 
 43692.65567		 305.27265			43387.38302		66.69000		324.00000 
 43692.65567		 634.65206			43058.00361		188.97600		875.00000 
 43692.65567		 305.27265			43387.38302		66.69000		324.00000 
 43692.65567		 634.65206			43058.00361		188.97600		875.00000 
 43692.65567		 305.27265			43387.38302		66.69000		324.00000 
 43692.65567		 634.65206			43058.00361		188.97600		875.00000 
 43692.65567		 305.27265			43387.38302		66.69000		324.00000 
 43692.65567		 634.65206			43058.00361		188.97600		875.00000 
 43692.65567		 305.27265			43387.38302		66.69000		324.00000 
 43692.65567		 634.65206			43058.00361		188.97600		875.00000 
 43692.65567		 305.27265			43387.38302		66.69000		324.00000 
 43692.65567		 634.65206			43058.00361		188.97600		875.00000 
 43692.65567		 305.27265			43387.38302		66.69000		324.00000 
 43692.65567		 634.65206			43058.00361		188.97600		875.00000 
 43692.65567		 305.27265			43387.38302		66.69000		324.00000 
 43692.65567		 634.65206			43058.00361		188.97600		875.00000 
 43692.65567		 305.27265			43387.38302		66.69000		324.00000 
 43692.65567		 634.65206			43058.00361		188.97600		875.00000 
 43692.65567		 305.27265			43387.38302		66.69000		324.00000 
 43692.65567		 634.65206			43058.00361		188.97600		875.00000 
 43692.65567		 305.27265			43387.38302		66.69000		324.00000 
 43692.65567		 634.65206			43058.00361		188.97600		875.00000 
 43692.65567		 305.27265			43387.38302		66.69000		324.00000 
 43692.65567		 634.65206			43058.00361		188.97600		875.00000 
 43692.65567		 305.27265			43387.38302		66.69000		324.00000 
 43692.65567		 634.65206			43058.00361		188.97600		875.00000 
 43692.65567		 305.27265			43387.38302		66.69000		324.00000 
 43692.65567		 634.65206			43058.00361		188.97600		875.00000 
 43692.65567		 305.27265			43387.38302		66.69000		324.00000 
 43692.65567		 634.65206			43058.00361		188.97600		875.00000 
 43692.65567		 305.27265			43387.38302		66.69000		324.00000 
 43692.65567		 634.65206			43058.00361		188.97600		875.00000 
 43692.65567		 305.27265			43387.38302		66.69000		324.00000 
 43692.65567		 634.65206			43058.00361		188.97600		875.00000 
 43692.65567		 305.27265			43387.38302		66.69000		324.00000 
 43692.65567		 634.65206			43058.00361		188.97600		875.00000 
 43692.65567		 305.27265			43387.38302		66.69000		324.00000 
 43692.65567		 634.65206			43058.00361		188.97600		875.00000 
 43692.65567		 305.27265			43387.38302		66.69000		324.00000 
 43692.65567		 634.65206			43058.00361		188.97600		875.00000 
 43692.65567		 305.27265			43387.38302		66.69000		324.00000 
 43692.65567		 634.65206			43058.00361		188.97600		875.00000 
 43692.65567		 305.27265			43387.38302		66.69000		324.00000 
 43692.65567		 634.65206			43058.00361		188.97600		875.00000 
 43692.65567		 305.27265			43387.38302		66.69000		324.00000 
 43692.65567		 634.65206			43058.00361		188.97600		875.00000 
 43692.65567		 305.27265			43387.38302		66.69000		324.00000 
 43692.65567		 634.65206			43058.00361		188.97600		875.00000 
 43692.65567		 305.27265			43387.38302		66.69000		324.00000 
 43692.65567		 634.65206			43058.00361		188.97600		875.00000 
 43692.65567		 305.27265			43387.38302		66.69000		324.00000 
 43692.65567		 634.65206			43058.00361		188.97600		875.00000 
 43692.65567		 305.27265			43387.38302		66.69000		324.00000 
 43692.65567		 634.65206			43058.00361		188.97600		875.00000 
 43692.65567		 305.27265			43387.38302		66.69000		324.00000 
 43692.65567		 634.65206			43058.00361		188.97600		875.00000 
 43692.65567		 305.27265			43387.38302		66.69000		324.00000 
 43692.65567		 634.65206			43058.00361		188.97600		875.00000 
 43692.65567		 305.27265			43387.38302		66.69000		324.00000 
 43692.65567		 634.65206			43058.00361		188.97600		875.00000 
 43692.65567		 305.27265			43387.38302		66.69000		324.00000 
 43692.65567		 634.65206			43058.00361		188.97600		875.00000 
 43692.65567		 305.27265			43387.38302		66.69000		324.00000 
 43692.65567		 634.65206			43058.00361		188.97600		875.00000 
 43692.65567		 305.27265			43387.38302		66.69000		324.00000 
 43692.65567		 634.65206			43058.00361		188.97600		875.00000 
 43692.65567		 305.27265			43387.38302		66.69000		324.00000 
 43692.65567		 634.65206			43058.00361		188.97600		875.00000 
 43692.65567		 305.27265			43387.38302		66.69000		324.00000 
 43692.65567		 634.65206			43058.00361		188.97600		875.00000 
 43692.65567		 305.27265			43387.38302		66.69000		324.00000 
 43692.65567		 634.65206			43058.00361		188.97600		875.00000 
 43692.65567		 305.27265			43387.38302		66.69000		324.00000 
 43692.65567		 634.65206			43058.00361		188.97600		875.00000 
 43692.65567		 305.27265			43387.38302		66.69000		324.00000 
 43692.65567		 634.65206			43058.00361		188.97600		875.00000 
 43692.65567		 305.27265			43387.38302		66.69000		324.00000 
 43692.65567		 634.65206			43058.00361		188.97600		875.00000 
 43692.65567		 305.27265			43387.38302		66.69000		324.00000 
 43692.65567		 634.65206			43058.00361		188.97600		875.00000 
 43692.65567		 305.27265			43387.38302		66.69000		324.00000 
 43692.65567		 634.65206			43058.00361		188.97600		875.00000 
 43692.65567		 305.27265			43387.38302		66.69000		324.00000 
 43692.65567		 634.65206			43058.00361		188.97600		875.00000 
 43692.65567		 305.27265			43387.38302		66.69000		324.00000 
 43692.65567		 634.65206			43058.00361		188.97600		875.00000 
 43692.65567		 305.27265			43387.38302		66.69000		324.00000 
 43692.65567		 634.65206			43058.00361		188.97600		875.00000 
 43692.65567		 305.27265			43387.38302		66.69000		324.00000 
 43692.65567		 634.65206			43058.00361		206.06600		875.00000 
 43692.65567		 305.27265			43387.38302		66.69000		324.00000 
 43692.65567		 634.65206			43058.00361		206.06600		875.00000 
 43692.65567		 305.27265			43387.38302		66.69000		324.00000 
 43692.65567		 634.65206			43058.00361		206.06600		875.00000 
 43692.65567		 305.27265			43387.38302		66.69000		324.00000 
 43692.65567		 634.65206			43058.00361		206.06600		875.00000 
 43692.65567		 305.27265			43387.38302		66.69000		324.00000 
 43692.65567		 634.65206			43058.00361		206.06600		875.00000 
 43692.65567		 305.27265			43387.38302		66.69000		324.00000 
 43692.65567		 634.65206			43058.00361		206.06600		875.00000 
 43692.65567		 305.27265			43387.38302		66.69000		324.00000 
 43692.65567		 634.65206			43058.00361		206.06600		875.00000 
 43692.65567		 305.27265			43387.38302		66.69000		324.00000 
 43692.65567		 634.65206			43058.00361		206.06600		875.00000 
 43692.65567		 305.27265			43387.38302		66.69000		324.00000 
 43692.65567		 634.65206			43058.00361		206.06600		875.00000 
 43692.65567		 305.27265			43387.38302		66.69000		324.00000 
 43692.65567		 634.65206			43058.00361		206.06600		875.00000 
 43692.65567		 305.27265			43387.38302		66.69000		324.00000 
 43692.65567		 634.65206			43058.00361		206.06600		875.00000 
 43692.65567		 305.27265			43387.38302		66.69000		324.00000 
 43692.65567		 634.65206			43058.00361		206.06600		875.00000 
 43692.65567		 305.27265			43387.38302		66.69000		324.00000 
 43692.65567		 634.65206			43058.00361		206.06600		875.00000 
 43692.65567		 305.27265			43387.38302		66.69000		324.00000 
 43692.65567		 634.65206			43058.00361		206.06600		875.00000 
 43692.65567		 305.27265			43387.38302		66.69000		324.00000 
 43692.65567		 634.65206			43058.00361		206.06600		875.00000 
 43692.65567		 305.27265			43387.38302		66.69000		324.00000 
 43692.65567		 634.65206			43058.00361		206.06600		875.00000 
 43692.65567		 305.27265			43387.38302		66.69000		324.00000 
 43692.65567		 634.65206			43058.00361		206.06600		875.00000 
 43692.65567		 305.27265			43387.38302		66.69000		324.00000 
 43692.65567		 634.65206			43058.00361		206.06600		875.00000 
 43692.65567		 305.27265			43387.38302		66.69000		324.00000 
 43692.65567		 634.65206			43058.00361		206.06600		875.00000 
 43692.65567		 305.27265			43387.38302		66.69000		324.00000 
 43692.65567		 634.65206			43058.00361		206.06600		875.00000 
 43692.65567		 305.27265			43387.38302		66.69000		324.00000 
 43692.65567		 634.65206			43058.00361		206.06600		875.00000 
 43692.65567		 305.27265			43387.38302		66.69000		324.00000 
 43692.65567		 634.65206			43058.00361		206.06600		875.00000 
 43692.65567		 305.27265			43387.38302		66.69000		324.00000 
 43692.65567		 634.65206			43058.00361		206.06600		875.00000 
 43692.65567		 305.27265			43387.38302		66.69000		324.00000 
 43692.65567		 634.65206			43058.00361		206.06600		875.00000 
 43692.65567		 305.27265			43387.38302		66.69000		324.00000 
 43692.65567		 634.65206			43058.00361		206.06600		875.00000 
 43692.65567		 305.27265			43387.38302		66.69000		324.00000 
 43692.65567		 634.65206			43058.00361		206.06600		875.00000 
 43692.65567		 305.27265			43387.38302		66.69000		324.00000 
 43692.65567		 634.65206			43058.00361		206.06600		875.00000 
 43692.65567		 305.27265			43387.38302		66.69000		324.00000 
 43692.65567		 634.65206			43058.00361		206.06600		875.00000 
 43692.65567		 305.27265			43387.38302		66.69000		324.00000 
 43692.65567		 634.65206			43058.00361		206.06600		875.00000 
 43692.65567		 305.27265			43387.38302		66.69000		324.00000 
 43692.65567		 634.65206			43058.00361		206.06600		875.00000 
 43692.65567		 305.27265			43387.38302		66.69000		324.00000 
 43692.65567		 634.65206			43058.00361		206.06600		875.00000 
 43692.65567		 305.27265			43387.38302		66.69000		324.00000 
 43692.65567		 634.65206			43058.00361		206.06600		875.00000 
 43692.65567		 305.27265			43387.38302		66.69000		324.00000 
 43692.65567		 634.65206			43058.00361		206.06600		875.00000 
 43692.65567		 305.27265			43387.38302		66.69000		324.00000 
 43692.65567		 634.65206			43058.00361		206.06600		875.00000 
 43692.65567		 305.27265			43387.38302		66.69000		324.00000 
 43692.65567		 634.65206			43058.00361		206.06600		875.00000 
 43692.65567		 305.27265			43387.38302		66.69000		324.00000 
 43692.65567		 634.65206			43058.00361		206.06600		875.00000 
 43692.65567		 305.27265			43387.38302		66.69000		324.00000 
 43692.65567		 634.65206			43058.00361		206.06600		875.00000 
 43692.65567		 305.27265			43387.38302		66.69000		324.00000 
 43692.65567		 634.65206			43058.00361		206.06600		875.00000 
 43692.65567		 305.27265			43387.38302		66.69000		324.00000 
 43692.65567		 634.65206			43058.00361		206.06600		875.00000 
 43692.65567		 305.27265			43387.38302		66.69000		324.00000 
 43692.65567		 634.65206			43058.00361		206.06600		875.00000 
 43692.65567		 305.27265			43387.38302		66.69000		324.00000 
 43692.65567		 634.65206			43058.00361		206.06600		875.00000 
 43692.65567		 305.27265			43387.38302		66.69000		324.00000 
 43692.65567		 634.65206			43058.00361		206.06600		875.00000 
 43692.65567		 305.27265			43387.38302		66.69000		324.00000 
 43692.65567		 634.65206			43058.00361		206.06600		875.00000 
 43692.65567		 305.27265			43387.38302		66.69000		324.00000 
 43692.65567		 634.65206			43058.00361		206.06600		875.00000 
 43692.65567		 305.27265			43387.38302		66.69000		324.00000 
 43692.65567		 634.65206			43058.00361		206.06600		875.00000 
 43692.65567		 305.27265			43387.38302		66.69000		324.00000 
 43692.65567		 634.65206			43058.00361		206.06600		875.00000 
 43692.65567		 305.27265			43387.38302		66.69000		324.00000 
 43692.65567		 634.65206			43058.00361		206.06600		875.00000 
 43692.65567		 305.27265			43387.38302		66.69000		324.00000 
 43692.65567		 634.65206			43058.00361		206.06600		875.00000 
 43692.65567		 305.27265			43387.38302		66.69000		324.00000 
 43692.65567		 634.65206			43058.00361		206.06600		875.00000 
 43692.65567		 305.27265			43387.38302		66.69000		324.00000 
 43692.65567		 634.65206			43058.00361		206.06600		875.00000 
 43692.65567		 305.27265			43387.38302		66.69000		324.00000 
 43692.65567		 634.65206			43058.00361		206.06600		875.00000 
 43692.65567		 305.27265			43387.38302		66.69000		324.00000 
 43692.65567		 634.65206			43058.00361		206.06600		875.00000 
 43692.65567		 305.27265			43387.38302		66.69000		324.00000 
 43692.65567		 634.65206			43058.00361		206.06600		875.00000 
 43692.65567		 305.27265			43387.38302		66.69000		324.00000 
 43692.65567		 634.65206			43058.00361		206.06600		875.00000 
 43692.65567		 305.27265			43387.38302		66.69000		324.00000 
 43692.65567		 634.65206			43058.00361		206.06600		875.00000 
 43692.65567		 305.27265			43387.38302		66.69000		324.00000 
 43692.65567		 634.65206			43058.00361		206.06600		875.00000 
 43692.65567		 305.27265			43387.38302		66.69000		324.00000 
 43692.65567		 634.65206			43058.00361		206.06600		875.00000 
 43692.65567		 305.27265			43387.38302		66.69000		324.00000 
 43692.65567		 634.65206			43058.00361		206.06600		875.00000 
 43692.65567		 305.27265			43387.38302		66.69000		324.00000 
 43692.65567		 634.65206			43058.00361		206.06600		875.00000 
 43692.65567		 305.27265			43387.38302		66.69000		324.00000 
 43692.65567		 634.65206			43058.00361		206.06600		875.00000 
 43692.65567		 305.27265			43387.38302		66.69000		324.00000 
 43692.65567		 634.65206			43058.00361		206.06600		875.00000 
 43692.65567		 305.27265			43387.38302		66.69000		324.00000 
 43692.65567		 634.65206			43058.00361		206.06600		875.00000 
 43692.65567		 305.27265			43387.38302		66.69000		324.00000 
 43692.65567		 634.65206			43058.00361		206.06600		875.00000 
 43692.65567		 305.27265			43387.38302		66.69000		324.00000 
 43692.65567		 634.65206			43058.00361		212.65400		875.00000 
 43692.65567		 305.27265			43387.38302		66.69000		324.00000 
 43692.65567		 634.65206			43058.00361		212.65400		875.00000 
 43692.65567		 305.27265			43387.38302		66.69000		324.00000 
 43692.65567		 634.65206			43058.00361		212.65400		875.00000 
 43692.65567		 305.27265			43387.38302		66.69000		324.00000 
 43692.65567		 634.65206			43058.00361		212.65400		875.00000 
 43692.65567		 305.27265			43387.38302		66.69000		324.00000 
 43692.65567		 634.65206			43058.00361		212.65400		875.00000 
 43692.65567		 305.27265			43387.38302		66.69000		324.00000 
 43692.65567		 634.65206			43058.00361		212.65400		875.00000 
 43692.65567		 305.27265			43387.38302		66.69000		324.00000 
 43692.65567		 634.65206			43058.00361		212.65400		875.00000 
 43692.65567		 305.27265			43387.38302		66.69000		324.00000 
 43692.65567		 634.65206			43058.00361		212.65400		875.00000 
 43692.65567		 305.27265			43387.38302		66.69000		324.00000 
 43692.65567		 634.65206			43058.00361		212.65400		875.00000 
 43692.65567		 305.27265			43387.38302		66.69000		324.00000 
 43692.65567		 634.65206			43058.00361		212.65400		875.00000 
 43692.65567		 305.27265			43387.38302		66.69000		324.00000 
 43692.65567		 634.65206			43058.00361		212.65400		875.00000 
 43692.65567		 305.27265			43387.38302		66.69000		324.00000 
 43692.65567		 634.65206			43058.00361		212.65400		875.00000 
 43692.65567		 305.27265			43387.38302		66.69000		324.00000 
 43692.65567		 634.65206			43058.00361		212.65400		875.00000 
 43692.65567		 305.27265			43387.38302		66.69000		324.00000 
 43692.65567		 634.65206			43058.00361		212.65400		875.00000 
 43692.65567		 305.27265			43387.38302		66.69000		324.00000 
 43692.65567		 634.65206			43058.00361		212.65400		875.00000 
 43692.65567		 305.27265			43387.38302		66.69000		324.00000 
 43692.65567		 634.65206			43058.00361		212.65400		875.00000 
 43692.65567		 305.27265			43387.38302		66.69000		324.00000 
 43692.65567		 634.65206			43058.00361		212.65400		875.00000 
 43692.65567		 305.27265			43387.38302		66.69000		324.00000 
 43692.65567		 634.65206			43058.00361		212.65400		875.00000 
 43692.65567		 305.27265			43387.38302		66.69000		324.00000 
 43692.65567		 634.65206			43058.00361		212.65400		875.00000 
 43692.65567		 305.27265			43387.38302		66.69000		324.00000 
 43692.65567		 634.65206			43058.00361		212.65400		875.00000 
 43692.65567		 305.27265			43387.38302		66.69000		324.00000 
 43692.65567		 634.65206			43058.00361		212.65400		875.00000 
 43692.65567		 305.27265			43387.38302		66.69000		324.00000 
 43692.65567		 634.65206			43058.00361		212.65400		875.00000 
 43692.65567		 305.27265			43387.38302		66.69000		324.00000 
 43692.65567		 634.65206			43058.00361		212.65400		875.00000 
 43692.65567		 305.27265			43387.38302		66.69000		324.00000 
 43692.65567		 634.65206			43058.00361		212.65400		875.00000 
 43692.65567		 305.27265			43387.38302		66.69000		324.00000 
 43692.65567		 634.65206			43058.00361		212.65400		875.00000 
 43692.65567		 305.27265			43387.38302		66.69000		324.00000 
 43692.65567		 634.65206			43058.00361		212.65400		875.00000 
 43692.65567		 305.27265			43387.38302		66.69000		324.00000 
 43692.65567		 634.65206			43058.00361		212.65400		875.00000 
 43692.65567		 305.27265			43387.38302		66.69000		324.00000 
 43692.65567		 634.65206			43058.00361		212.65400		875.00000 
 43692.65567		 305.27265			43387.38302		66.69000		324.00000 
 43692.65567		 634.65206			43058.00361		212.65400		875.00000 
 43692.65567		 305.27265			43387.38302		66.69000		324.00000 
 43692.65567		 634.65206			43058.00361		212.65400		875.00000 
 43692.65567		 305.27265			43387.38302		66.69000		324.00000 
 43692.65567		 634.65206			43058.00361		212.65400		875.00000 
 43692.65567		 305.27265			43387.38302		66.69000		324.00000 
 43692.65567		 634.65206			43058.00361		212.65400		875.00000 
 43692.65567		 305.27265			43387.38302		66.69000		324.00000 
 43692.65567		 634.65206			43058.00361		212.65400		875.00000 
 43692.65567		 305.27265			43387.38302		66.69000		324.00000 
 43692.65567		 634.65206			43058.00361		212.65400		875.00000 
 43692.65567		 305.27265			43387.38302		66.69000		324.00000 
 43692.65567		 634.65206			43058.00361		212.65400		875.00000 
 43692.65567		 305.27265			43387.38302		66.69000		324.00000 
 43692.65567		 634.65206			43058.00361		212.65400		875.00000 
 43692.65567		 305.27265			43387.38302		66.69000		324.00000 
 43692.65567		 634.65206			43058.00361		212.65400		875.00000 
 43692.65567		 305.27265			43387.38302		66.69000		324.00000 
 43692.65567		 634.65206			43058.00361		212.65400		875.00000 
 43692.65567		 305.27265			43387.38302		66.69000		324.00000 
 43692.65567		 634.65206			43058.00361		212.65400		875.00000 
 43692.65567		 305.27265			43387.38302		66.69000		324.00000 
 43692.65567		 634.65206			43058.00361		212.65400		875.00000 
 43692.65567		 305.27265			43387.38302		66.69000		324.00000 
 43692.65567		 634.65206			43058.00361		212.65400		875.00000 
 43692.65567		 305.27265			43387.38302		66.69000		324.00000 
 43692.65567		 634.65206			43058.00361		212.65400		875.00000 
 43692.65567		 305.27265			43387.38302		66.69000		324.00000 
 43692.65567		 634.65206			43058.00361		212.65400		875.00000 
 43692.65567		 305.27265			43387.38302		66.69000		324.00000 
 43692.65567		 634.65206			43058.00361		212.65400		875.00000 
 43692.65567		 305.27265			43387.38302		66.69000		324.00000 
 43692.65567		 634.65206			43058.00361		212.65400		875.00000 
 43692.65567		 305.27265			43387.38302		66.69000		324.00000 
 43692.65567		 634.65206			43058.00361		212.65400		875.00000 
 43692.65567		 305.27265			43387.38302		66.69000		324.00000 
 43692.65567		 634.65206			43058.00361		212.65400		875.00000 
 43692.65567		 305.27265			43387.38302		66.69000		324.00000 
 43692.65567		 634.65206			43058.00361		212.65400		875.00000 
 43692.65567		 305.27265			43387.38302		66.69000		324.00000 
 43692.65567		 634.65206			43058.00361		212.65400		875.00000 
 43692.65567		 305.27265			43387.38302		66.69000		324.00000 
 43692.65567		 634.65206			43058.00361		212.65400		875.00000 
 43692.65567		 305.27265			43387.38302		66.69000		324.00000 
 43692.65567		 634.65206			43058.00361		212.65400		875.00000 
 43692.65567		 305.27265			43387.38302		66.69000		324.00000 
 43692.65567		 634.65206			43058.00361		212.65400		875.00000 
 43692.65567		 305.27265			43387.38302		66.69000		324.00000 
 43692.65567		 634.65206			43058.00361		212.65400		875.00000 
 43692.65567		 305.27265			43387.38302		66.69000		324.00000 
 43692.65567		 634.65206			43058.00361		212.65400		875.00000 
 43692.65567		 305.27265			43387.38302		66.69000		324.00000 
 43692.65567		 634.65206			43058.00361		212.65400		875.00000 
 43692.65567		 305.27265			43387.38302		66.69000		324.00000 
 43692.65567		 634.65206			43058.00361		212.65400		875.00000 
 43692.65567		 305.27265			43387.38302		66.69000		324.00000 
 43692.65567		 634.65206			43058.00361		212.65400		875.00000 
 43692.65567		 305.27265			43387.38302		66.69000		324.00000 
 43692.65567		 634.65206			43058.00361		212.65400		875.00000 
 43692.65567		 305.27265			43387.38302		66.69000		324.00000 
 43692.65567		 634.65206			43058.00361		212.65400		875.00000 
 43692.65567		 305.27265			43387.38302		66.69000		324.00000 
 43692.65567		 634.65206			43058.00361		212.65400		875.00000 
 43692.65567		 305.27265			43387.38302		66.69000		324.00000 
 43692.65567		 634.65206			43058.00361		212.65400		875.00000 
 43692.65567		 305.27265			43387.38302		66.69000		324.00000 
 43692.65567		 634.65206			43058.00361		212.65400		875.00000 
 43692.65567		 305.27265			43387.38302		66.69000		324.00000 
 43692.65567		 634.65206			43058.00361		212.65400		875.00000 
 43692.65567		 305.27265			43387.38302		66.69000		324.00000 
 43692.65567		 634.65206			43058.00361		214.95600		875.00000 
 43692.65567		 305.27265			43387.38302		66.69000		324.00000 
 43692.65567		 634.65206			43058.00361		214.95600		875.00000 
 43692.65567		 305.27265			43387.38302		66.69000		324.00000 
 43692.65567		 634.65206			43058.00361		214.95600		875.00000 
 43692.65567		 305.27265			43387.38302		66.69000		324.00000 
 43692.65567		 634.65206			43058.00361		214.95600		875.00000 
 43692.65567		 305.27265			43387.38302		66.69000		324.00000 
 43692.65567		 634.65206			43058.00361		214.95600		875.00000 
 43692.65567		 305.27265			43387.38302		66.69000		324.00000 
 43692.65567		 634.65206			43058.00361		214.95600		875.00000 
 43692.65567		 305.27265			43387.38302		66.69000		324.00000 
 43692.65567		 634.65206			43058.00361		214.95600		875.00000 
 43692.65567		 305.27265			43387.38302		66.69000		324.00000 
 43692.65567		 634.65206			43058.00361		214.95600		875.00000 
 43692.65567		 305.27265			43387.38302		66.69000		324.00000 
 43692.65567		 634.65206			43058.00361		214.95600		875.00000 
 43692.65567		 305.27265			43387.38302		66.69000		324.00000 
 43692.65567		 634.65206			43058.00361		214.95600		875.00000 
 43692.65567		 305.27265			43387.38302		66.69000		324.00000 
 43692.65567		 634.65206			43058.00361		214.95600		875.00000 
 43692.65567		 305.27265			43387.38302		66.69000		324.00000 
 43692.65567		 634.65206			43058.00361		214.95600		875.00000 
 43692.65567		 305.27265			43387.38302		66.69000		324.00000 
 43692.65567		 634.65206			43058.00361		214.95600		875.00000 
 43692.65567		 305.27265			43387.38302		66.69000		324.00000 
 43692.65567		 634.65206			43058.00361		214.95600		875.00000 
 43692.65567		 305.27265			43387.38302		66.69000		324.00000 
 43692.65567		 634.65206			43058.00361		214.95600		875.00000 
 43692.65567		 305.27265			43387.38302		66.69000		324.00000 
 43692.65567		 634.65206			43058.00361		214.95600		875.00000 
 43692.65567		 305.27265			43387.38302		66.69000		324.00000 
 43692.65567		 634.65206			43058.00361		214.95600		875.00000 
 43692.65567		 305.27265			43387.38302		66.69000		324.00000 
 43692.65567		 634.65206			43058.00361		214.95600		875.00000 
 43692.65567		 305.27265			43387.38302		66.69000		324.00000 
 43692.65567		 634.65206			43058.00361		214.95600		875.00000 
 43692.65567		 305.27265			43387.38302		66.69000		324.00000 
 43692.65567		 634.65206			43058.00361		214.95600		875.00000 
 43692.65567		 305.27265			43387.38302		66.69000		324.00000 
 43692.65567		 634.65206			43058.00361		214.95600		875.00000 
 43692.65567		 305.27265			43387.38302		66.69000		324.00000 
 43692.65567		 634.65206			43058.00361		214.95600		875.00000 
 43692.65567		 305.27265			43387.38302		66.69000		324.00000 
 43692.65567		 634.65206			43058.00361		214.95600		875.00000 
 43692.65567		 305.27265			43387.38302		66.69000		324.00000 
 43692.65567		 634.65206			43058.00361		214.95600		875.00000 
 43692.65567		 305.27265			43387.38302		66.69000		324.00000 
 43692.65567		 634.65206			43058.00361		214.95600		875.00000 
 43692.65567		 305.27265			43387.38302		66.69000		324.00000 
 43692.65567		 634.65206			43058.00361		214.95600		875.00000 
 43692.65567		 305.27265			43387.38302		66.69000		324.00000 
 43692.65567		 634.65206			43058.00361		214.95600		875.00000 
 43692.65567		 305.27265			43387.38302		66.69000		324.00000 
 43692.65567		 634.65206			43058.00361		214.95600		875.00000 
 43692.65567		 305.27265			43387.38302		66.69000		324.00000 
 43692.65567		 634.65206			43058.00361		214.95600		875.00000 
 43692.65567		 305.27265			43387.38302		66.69000		324.00000 
 43692.65567		 634.65206			43058.00361		214.95600		875.00000 
 43692.65567		 305.27265			43387.38302		66.69000		324.00000 
 43692.65567		 634.65206			43058.00361		214.95600		875.00000 
 43692.65567		 305.27265			43387.38302		66.69000		324.00000 
 43692.65567		 634.65206			43058.00361		214.95600		875.00000 
 43692.65567		 305.27265			43387.38302		66.69000		324.00000 
 43692.65567		 634.65206			43058.00361		214.95600		875.00000 
 43692.65567		 305.27265			43387.38302		66.69000		324.00000 
 43692.65567		 634.65206			43058.00361		214.95600		875.00000 
 43692.65567		 305.27265			43387.38302		66.69000		324.00000 
 43692.65567		 634.65206			43058.00361		214.95600		875.00000 
 43692.65567		 305.27265			43387.38302		66.69000		324.00000 
 43692.65567		 634.65206			43058.00361		214.95600		875.00000 
 43692.65567		 305.27265			43387.38302		66.69000		324.00000 
 43692.65567		 634.65206			43058.00361		214.95600		875.00000 
 43692.65567		 305.27265			43387.38302		66.69000		324.00000 
 43692.65567		 634.65206			43058.00361		214.95600		875.00000 
 43692.65567		 305.27265			43387.38302		66.69000		324.00000 
 43692.65567		 634.65206			43058.00361		214.95600		875.00000 
 43692.65567		 305.27265			43387.38302		66.69000		324.00000 
 43692.65567		 634.65206			43058.00361		214.95600		875.00000 
 43692.65567		 305.27265			43387.38302		66.69000		324.00000 
 43692.65567		 634.65206			43058.00361		214.95600		875.00000 
 43692.65567		 305.27265			43387.38302		66.69000		324.00000 
 43692.65567		 634.65206			43058.00361		214.95600		875.00000 
 43692.65567		 305.27265			43387.38302		66.69000		324.00000 
 43692.65567		 634.65206			43058.00361		214.95600		875.00000 
 43692.65567		 305.27265			43387.38302		66.69000		324.00000 
 43692.65567		 634.65206			43058.00361		214.95600		875.00000 
 43692.65567		 305.27265			43387.38302		66.69000		324.00000 
 43692.65567		 634.65206			43058.00361		214.95600		875.00000 
 43692.65567		 305.27265			43387.38302		66.69000		324.00000 
 43692.65567		 634.65206			43058.00361		214.95600		875.00000 
 43692.65567		 305.27265			43387.38302		66.69000		324.00000 
 43692.65567		 634.65206			43058.00361		214.95600		875.00000 
 43692.65567		 305.27265			43387.38302		66.69000		324.00000 
 43692.65567		 634.65206			43058.00361		214.95600		875.00000 
 43692.65567		 305.27265			43387.38302		66.69000		324.00000 
 43692.65567		 634.65206			43058.00361		214.95600		875.00000 
 43692.65567		 305.27265			43387.38302		66.69000		324.00000 
 43692.65567		 634.65206			43058.00361		214.95600		875.00000 
 43692.65567		 305.27265			43387.38302		66.69000		324.00000 
 43692.65567		 634.65206			43058.00361		214.95600		875.00000 
 43692.65567		 305.27265			43387.38302		66.69000		324.00000 
 43692.65567		 634.65206			43058.00361		214.95600		875.00000 
 43692.65567		 305.27265			43387.38302		66.69000		324.00000 
 43692.65567		 634.65206			43058.00361		214.95600		875.00000 
 43692.65567		 305.27265			43387.38302		66.69000		324.00000 
 43692.65567		 634.65206			43058.00361		214.95600		875.00000 
 43692.65567		 305.27265			43387.38302		66.69000		324.00000 
 43692.65567		 634.65206			43058.00361		214.95600		875.00000 
 43692.65567		 305.27265			43387.38302		66.69000		324.00000 
 43692.65567		 634.65206			43058.00361		214.95600		875.00000 
 43692.65567		 305.27265			43387.38302		66.69000		324.00000 
 43692.65567		 634.65206			43058.00361		214.95600		875.00000 
 43692.65567		 305.27265			43387.38302		66.69000		324.00000 
 43692.65567		 634.65206			43058.00361		214.95600		875.00000 
 43692.65567		 305.27265			43387.38302		66.69000		324.00000 
 43692.65567		 634.65206			43058.00361		214.95600		875.00000 
 43692.65567		 305.27265			43387.38302		66.69000		324.00000 
 43692.65567		 634.65206			43058.00361		214.95600		875.00000 
 43692.65567		 305.27265			43387.38302		66.69000		324.00000 
 43692.65567		 634.65206			43058.00361		214.95600		875.00000 
 43692.65567		 305.27265			43387.38302		66.69000		324.00000 
 43692.65567		 634.65206			43058.00361		214.95600		875.00000 
 43692.65567		 305.27265			43387.38302		66.69000		324.00000 
 43692.65567		 634.65206			43058.00361		214.95600		875.00000 
 43692.65567		 305.27265			43387.38302		66.69000		324.00000 
 43692.65567		 634.65206			43058.00361		215.10400		875.00000 
 43692.65567		 305.27265			43387.38302		66.69000		324.00000 
 43692.65567		 634.65206			43058.00361		215.10400		875.00000 
 43692.65567		 305.27265			43387.38302		66.69000		324.00000 
 43692.65567		 634.65206			43058.00361		215.10400		875.00000 
 43692.65567		 305.27265			43387.38302		66.69000		324.00000 
 43692.65567		 634.65206			43058.00361		215.10400		875.00000 
 43692.65567		 305.27265			43387.38302		66.69000		324.00000 
 43692.65567		 634.65206			43058.00361		215.10400		875.00000 
 43692.65567		 305.27265			43387.38302		66.69000		324.00000 
 43692.65567		 634.65206			43058.00361		215.10400		875.00000 
 43692.65567		 305.27265			43387.38302		66.69000		324.00000 
 43692.65567		 634.65206			43058.00361		215.10400		875.00000 
 43692.65567		 305.27265			43387.38302		66.69000		324.00000 
 43692.65567		 634.65206			43058.00361		215.10400		875.00000 
 43692.65567		 305.27265			43387.38302		66.69000		324.00000 
 43692.65567		 634.65206			43058.00361		215.10400		875.00000 
 43692.65567		 305.27265			43387.38302		66.69000		324.00000 
 43692.65567		 634.65206			43058.00361		215.10400		875.00000 
 43692.65567		 305.27265			43387.38302		66.69000		324.00000 
 43692.65567		 634.65206			43058.00361		215.10400		875.00000 
 43692.65567		 305.27265			43387.38302		66.69000		324.00000 
 43692.65567		 634.65206			43058.00361		215.10400		875.00000 
 43692.65567		 305.27265			43387.38302		66.69000		324.00000 
 43692.65567		 634.65206			43058.00361		215.10400		875.00000 
 43692.65567		 305.27265			43387.38302		66.69000		324.00000 
 43692.65567		 634.65206			43058.00361		215.10400		875.00000 
 43692.65567		 305.27265			43387.38302		66.69000		324.00000 
 43692.65567		 634.65206			43058.00361		215.10400		875.00000 
 43692.65567		 305.27265			43387.38302		66.69000		324.00000 
 43692.65567		 634.65206			43058.00361		215.10400		875.00000 
 43692.65567		 305.27265			43387.38302		66.69000		324.00000 
 43692.65567		 634.65206			43058.00361		215.10400		875.00000 
 43692.65567		 305.27265			43387.38302		66.69000		324.00000 
 43692.65567		 634.65206			43058.00361		215.10400		875.00000 
 43692.65567		 305.27265			43387.38302		66.69000		324.00000 
 43692.65567		 634.65206			43058.00361		215.10400		875.00000 
 43692.65567		 305.27265			43387.38302		66.69000		324.00000 
 43692.65567		 634.65206			43058.00361		215.10400		875.00000 
 43692.65567		 305.27265			43387.38302		66.69000		324.00000 
 43692.65567		 634.65206			43058.00361		215.10400		875.00000 
 43692.65567		 305.27265			43387.38302		66.69000		324.00000 
 43692.65567		 634.65206			43058.00361		215.10400		875.00000 
 43692.65567		 305.27265			43387.38302		66.69000		324.00000 
 43692.65567		 634.65206			43058.00361		215.10400		875.00000 
 43692.65567		 305.27265			43387.38302		66.69000		324.00000 
 43692.65567		 634.65206			43058.00361		215.10400		875.00000 
 43692.65567		 305.27265			43387.38302		66.69000		324.00000 
 43692.65567		 634.65206			43058.00361		215.10400		875.00000 
 43692.65567		 305.27265			43387.38302		66.69000		324.00000 
 43692.65567		 634.65206			43058.00361		215.10400		875.00000 
 43692.65567		 305.27265			43387.38302		66.69000		324.00000 
 43692.65567		 634.65206			43058.00361		215.10400		875.00000 
 43692.65567		 305.27265			43387.38302		66.69000		324.00000 
 43692.65567		 634.65206			43058.00361		215.10400		875.00000 
 43692.65567		 305.27265			43387.38302		66.69000		324.00000 
 43692.65567		 634.65206			43058.00361		215.10400		875.00000 
 43692.65567		 305.27265			43387.38302		66.69000		324.00000 
 43692.65567		 634.65206			43058.00361		215.10400		875.00000 
 43692.65567		 305.27265			43387.38302		66.69000		324.00000 
 43692.65567		 634.65206			43058.00361		215.10400		875.00000 
 43692.65567		 305.27265			43387.38302		66.69000		324.00000 
 43692.65567		 634.65206			43058.00361		215.10400		875.00000 
 43692.65567		 305.27265			43387.38302		66.69000		324.00000 
 43692.65567		 634.65206			43058.00361		215.10400		875.00000 
 43692.65567		 305.27265			43387.38302		66.69000		324.00000 
 43692.65567		 634.65206			43058.00361		215.10400		875.00000 
 43692.65567		 305.27265			43387.38302		66.69000		324.00000 
 43692.65567		 634.65206			43058.00361		215.10400		875.00000 
 43692.65567		 305.27265			43387.38302		66.69000		324.00000 
 43692.65567		 634.65206			43058.00361		215.10400		875.00000 
 43692.65567		 305.27265			43387.38302		66.69000		324.00000 
 43692.65567		 634.65206			43058.00361		215.10400		875.00000 
 43692.65567		 305.27265			43387.38302		66.69000		324.00000 
 43692.65567		 634.65206			43058.00361		215.10400		875.00000 
 43692.65567		 305.27265			43387.38302		66.69000		324.00000 
 43692.65567		 634.65206			43058.00361		215.10400		875.00000 
 43692.65567		 305.27265			43387.38302		66.69000		324.00000 
 43692.65567		 634.65206			43058.00361		215.10400		875.00000 
 43692.65567		 305.27265			43387.38302		66.69000		324.00000 
 43692.65567		 634.65206			43058.00361		215.10400		875.00000 
 43692.65567		 305.27265			43387.38302		66.69000		324.00000 
 43692.65567		 634.65206			43058.00361		215.10400		875.00000 
 43692.65567		 305.27265			43387.38302		66.69000		324.00000 
 43692.65567		 602.19148			43090.46419		215.10400		875.00000 
 43692.65567		 305.27265			43387.38302		66.69000		324.00000 
 43692.65567		 537.27032			43155.38535		215.10400		875.00000 
 43692.65567		 305.27265			43387.38302		66.69000		324.00000 
 43692.65567		 537.27032			43155.38535		215.10400		875.00000 
 43692.65567		 305.27265			43387.38302		66.69000		324.00000 
 43692.65567		 537.27032			43155.38535		215.10400		875.00000 
 43692.65567		 305.27265			43387.38302		66.69000		324.00000 
 43692.65567		 537.27032			43155.38535		215.10400		875.00000 
 43692.65567		 305.27265			43387.38302		66.69000		324.00000 
 43692.65567		 537.27032			43155.38535		215.10400		875.00000 
 43692.65567		 305.27265			43387.38302		66.69000		324.00000 
 43692.65567		 537.27032			43155.38535		215.10400		875.00000 
 43692.65567		 305.27265			43387.38302		66.69000		324.00000 
 43692.65567		 537.27032			43155.38535		215.10400		875.00000 
 43692.65567		 305.27265			43387.38302		66.69000		324.00000 
 43692.65567		 537.27032			43155.38535		215.10400		875.00000 
 43692.65567		 305.27265			43387.38302		66.69000		324.00000 
 43692.65567		 537.27032			43155.38535		215.10400		875.00000 
 43692.65567		 305.27265			43387.38302		66.69000		324.00000 
 43692.65567		 537.27032			43155.38535		215.10400		875.00000 
 43692.65567		 305.27265			43387.38302		66.69000		324.00000 
 43692.65567		 537.27032			43155.38535		215.10400		875.00000 
 43692.65567		 305.27265			43387.38302		66.69000		324.00000 
 43692.65567		 537.27032			43155.38535		215.10400		875.00000 
 43692.65567		 305.27265			43387.38302		66.69000		324.00000 
 43692.65567		 537.27032			43155.38535		215.10400		875.00000 
 43692.65567		 305.27265			43387.38302		66.69000		324.00000 
 43692.65567		 537.27032			43155.38535		215.10400		875.00000 
 43692.65567		 305.27265			43387.38302		66.69000		324.00000 
 43692.65567		 537.27032			43155.38535		215.10400		875.00000 
 43692.65567		 305.27265			43387.38302		66.69000		324.00000 
 43692.65567		 537.27032			43155.38535		191.84200		875.00000 
 43692.65567		 305.27265			43387.38302		66.69000		324.00000 
 43692.65567		 537.27032			43155.38535		191.84200		875.00000 
 43692.65567		 305.27265			43387.38302		66.69000		324.00000 
 43692.65567		 537.27032			43155.38535		191.84200		875.00000 
 43692.65567		 305.27265			43387.38302		66.69000		324.00000 
 43692.65567		 537.27032			43155.38535		191.84200		875.00000 
 43692.65567		 305.27265			43387.38302		66.69000		324.00000 
 43692.65567		 537.27032			43155.38535		191.84200		875.00000 
 43692.65567		 305.27265			43387.38302		66.69000		324.00000 
 43692.65567		 525.81365			43166.84203		191.84200		875.00000 
 43692.65567		 305.27265			43387.38302		66.69000		324.00000 
 43692.65567		 525.81365			43166.84203		191.84200		875.00000 
 43692.65567		 261.35540			43431.30027		66.69000		324.00000 
 43692.65567		 261.35540			43431.30027		191.84200		875.00000 
 43692.65567		 261.35540			43431.30027		66.69000		324.00000 
