Memory Total (MiB) 	 Memory Used (MiB) 	    Memory Free (MiB) 	 Power Drawed (W) 	 Clocks (Mhz) 	 
 43692.65567		 261.35540			43431.30027		189.97800		875.00000 
 43692.65567		 261.35540			43431.30027		66.67800		324.00000 
 43692.65567		 261.35540			43431.30027		189.97800		875.00000 
 43692.65567		 261.35540			43431.30027		66.67800		324.00000 
 43692.65567		 261.35540			43431.30027		189.97800		875.00000 
 43692.65567		 261.35540			43431.30027		66.67800		324.00000 
 43692.65567		 261.35540			43431.30027		189.97800		875.00000 
 43692.65567		 261.35540			43431.30027		66.67800		324.00000 
 43692.65567		 261.35540			43431.30027		189.97800		875.00000 
 43692.65567		 261.35540			43431.30027		66.67800		324.00000 
 43692.65567		 261.35540			43431.30027		189.97800		875.00000 
 43692.65567		 261.35540			43431.30027		66.67800		324.00000 
 43692.65567		 261.35540			43431.30027		189.97800		875.00000 
 43692.65567		 261.35540			43431.30027		66.67800		324.00000 
 43692.65567		 261.35540			43431.30027		189.97800		875.00000 
 43692.65567		 261.35540			43431.30027		66.67800		324.00000 
 43692.65567		 261.35540			43431.30027		189.97800		875.00000 
 43692.65567		 261.35540			43431.30027		66.67800		324.00000 
 43692.65567		 261.35540			43431.30027		189.97800		875.00000 
 43692.65567		 261.35540			43431.30027		66.67800		324.00000 
 43692.65567		 261.35540			43431.30027		189.97800		875.00000 
 43692.65567		 261.35540			43431.30027		66.67800		324.00000 
 43692.65567		 261.35540			43431.30027		189.97800		875.00000 
 43692.65567		 261.35540			43431.30027		66.67800		324.00000 
 43692.65567		 261.35540			43431.30027		189.97800		875.00000 
 43692.65567		 261.35540			43431.30027		66.67800		324.00000 
 43692.65567		 261.35540			43431.30027		189.97800		875.00000 
 43692.65567		 261.35540			43431.30027		66.67800		324.00000 
 43692.65567		 261.35540			43431.30027		189.97800		875.00000 
 43692.65567		 261.35540			43431.30027		66.67800		324.00000 
 43692.65567		 261.35540			43431.30027		189.97800		875.00000 
 43692.65567		 261.35540			43431.30027		66.67800		324.00000 
 43692.65567		 261.35540			43431.30027		189.97800		875.00000 
 43692.65567		 261.35540			43431.30027		66.67800		324.00000 
 43692.65567		 265.17429			43427.48138		189.97800		875.00000 
 43692.65567		 261.35540			43431.30027		66.67800		324.00000 
 43692.65567		 265.17429			43427.48138		189.97800		875.00000 
 43692.65567		 261.35540			43431.30027		66.67800		324.00000 
 43692.65567		 272.81207			43419.84360		153.71400		875.00000 
 43692.65567		 261.35540			43431.30027		66.67800		324.00000 
 43692.65567		 272.81207			43419.84360		153.71400		875.00000 
 43692.65567		 261.35540			43431.30027		66.67800		324.00000 
 43692.65567		 272.81207			43419.84360		153.71400		875.00000 
 43692.65567		 265.17429			43427.48138		66.67800		324.00000 
 43692.65567		 272.81207			43419.84360		153.71400		875.00000 
 43692.65567		 265.17429			43427.48138		66.67800		324.00000 
 43692.65567		 272.81207			43419.84360		153.71400		875.00000 
 43692.65567		 272.81207			43419.84360		66.67800		324.00000 
 43692.65567		 272.81207			43419.84360		153.71400		875.00000 
 43692.65567		 272.81207			43419.84360		66.67800		324.00000 
 43692.65567		 272.81207			43419.84360		153.71400		875.00000 
 43692.65567		 272.81207			43419.84360		66.67800		324.00000 
 43692.65567		 272.81207			43419.84360		153.71400		875.00000 
 43692.65567		 272.81207			43419.84360		66.67800		324.00000 
 43692.65567		 305.27265			43387.38302		153.71400		875.00000 
 43692.65567		 305.27265			43387.38302		66.67800		324.00000 
 43692.65567		 305.27265			43387.38302		153.71400		875.00000 
 43692.65567		 305.27265			43387.38302		66.67800		324.00000 
 43692.65567		 305.27265			43387.38302		153.71400		875.00000 
 43692.65567		 305.27265			43387.38302		66.67800		324.00000 
 43692.65567		 305.27265			43387.38302		153.71400		875.00000 
 43692.65567		 305.27265			43387.38302		66.67800		324.00000 
 43692.65567		 305.27265			43387.38302		153.71400		875.00000 
 43692.65567		 305.27265			43387.38302		66.67800		324.00000 
 43692.65567		 310.04627			43382.60941		153.71400		875.00000 
 43692.65567		 305.27265			43387.38302		66.67800		324.00000 
 43692.65567		 311.00099			43381.65468		153.71400		875.00000 
 43692.65567		 305.27265			43387.38302		66.67800		324.00000 
 43692.65567		 311.00099			43381.65468		153.71400		875.00000 
 43692.65567		 305.27265			43387.38302		66.67800		324.00000 
 43692.65567		 311.00099			43381.65468		153.71400		875.00000 
 43692.65567		 305.27265			43387.38302		66.67800		324.00000 
 43692.65567		 311.00099			43381.65468		153.71400		875.00000 
 43692.65567		 305.27265			43387.38302		66.67800		324.00000 
 43692.65567		 311.00099			43381.65468		153.71400		875.00000 
 43692.65567		 305.27265			43387.38302		66.67800		324.00000 
 43692.65567		 311.00099			43381.65468		153.71400		875.00000 
 43692.65567		 305.27265			43387.38302		66.67800		324.00000 
 43692.65567		 311.00099			43381.65468		153.71400		875.00000 
 43692.65567		 305.27265			43387.38302		66.67800		324.00000 
 43692.65567		 311.00099			43381.65468		153.71400		875.00000 
 43692.65567		 305.27265			43387.38302		66.67800		324.00000 
 43692.65567		 311.00099			43381.65468		153.71400		875.00000 
 43692.65567		 305.27265			43387.38302		66.67800		324.00000 
 43692.65567		 311.00099			43381.65468		153.71400		875.00000 
 43692.65567		 305.27265			43387.38302		66.67800		324.00000 
 43692.65567		 311.00099			43381.65468		153.71400		875.00000 
 43692.65567		 305.27265			43387.38302		66.67800		324.00000 
 43692.65567		 311.00099			43381.65468		153.71400		875.00000 
 43692.65567		 305.27265			43387.38302		66.67800		324.00000 
 43692.65567		 311.00099			43381.65468		153.71400		875.00000 
 43692.65567		 305.27265			43387.38302		66.67800		324.00000 
 43692.65567		 311.00099			43381.65468		153.71400		875.00000 
 43692.65567		 305.27265			43387.38302		66.67800		324.00000 
 43692.65567		 311.00099			43381.65468		153.71400		875.00000 
 43692.65567		 305.27265			43387.38302		66.67800		324.00000 
 43692.65567		 311.00099			43381.65468		153.71400		875.00000 
 43692.65567		 305.27265			43387.38302		66.67800		324.00000 
 43692.65567		 311.00099			43381.65468		153.71400		875.00000 
 43692.65567		 305.27265			43387.38302		66.67800		324.00000 
 43692.65567		 311.00099			43381.65468		153.71400		875.00000 
 43692.65567		 305.27265			43387.38302		66.67800		324.00000 
 43692.65567		 311.00099			43381.65468		139.65600		875.00000 
 43692.65567		 305.27265			43387.38302		66.67800		324.00000 
 43692.65567		 311.00099			43381.65468		139.65600		875.00000 
 43692.65567		 305.27265			43387.38302		66.67800		324.00000 
 43692.65567		 311.00099			43381.65468		139.65600		875.00000 
 43692.65567		 305.27265			43387.38302		66.67800		324.00000 
 43692.65567		 311.00099			43381.65468		139.65600		875.00000 
 43692.65567		 305.27265			43387.38302		66.67800		324.00000 
 43692.65567		 311.00099			43381.65468		139.65600		875.00000 
 43692.65567		 305.27265			43387.38302		66.67800		324.00000 
 43692.65567		 311.00099			43381.65468		139.65600		875.00000 
 43692.65567		 305.27265			43387.38302		66.67800		324.00000 
 43692.65567		 311.00099			43381.65468		139.65600		875.00000 
 43692.65567		 305.27265			43387.38302		66.67800		324.00000 
 43692.65567		 311.00099			43381.65468		139.65600		875.00000 
 43692.65567		 305.27265			43387.38302		66.67800		324.00000 
 43692.65567		 311.00099			43381.65468		139.65600		875.00000 
 43692.65567		 305.27265			43387.38302		66.67800		324.00000 
 43692.65567		 311.00099			43381.65468		139.65600		875.00000 
 43692.65567		 305.27265			43387.38302		66.67800		324.00000 
 43692.65567		 311.00099			43381.65468		139.65600		875.00000 
 43692.65567		 305.27265			43387.38302		66.67800		324.00000 
 43692.65567		 311.00099			43381.65468		139.65600		875.00000 
 43692.65567		 305.27265			43387.38302		66.67800		324.00000 
 43692.65567		 311.00099			43381.65468		139.65600		875.00000 
 43692.65567		 305.27265			43387.38302		66.67800		324.00000 
 43692.65567		 311.00099			43381.65468		139.65600		875.00000 
 43692.65567		 305.27265			43387.38302		66.67800		324.00000 
 43692.65567		 311.00099			43381.65468		139.65600		875.00000 
 43692.65567		 305.27265			43387.38302		66.67800		324.00000 
 43692.65567		 311.00099			43381.65468		139.65600		875.00000 
 43692.65567		 305.27265			43387.38302		66.67800		324.00000 
 43692.65567		 311.00099			43381.65468		139.65600		875.00000 
 43692.65567		 305.27265			43387.38302		66.67800		324.00000 
 43692.65567		 311.00099			43381.65468		139.65600		875.00000 
 43692.65567		 305.27265			43387.38302		66.67800		324.00000 
 43692.65567		 311.00099			43381.65468		139.65600		875.00000 
 43692.65567		 305.27265			43387.38302		66.67800		324.00000 
 43692.65567		 311.00099			43381.65468		139.65600		875.00000 
 43692.65567		 305.27265			43387.38302		66.67800		324.00000 
 43692.65567		 311.00099			43381.65468		139.65600		875.00000 
 43692.65567		 305.27265			43387.38302		66.67800		324.00000 
 43692.65567		 311.00099			43381.65468		139.65600		875.00000 
 43692.65567		 305.27265			43387.38302		66.67800		324.00000 
 43692.65567		 311.00099			43381.65468		139.65600		875.00000 
 43692.65567		 305.27265			43387.38302		66.67800		324.00000 
 43692.65567		 311.00099			43381.65468		139.65600		875.00000 
 43692.65567		 305.27265			43387.38302		66.67800		324.00000 
 43692.65567		 311.00099			43381.65468		139.65600		875.00000 
 43692.65567		 305.27265			43387.38302		66.67800		324.00000 
 43692.65567		 311.00099			43381.65468		139.65600		875.00000 
 43692.65567		 305.27265			43387.38302		66.67800		324.00000 
 43692.65567		 311.00099			43381.65468		139.65600		875.00000 
 43692.65567		 305.27265			43387.38302		66.67800		324.00000 
 43692.65567		 311.00099			43381.65468		139.65600		875.00000 
 43692.65567		 305.27265			43387.38302		66.67800		324.00000 
 43692.65567		 311.00099			43381.65468		139.65600		875.00000 
 43692.65567		 305.27265			43387.38302		66.67800		324.00000 
 43692.65567		 311.00099			43381.65468		139.65600		875.00000 
 43692.65567		 305.27265			43387.38302		66.67800		324.00000 
 43692.65567		 311.00099			43381.65468		139.65600		875.00000 
 43692.65567		 305.27265			43387.38302		66.67800		324.00000 
 43692.65567		 314.81988			43377.83579		139.65600		875.00000 
 43692.65567		 305.27265			43387.38302		66.67800		324.00000 
 43692.65567		 314.81988			43377.83579		134.91400		875.00000 
 43692.65567		 305.27265			43387.38302		66.67800		324.00000 
 43692.65567		 314.81988			43377.83579		134.91400		875.00000 
 43692.65567		 305.27265			43387.38302		66.67800		324.00000 
 43692.65567		 318.63877			43374.01690		134.91400		875.00000 
 43692.65567		 305.27265			43387.38302		66.67800		324.00000 
 43692.65567		 322.45767			43370.19801		134.91400		875.00000 
 43692.65567		 305.27265			43387.38302		66.67800		324.00000 
 43692.65567		 326.27656			43366.37912		134.91400		875.00000 
 43692.65567		 305.27265			43387.38302		66.67800		324.00000 
 43692.65567		 326.27656			43366.37912		134.91400		875.00000 
 43692.65567		 305.27265			43387.38302		66.67800		324.00000 
 43692.65567		 326.27656			43366.37912		134.91400		875.00000 
 43692.65567		 305.27265			43387.38302		66.67800		324.00000 
 43692.65567		 537.27032			43155.38535		134.91400		875.00000 
 43692.65567		 305.27265			43387.38302		66.67800		324.00000 
 43692.65567		 587.87064			43104.78504		134.91400		875.00000 
 43692.65567		 305.27265			43387.38302		66.67800		324.00000 
 43692.65567		 613.17079			43079.48488		134.91400		875.00000 
 43692.65567		 305.27265			43387.38302		66.67800		324.00000 
 43692.65567		 613.17079			43079.48488		134.91400		875.00000 
 43692.65567		 305.27265			43387.38302		66.67800		324.00000 
 43692.65567		 613.17079			43079.48488		134.91400		875.00000 
 43692.65567		 305.27265			43387.38302		66.67800		324.00000 
 43692.65567		 613.17079			43079.48488		134.91400		875.00000 
 43692.65567		 305.27265			43387.38302		66.67800		324.00000 
 43692.65567		 613.17079			43079.48488		134.91400		875.00000 
 43692.65567		 305.27265			43387.38302		66.67800		324.00000 
 43692.65567		 613.17079			43079.48488		134.91400		875.00000 
 43692.65567		 305.27265			43387.38302		66.67800		324.00000 
 43692.65567		 613.17079			43079.48488		134.91400		875.00000 
 43692.65567		 305.27265			43387.38302		66.67800		324.00000 
 43692.65567		 613.17079			43079.48488		134.91400		875.00000 
 43692.65567		 305.27265			43387.38302		66.67800		324.00000 
 43692.65567		 613.17079			43079.48488		134.91400		875.00000 
 43692.65567		 305.27265			43387.38302		66.67800		324.00000 
 43692.65567		 613.17079			43079.48488		134.91400		875.00000 
 43692.65567		 305.27265			43387.38302		66.67800		324.00000 
 43692.65567		 613.17079			43079.48488		134.91400		875.00000 
 43692.65567		 305.27265			43387.38302		66.67800		324.00000 
 43692.65567		 613.17079			43079.48488		134.91400		875.00000 
 43692.65567		 305.27265			43387.38302		66.67800		324.00000 
 43692.65567		 613.17079			43079.48488		134.91400		875.00000 
 43692.65567		 305.27265			43387.38302		66.67800		324.00000 
 43692.65567		 613.17079			43079.48488		134.91400		875.00000 
 43692.65567		 305.27265			43387.38302		66.67800		324.00000 
 43692.65567		 613.17079			43079.48488		134.91400		875.00000 
 43692.65567		 305.27265			43387.38302		66.67800		324.00000 
 43692.65567		 613.17079			43079.48488		134.91400		875.00000 
 43692.65567		 305.27265			43387.38302		66.67800		324.00000 
 43692.65567		 613.17079			43079.48488		134.91400		875.00000 
 43692.65567		 305.27265			43387.38302		66.67800		324.00000 
 43692.65567		 613.17079			43079.48488		134.91400		875.00000 
 43692.65567		 305.27265			43387.38302		66.67800		324.00000 
 43692.65567		 613.17079			43079.48488		134.91400		875.00000 
 43692.65567		 305.27265			43387.38302		66.67800		324.00000 
 43692.65567		 613.17079			43079.48488		134.91400		875.00000 
 43692.65567		 305.27265			43387.38302		66.67800		324.00000 
 43692.65567		 613.17079			43079.48488		134.91400		875.00000 
 43692.65567		 305.27265			43387.38302		66.67800		324.00000 
 43692.65567		 613.17079			43079.48488		134.91400		875.00000 
 43692.65567		 305.27265			43387.38302		66.67800		324.00000 
 43692.65567		 613.17079			43079.48488		134.91400		875.00000 
 43692.65567		 305.27265			43387.38302		66.67800		324.00000 
 43692.65567		 613.17079			43079.48488		134.91400		875.00000 
 43692.65567		 305.27265			43387.38302		66.67800		324.00000 
 43692.65567		 613.17079			43079.48488		134.91400		875.00000 
 43692.65567		 305.27265			43387.38302		66.67800		324.00000 
 43692.65567		 613.17079			43079.48488		134.91400		875.00000 
 43692.65567		 305.27265			43387.38302		66.67800		324.00000 
 43692.65567		 613.17079			43079.48488		134.91400		875.00000 
 43692.65567		 305.27265			43387.38302		66.67800		324.00000 
 43692.65567		 613.17079			43079.48488		134.91400		875.00000 
 43692.65567		 305.27265			43387.38302		66.67800		324.00000 
 43692.65567		 613.17079			43079.48488		134.91400		875.00000 
 43692.65567		 305.27265			43387.38302		66.67800		324.00000 
 43692.65567		 613.17079			43079.48488		134.91400		875.00000 
 43692.65567		 305.27265			43387.38302		66.67800		324.00000 
 43692.65567		 613.17079			43079.48488		134.91400		875.00000 
 43692.65567		 305.27265			43387.38302		66.67800		324.00000 
 43692.65567		 613.17079			43079.48488		134.91400		875.00000 
 43692.65567		 305.27265			43387.38302		66.67800		324.00000 
 43692.65567		 613.17079			43079.48488		134.91400		875.00000 
 43692.65567		 305.27265			43387.38302		66.67800		324.00000 
 43692.65567		 613.17079			43079.48488		134.91400		875.00000 
 43692.65567		 305.27265			43387.38302		66.67800		324.00000 
 43692.65567		 613.17079			43079.48488		134.91400		875.00000 
 43692.65567		 305.27265			43387.38302		66.67800		324.00000 
 43692.65567		 613.17079			43079.48488		134.91400		875.00000 
 43692.65567		 305.27265			43387.38302		66.67800		324.00000 
 43692.65567		 613.17079			43079.48488		134.91400		875.00000 
 43692.65567		 305.27265			43387.38302		66.67800		324.00000 
 43692.65567		 613.17079			43079.48488		134.91400		875.00000 
 43692.65567		 305.27265			43387.38302		66.67800		324.00000 
 43692.65567		 613.17079			43079.48488		134.91400		875.00000 
 43692.65567		 305.27265			43387.38302		66.67800		324.00000 
 43692.65567		 613.17079			43079.48488		134.91400		875.00000 
 43692.65567		 305.27265			43387.38302		66.67800		324.00000 
 43692.65567		 613.17079			43079.48488		134.91400		875.00000 
 43692.65567		 305.27265			43387.38302		66.67800		324.00000 
 43692.65567		 613.17079			43079.48488		134.91400		875.00000 
 43692.65567		 305.27265			43387.38302		66.67800		324.00000 
 43692.65567		 613.17079			43079.48488		134.91400		875.00000 
 43692.65567		 305.27265			43387.38302		66.67800		324.00000 
 43692.65567		 613.17079			43079.48488		134.91400		875.00000 
 43692.65567		 305.27265			43387.38302		66.67800		324.00000 
 43692.65567		 613.17079			43079.48488		134.91400		875.00000 
 43692.65567		 305.27265			43387.38302		66.67800		324.00000 
 43692.65567		 613.17079			43079.48488		134.91400		875.00000 
 43692.65567		 305.27265			43387.38302		66.67800		324.00000 
 43692.65567		 613.17079			43079.48488		134.91400		875.00000 
 43692.65567		 305.27265			43387.38302		66.67800		324.00000 
 43692.65567		 613.17079			43079.48488		134.91400		875.00000 
 43692.65567		 305.27265			43387.38302		66.67800		324.00000 
 43692.65567		 613.17079			43079.48488		134.91400		875.00000 
 43692.65567		 305.27265			43387.38302		66.67800		324.00000 
 43692.65567		 613.17079			43079.48488		134.91400		875.00000 
 43692.65567		 305.27265			43387.38302		66.67800		324.00000 
 43692.65567		 613.17079			43079.48488		134.91400		875.00000 
 43692.65567		 305.27265			43387.38302		66.67800		324.00000 
 43692.65567		 613.17079			43079.48488		180.86000		875.00000 
 43692.65567		 305.27265			43387.38302		66.67800		324.00000 
 43692.65567		 613.17079			43079.48488		180.86000		875.00000 
 43692.65567		 305.27265			43387.38302		66.67800		324.00000 
 43692.65567		 613.17079			43079.48488		180.86000		875.00000 
 43692.65567		 305.27265			43387.38302		66.67800		324.00000 
 43692.65567		 613.17079			43079.48488		180.86000		875.00000 
 43692.65567		 305.27265			43387.38302		66.67800		324.00000 
 43692.65567		 613.17079			43079.48488		180.86000		875.00000 
 43692.65567		 305.27265			43387.38302		66.67800		324.00000 
 43692.65567		 613.17079			43079.48488		180.86000		875.00000 
 43692.65567		 305.27265			43387.38302		66.67800		324.00000 
 43692.65567		 613.17079			43079.48488		180.86000		875.00000 
 43692.65567		 305.27265			43387.38302		66.67800		324.00000 
 43692.65567		 613.17079			43079.48488		180.86000		875.00000 
 43692.65567		 305.27265			43387.38302		66.67800		324.00000 
 43692.65567		 613.17079			43079.48488		180.86000		875.00000 
 43692.65567		 305.27265			43387.38302		66.67800		324.00000 
 43692.65567		 613.17079			43079.48488		180.86000		875.00000 
 43692.65567		 305.27265			43387.38302		66.67800		324.00000 
 43692.65567		 613.17079			43079.48488		180.86000		875.00000 
 43692.65567		 305.27265			43387.38302		66.67800		324.00000 
 43692.65567		 613.17079			43079.48488		180.86000		875.00000 
 43692.65567		 305.27265			43387.38302		66.67800		324.00000 
 43692.65567		 613.17079			43079.48488		180.86000		875.00000 
 43692.65567		 305.27265			43387.38302		66.67800		324.00000 
 43692.65567		 613.17079			43079.48488		180.86000		875.00000 
 43692.65567		 305.27265			43387.38302		66.67800		324.00000 
 43692.65567		 613.17079			43079.48488		180.86000		875.00000 
 43692.65567		 305.27265			43387.38302		66.67800		324.00000 
 43692.65567		 613.17079			43079.48488		180.86000		875.00000 
 43692.65567		 305.27265			43387.38302		66.67800		324.00000 
 43692.65567		 613.17079			43079.48488		180.86000		875.00000 
 43692.65567		 305.27265			43387.38302		66.67800		324.00000 
 43692.65567		 613.17079			43079.48488		180.86000		875.00000 
 43692.65567		 305.27265			43387.38302		66.67800		324.00000 
 43692.65567		 613.17079			43079.48488		180.86000		875.00000 
 43692.65567		 305.27265			43387.38302		66.67800		324.00000 
 43692.65567		 613.17079			43079.48488		180.86000		875.00000 
 43692.65567		 305.27265			43387.38302		66.67800		324.00000 
 43692.65567		 613.17079			43079.48488		180.86000		875.00000 
 43692.65567		 305.27265			43387.38302		66.67800		324.00000 
 43692.65567		 613.17079			43079.48488		180.86000		875.00000 
 43692.65567		 305.27265			43387.38302		66.67800		324.00000 
 43692.65567		 613.17079			43079.48488		180.86000		875.00000 
 43692.65567		 305.27265			43387.38302		66.67800		324.00000 
 43692.65567		 613.17079			43079.48488		180.86000		875.00000 
 43692.65567		 305.27265			43387.38302		66.67800		324.00000 
 43692.65567		 613.17079			43079.48488		180.86000		875.00000 
 43692.65567		 305.27265			43387.38302		66.67800		324.00000 
 43692.65567		 613.17079			43079.48488		180.86000		875.00000 
 43692.65567		 305.27265			43387.38302		66.67800		324.00000 
 43692.65567		 613.17079			43079.48488		180.86000		875.00000 
 43692.65567		 305.27265			43387.38302		66.67800		324.00000 
 43692.65567		 613.17079			43079.48488		180.86000		875.00000 
 43692.65567		 305.27265			43387.38302		66.67800		324.00000 
 43692.65567		 613.17079			43079.48488		180.86000		875.00000 
 43692.65567		 305.27265			43387.38302		66.67800		324.00000 
 43692.65567		 613.17079			43079.48488		180.86000		875.00000 
 43692.65567		 305.27265			43387.38302		66.67800		324.00000 
 43692.65567		 613.17079			43079.48488		180.86000		875.00000 
 43692.65567		 305.27265			43387.38302		66.67800		324.00000 
 43692.65567		 613.17079			43079.48488		180.86000		875.00000 
 43692.65567		 305.27265			43387.38302		66.67800		324.00000 
 43692.65567		 613.17079			43079.48488		180.86000		875.00000 
 43692.65567		 305.27265			43387.38302		66.67800		324.00000 
 43692.65567		 613.17079			43079.48488		180.86000		875.00000 
 43692.65567		 305.27265			43387.38302		66.67800		324.00000 
 43692.65567		 613.17079			43079.48488		180.86000		875.00000 
 43692.65567		 305.27265			43387.38302		66.67800		324.00000 
 43692.65567		 613.17079			43079.48488		180.86000		875.00000 
 43692.65567		 305.27265			43387.38302		66.67800		324.00000 
 43692.65567		 613.17079			43079.48488		180.86000		875.00000 
 43692.65567		 305.27265			43387.38302		66.67800		324.00000 
 43692.65567		 613.17079			43079.48488		180.86000		875.00000 
 43692.65567		 305.27265			43387.38302		66.67800		324.00000 
 43692.65567		 613.17079			43079.48488		180.86000		875.00000 
 43692.65567		 305.27265			43387.38302		66.67800		324.00000 
 43692.65567		 613.17079			43079.48488		180.86000		875.00000 
 43692.65567		 305.27265			43387.38302		66.67800		324.00000 
 43692.65567		 613.17079			43079.48488		180.86000		875.00000 
 43692.65567		 305.27265			43387.38302		66.67800		324.00000 
 43692.65567		 613.17079			43079.48488		180.86000		875.00000 
 43692.65567		 305.27265			43387.38302		66.67800		324.00000 
 43692.65567		 613.17079			43079.48488		180.86000		875.00000 
 43692.65567		 305.27265			43387.38302		66.67800		324.00000 
 43692.65567		 613.17079			43079.48488		180.86000		875.00000 
 43692.65567		 305.27265			43387.38302		66.67800		324.00000 
 43692.65567		 613.17079			43079.48488		180.86000		875.00000 
 43692.65567		 305.27265			43387.38302		66.67800		324.00000 
 43692.65567		 613.17079			43079.48488		180.86000		875.00000 
 43692.65567		 305.27265			43387.38302		66.67800		324.00000 
 43692.65567		 613.17079			43079.48488		180.86000		875.00000 
 43692.65567		 305.27265			43387.38302		66.67800		324.00000 
 43692.65567		 613.17079			43079.48488		180.86000		875.00000 
 43692.65567		 305.27265			43387.38302		66.67800		324.00000 
 43692.65567		 613.17079			43079.48488		180.86000		875.00000 
 43692.65567		 305.27265			43387.38302		66.67800		324.00000 
 43692.65567		 613.17079			43079.48488		180.86000		875.00000 
 43692.65567		 305.27265			43387.38302		66.67800		324.00000 
 43692.65567		 613.17079			43079.48488		180.86000		875.00000 
 43692.65567		 305.27265			43387.38302		66.67800		324.00000 
 43692.65567		 613.17079			43079.48488		180.86000		875.00000 
 43692.65567		 305.27265			43387.38302		66.67800		324.00000 
 43692.65567		 613.17079			43079.48488		180.86000		875.00000 
 43692.65567		 305.27265			43387.38302		66.67800		324.00000 
 43692.65567		 613.17079			43079.48488		180.86000		875.00000 
 43692.65567		 305.27265			43387.38302		66.67800		324.00000 
 43692.65567		 613.17079			43079.48488		180.86000		875.00000 
 43692.65567		 305.27265			43387.38302		66.67800		324.00000 
 43692.65567		 613.17079			43079.48488		180.86000		875.00000 
 43692.65567		 305.27265			43387.38302		66.67800		324.00000 
 43692.65567		 613.17079			43079.48488		180.86000		875.00000 
 43692.65567		 305.27265			43387.38302		66.67800		324.00000 
 43692.65567		 613.17079			43079.48488		180.86000		875.00000 
 43692.65567		 305.27265			43387.38302		66.67800		324.00000 
 43692.65567		 613.17079			43079.48488		180.86000		875.00000 
 43692.65567		 305.27265			43387.38302		66.67800		324.00000 
 43692.65567		 613.17079			43079.48488		180.86000		875.00000 
 43692.65567		 305.27265			43387.38302		66.67800		324.00000 
 43692.65567		 613.17079			43079.48488		180.86000		875.00000 
 43692.65567		 305.27265			43387.38302		66.67800		324.00000 
 43692.65567		 613.17079			43079.48488		180.86000		875.00000 
 43692.65567		 305.27265			43387.38302		66.67800		324.00000 
 43692.65567		 613.17079			43079.48488		180.86000		875.00000 
 43692.65567		 305.27265			43387.38302		66.67800		324.00000 
 43692.65567		 613.17079			43079.48488		180.86000		875.00000 
 43692.65567		 305.27265			43387.38302		66.67800		324.00000 
 43692.65567		 613.17079			43079.48488		204.77000		875.00000 
 43692.65567		 305.27265			43387.38302		66.67800		324.00000 
 43692.65567		 613.17079			43079.48488		204.77000		875.00000 
 43692.65567		 305.27265			43387.38302		66.67800		324.00000 
 43692.65567		 613.17079			43079.48488		204.77000		875.00000 
 43692.65567		 305.27265			43387.38302		66.67800		324.00000 
 43692.65567		 613.17079			43079.48488		204.77000		875.00000 
 43692.65567		 305.27265			43387.38302		66.67800		324.00000 
 43692.65567		 613.17079			43079.48488		204.77000		875.00000 
 43692.65567		 305.27265			43387.38302		66.67800		324.00000 
 43692.65567		 613.17079			43079.48488		204.77000		875.00000 
 43692.65567		 305.27265			43387.38302		66.67800		324.00000 
 43692.65567		 613.17079			43079.48488		204.77000		875.00000 
 43692.65567		 305.27265			43387.38302		66.67800		324.00000 
 43692.65567		 613.17079			43079.48488		204.77000		875.00000 
 43692.65567		 305.27265			43387.38302		66.67800		324.00000 
 43692.65567		 613.17079			43079.48488		204.77000		875.00000 
 43692.65567		 305.27265			43387.38302		66.67800		324.00000 
 43692.65567		 613.17079			43079.48488		204.77000		875.00000 
 43692.65567		 305.27265			43387.38302		66.67800		324.00000 
 43692.65567		 613.17079			43079.48488		204.77000		875.00000 
 43692.65567		 305.27265			43387.38302		66.67800		324.00000 
 43692.65567		 613.17079			43079.48488		204.77000		875.00000 
 43692.65567		 305.27265			43387.38302		66.67800		324.00000 
 43692.65567		 613.17079			43079.48488		204.77000		875.00000 
 43692.65567		 305.27265			43387.38302		66.67800		324.00000 
 43692.65567		 613.17079			43079.48488		204.77000		875.00000 
 43692.65567		 305.27265			43387.38302		66.67800		324.00000 
 43692.65567		 613.17079			43079.48488		204.77000		875.00000 
 43692.65567		 305.27265			43387.38302		66.67800		324.00000 
 43692.65567		 613.17079			43079.48488		204.77000		875.00000 
 43692.65567		 305.27265			43387.38302		66.67800		324.00000 
 43692.65567		 613.17079			43079.48488		204.77000		875.00000 
 43692.65567		 305.27265			43387.38302		66.67800		324.00000 
 43692.65567		 613.17079			43079.48488		204.77000		875.00000 
 43692.65567		 305.27265			43387.38302		66.67800		324.00000 
 43692.65567		 613.17079			43079.48488		204.77000		875.00000 
 43692.65567		 305.27265			43387.38302		66.67800		324.00000 
 43692.65567		 613.17079			43079.48488		204.77000		875.00000 
 43692.65567		 305.27265			43387.38302		66.67800		324.00000 
 43692.65567		 613.17079			43079.48488		204.77000		875.00000 
 43692.65567		 305.27265			43387.38302		66.67800		324.00000 
 43692.65567		 613.17079			43079.48488		204.77000		875.00000 
 43692.65567		 305.27265			43387.38302		66.67800		324.00000 
 43692.65567		 613.17079			43079.48488		204.77000		875.00000 
 43692.65567		 305.27265			43387.38302		66.67800		324.00000 
 43692.65567		 613.17079			43079.48488		204.77000		875.00000 
 43692.65567		 305.27265			43387.38302		66.67800		324.00000 
 43692.65567		 613.17079			43079.48488		204.77000		875.00000 
 43692.65567		 305.27265			43387.38302		66.67800		324.00000 
 43692.65567		 613.17079			43079.48488		204.77000		875.00000 
 43692.65567		 305.27265			43387.38302		66.67800		324.00000 
 43692.65567		 613.17079			43079.48488		204.77000		875.00000 
 43692.65567		 305.27265			43387.38302		66.67800		324.00000 
 43692.65567		 613.17079			43079.48488		204.77000		875.00000 
 43692.65567		 305.27265			43387.38302		66.67800		324.00000 
 43692.65567		 613.17079			43079.48488		204.77000		875.00000 
 43692.65567		 305.27265			43387.38302		66.67800		324.00000 
 43692.65567		 613.17079			43079.48488		204.77000		875.00000 
 43692.65567		 305.27265			43387.38302		66.67800		324.00000 
 43692.65567		 613.17079			43079.48488		204.77000		875.00000 
 43692.65567		 305.27265			43387.38302		66.67800		324.00000 
 43692.65567		 613.17079			43079.48488		204.77000		875.00000 
 43692.65567		 305.27265			43387.38302		66.67800		324.00000 
 43692.65567		 613.17079			43079.48488		204.77000		875.00000 
 43692.65567		 305.27265			43387.38302		66.67800		324.00000 
 43692.65567		 613.17079			43079.48488		204.77000		875.00000 
 43692.65567		 305.27265			43387.38302		66.67800		324.00000 
 43692.65567		 613.17079			43079.48488		204.77000		875.00000 
 43692.65567		 305.27265			43387.38302		66.67800		324.00000 
 43692.65567		 613.17079			43079.48488		204.77000		875.00000 
 43692.65567		 305.27265			43387.38302		66.67800		324.00000 
 43692.65567		 613.17079			43079.48488		204.77000		875.00000 
 43692.65567		 305.27265			43387.38302		66.67800		324.00000 
 43692.65567		 613.17079			43079.48488		204.77000		875.00000 
 43692.65567		 305.27265			43387.38302		66.67800		324.00000 
 43692.65567		 613.17079			43079.48488		204.77000		875.00000 
 43692.65567		 305.27265			43387.38302		66.67800		324.00000 
 43692.65567		 613.17079			43079.48488		204.77000		875.00000 
 43692.65567		 305.27265			43387.38302		66.67800		324.00000 
 43692.65567		 613.17079			43079.48488		204.77000		875.00000 
 43692.65567		 305.27265			43387.38302		66.67800		324.00000 
 43692.65567		 613.17079			43079.48488		204.77000		875.00000 
 43692.65567		 305.27265			43387.38302		66.67800		324.00000 
 43692.65567		 613.17079			43079.48488		204.77000		875.00000 
 43692.65567		 305.27265			43387.38302		66.67800		324.00000 
 43692.65567		 613.17079			43079.48488		204.77000		875.00000 
 43692.65567		 305.27265			43387.38302		66.67800		324.00000 
 43692.65567		 613.17079			43079.48488		204.77000		875.00000 
 43692.65567		 305.27265			43387.38302		69.17400		324.00000 
 43692.65567		 613.17079			43079.48488		204.77000		875.00000 
 43692.65567		 305.27265			43387.38302		69.17400		324.00000 
 43692.65567		 613.17079			43079.48488		204.77000		875.00000 
 43692.65567		 305.27265			43387.38302		69.17400		324.00000 
 43692.65567		 613.17079			43079.48488		204.77000		875.00000 
 43692.65567		 305.27265			43387.38302		69.17400		324.00000 
 43692.65567		 613.17079			43079.48488		204.77000		875.00000 
 43692.65567		 305.27265			43387.38302		69.17400		324.00000 
 43692.65567		 613.17079			43079.48488		204.77000		875.00000 
 43692.65567		 305.27265			43387.38302		69.17400		324.00000 
 43692.65567		 613.17079			43079.48488		204.77000		875.00000 
 43692.65567		 305.27265			43387.38302		69.17400		324.00000 
 43692.65567		 613.17079			43079.48488		204.77000		875.00000 
 43692.65567		 305.27265			43387.38302		69.17400		324.00000 
 43692.65567		 613.17079			43079.48488		204.77000		875.00000 
 43692.65567		 305.27265			43387.38302		69.17400		324.00000 
 43692.65567		 613.17079			43079.48488		204.77000		875.00000 
 43692.65567		 305.27265			43387.38302		69.17400		324.00000 
 43692.65567		 613.17079			43079.48488		204.77000		875.00000 
 43692.65567		 305.27265			43387.38302		69.17400		324.00000 
 43692.65567		 613.17079			43079.48488		204.77000		875.00000 
 43692.65567		 305.27265			43387.38302		69.17400		324.00000 
 43692.65567		 613.17079			43079.48488		204.77000		875.00000 
 43692.65567		 305.27265			43387.38302		69.17400		324.00000 
 43692.65567		 613.17079			43079.48488		204.77000		875.00000 
 43692.65567		 305.27265			43387.38302		69.17400		324.00000 
 43692.65567		 613.17079			43079.48488		204.77000		875.00000 
 43692.65567		 305.27265			43387.38302		69.17400		324.00000 
 43692.65567		 613.17079			43079.48488		204.77000		875.00000 
 43692.65567		 305.27265			43387.38302		69.17400		324.00000 
 43692.65567		 613.17079			43079.48488		204.77000		875.00000 
 43692.65567		 305.27265			43387.38302		69.17400		324.00000 
 43692.65567		 613.17079			43079.48488		215.25400		875.00000 
 43692.65567		 305.27265			43387.38302		69.17400		324.00000 
 43692.65567		 613.17079			43079.48488		215.25400		875.00000 
 43692.65567		 305.27265			43387.38302		69.17400		324.00000 
 43692.65567		 613.17079			43079.48488		215.25400		875.00000 
 43692.65567		 305.27265			43387.38302		69.17400		324.00000 
 43692.65567		 613.17079			43079.48488		215.25400		875.00000 
 43692.65567		 305.27265			43387.38302		69.17400		324.00000 
 43692.65567		 613.17079			43079.48488		215.25400		875.00000 
 43692.65567		 305.27265			43387.38302		69.17400		324.00000 
 43692.65567		 613.17079			43079.48488		215.25400		875.00000 
 43692.65567		 305.27265			43387.38302		69.17400		324.00000 
 43692.65567		 613.17079			43079.48488		215.25400		875.00000 
 43692.65567		 305.27265			43387.38302		69.17400		324.00000 
 43692.65567		 613.17079			43079.48488		215.25400		875.00000 
 43692.65567		 305.27265			43387.38302		69.17400		324.00000 
 43692.65567		 613.17079			43079.48488		215.25400		875.00000 
 43692.65567		 305.27265			43387.38302		69.17400		324.00000 
 43692.65567		 613.17079			43079.48488		215.25400		875.00000 
 43692.65567		 305.27265			43387.38302		69.17400		324.00000 
 43692.65567		 613.17079			43079.48488		215.25400		875.00000 
 43692.65567		 305.27265			43387.38302		69.17400		324.00000 
 43692.65567		 613.17079			43079.48488		215.25400		875.00000 
 43692.65567		 305.27265			43387.38302		69.17400		324.00000 
 43692.65567		 613.17079			43079.48488		215.25400		875.00000 
 43692.65567		 305.27265			43387.38302		69.17400		324.00000 
 43692.65567		 613.17079			43079.48488		215.25400		875.00000 
 43692.65567		 305.27265			43387.38302		69.17400		324.00000 
 43692.65567		 613.17079			43079.48488		215.25400		875.00000 
 43692.65567		 305.27265			43387.38302		69.17400		324.00000 
 43692.65567		 613.17079			43079.48488		215.25400		875.00000 
 43692.65567		 305.27265			43387.38302		69.17400		324.00000 
 43692.65567		 613.17079			43079.48488		215.25400		875.00000 
 43692.65567		 305.27265			43387.38302		69.17400		324.00000 
 43692.65567		 613.17079			43079.48488		215.25400		875.00000 
 43692.65567		 305.27265			43387.38302		69.17400		324.00000 
 43692.65567		 613.17079			43079.48488		215.25400		875.00000 
 43692.65567		 305.27265			43387.38302		69.17400		324.00000 
 43692.65567		 613.17079			43079.48488		215.25400		875.00000 
 43692.65567		 305.27265			43387.38302		69.17400		324.00000 
 43692.65567		 613.17079			43079.48488		215.25400		875.00000 
 43692.65567		 305.27265			43387.38302		69.17400		324.00000 
 43692.65567		 613.17079			43079.48488		215.25400		875.00000 
 43692.65567		 305.27265			43387.38302		69.17400		324.00000 
 43692.65567		 613.17079			43079.48488		215.25400		875.00000 
 43692.65567		 305.27265			43387.38302		69.17400		324.00000 
 43692.65567		 613.17079			43079.48488		215.25400		875.00000 
 43692.65567		 305.27265			43387.38302		69.17400		324.00000 
 43692.65567		 613.17079			43079.48488		215.25400		875.00000 
 43692.65567		 305.27265			43387.38302		69.17400		324.00000 
 43692.65567		 613.17079			43079.48488		215.25400		875.00000 
 43692.65567		 305.27265			43387.38302		69.17400		324.00000 
 43692.65567		 613.17079			43079.48488		215.25400		875.00000 
 43692.65567		 305.27265			43387.38302		69.17400		324.00000 
 43692.65567		 613.17079			43079.48488		215.25400		875.00000 
 43692.65567		 305.27265			43387.38302		69.17400		324.00000 
 43692.65567		 613.17079			43079.48488		215.25400		875.00000 
 43692.65567		 305.27265			43387.38302		69.17400		324.00000 
 43692.65567		 613.17079			43079.48488		215.25400		875.00000 
 43692.65567		 305.27265			43387.38302		69.17400		324.00000 
 43692.65567		 613.17079			43079.48488		215.25400		875.00000 
 43692.65567		 305.27265			43387.38302		69.17400		324.00000 
 43692.65567		 613.17079			43079.48488		215.25400		875.00000 
 43692.65567		 305.27265			43387.38302		69.17400		324.00000 
 43692.65567		 613.17079			43079.48488		215.25400		875.00000 
 43692.65567		 305.27265			43387.38302		69.17400		324.00000 
 43692.65567		 613.17079			43079.48488		215.25400		875.00000 
 43692.65567		 305.27265			43387.38302		69.17400		324.00000 
 43692.65567		 613.17079			43079.48488		215.25400		875.00000 
 43692.65567		 305.27265			43387.38302		69.17400		324.00000 
 43692.65567		 613.17079			43079.48488		215.25400		875.00000 
 43692.65567		 305.27265			43387.38302		69.17400		324.00000 
 43692.65567		 613.17079			43079.48488		215.25400		875.00000 
 43692.65567		 305.27265			43387.38302		69.17400		324.00000 
 43692.65567		 613.17079			43079.48488		215.25400		875.00000 
 43692.65567		 305.27265			43387.38302		69.17400		324.00000 
 43692.65567		 613.17079			43079.48488		215.25400		875.00000 
 43692.65567		 305.27265			43387.38302		69.17400		324.00000 
 43692.65567		 613.17079			43079.48488		215.25400		875.00000 
 43692.65567		 305.27265			43387.38302		69.17400		324.00000 
 43692.65567		 613.17079			43079.48488		215.25400		875.00000 
 43692.65567		 305.27265			43387.38302		69.17400		324.00000 
 43692.65567		 613.17079			43079.48488		215.25400		875.00000 
 43692.65567		 305.27265			43387.38302		69.17400		324.00000 
 43692.65567		 613.17079			43079.48488		215.25400		875.00000 
 43692.65567		 305.27265			43387.38302		69.17400		324.00000 
 43692.65567		 613.17079			43079.48488		215.25400		875.00000 
 43692.65567		 305.27265			43387.38302		69.17400		324.00000 
 43692.65567		 613.17079			43079.48488		215.25400		875.00000 
 43692.65567		 305.27265			43387.38302		69.17400		324.00000 
 43692.65567		 613.17079			43079.48488		215.25400		875.00000 
 43692.65567		 305.27265			43387.38302		69.17400		324.00000 
 43692.65567		 613.17079			43079.48488		215.25400		875.00000 
 43692.65567		 305.27265			43387.38302		69.17400		324.00000 
 43692.65567		 613.17079			43079.48488		215.25400		875.00000 
 43692.65567		 305.27265			43387.38302		69.17400		324.00000 
 43692.65567		 613.17079			43079.48488		215.25400		875.00000 
 43692.65567		 305.27265			43387.38302		69.17400		324.00000 
 43692.65567		 613.17079			43079.48488		215.25400		875.00000 
 43692.65567		 305.27265			43387.38302		69.17400		324.00000 
 43692.65567		 613.17079			43079.48488		215.25400		875.00000 
 43692.65567		 305.27265			43387.38302		69.17400		324.00000 
 43692.65567		 613.17079			43079.48488		215.25400		875.00000 
 43692.65567		 305.27265			43387.38302		69.17400		324.00000 
 43692.65567		 613.17079			43079.48488		215.25400		875.00000 
 43692.65567		 305.27265			43387.38302		69.17400		324.00000 
 43692.65567		 613.17079			43079.48488		215.25400		875.00000 
 43692.65567		 305.27265			43387.38302		69.17400		324.00000 
 43692.65567		 613.17079			43079.48488		215.25400		875.00000 
 43692.65567		 305.27265			43387.38302		69.17400		324.00000 
 43692.65567		 613.17079			43079.48488		215.25400		875.00000 
 43692.65567		 305.27265			43387.38302		69.17400		324.00000 
 43692.65567		 613.17079			43079.48488		215.25400		875.00000 
 43692.65567		 305.27265			43387.38302		69.17400		324.00000 
 43692.65567		 613.17079			43079.48488		215.25400		875.00000 
 43692.65567		 305.27265			43387.38302		69.17400		324.00000 
 43692.65567		 613.17079			43079.48488		215.25400		875.00000 
 43692.65567		 305.27265			43387.38302		69.17400		324.00000 
 43692.65567		 613.17079			43079.48488		215.25400		875.00000 
 43692.65567		 305.27265			43387.38302		69.17400		324.00000 
 43692.65567		 613.17079			43079.48488		215.25400		875.00000 
 43692.65567		 305.27265			43387.38302		69.17400		324.00000 
 43692.65567		 613.17079			43079.48488		215.25400		875.00000 
 43692.65567		 305.27265			43387.38302		69.17400		324.00000 
 43692.65567		 613.17079			43079.48488		215.25400		875.00000 
 43692.65567		 305.27265			43387.38302		69.17400		324.00000 
 43692.65567		 613.17079			43079.48488		215.25400		875.00000 
 43692.65567		 305.27265			43387.38302		69.17400		324.00000 
 43692.65567		 613.17079			43079.48488		218.64400		875.00000 
 43692.65567		 305.27265			43387.38302		69.17400		324.00000 
 43692.65567		 613.17079			43079.48488		218.64400		875.00000 
 43692.65567		 305.27265			43387.38302		69.17400		324.00000 
 43692.65567		 613.17079			43079.48488		218.64400		875.00000 
 43692.65567		 305.27265			43387.38302		69.17400		324.00000 
 43692.65567		 613.17079			43079.48488		218.64400		875.00000 
 43692.65567		 305.27265			43387.38302		69.17400		324.00000 
 43692.65567		 613.17079			43079.48488		218.64400		875.00000 
 43692.65567		 305.27265			43387.38302		69.17400		324.00000 
 43692.65567		 613.17079			43079.48488		218.64400		875.00000 
 43692.65567		 305.27265			43387.38302		69.17400		324.00000 
 43692.65567		 613.17079			43079.48488		218.64400		875.00000 
 43692.65567		 305.27265			43387.38302		69.17400		324.00000 
 43692.65567		 613.17079			43079.48488		218.64400		875.00000 
 43692.65567		 305.27265			43387.38302		69.17400		324.00000 
 43692.65567		 613.17079			43079.48488		218.64400		875.00000 
 43692.65567		 305.27265			43387.38302		69.17400		324.00000 
 43692.65567		 613.17079			43079.48488		218.64400		875.00000 
 43692.65567		 305.27265			43387.38302		69.17400		324.00000 
 43692.65567		 613.17079			43079.48488		218.64400		875.00000 
 43692.65567		 305.27265			43387.38302		69.17400		324.00000 
 43692.65567		 613.17079			43079.48488		218.64400		875.00000 
 43692.65567		 305.27265			43387.38302		69.17400		324.00000 
 43692.65567		 613.17079			43079.48488		218.64400		875.00000 
 43692.65567		 305.27265			43387.38302		69.17400		324.00000 
 43692.65567		 613.17079			43079.48488		218.64400		875.00000 
 43692.65567		 305.27265			43387.38302		69.17400		324.00000 
 43692.65567		 613.17079			43079.48488		218.64400		875.00000 
 43692.65567		 305.27265			43387.38302		69.17400		324.00000 
 43692.65567		 613.17079			43079.48488		218.64400		875.00000 
 43692.65567		 305.27265			43387.38302		69.17400		324.00000 
 43692.65567		 613.17079			43079.48488		218.64400		875.00000 
 43692.65567		 305.27265			43387.38302		69.17400		324.00000 
 43692.65567		 613.17079			43079.48488		218.64400		875.00000 
 43692.65567		 305.27265			43387.38302		69.17400		324.00000 
 43692.65567		 613.17079			43079.48488		218.64400		875.00000 
 43692.65567		 305.27265			43387.38302		69.17400		324.00000 
 43692.65567		 613.17079			43079.48488		218.64400		875.00000 
 43692.65567		 305.27265			43387.38302		69.17400		324.00000 
 43692.65567		 613.17079			43079.48488		218.64400		875.00000 
 43692.65567		 305.27265			43387.38302		69.17400		324.00000 
 43692.65567		 613.17079			43079.48488		218.64400		875.00000 
 43692.65567		 305.27265			43387.38302		69.17400		324.00000 
 43692.65567		 613.17079			43079.48488		218.64400		875.00000 
 43692.65567		 305.27265			43387.38302		69.17400		324.00000 
 43692.65567		 613.17079			43079.48488		218.64400		875.00000 
 43692.65567		 305.27265			43387.38302		69.17400		324.00000 
 43692.65567		 613.17079			43079.48488		218.64400		875.00000 
 43692.65567		 305.27265			43387.38302		69.17400		324.00000 
 43692.65567		 613.17079			43079.48488		218.64400		875.00000 
 43692.65567		 305.27265			43387.38302		69.17400		324.00000 
 43692.65567		 613.17079			43079.48488		218.64400		875.00000 
 43692.65567		 305.27265			43387.38302		69.17400		324.00000 
 43692.65567		 613.17079			43079.48488		218.64400		875.00000 
 43692.65567		 305.27265			43387.38302		69.17400		324.00000 
 43692.65567		 613.17079			43079.48488		218.64400		875.00000 
 43692.65567		 305.27265			43387.38302		69.17400		324.00000 
 43692.65567		 613.17079			43079.48488		218.64400		875.00000 
 43692.65567		 305.27265			43387.38302		69.17400		324.00000 
 43692.65567		 613.17079			43079.48488		218.64400		875.00000 
 43692.65567		 305.27265			43387.38302		69.17400		324.00000 
 43692.65567		 613.17079			43079.48488		218.64400		875.00000 
 43692.65567		 305.27265			43387.38302		69.17400		324.00000 
 43692.65567		 613.17079			43079.48488		218.64400		875.00000 
 43692.65567		 305.27265			43387.38302		69.17400		324.00000 
 43692.65567		 613.17079			43079.48488		218.64400		875.00000 
 43692.65567		 305.27265			43387.38302		69.17400		324.00000 
 43692.65567		 613.17079			43079.48488		218.64400		875.00000 
 43692.65567		 305.27265			43387.38302		69.17400		324.00000 
 43692.65567		 613.17079			43079.48488		218.64400		875.00000 
 43692.65567		 305.27265			43387.38302		69.17400		324.00000 
 43692.65567		 613.17079			43079.48488		218.64400		875.00000 
 43692.65567		 305.27265			43387.38302		69.17400		324.00000 
 43692.65567		 613.17079			43079.48488		218.64400		875.00000 
 43692.65567		 305.27265			43387.38302		69.17400		324.00000 
 43692.65567		 613.17079			43079.48488		218.64400		875.00000 
 43692.65567		 305.27265			43387.38302		69.17400		324.00000 
 43692.65567		 613.17079			43079.48488		218.64400		875.00000 
 43692.65567		 305.27265			43387.38302		69.17400		324.00000 
 43692.65567		 613.17079			43079.48488		218.64400		875.00000 
 43692.65567		 305.27265			43387.38302		69.17400		324.00000 
 43692.65567		 613.17079			43079.48488		218.64400		875.00000 
 43692.65567		 305.27265			43387.38302		69.17400		324.00000 
 43692.65567		 613.17079			43079.48488		218.64400		875.00000 
 43692.65567		 305.27265			43387.38302		69.17400		324.00000 
 43692.65567		 613.17079			43079.48488		218.64400		875.00000 
 43692.65567		 305.27265			43387.38302		69.17400		324.00000 
 43692.65567		 613.17079			43079.48488		218.64400		875.00000 
 43692.65567		 305.27265			43387.38302		69.17400		324.00000 
 43692.65567		 537.27032			43155.38535		218.64400		875.00000 
 43692.65567		 305.27265			43387.38302		69.17400		324.00000 
 43692.65567		 537.27032			43155.38535		218.64400		875.00000 
 43692.65567		 305.27265			43387.38302		69.17400		324.00000 
 43692.65567		 537.27032			43155.38535		218.64400		875.00000 
 43692.65567		 305.27265			43387.38302		69.17400		324.00000 
 43692.65567		 537.27032			43155.38535		218.64400		875.00000 
 43692.65567		 305.27265			43387.38302		69.17400		324.00000 
 43692.65567		 537.27032			43155.38535		218.64400		875.00000 
 43692.65567		 305.27265			43387.38302		69.17400		324.00000 
 43692.65567		 537.27032			43155.38535		218.64400		875.00000 
 43692.65567		 305.27265			43387.38302		69.17400		324.00000 
 43692.65567		 537.27032			43155.38535		218.64400		875.00000 
 43692.65567		 305.27265			43387.38302		69.17400		324.00000 
 43692.65567		 537.27032			43155.38535		218.64400		875.00000 
 43692.65567		 305.27265			43387.38302		69.17400		324.00000 
 43692.65567		 537.27032			43155.38535		218.64400		875.00000 
 43692.65567		 305.27265			43387.38302		69.17400		324.00000 
 43692.65567		 537.27032			43155.38535		218.64400		875.00000 
 43692.65567		 305.27265			43387.38302		69.17400		324.00000 
 43692.65567		 537.27032			43155.38535		218.64400		875.00000 
 43692.65567		 305.27265			43387.38302		69.17400		324.00000 
 43692.65567		 537.27032			43155.38535		218.64400		875.00000 
 43692.65567		 305.27265			43387.38302		69.17400		324.00000 
 43692.65567		 537.27032			43155.38535		218.64400		875.00000 
 43692.65567		 305.27265			43387.38302		69.17400		324.00000 
 43692.65567		 537.27032			43155.38535		218.64400		875.00000 
 43692.65567		 305.27265			43387.38302		69.17400		324.00000 
 43692.65567		 537.27032			43155.38535		218.64400		875.00000 
 43692.65567		 305.27265			43387.38302		69.17400		324.00000 
 43692.65567		 537.27032			43155.38535		197.43400		875.00000 
 43692.65567		 305.27265			43387.38302		69.17400		324.00000 
 43692.65567		 537.27032			43155.38535		197.43400		875.00000 
 43692.65567		 305.27265			43387.38302		69.17400		324.00000 
 43692.65567		 537.27032			43155.38535		197.43400		875.00000 
 43692.65567		 305.27265			43387.38302		69.17400		324.00000 
 43692.65567		 537.27032			43155.38535		197.43400		875.00000 
 43692.65567		 305.27265			43387.38302		69.17400		324.00000 
 43692.65567		 537.27032			43155.38535		197.43400		875.00000 
 43692.65567		 305.27265			43387.38302		69.17400		324.00000 
 43692.65567		 529.63254			43163.02313		197.43400		875.00000 
 43692.65567		 305.27265			43387.38302		69.17400		324.00000 
 43692.65567		 525.81365			43166.84203		197.43400		875.00000 
 43692.65567		 305.27265			43387.38302		69.17400		324.00000 
 43692.65567		 525.81365			43166.84203		197.43400		875.00000 
 43692.65567		 261.35540			43431.30027		69.17400		324.00000 
