Memory Total (MiB) 	 Memory Used (MiB) 	    Memory Free (MiB) 	 Power Drawed (W) 	 Clocks (Mhz) 	 
 43692.65567		 261.35540			43431.30027		168.55400		875.00000 
 43692.65567		 261.35540			43431.30027		70.72800		324.00000 
 43692.65567		 261.35540			43431.30027		168.55400		875.00000 
 43692.65567		 261.35540			43431.30027		70.72800		324.00000 
 43692.65567		 261.35540			43431.30027		168.55400		875.00000 
 43692.65567		 261.35540			43431.30027		70.72800		324.00000 
 43692.65567		 261.35540			43431.30027		168.55400		875.00000 
 43692.65567		 261.35540			43431.30027		70.72800		324.00000 
 43692.65567		 261.35540			43431.30027		168.55400		875.00000 
 43692.65567		 261.35540			43431.30027		70.72800		324.00000 
 43692.65567		 261.35540			43431.30027		168.55400		875.00000 
 43692.65567		 261.35540			43431.30027		70.72800		324.00000 
 43692.65567		 261.35540			43431.30027		168.55400		875.00000 
 43692.65567		 261.35540			43431.30027		70.72800		324.00000 
 43692.65567		 261.35540			43431.30027		168.55400		875.00000 
 43692.65567		 261.35540			43431.30027		70.72800		324.00000 
 43692.65567		 261.35540			43431.30027		168.55400		875.00000 
 43692.65567		 261.35540			43431.30027		70.72800		324.00000 
 43692.65567		 261.35540			43431.30027		168.55400		875.00000 
 43692.65567		 261.35540			43431.30027		70.72800		324.00000 
 43692.65567		 261.35540			43431.30027		168.55400		875.00000 
 43692.65567		 261.35540			43431.30027		70.72800		324.00000 
 43692.65567		 261.35540			43431.30027		168.55400		875.00000 
 43692.65567		 261.35540			43431.30027		70.72800		324.00000 
 43692.65567		 261.35540			43431.30027		168.55400		875.00000 
 43692.65567		 261.35540			43431.30027		70.72800		324.00000 
 43692.65567		 261.35540			43431.30027		168.55400		875.00000 
 43692.65567		 261.35540			43431.30027		70.72800		324.00000 
 43692.65567		 261.35540			43431.30027		168.55400		875.00000 
 43692.65567		 261.35540			43431.30027		70.72800		324.00000 
 43692.65567		 261.35540			43431.30027		168.55400		875.00000 
 43692.65567		 261.35540			43431.30027		70.72800		324.00000 
 43692.65567		 261.35540			43431.30027		168.55400		875.00000 
 43692.65567		 261.35540			43431.30027		70.72800		324.00000 
 43692.65567		 265.17429			43427.48138		168.55400		875.00000 
 43692.65567		 261.35540			43431.30027		70.72800		324.00000 
 43692.65567		 265.17429			43427.48138		168.55400		875.00000 
 43692.65567		 261.35540			43431.30027		70.72800		324.00000 
 43692.65567		 272.81207			43419.84360		168.55400		875.00000 
 43692.65567		 261.35540			43431.30027		70.72800		324.00000 
 43692.65567		 272.81207			43419.84360		168.55400		875.00000 
 43692.65567		 261.35540			43431.30027		70.72800		324.00000 
 43692.65567		 272.81207			43419.84360		168.55400		875.00000 
 43692.65567		 265.17429			43427.48138		70.72800		324.00000 
 43692.65567		 272.81207			43419.84360		168.55400		875.00000 
 43692.65567		 265.17429			43427.48138		70.72800		324.00000 
 43692.65567		 272.81207			43419.84360		168.55400		875.00000 
 43692.65567		 265.17429			43427.48138		70.72800		324.00000 
 43692.65567		 272.81207			43419.84360		168.55400		875.00000 
 43692.65567		 272.81207			43419.84360		70.72800		324.00000 
 43692.65567		 272.81207			43419.84360		168.55400		875.00000 
 43692.65567		 272.81207			43419.84360		70.72800		324.00000 
 43692.65567		 272.81207			43419.84360		168.55400		875.00000 
 43692.65567		 272.81207			43419.84360		70.72800		324.00000 
 43692.65567		 305.27265			43387.38302		168.55400		875.00000 
 43692.65567		 305.27265			43387.38302		70.72800		324.00000 
 43692.65567		 305.27265			43387.38302		168.55400		875.00000 
 43692.65567		 305.27265			43387.38302		70.72800		324.00000 
 43692.65567		 305.27265			43387.38302		168.55400		875.00000 
 43692.65567		 305.27265			43387.38302		70.72800		324.00000 
 43692.65567		 305.27265			43387.38302		168.55400		875.00000 
 43692.65567		 305.27265			43387.38302		70.72800		324.00000 
 43692.65567		 305.27265			43387.38302		168.55400		875.00000 
 43692.65567		 305.27265			43387.38302		70.72800		324.00000 
 43692.65567		 309.56891			43383.08677		168.55400		875.00000 
 43692.65567		 305.27265			43387.38302		70.72800		324.00000 
 43692.65567		 311.00099			43381.65468		168.55400		875.00000 
 43692.65567		 305.27265			43387.38302		70.72800		324.00000 
 43692.65567		 311.00099			43381.65468		168.55400		875.00000 
 43692.65567		 305.27265			43387.38302		70.72800		324.00000 
 43692.65567		 311.00099			43381.65468		168.55400		875.00000 
 43692.65567		 305.27265			43387.38302		70.72800		324.00000 
 43692.65567		 311.00099			43381.65468		168.55400		875.00000 
 43692.65567		 305.27265			43387.38302		70.72800		324.00000 
 43692.65567		 311.00099			43381.65468		146.30400		875.00000 
 43692.65567		 305.27265			43387.38302		70.72800		324.00000 
 43692.65567		 311.00099			43381.65468		146.30400		875.00000 
 43692.65567		 305.27265			43387.38302		70.72800		324.00000 
 43692.65567		 311.00099			43381.65468		146.30400		875.00000 
 43692.65567		 305.27265			43387.38302		70.72800		324.00000 
 43692.65567		 311.00099			43381.65468		146.30400		875.00000 
 43692.65567		 305.27265			43387.38302		70.72800		324.00000 
 43692.65567		 311.00099			43381.65468		146.30400		875.00000 
 43692.65567		 305.27265			43387.38302		70.72800		324.00000 
 43692.65567		 311.00099			43381.65468		146.30400		875.00000 
 43692.65567		 305.27265			43387.38302		70.72800		324.00000 
 43692.65567		 311.00099			43381.65468		146.30400		875.00000 
 43692.65567		 305.27265			43387.38302		70.72800		324.00000 
 43692.65567		 311.00099			43381.65468		146.30400		875.00000 
 43692.65567		 305.27265			43387.38302		70.72800		324.00000 
 43692.65567		 311.00099			43381.65468		146.30400		875.00000 
 43692.65567		 305.27265			43387.38302		70.72800		324.00000 
 43692.65567		 311.00099			43381.65468		146.30400		875.00000 
 43692.65567		 305.27265			43387.38302		70.72800		324.00000 
 43692.65567		 311.00099			43381.65468		146.30400		875.00000 
 43692.65567		 305.27265			43387.38302		70.72800		324.00000 
 43692.65567		 311.00099			43381.65468		146.30400		875.00000 
 43692.65567		 305.27265			43387.38302		70.72800		324.00000 
 43692.65567		 311.00099			43381.65468		146.30400		875.00000 
 43692.65567		 305.27265			43387.38302		70.72800		324.00000 
 43692.65567		 311.00099			43381.65468		146.30400		875.00000 
 43692.65567		 305.27265			43387.38302		70.72800		324.00000 
 43692.65567		 311.00099			43381.65468		146.30400		875.00000 
 43692.65567		 305.27265			43387.38302		70.72800		324.00000 
 43692.65567		 311.00099			43381.65468		146.30400		875.00000 
 43692.65567		 305.27265			43387.38302		70.72800		324.00000 
 43692.65567		 311.00099			43381.65468		146.30400		875.00000 
 43692.65567		 305.27265			43387.38302		70.72800		324.00000 
 43692.65567		 311.00099			43381.65468		146.30400		875.00000 
 43692.65567		 305.27265			43387.38302		70.72800		324.00000 
 43692.65567		 311.00099			43381.65468		146.30400		875.00000 
 43692.65567		 305.27265			43387.38302		70.72800		324.00000 
 43692.65567		 311.00099			43381.65468		146.30400		875.00000 
 43692.65567		 305.27265			43387.38302		70.72800		324.00000 
 43692.65567		 311.00099			43381.65468		146.30400		875.00000 
 43692.65567		 305.27265			43387.38302		70.72800		324.00000 
 43692.65567		 311.00099			43381.65468		146.30400		875.00000 
 43692.65567		 305.27265			43387.38302		70.72800		324.00000 
 43692.65567		 311.00099			43381.65468		146.30400		875.00000 
 43692.65567		 305.27265			43387.38302		70.72800		324.00000 
 43692.65567		 311.00099			43381.65468		146.30400		875.00000 
 43692.65567		 305.27265			43387.38302		70.72800		324.00000 
 43692.65567		 311.00099			43381.65468		146.30400		875.00000 
 43692.65567		 305.27265			43387.38302		70.72800		324.00000 
 43692.65567		 311.00099			43381.65468		146.30400		875.00000 
 43692.65567		 305.27265			43387.38302		70.72800		324.00000 
 43692.65567		 311.00099			43381.65468		146.30400		875.00000 
 43692.65567		 305.27265			43387.38302		70.72800		324.00000 
 43692.65567		 311.00099			43381.65468		146.30400		875.00000 
 43692.65567		 305.27265			43387.38302		70.72800		324.00000 
 43692.65567		 311.00099			43381.65468		146.30400		875.00000 
 43692.65567		 305.27265			43387.38302		70.72800		324.00000 
 43692.65567		 311.00099			43381.65468		146.30400		875.00000 
 43692.65567		 305.27265			43387.38302		70.72800		324.00000 
 43692.65567		 311.00099			43381.65468		146.30400		875.00000 
 43692.65567		 305.27265			43387.38302		70.72800		324.00000 
 43692.65567		 311.00099			43381.65468		136.53400		875.00000 
 43692.65567		 305.27265			43387.38302		70.72800		324.00000 
 43692.65567		 311.00099			43381.65468		136.53400		875.00000 
 43692.65567		 305.27265			43387.38302		70.72800		324.00000 
 43692.65567		 311.00099			43381.65468		136.53400		875.00000 
 43692.65567		 305.27265			43387.38302		70.72800		324.00000 
 43692.65567		 311.00099			43381.65468		136.53400		875.00000 
 43692.65567		 305.27265			43387.38302		70.72800		324.00000 
 43692.65567		 311.00099			43381.65468		136.53400		875.00000 
 43692.65567		 305.27265			43387.38302		70.72800		324.00000 
 43692.65567		 311.00099			43381.65468		136.53400		875.00000 
 43692.65567		 305.27265			43387.38302		70.72800		324.00000 
 43692.65567		 311.00099			43381.65468		136.53400		875.00000 
 43692.65567		 305.27265			43387.38302		70.72800		324.00000 
 43692.65567		 311.00099			43381.65468		136.53400		875.00000 
 43692.65567		 305.27265			43387.38302		70.72800		324.00000 
 43692.65567		 311.00099			43381.65468		136.53400		875.00000 
 43692.65567		 305.27265			43387.38302		70.72800		324.00000 
 43692.65567		 311.00099			43381.65468		136.53400		875.00000 
 43692.65567		 305.27265			43387.38302		70.72800		324.00000 
 43692.65567		 311.00099			43381.65468		136.53400		875.00000 
 43692.65567		 305.27265			43387.38302		70.72800		324.00000 
 43692.65567		 311.00099			43381.65468		136.53400		875.00000 
 43692.65567		 305.27265			43387.38302		70.72800		324.00000 
 43692.65567		 311.00099			43381.65468		136.53400		875.00000 
 43692.65567		 305.27265			43387.38302		70.72800		324.00000 
 43692.65567		 311.00099			43381.65468		136.53400		875.00000 
 43692.65567		 305.27265			43387.38302		70.72800		324.00000 
 43692.65567		 311.00099			43381.65468		136.53400		875.00000 
 43692.65567		 305.27265			43387.38302		70.72800		324.00000 
 43692.65567		 311.00099			43381.65468		136.53400		875.00000 
 43692.65567		 305.27265			43387.38302		70.72800		324.00000 
 43692.65567		 311.00099			43381.65468		136.53400		875.00000 
 43692.65567		 305.27265			43387.38302		70.72800		324.00000 
 43692.65567		 314.81988			43377.83579		136.53400		875.00000 
 43692.65567		 305.27265			43387.38302		70.72800		324.00000 
 43692.65567		 314.81988			43377.83579		136.53400		875.00000 
 43692.65567		 305.27265			43387.38302		70.72800		324.00000 
 43692.65567		 314.81988			43377.83579		136.53400		875.00000 
 43692.65567		 305.27265			43387.38302		70.72800		324.00000 
 43692.65567		 318.63877			43374.01690		136.53400		875.00000 
 43692.65567		 305.27265			43387.38302		70.72800		324.00000 
 43692.65567		 322.45767			43370.19801		136.53400		875.00000 
 43692.65567		 305.27265			43387.38302		70.72800		324.00000 
 43692.65567		 326.27656			43366.37912		136.53400		875.00000 
 43692.65567		 305.27265			43387.38302		70.72800		324.00000 
 43692.65567		 326.27656			43366.37912		136.53400		875.00000 
 43692.65567		 305.27265			43387.38302		70.72800		324.00000 
 43692.65567		 326.27656			43366.37912		136.53400		875.00000 
 43692.65567		 305.27265			43387.38302		70.72800		324.00000 
 43692.65567		 537.27032			43155.38535		136.53400		875.00000 
 43692.65567		 305.27265			43387.38302		70.72800		324.00000 
 43692.65567		 672.84098			43019.81470		136.53400		875.00000 
 43692.65567		 305.27265			43387.38302		70.72800		324.00000 
 43692.65567		 740.62630			42952.02937		136.53400		875.00000 
 43692.65567		 305.27265			43387.38302		70.72800		324.00000 
 43692.65567		 740.62630			42952.02937		136.53400		875.00000 
 43692.65567		 305.27265			43387.38302		70.72800		324.00000 
 43692.65567		 740.62630			42952.02937		136.53400		875.00000 
 43692.65567		 305.27265			43387.38302		70.72800		324.00000 
 43692.65567		 740.62630			42952.02937		136.53400		875.00000 
 43692.65567		 305.27265			43387.38302		70.72800		324.00000 
 43692.65567		 740.62630			42952.02937		136.53400		875.00000 
 43692.65567		 305.27265			43387.38302		70.72800		324.00000 
 43692.65567		 740.62630			42952.02937		136.53400		875.00000 
 43692.65567		 305.27265			43387.38302		70.72800		324.00000 
 43692.65567		 740.62630			42952.02937		136.53400		875.00000 
 43692.65567		 305.27265			43387.38302		70.72800		324.00000 
 43692.65567		 740.62630			42952.02937		136.53400		875.00000 
 43692.65567		 305.27265			43387.38302		70.72800		324.00000 
 43692.65567		 740.62630			42952.02937		136.53400		875.00000 
 43692.65567		 305.27265			43387.38302		70.72800		324.00000 
 43692.65567		 740.62630			42952.02937		136.53400		875.00000 
 43692.65567		 305.27265			43387.38302		70.72800		324.00000 
 43692.65567		 740.62630			42952.02937		136.53400		875.00000 
 43692.65567		 305.27265			43387.38302		70.72800		324.00000 
 43692.65567		 740.62630			42952.02937		136.53400		875.00000 
 43692.65567		 305.27265			43387.38302		70.72800		324.00000 
 43692.65567		 740.62630			42952.02937		136.53400		875.00000 
 43692.65567		 305.27265			43387.38302		70.72800		324.00000 
 43692.65567		 740.62630			42952.02937		136.53400		875.00000 
 43692.65567		 305.27265			43387.38302		70.72800		324.00000 
 43692.65567		 740.62630			42952.02937		136.53400		875.00000 
 43692.65567		 305.27265			43387.38302		70.72800		324.00000 
 43692.65567		 740.62630			42952.02937		152.08000		875.00000 
 43692.65567		 305.27265			43387.38302		70.72800		324.00000 
 43692.65567		 740.62630			42952.02937		152.08000		875.00000 
 43692.65567		 305.27265			43387.38302		70.72800		324.00000 
 43692.65567		 740.62630			42952.02937		152.08000		875.00000 
 43692.65567		 305.27265			43387.38302		70.72800		324.00000 
 43692.65567		 740.62630			42952.02937		152.08000		875.00000 
 43692.65567		 305.27265			43387.38302		70.72800		324.00000 
 43692.65567		 740.62630			42952.02937		152.08000		875.00000 
 43692.65567		 305.27265			43387.38302		70.72800		324.00000 
 43692.65567		 740.62630			42952.02937		152.08000		875.00000 
 43692.65567		 305.27265			43387.38302		70.72800		324.00000 
 43692.65567		 740.62630			42952.02937		152.08000		875.00000 
 43692.65567		 305.27265			43387.38302		70.72800		324.00000 
 43692.65567		 740.62630			42952.02937		152.08000		875.00000 
 43692.65567		 305.27265			43387.38302		70.72800		324.00000 
 43692.65567		 740.62630			42952.02937		152.08000		875.00000 
 43692.65567		 305.27265			43387.38302		70.72800		324.00000 
 43692.65567		 740.62630			42952.02937		152.08000		875.00000 
 43692.65567		 305.27265			43387.38302		70.72800		324.00000 
 43692.65567		 740.62630			42952.02937		152.08000		875.00000 
 43692.65567		 305.27265			43387.38302		70.72800		324.00000 
 43692.65567		 740.62630			42952.02937		152.08000		875.00000 
 43692.65567		 305.27265			43387.38302		70.72800		324.00000 
 43692.65567		 740.62630			42952.02937		152.08000		875.00000 
 43692.65567		 305.27265			43387.38302		70.72800		324.00000 
 43692.65567		 740.62630			42952.02937		152.08000		875.00000 
 43692.65567		 305.27265			43387.38302		66.67200		324.00000 
 43692.65567		 740.62630			42952.02937		152.08000		875.00000 
 43692.65567		 305.27265			43387.38302		66.67200		324.00000 
 43692.65567		 740.62630			42952.02937		152.08000		875.00000 
 43692.65567		 305.27265			43387.38302		66.67200		324.00000 
 43692.65567		 740.62630			42952.02937		152.08000		875.00000 
 43692.65567		 305.27265			43387.38302		66.67200		324.00000 
 43692.65567		 740.62630			42952.02937		152.08000		875.00000 
 43692.65567		 305.27265			43387.38302		66.67200		324.00000 
 43692.65567		 740.62630			42952.02937		152.08000		875.00000 
 43692.65567		 305.27265			43387.38302		66.67200		324.00000 
 43692.65567		 740.62630			42952.02937		152.08000		875.00000 
 43692.65567		 305.27265			43387.38302		66.67200		324.00000 
 43692.65567		 740.62630			42952.02937		152.08000		875.00000 
 43692.65567		 305.27265			43387.38302		66.67200		324.00000 
 43692.65567		 740.62630			42952.02937		152.08000		875.00000 
 43692.65567		 305.27265			43387.38302		66.67200		324.00000 
 43692.65567		 740.62630			42952.02937		152.08000		875.00000 
 43692.65567		 305.27265			43387.38302		66.67200		324.00000 
 43692.65567		 740.62630			42952.02937		152.08000		875.00000 
 43692.65567		 305.27265			43387.38302		66.67200		324.00000 
 43692.65567		 740.62630			42952.02937		152.08000		875.00000 
 43692.65567		 305.27265			43387.38302		66.67200		324.00000 
 43692.65567		 740.62630			42952.02937		152.08000		875.00000 
 43692.65567		 305.27265			43387.38302		66.67200		324.00000 
 43692.65567		 740.62630			42952.02937		152.08000		875.00000 
 43692.65567		 305.27265			43387.38302		66.67200		324.00000 
 43692.65567		 740.62630			42952.02937		152.08000		875.00000 
 43692.65567		 305.27265			43387.38302		66.67200		324.00000 
 43692.65567		 740.62630			42952.02937		152.08000		875.00000 
 43692.65567		 305.27265			43387.38302		66.67200		324.00000 
 43692.65567		 740.62630			42952.02937		152.08000		875.00000 
 43692.65567		 305.27265			43387.38302		66.67200		324.00000 
 43692.65567		 740.62630			42952.02937		152.08000		875.00000 
 43692.65567		 305.27265			43387.38302		66.67200		324.00000 
 43692.65567		 740.62630			42952.02937		152.08000		875.00000 
 43692.65567		 305.27265			43387.38302		66.67200		324.00000 
 43692.65567		 740.62630			42952.02937		152.08000		875.00000 
 43692.65567		 305.27265			43387.38302		66.67200		324.00000 
 43692.65567		 740.62630			42952.02937		152.08000		875.00000 
 43692.65567		 305.27265			43387.38302		66.67200		324.00000 
 43692.65567		 740.62630			42952.02937		152.08000		875.00000 
 43692.65567		 305.27265			43387.38302		66.67200		324.00000 
 43692.65567		 740.62630			42952.02937		152.08000		875.00000 
 43692.65567		 305.27265			43387.38302		66.67200		324.00000 
 43692.65567		 740.62630			42952.02937		152.08000		875.00000 
 43692.65567		 305.27265			43387.38302		66.67200		324.00000 
 43692.65567		 740.62630			42952.02937		152.08000		875.00000 
 43692.65567		 305.27265			43387.38302		66.67200		324.00000 
 43692.65567		 740.62630			42952.02937		152.08000		875.00000 
 43692.65567		 305.27265			43387.38302		66.67200		324.00000 
 43692.65567		 740.62630			42952.02937		152.08000		875.00000 
 43692.65567		 305.27265			43387.38302		66.67200		324.00000 
 43692.65567		 740.62630			42952.02937		152.08000		875.00000 
 43692.65567		 305.27265			43387.38302		66.67200		324.00000 
 43692.65567		 740.62630			42952.02937		152.08000		875.00000 
 43692.65567		 305.27265			43387.38302		66.67200		324.00000 
 43692.65567		 740.62630			42952.02937		152.08000		875.00000 
 43692.65567		 305.27265			43387.38302		66.67200		324.00000 
 43692.65567		 740.62630			42952.02937		152.08000		875.00000 
 43692.65567		 305.27265			43387.38302		66.67200		324.00000 
 43692.65567		 740.62630			42952.02937		152.08000		875.00000 
 43692.65567		 305.27265			43387.38302		66.67200		324.00000 
 43692.65567		 740.62630			42952.02937		152.08000		875.00000 
 43692.65567		 305.27265			43387.38302		66.67200		324.00000 
 43692.65567		 740.62630			42952.02937		152.08000		875.00000 
 43692.65567		 305.27265			43387.38302		66.67200		324.00000 
 43692.65567		 740.62630			42952.02937		152.08000		875.00000 
 43692.65567		 305.27265			43387.38302		66.67200		324.00000 
 43692.65567		 740.62630			42952.02937		152.08000		875.00000 
 43692.65567		 305.27265			43387.38302		66.67200		324.00000 
 43692.65567		 740.62630			42952.02937		152.08000		875.00000 
 43692.65567		 305.27265			43387.38302		66.67200		324.00000 
 43692.65567		 740.62630			42952.02937		152.08000		875.00000 
 43692.65567		 305.27265			43387.38302		66.67200		324.00000 
 43692.65567		 740.62630			42952.02937		152.08000		875.00000 
 43692.65567		 305.27265			43387.38302		66.67200		324.00000 
 43692.65567		 740.62630			42952.02937		152.08000		875.00000 
 43692.65567		 305.27265			43387.38302		66.67200		324.00000 
 43692.65567		 740.62630			42952.02937		152.08000		875.00000 
 43692.65567		 305.27265			43387.38302		66.67200		324.00000 
 43692.65567		 740.62630			42952.02937		152.08000		875.00000 
 43692.65567		 305.27265			43387.38302		66.67200		324.00000 
 43692.65567		 740.62630			42952.02937		152.08000		875.00000 
 43692.65567		 305.27265			43387.38302		66.67200		324.00000 
 43692.65567		 740.62630			42952.02937		152.08000		875.00000 
 43692.65567		 305.27265			43387.38302		66.67200		324.00000 
 43692.65567		 740.62630			42952.02937		152.08000		875.00000 
 43692.65567		 305.27265			43387.38302		66.67200		324.00000 
 43692.65567		 740.62630			42952.02937		152.08000		875.00000 
 43692.65567		 305.27265			43387.38302		66.67200		324.00000 
 43692.65567		 740.62630			42952.02937		152.08000		875.00000 
 43692.65567		 305.27265			43387.38302		66.67200		324.00000 
 43692.65567		 740.62630			42952.02937		152.08000		875.00000 
 43692.65567		 305.27265			43387.38302		66.67200		324.00000 
 43692.65567		 740.62630			42952.02937		194.98600		875.00000 
 43692.65567		 305.27265			43387.38302		66.67200		324.00000 
 43692.65567		 740.62630			42952.02937		194.98600		875.00000 
 43692.65567		 305.27265			43387.38302		66.67200		324.00000 
 43692.65567		 740.62630			42952.02937		194.98600		875.00000 
 43692.65567		 305.27265			43387.38302		66.67200		324.00000 
 43692.65567		 740.62630			42952.02937		194.98600		875.00000 
 43692.65567		 305.27265			43387.38302		66.67200		324.00000 
 43692.65567		 740.62630			42952.02937		194.98600		875.00000 
 43692.65567		 305.27265			43387.38302		66.67200		324.00000 
 43692.65567		 740.62630			42952.02937		194.98600		875.00000 
 43692.65567		 305.27265			43387.38302		66.67200		324.00000 
 43692.65567		 740.62630			42952.02937		194.98600		875.00000 
 43692.65567		 305.27265			43387.38302		66.67200		324.00000 
 43692.65567		 740.62630			42952.02937		194.98600		875.00000 
 43692.65567		 305.27265			43387.38302		66.67200		324.00000 
 43692.65567		 740.62630			42952.02937		194.98600		875.00000 
 43692.65567		 305.27265			43387.38302		66.67200		324.00000 
 43692.65567		 740.62630			42952.02937		194.98600		875.00000 
 43692.65567		 305.27265			43387.38302		66.67200		324.00000 
 43692.65567		 740.62630			42952.02937		194.98600		875.00000 
 43692.65567		 305.27265			43387.38302		66.67200		324.00000 
 43692.65567		 740.62630			42952.02937		194.98600		875.00000 
 43692.65567		 305.27265			43387.38302		66.67200		324.00000 
 43692.65567		 740.62630			42952.02937		194.98600		875.00000 
 43692.65567		 305.27265			43387.38302		66.67200		324.00000 
 43692.65567		 740.62630			42952.02937		194.98600		875.00000 
 43692.65567		 305.27265			43387.38302		66.67200		324.00000 
 43692.65567		 740.62630			42952.02937		194.98600		875.00000 
 43692.65567		 305.27265			43387.38302		66.67200		324.00000 
 43692.65567		 740.62630			42952.02937		194.98600		875.00000 
 43692.65567		 305.27265			43387.38302		66.67200		324.00000 
 43692.65567		 740.62630			42952.02937		194.98600		875.00000 
 43692.65567		 305.27265			43387.38302		66.67200		324.00000 
 43692.65567		 740.62630			42952.02937		194.98600		875.00000 
 43692.65567		 305.27265			43387.38302		66.67200		324.00000 
 43692.65567		 740.62630			42952.02937		194.98600		875.00000 
 43692.65567		 305.27265			43387.38302		66.67200		324.00000 
 43692.65567		 740.62630			42952.02937		194.98600		875.00000 
 43692.65567		 305.27265			43387.38302		66.67200		324.00000 
 43692.65567		 740.62630			42952.02937		194.98600		875.00000 
 43692.65567		 305.27265			43387.38302		66.67200		324.00000 
 43692.65567		 740.62630			42952.02937		194.98600		875.00000 
 43692.65567		 305.27265			43387.38302		66.67200		324.00000 
 43692.65567		 740.62630			42952.02937		194.98600		875.00000 
 43692.65567		 305.27265			43387.38302		66.67200		324.00000 
 43692.65567		 740.62630			42952.02937		194.98600		875.00000 
 43692.65567		 305.27265			43387.38302		66.67200		324.00000 
 43692.65567		 740.62630			42952.02937		194.98600		875.00000 
 43692.65567		 305.27265			43387.38302		66.67200		324.00000 
 43692.65567		 740.62630			42952.02937		194.98600		875.00000 
 43692.65567		 305.27265			43387.38302		66.67200		324.00000 
 43692.65567		 740.62630			42952.02937		194.98600		875.00000 
 43692.65567		 305.27265			43387.38302		66.67200		324.00000 
 43692.65567		 740.62630			42952.02937		194.98600		875.00000 
 43692.65567		 305.27265			43387.38302		66.67200		324.00000 
 43692.65567		 740.62630			42952.02937		194.98600		875.00000 
 43692.65567		 305.27265			43387.38302		66.67200		324.00000 
 43692.65567		 740.62630			42952.02937		194.98600		875.00000 
 43692.65567		 305.27265			43387.38302		66.67200		324.00000 
 43692.65567		 740.62630			42952.02937		194.98600		875.00000 
 43692.65567		 305.27265			43387.38302		66.67200		324.00000 
 43692.65567		 740.62630			42952.02937		194.98600		875.00000 
 43692.65567		 305.27265			43387.38302		66.67200		324.00000 
 43692.65567		 740.62630			42952.02937		194.98600		875.00000 
 43692.65567		 305.27265			43387.38302		66.67200		324.00000 
 43692.65567		 740.62630			42952.02937		194.98600		875.00000 
 43692.65567		 305.27265			43387.38302		66.67200		324.00000 
 43692.65567		 740.62630			42952.02937		194.98600		875.00000 
 43692.65567		 305.27265			43387.38302		66.67200		324.00000 
 43692.65567		 740.62630			42952.02937		194.98600		875.00000 
 43692.65567		 305.27265			43387.38302		66.67200		324.00000 
 43692.65567		 740.62630			42952.02937		194.98600		875.00000 
 43692.65567		 305.27265			43387.38302		66.67200		324.00000 
 43692.65567		 740.62630			42952.02937		194.98600		875.00000 
 43692.65567		 305.27265			43387.38302		66.67200		324.00000 
 43692.65567		 740.62630			42952.02937		194.98600		875.00000 
 43692.65567		 305.27265			43387.38302		66.67200		324.00000 
 43692.65567		 740.62630			42952.02937		194.98600		875.00000 
 43692.65567		 305.27265			43387.38302		66.67200		324.00000 
 43692.65567		 740.62630			42952.02937		194.98600		875.00000 
 43692.65567		 305.27265			43387.38302		66.67200		324.00000 
 43692.65567		 740.62630			42952.02937		194.98600		875.00000 
 43692.65567		 305.27265			43387.38302		66.67200		324.00000 
 43692.65567		 740.62630			42952.02937		194.98600		875.00000 
 43692.65567		 305.27265			43387.38302		66.67200		324.00000 
 43692.65567		 740.62630			42952.02937		194.98600		875.00000 
 43692.65567		 305.27265			43387.38302		66.67200		324.00000 
 43692.65567		 740.62630			42952.02937		194.98600		875.00000 
 43692.65567		 305.27265			43387.38302		66.67200		324.00000 
 43692.65567		 740.62630			42952.02937		194.98600		875.00000 
 43692.65567		 305.27265			43387.38302		66.67200		324.00000 
 43692.65567		 740.62630			42952.02937		194.98600		875.00000 
 43692.65567		 305.27265			43387.38302		66.67200		324.00000 
 43692.65567		 740.62630			42952.02937		194.98600		875.00000 
 43692.65567		 305.27265			43387.38302		66.67200		324.00000 
 43692.65567		 740.62630			42952.02937		194.98600		875.00000 
 43692.65567		 305.27265			43387.38302		66.67200		324.00000 
 43692.65567		 740.62630			42952.02937		194.98600		875.00000 
 43692.65567		 305.27265			43387.38302		66.67200		324.00000 
 43692.65567		 740.62630			42952.02937		194.98600		875.00000 
 43692.65567		 305.27265			43387.38302		66.67200		324.00000 
 43692.65567		 740.62630			42952.02937		194.98600		875.00000 
 43692.65567		 305.27265			43387.38302		66.67200		324.00000 
 43692.65567		 740.62630			42952.02937		194.98600		875.00000 
 43692.65567		 305.27265			43387.38302		66.67200		324.00000 
 43692.65567		 740.62630			42952.02937		194.98600		875.00000 
 43692.65567		 305.27265			43387.38302		66.67200		324.00000 
 43692.65567		 740.62630			42952.02937		194.98600		875.00000 
 43692.65567		 305.27265			43387.38302		66.67200		324.00000 
 43692.65567		 740.62630			42952.02937		194.98600		875.00000 
 43692.65567		 305.27265			43387.38302		66.67200		324.00000 
 43692.65567		 740.62630			42952.02937		194.98600		875.00000 
 43692.65567		 305.27265			43387.38302		66.67200		324.00000 
 43692.65567		 740.62630			42952.02937		194.98600		875.00000 
 43692.65567		 305.27265			43387.38302		66.67200		324.00000 
 43692.65567		 740.62630			42952.02937		194.98600		875.00000 
 43692.65567		 305.27265			43387.38302		66.67200		324.00000 
 43692.65567		 740.62630			42952.02937		194.98600		875.00000 
 43692.65567		 305.27265			43387.38302		66.67200		324.00000 
 43692.65567		 740.62630			42952.02937		194.98600		875.00000 
 43692.65567		 305.27265			43387.38302		66.67200		324.00000 
 43692.65567		 740.62630			42952.02937		194.98600		875.00000 
 43692.65567		 305.27265			43387.38302		66.67200		324.00000 
 43692.65567		 740.62630			42952.02937		194.98600		875.00000 
 43692.65567		 305.27265			43387.38302		66.67200		324.00000 
 43692.65567		 740.62630			42952.02937		194.98600		875.00000 
 43692.65567		 305.27265			43387.38302		66.67200		324.00000 
 43692.65567		 740.62630			42952.02937		210.38000		875.00000 
 43692.65567		 305.27265			43387.38302		66.67200		324.00000 
 43692.65567		 740.62630			42952.02937		210.38000		875.00000 
 43692.65567		 305.27265			43387.38302		66.67200		324.00000 
 43692.65567		 740.62630			42952.02937		210.38000		875.00000 
 43692.65567		 305.27265			43387.38302		66.67200		324.00000 
 43692.65567		 740.62630			42952.02937		210.38000		875.00000 
 43692.65567		 305.27265			43387.38302		66.67200		324.00000 
 43692.65567		 740.62630			42952.02937		210.38000		875.00000 
 43692.65567		 305.27265			43387.38302		66.67200		324.00000 
 43692.65567		 740.62630			42952.02937		210.38000		875.00000 
 43692.65567		 305.27265			43387.38302		66.67200		324.00000 
 43692.65567		 740.62630			42952.02937		210.38000		875.00000 
 43692.65567		 305.27265			43387.38302		66.67200		324.00000 
 43692.65567		 740.62630			42952.02937		210.38000		875.00000 
 43692.65567		 305.27265			43387.38302		66.67200		324.00000 
 43692.65567		 740.62630			42952.02937		210.38000		875.00000 
 43692.65567		 305.27265			43387.38302		66.67200		324.00000 
 43692.65567		 740.62630			42952.02937		210.38000		875.00000 
 43692.65567		 305.27265			43387.38302		66.67200		324.00000 
 43692.65567		 740.62630			42952.02937		210.38000		875.00000 
 43692.65567		 305.27265			43387.38302		66.67200		324.00000 
 43692.65567		 740.62630			42952.02937		210.38000		875.00000 
 43692.65567		 305.27265			43387.38302		66.67200		324.00000 
 43692.65567		 740.62630			42952.02937		210.38000		875.00000 
 43692.65567		 305.27265			43387.38302		66.67200		324.00000 
 43692.65567		 740.62630			42952.02937		210.38000		875.00000 
 43692.65567		 305.27265			43387.38302		66.67200		324.00000 
 43692.65567		 740.62630			42952.02937		210.38000		875.00000 
 43692.65567		 305.27265			43387.38302		66.67200		324.00000 
 43692.65567		 740.62630			42952.02937		210.38000		875.00000 
 43692.65567		 305.27265			43387.38302		66.67200		324.00000 
 43692.65567		 740.62630			42952.02937		210.38000		875.00000 
 43692.65567		 305.27265			43387.38302		66.67200		324.00000 
 43692.65567		 740.62630			42952.02937		210.38000		875.00000 
 43692.65567		 305.27265			43387.38302		66.67200		324.00000 
 43692.65567		 740.62630			42952.02937		210.38000		875.00000 
 43692.65567		 305.27265			43387.38302		66.67200		324.00000 
 43692.65567		 740.62630			42952.02937		210.38000		875.00000 
 43692.65567		 305.27265			43387.38302		66.67200		324.00000 
 43692.65567		 740.62630			42952.02937		210.38000		875.00000 
 43692.65567		 305.27265			43387.38302		66.67200		324.00000 
 43692.65567		 740.62630			42952.02937		210.38000		875.00000 
 43692.65567		 305.27265			43387.38302		66.67200		324.00000 
 43692.65567		 740.62630			42952.02937		210.38000		875.00000 
 43692.65567		 305.27265			43387.38302		66.67200		324.00000 
 43692.65567		 740.62630			42952.02937		210.38000		875.00000 
 43692.65567		 305.27265			43387.38302		66.67200		324.00000 
 43692.65567		 740.62630			42952.02937		210.38000		875.00000 
 43692.65567		 305.27265			43387.38302		66.67200		324.00000 
 43692.65567		 740.62630			42952.02937		210.38000		875.00000 
 43692.65567		 305.27265			43387.38302		66.67200		324.00000 
 43692.65567		 740.62630			42952.02937		210.38000		875.00000 
 43692.65567		 305.27265			43387.38302		66.67200		324.00000 
 43692.65567		 740.62630			42952.02937		210.38000		875.00000 
 43692.65567		 305.27265			43387.38302		66.67200		324.00000 
 43692.65567		 740.62630			42952.02937		210.38000		875.00000 
 43692.65567		 305.27265			43387.38302		66.67200		324.00000 
 43692.65567		 740.62630			42952.02937		210.38000		875.00000 
 43692.65567		 305.27265			43387.38302		66.67200		324.00000 
 43692.65567		 740.62630			42952.02937		210.38000		875.00000 
 43692.65567		 305.27265			43387.38302		66.67200		324.00000 
 43692.65567		 740.62630			42952.02937		210.38000		875.00000 
 43692.65567		 305.27265			43387.38302		66.67200		324.00000 
 43692.65567		 740.62630			42952.02937		210.38000		875.00000 
 43692.65567		 305.27265			43387.38302		66.67200		324.00000 
 43692.65567		 740.62630			42952.02937		210.38000		875.00000 
 43692.65567		 305.27265			43387.38302		66.67200		324.00000 
 43692.65567		 740.62630			42952.02937		210.38000		875.00000 
 43692.65567		 305.27265			43387.38302		66.67200		324.00000 
 43692.65567		 740.62630			42952.02937		210.38000		875.00000 
 43692.65567		 305.27265			43387.38302		66.67200		324.00000 
 43692.65567		 740.62630			42952.02937		210.38000		875.00000 
 43692.65567		 305.27265			43387.38302		66.67200		324.00000 
 43692.65567		 740.62630			42952.02937		210.38000		875.00000 
 43692.65567		 305.27265			43387.38302		66.67200		324.00000 
 43692.65567		 740.62630			42952.02937		210.38000		875.00000 
 43692.65567		 305.27265			43387.38302		66.67200		324.00000 
 43692.65567		 740.62630			42952.02937		210.38000		875.00000 
 43692.65567		 305.27265			43387.38302		66.67200		324.00000 
 43692.65567		 740.62630			42952.02937		210.38000		875.00000 
 43692.65567		 305.27265			43387.38302		66.67200		324.00000 
 43692.65567		 740.62630			42952.02937		210.38000		875.00000 
 43692.65567		 305.27265			43387.38302		66.67200		324.00000 
 43692.65567		 740.62630			42952.02937		210.38000		875.00000 
 43692.65567		 305.27265			43387.38302		66.67200		324.00000 
 43692.65567		 740.62630			42952.02937		210.38000		875.00000 
 43692.65567		 305.27265			43387.38302		66.67200		324.00000 
 43692.65567		 740.62630			42952.02937		210.38000		875.00000 
 43692.65567		 305.27265			43387.38302		66.67200		324.00000 
 43692.65567		 740.62630			42952.02937		210.38000		875.00000 
 43692.65567		 305.27265			43387.38302		66.67200		324.00000 
 43692.65567		 740.62630			42952.02937		210.38000		875.00000 
 43692.65567		 305.27265			43387.38302		66.67200		324.00000 
 43692.65567		 740.62630			42952.02937		210.38000		875.00000 
 43692.65567		 305.27265			43387.38302		66.67200		324.00000 
 43692.65567		 740.62630			42952.02937		210.38000		875.00000 
 43692.65567		 305.27265			43387.38302		66.67200		324.00000 
 43692.65567		 740.62630			42952.02937		210.38000		875.00000 
 43692.65567		 305.27265			43387.38302		66.67200		324.00000 
 43692.65567		 740.62630			42952.02937		210.38000		875.00000 
 43692.65567		 305.27265			43387.38302		66.67200		324.00000 
 43692.65567		 740.62630			42952.02937		210.38000		875.00000 
 43692.65567		 305.27265			43387.38302		66.67200		324.00000 
 43692.65567		 740.62630			42952.02937		210.38000		875.00000 
 43692.65567		 305.27265			43387.38302		66.67200		324.00000 
 43692.65567		 740.62630			42952.02937		210.38000		875.00000 
 43692.65567		 305.27265			43387.38302		66.67200		324.00000 
 43692.65567		 740.62630			42952.02937		210.38000		875.00000 
 43692.65567		 305.27265			43387.38302		66.67200		324.00000 
 43692.65567		 740.62630			42952.02937		210.38000		875.00000 
 43692.65567		 305.27265			43387.38302		66.67200		324.00000 
 43692.65567		 740.62630			42952.02937		210.38000		875.00000 
 43692.65567		 305.27265			43387.38302		66.67200		324.00000 
 43692.65567		 740.62630			42952.02937		210.38000		875.00000 
 43692.65567		 305.27265			43387.38302		66.67200		324.00000 
 43692.65567		 740.62630			42952.02937		210.38000		875.00000 
 43692.65567		 305.27265			43387.38302		66.67200		324.00000 
 43692.65567		 740.62630			42952.02937		210.38000		875.00000 
 43692.65567		 305.27265			43387.38302		66.67200		324.00000 
 43692.65567		 740.62630			42952.02937		210.38000		875.00000 
 43692.65567		 305.27265			43387.38302		66.67200		324.00000 
 43692.65567		 740.62630			42952.02937		210.38000		875.00000 
 43692.65567		 305.27265			43387.38302		66.67200		324.00000 
 43692.65567		 740.62630			42952.02937		210.38000		875.00000 
 43692.65567		 305.27265			43387.38302		66.67200		324.00000 
 43692.65567		 740.62630			42952.02937		210.38000		875.00000 
 43692.65567		 305.27265			43387.38302		66.67200		324.00000 
 43692.65567		 740.62630			42952.02937		216.57200		875.00000 
 43692.65567		 305.27265			43387.38302		66.67200		324.00000 
 43692.65567		 740.62630			42952.02937		216.57200		875.00000 
 43692.65567		 305.27265			43387.38302		66.67200		324.00000 
 43692.65567		 740.62630			42952.02937		216.57200		875.00000 
 43692.65567		 305.27265			43387.38302		66.67200		324.00000 
 43692.65567		 740.62630			42952.02937		216.57200		875.00000 
 43692.65567		 305.27265			43387.38302		66.67200		324.00000 
 43692.65567		 740.62630			42952.02937		216.57200		875.00000 
 43692.65567		 305.27265			43387.38302		66.67200		324.00000 
 43692.65567		 740.62630			42952.02937		216.57200		875.00000 
 43692.65567		 305.27265			43387.38302		66.67200		324.00000 
 43692.65567		 740.62630			42952.02937		216.57200		875.00000 
 43692.65567		 305.27265			43387.38302		66.67200		324.00000 
 43692.65567		 740.62630			42952.02937		216.57200		875.00000 
 43692.65567		 305.27265			43387.38302		66.67200		324.00000 
 43692.65567		 740.62630			42952.02937		216.57200		875.00000 
 43692.65567		 305.27265			43387.38302		66.67200		324.00000 
 43692.65567		 740.62630			42952.02937		216.57200		875.00000 
 43692.65567		 305.27265			43387.38302		66.67200		324.00000 
 43692.65567		 740.62630			42952.02937		216.57200		875.00000 
 43692.65567		 305.27265			43387.38302		66.67200		324.00000 
 43692.65567		 740.62630			42952.02937		216.57200		875.00000 
 43692.65567		 305.27265			43387.38302		66.67200		324.00000 
 43692.65567		 740.62630			42952.02937		216.57200		875.00000 
 43692.65567		 305.27265			43387.38302		66.67200		324.00000 
 43692.65567		 740.62630			42952.02937		216.57200		875.00000 
 43692.65567		 305.27265			43387.38302		66.67200		324.00000 
 43692.65567		 740.62630			42952.02937		216.57200		875.00000 
 43692.65567		 305.27265			43387.38302		66.67200		324.00000 
 43692.65567		 740.62630			42952.02937		216.57200		875.00000 
 43692.65567		 305.27265			43387.38302		66.67200		324.00000 
 43692.65567		 740.62630			42952.02937		216.57200		875.00000 
 43692.65567		 305.27265			43387.38302		66.67200		324.00000 
 43692.65567		 740.62630			42952.02937		216.57200		875.00000 
 43692.65567		 305.27265			43387.38302		66.67200		324.00000 
 43692.65567		 740.62630			42952.02937		216.57200		875.00000 
 43692.65567		 305.27265			43387.38302		66.67200		324.00000 
 43692.65567		 740.62630			42952.02937		216.57200		875.00000 
 43692.65567		 305.27265			43387.38302		66.67200		324.00000 
 43692.65567		 740.62630			42952.02937		216.57200		875.00000 
 43692.65567		 305.27265			43387.38302		66.67200		324.00000 
 43692.65567		 740.62630			42952.02937		216.57200		875.00000 
 43692.65567		 305.27265			43387.38302		66.67200		324.00000 
 43692.65567		 740.62630			42952.02937		216.57200		875.00000 
 43692.65567		 305.27265			43387.38302		66.67200		324.00000 
 43692.65567		 740.62630			42952.02937		216.57200		875.00000 
 43692.65567		 305.27265			43387.38302		66.67200		324.00000 
 43692.65567		 740.62630			42952.02937		216.57200		875.00000 
 43692.65567		 305.27265			43387.38302		66.67200		324.00000 
 43692.65567		 740.62630			42952.02937		216.57200		875.00000 
 43692.65567		 305.27265			43387.38302		66.67200		324.00000 
 43692.65567		 740.62630			42952.02937		216.57200		875.00000 
 43692.65567		 305.27265			43387.38302		66.67200		324.00000 
 43692.65567		 740.62630			42952.02937		216.57200		875.00000 
 43692.65567		 305.27265			43387.38302		66.67200		324.00000 
 43692.65567		 740.62630			42952.02937		216.57200		875.00000 
 43692.65567		 305.27265			43387.38302		66.67200		324.00000 
 43692.65567		 740.62630			42952.02937		216.57200		875.00000 
 43692.65567		 305.27265			43387.38302		66.67200		324.00000 
 43692.65567		 740.62630			42952.02937		216.57200		875.00000 
 43692.65567		 305.27265			43387.38302		66.67200		324.00000 
 43692.65567		 740.62630			42952.02937		216.57200		875.00000 
 43692.65567		 305.27265			43387.38302		66.67200		324.00000 
 43692.65567		 740.62630			42952.02937		216.57200		875.00000 
 43692.65567		 305.27265			43387.38302		66.67200		324.00000 
 43692.65567		 740.62630			42952.02937		216.57200		875.00000 
 43692.65567		 305.27265			43387.38302		66.67200		324.00000 
 43692.65567		 740.62630			42952.02937		216.57200		875.00000 
 43692.65567		 305.27265			43387.38302		66.67200		324.00000 
 43692.65567		 740.62630			42952.02937		216.57200		875.00000 
 43692.65567		 305.27265			43387.38302		66.67200		324.00000 
 43692.65567		 740.62630			42952.02937		216.57200		875.00000 
 43692.65567		 305.27265			43387.38302		66.67200		324.00000 
 43692.65567		 740.62630			42952.02937		216.57200		875.00000 
 43692.65567		 305.27265			43387.38302		66.67200		324.00000 
 43692.65567		 740.62630			42952.02937		216.57200		875.00000 
 43692.65567		 305.27265			43387.38302		66.67200		324.00000 
 43692.65567		 740.62630			42952.02937		216.57200		875.00000 
 43692.65567		 305.27265			43387.38302		66.67200		324.00000 
 43692.65567		 740.62630			42952.02937		216.57200		875.00000 
 43692.65567		 305.27265			43387.38302		66.67200		324.00000 
 43692.65567		 740.62630			42952.02937		216.57200		875.00000 
 43692.65567		 305.27265			43387.38302		66.67200		324.00000 
 43692.65567		 740.62630			42952.02937		216.57200		875.00000 
 43692.65567		 305.27265			43387.38302		66.67200		324.00000 
 43692.65567		 740.62630			42952.02937		216.57200		875.00000 
 43692.65567		 305.27265			43387.38302		66.67200		324.00000 
 43692.65567		 740.62630			42952.02937		216.57200		875.00000 
 43692.65567		 305.27265			43387.38302		66.67200		324.00000 
 43692.65567		 740.62630			42952.02937		216.57200		875.00000 
 43692.65567		 305.27265			43387.38302		66.67200		324.00000 
 43692.65567		 740.62630			42952.02937		216.57200		875.00000 
 43692.65567		 305.27265			43387.38302		66.67200		324.00000 
 43692.65567		 740.62630			42952.02937		216.57200		875.00000 
 43692.65567		 305.27265			43387.38302		66.67200		324.00000 
 43692.65567		 740.62630			42952.02937		216.57200		875.00000 
 43692.65567		 305.27265			43387.38302		66.67200		324.00000 
 43692.65567		 740.62630			42952.02937		216.57200		875.00000 
 43692.65567		 305.27265			43387.38302		66.67200		324.00000 
 43692.65567		 740.62630			42952.02937		216.57200		875.00000 
 43692.65567		 305.27265			43387.38302		66.67200		324.00000 
 43692.65567		 740.62630			42952.02937		216.57200		875.00000 
 43692.65567		 305.27265			43387.38302		66.67200		324.00000 
 43692.65567		 740.62630			42952.02937		216.57200		875.00000 
 43692.65567		 305.27265			43387.38302		66.67200		324.00000 
 43692.65567		 740.62630			42952.02937		216.57200		875.00000 
 43692.65567		 305.27265			43387.38302		66.67200		324.00000 
 43692.65567		 740.62630			42952.02937		216.57200		875.00000 
 43692.65567		 305.27265			43387.38302		66.67200		324.00000 
 43692.65567		 740.62630			42952.02937		216.57200		875.00000 
 43692.65567		 305.27265			43387.38302		66.67200		324.00000 
 43692.65567		 740.62630			42952.02937		216.57200		875.00000 
 43692.65567		 305.27265			43387.38302		66.67200		324.00000 
 43692.65567		 740.62630			42952.02937		216.57200		875.00000 
 43692.65567		 305.27265			43387.38302		66.67200		324.00000 
 43692.65567		 740.62630			42952.02937		216.57200		875.00000 
 43692.65567		 305.27265			43387.38302		66.67200		324.00000 
 43692.65567		 740.62630			42952.02937		216.57200		875.00000 
 43692.65567		 305.27265			43387.38302		66.67200		324.00000 
 43692.65567		 740.62630			42952.02937		216.57200		875.00000 
 43692.65567		 305.27265			43387.38302		66.67200		324.00000 
 43692.65567		 740.62630			42952.02937		216.57200		875.00000 
 43692.65567		 305.27265			43387.38302		66.67200		324.00000 
 43692.65567		 740.62630			42952.02937		216.57200		875.00000 
 43692.65567		 305.27265			43387.38302		66.67200		324.00000 
 43692.65567		 740.62630			42952.02937		216.57200		875.00000 
 43692.65567		 305.27265			43387.38302		66.67200		324.00000 
 43692.65567		 740.62630			42952.02937		216.57200		875.00000 
 43692.65567		 305.27265			43387.38302		66.67200		324.00000 
 43692.65567		 740.62630			42952.02937		218.89200		875.00000 
 43692.65567		 305.27265			43387.38302		66.67200		324.00000 
 43692.65567		 740.62630			42952.02937		218.89200		875.00000 
 43692.65567		 305.27265			43387.38302		66.67200		324.00000 
 43692.65567		 740.62630			42952.02937		218.89200		875.00000 
 43692.65567		 305.27265			43387.38302		66.67200		324.00000 
 43692.65567		 740.62630			42952.02937		218.89200		875.00000 
 43692.65567		 305.27265			43387.38302		66.67200		324.00000 
 43692.65567		 740.62630			42952.02937		218.89200		875.00000 
 43692.65567		 305.27265			43387.38302		66.67200		324.00000 
 43692.65567		 740.62630			42952.02937		218.89200		875.00000 
 43692.65567		 305.27265			43387.38302		66.67200		324.00000 
 43692.65567		 740.62630			42952.02937		218.89200		875.00000 
 43692.65567		 305.27265			43387.38302		66.67200		324.00000 
 43692.65567		 740.62630			42952.02937		218.89200		875.00000 
 43692.65567		 305.27265			43387.38302		66.67200		324.00000 
 43692.65567		 740.62630			42952.02937		218.89200		875.00000 
 43692.65567		 305.27265			43387.38302		66.67200		324.00000 
 43692.65567		 740.62630			42952.02937		218.89200		875.00000 
 43692.65567		 305.27265			43387.38302		66.67200		324.00000 
 43692.65567		 740.62630			42952.02937		218.89200		875.00000 
 43692.65567		 305.27265			43387.38302		66.67200		324.00000 
 43692.65567		 740.62630			42952.02937		218.89200		875.00000 
 43692.65567		 305.27265			43387.38302		66.67200		324.00000 
 43692.65567		 740.62630			42952.02937		218.89200		875.00000 
 43692.65567		 305.27265			43387.38302		66.67200		324.00000 
 43692.65567		 740.62630			42952.02937		218.89200		875.00000 
 43692.65567		 305.27265			43387.38302		66.67200		324.00000 
 43692.65567		 740.62630			42952.02937		218.89200		875.00000 
 43692.65567		 305.27265			43387.38302		66.67200		324.00000 
 43692.65567		 740.62630			42952.02937		218.89200		875.00000 
 43692.65567		 305.27265			43387.38302		66.67200		324.00000 
 43692.65567		 740.62630			42952.02937		218.89200		875.00000 
 43692.65567		 305.27265			43387.38302		66.67200		324.00000 
 43692.65567		 740.62630			42952.02937		218.89200		875.00000 
 43692.65567		 305.27265			43387.38302		66.67200		324.00000 
 43692.65567		 740.62630			42952.02937		218.89200		875.00000 
 43692.65567		 305.27265			43387.38302		66.67200		324.00000 
 43692.65567		 740.62630			42952.02937		218.89200		875.00000 
 43692.65567		 305.27265			43387.38302		66.67200		324.00000 
 43692.65567		 740.62630			42952.02937		218.89200		875.00000 
 43692.65567		 305.27265			43387.38302		66.67200		324.00000 
 43692.65567		 740.62630			42952.02937		218.89200		875.00000 
 43692.65567		 305.27265			43387.38302		66.67200		324.00000 
 43692.65567		 740.62630			42952.02937		218.89200		875.00000 
 43692.65567		 305.27265			43387.38302		66.67200		324.00000 
 43692.65567		 740.62630			42952.02937		218.89200		875.00000 
 43692.65567		 305.27265			43387.38302		66.67200		324.00000 
 43692.65567		 740.62630			42952.02937		218.89200		875.00000 
 43692.65567		 305.27265			43387.38302		66.67200		324.00000 
 43692.65567		 740.62630			42952.02937		218.89200		875.00000 
 43692.65567		 305.27265			43387.38302		66.67200		324.00000 
 43692.65567		 740.62630			42952.02937		218.89200		875.00000 
 43692.65567		 305.27265			43387.38302		66.67200		324.00000 
 43692.65567		 740.62630			42952.02937		218.89200		875.00000 
 43692.65567		 305.27265			43387.38302		66.67200		324.00000 
 43692.65567		 740.62630			42952.02937		218.89200		875.00000 
 43692.65567		 305.27265			43387.38302		66.67200		324.00000 
 43692.65567		 740.62630			42952.02937		218.89200		875.00000 
 43692.65567		 305.27265			43387.38302		66.67200		324.00000 
 43692.65567		 740.62630			42952.02937		218.89200		875.00000 
 43692.65567		 305.27265			43387.38302		66.67200		324.00000 
 43692.65567		 740.62630			42952.02937		218.89200		875.00000 
 43692.65567		 305.27265			43387.38302		66.67200		324.00000 
 43692.65567		 740.62630			42952.02937		218.89200		875.00000 
 43692.65567		 305.27265			43387.38302		66.67200		324.00000 
 43692.65567		 740.62630			42952.02937		218.89200		875.00000 
 43692.65567		 305.27265			43387.38302		66.67200		324.00000 
 43692.65567		 740.62630			42952.02937		218.89200		875.00000 
 43692.65567		 305.27265			43387.38302		66.67200		324.00000 
 43692.65567		 740.62630			42952.02937		218.89200		875.00000 
 43692.65567		 305.27265			43387.38302		66.67200		324.00000 
 43692.65567		 740.62630			42952.02937		218.89200		875.00000 
 43692.65567		 305.27265			43387.38302		66.67200		324.00000 
 43692.65567		 740.62630			42952.02937		218.89200		875.00000 
 43692.65567		 305.27265			43387.38302		66.67200		324.00000 
 43692.65567		 740.62630			42952.02937		218.89200		875.00000 
 43692.65567		 305.27265			43387.38302		66.67200		324.00000 
 43692.65567		 740.62630			42952.02937		218.89200		875.00000 
 43692.65567		 305.27265			43387.38302		66.67200		324.00000 
 43692.65567		 740.62630			42952.02937		218.89200		875.00000 
 43692.65567		 305.27265			43387.38302		66.67200		324.00000 
 43692.65567		 740.62630			42952.02937		218.89200		875.00000 
 43692.65567		 305.27265			43387.38302		66.67200		324.00000 
 43692.65567		 740.62630			42952.02937		218.89200		875.00000 
 43692.65567		 305.27265			43387.38302		66.67200		324.00000 
 43692.65567		 740.62630			42952.02937		218.89200		875.00000 
 43692.65567		 305.27265			43387.38302		66.67200		324.00000 
 43692.65567		 740.62630			42952.02937		218.89200		875.00000 
 43692.65567		 305.27265			43387.38302		66.67200		324.00000 
 43692.65567		 740.62630			42952.02937		218.89200		875.00000 
 43692.65567		 305.27265			43387.38302		66.67200		324.00000 
 43692.65567		 740.62630			42952.02937		218.89200		875.00000 
 43692.65567		 305.27265			43387.38302		66.67200		324.00000 
 43692.65567		 740.62630			42952.02937		218.89200		875.00000 
 43692.65567		 305.27265			43387.38302		66.67200		324.00000 
 43692.65567		 740.62630			42952.02937		218.89200		875.00000 
 43692.65567		 305.27265			43387.38302		66.67200		324.00000 
 43692.65567		 740.62630			42952.02937		218.89200		875.00000 
 43692.65567		 305.27265			43387.38302		66.67200		324.00000 
 43692.65567		 740.62630			42952.02937		218.89200		875.00000 
 43692.65567		 305.27265			43387.38302		66.67200		324.00000 
 43692.65567		 740.62630			42952.02937		218.89200		875.00000 
 43692.65567		 305.27265			43387.38302		66.67200		324.00000 
 43692.65567		 740.62630			42952.02937		218.89200		875.00000 
 43692.65567		 305.27265			43387.38302		66.67200		324.00000 
 43692.65567		 740.62630			42952.02937		218.89200		875.00000 
 43692.65567		 305.27265			43387.38302		66.67200		324.00000 
 43692.65567		 740.62630			42952.02937		218.89200		875.00000 
 43692.65567		 305.27265			43387.38302		66.67200		324.00000 
 43692.65567		 740.62630			42952.02937		218.89200		875.00000 
 43692.65567		 305.27265			43387.38302		66.67200		324.00000 
 43692.65567		 740.62630			42952.02937		218.89200		875.00000 
 43692.65567		 305.27265			43387.38302		66.67200		324.00000 
 43692.65567		 740.62630			42952.02937		218.89200		875.00000 
 43692.65567		 305.27265			43387.38302		66.67200		324.00000 
 43692.65567		 740.62630			42952.02937		218.89200		875.00000 
 43692.65567		 305.27265			43387.38302		66.67200		324.00000 
 43692.65567		 740.62630			42952.02937		218.89200		875.00000 
 43692.65567		 305.27265			43387.38302		66.67200		324.00000 
 43692.65567		 740.62630			42952.02937		218.89200		875.00000 
 43692.65567		 305.27265			43387.38302		66.67200		324.00000 
 43692.65567		 740.62630			42952.02937		218.89200		875.00000 
 43692.65567		 305.27265			43387.38302		66.67200		324.00000 
 43692.65567		 740.62630			42952.02937		218.89200		875.00000 
 43692.65567		 305.27265			43387.38302		66.67200		324.00000 
 43692.65567		 740.62630			42952.02937		218.89200		875.00000 
 43692.65567		 305.27265			43387.38302		66.67200		324.00000 
 43692.65567		 740.62630			42952.02937		218.89200		875.00000 
 43692.65567		 305.27265			43387.38302		66.67200		324.00000 
 43692.65567		 740.62630			42952.02937		219.66200		875.00000 
 43692.65567		 305.27265			43387.38302		66.67200		324.00000 
 43692.65567		 740.62630			42952.02937		219.66200		875.00000 
 43692.65567		 305.27265			43387.38302		66.67200		324.00000 
 43692.65567		 740.62630			42952.02937		219.66200		875.00000 
 43692.65567		 305.27265			43387.38302		66.67200		324.00000 
 43692.65567		 740.62630			42952.02937		219.66200		875.00000 
 43692.65567		 305.27265			43387.38302		66.67200		324.00000 
 43692.65567		 740.62630			42952.02937		219.66200		875.00000 
 43692.65567		 305.27265			43387.38302		66.67200		324.00000 
 43692.65567		 740.62630			42952.02937		219.66200		875.00000 
 43692.65567		 305.27265			43387.38302		66.67200		324.00000 
 43692.65567		 740.62630			42952.02937		219.66200		875.00000 
 43692.65567		 305.27265			43387.38302		66.67200		324.00000 
 43692.65567		 740.62630			42952.02937		219.66200		875.00000 
 43692.65567		 305.27265			43387.38302		66.67200		324.00000 
 43692.65567		 740.62630			42952.02937		219.66200		875.00000 
 43692.65567		 305.27265			43387.38302		66.67200		324.00000 
 43692.65567		 740.62630			42952.02937		219.66200		875.00000 
 43692.65567		 305.27265			43387.38302		66.67200		324.00000 
 43692.65567		 740.62630			42952.02937		219.66200		875.00000 
 43692.65567		 305.27265			43387.38302		66.67200		324.00000 
 43692.65567		 740.62630			42952.02937		219.66200		875.00000 
 43692.65567		 305.27265			43387.38302		66.67200		324.00000 
 43692.65567		 740.62630			42952.02937		219.66200		875.00000 
 43692.65567		 305.27265			43387.38302		66.67200		324.00000 
 43692.65567		 740.62630			42952.02937		219.66200		875.00000 
 43692.65567		 305.27265			43387.38302		66.67200		324.00000 
 43692.65567		 740.62630			42952.02937		219.66200		875.00000 
 43692.65567		 305.27265			43387.38302		66.67200		324.00000 
 43692.65567		 740.62630			42952.02937		219.66200		875.00000 
 43692.65567		 305.27265			43387.38302		66.67200		324.00000 
 43692.65567		 740.62630			42952.02937		219.66200		875.00000 
 43692.65567		 305.27265			43387.38302		66.67200		324.00000 
 43692.65567		 740.62630			42952.02937		219.66200		875.00000 
 43692.65567		 305.27265			43387.38302		66.67200		324.00000 
 43692.65567		 740.62630			42952.02937		219.66200		875.00000 
 43692.65567		 305.27265			43387.38302		66.67200		324.00000 
 43692.65567		 740.62630			42952.02937		219.66200		875.00000 
 43692.65567		 305.27265			43387.38302		66.67200		324.00000 
 43692.65567		 740.62630			42952.02937		219.66200		875.00000 
 43692.65567		 305.27265			43387.38302		66.67200		324.00000 
 43692.65567		 740.62630			42952.02937		219.66200		875.00000 
 43692.65567		 305.27265			43387.38302		66.67200		324.00000 
 43692.65567		 740.62630			42952.02937		219.66200		875.00000 
 43692.65567		 305.27265			43387.38302		66.67200		324.00000 
 43692.65567		 740.62630			42952.02937		219.66200		875.00000 
 43692.65567		 305.27265			43387.38302		66.67200		324.00000 
 43692.65567		 740.62630			42952.02937		219.66200		875.00000 
 43692.65567		 305.27265			43387.38302		66.67200		324.00000 
 43692.65567		 740.62630			42952.02937		219.66200		875.00000 
 43692.65567		 305.27265			43387.38302		66.67200		324.00000 
 43692.65567		 740.62630			42952.02937		219.66200		875.00000 
 43692.65567		 305.27265			43387.38302		66.67200		324.00000 
 43692.65567		 740.62630			42952.02937		219.66200		875.00000 
 43692.65567		 305.27265			43387.38302		66.67200		324.00000 
 43692.65567		 740.62630			42952.02937		219.66200		875.00000 
 43692.65567		 305.27265			43387.38302		66.67200		324.00000 
 43692.65567		 740.62630			42952.02937		219.66200		875.00000 
 43692.65567		 305.27265			43387.38302		66.67200		324.00000 
 43692.65567		 740.62630			42952.02937		219.66200		875.00000 
 43692.65567		 305.27265			43387.38302		66.67200		324.00000 
 43692.65567		 740.62630			42952.02937		219.66200		875.00000 
 43692.65567		 305.27265			43387.38302		66.67200		324.00000 
 43692.65567		 740.62630			42952.02937		219.66200		875.00000 
 43692.65567		 305.27265			43387.38302		66.67200		324.00000 
 43692.65567		 740.62630			42952.02937		219.66200		875.00000 
 43692.65567		 305.27265			43387.38302		66.67200		324.00000 
 43692.65567		 740.62630			42952.02937		219.66200		875.00000 
 43692.65567		 305.27265			43387.38302		66.67200		324.00000 
 43692.65567		 740.62630			42952.02937		219.66200		875.00000 
 43692.65567		 305.27265			43387.38302		66.67200		324.00000 
 43692.65567		 740.62630			42952.02937		219.66200		875.00000 
 43692.65567		 305.27265			43387.38302		66.67200		324.00000 
 43692.65567		 740.62630			42952.02937		219.66200		875.00000 
 43692.65567		 305.27265			43387.38302		66.67200		324.00000 
 43692.65567		 740.62630			42952.02937		219.66200		875.00000 
 43692.65567		 305.27265			43387.38302		66.67200		324.00000 
 43692.65567		 740.62630			42952.02937		219.66200		875.00000 
 43692.65567		 305.27265			43387.38302		66.67200		324.00000 
 43692.65567		 740.62630			42952.02937		219.66200		875.00000 
 43692.65567		 305.27265			43387.38302		66.67200		324.00000 
 43692.65567		 740.62630			42952.02937		219.66200		875.00000 
 43692.65567		 305.27265			43387.38302		66.67200		324.00000 
 43692.65567		 740.62630			42952.02937		219.66200		875.00000 
 43692.65567		 305.27265			43387.38302		66.67200		324.00000 
 43692.65567		 740.62630			42952.02937		219.66200		875.00000 
 43692.65567		 305.27265			43387.38302		66.67200		324.00000 
 43692.65567		 740.62630			42952.02937		219.66200		875.00000 
 43692.65567		 305.27265			43387.38302		66.67200		324.00000 
 43692.65567		 740.62630			42952.02937		219.66200		875.00000 
 43692.65567		 305.27265			43387.38302		66.67200		324.00000 
 43692.65567		 740.62630			42952.02937		219.66200		875.00000 
 43692.65567		 305.27265			43387.38302		66.67200		324.00000 
 43692.65567		 740.62630			42952.02937		219.66200		875.00000 
 43692.65567		 305.27265			43387.38302		66.67200		324.00000 
 43692.65567		 740.62630			42952.02937		219.66200		875.00000 
 43692.65567		 305.27265			43387.38302		66.67200		324.00000 
 43692.65567		 740.62630			42952.02937		219.66200		875.00000 
 43692.65567		 305.27265			43387.38302		66.67200		324.00000 
 43692.65567		 740.62630			42952.02937		219.66200		875.00000 
 43692.65567		 305.27265			43387.38302		66.67200		324.00000 
 43692.65567		 740.62630			42952.02937		219.66200		875.00000 
 43692.65567		 305.27265			43387.38302		66.67200		324.00000 
 43692.65567		 740.62630			42952.02937		219.66200		875.00000 
 43692.65567		 305.27265			43387.38302		66.67200		324.00000 
 43692.65567		 740.62630			42952.02937		219.66200		875.00000 
 43692.65567		 305.27265			43387.38302		66.67200		324.00000 
 43692.65567		 740.62630			42952.02937		219.66200		875.00000 
 43692.65567		 305.27265			43387.38302		66.67200		324.00000 
 43692.65567		 740.62630			42952.02937		219.66200		875.00000 
 43692.65567		 305.27265			43387.38302		66.67200		324.00000 
 43692.65567		 740.62630			42952.02937		219.66200		875.00000 
 43692.65567		 305.27265			43387.38302		66.67200		324.00000 
 43692.65567		 740.62630			42952.02937		219.66200		875.00000 
 43692.65567		 305.27265			43387.38302		66.67200		324.00000 
 43692.65567		 740.62630			42952.02937		219.66200		875.00000 
 43692.65567		 305.27265			43387.38302		66.67200		324.00000 
 43692.65567		 740.62630			42952.02937		219.66200		875.00000 
 43692.65567		 305.27265			43387.38302		66.67200		324.00000 
 43692.65567		 740.62630			42952.02937		219.66200		875.00000 
 43692.65567		 305.27265			43387.38302		66.67200		324.00000 
 43692.65567		 740.62630			42952.02937		219.66200		875.00000 
 43692.65567		 305.27265			43387.38302		66.67200		324.00000 
 43692.65567		 740.62630			42952.02937		219.66200		875.00000 
 43692.65567		 305.27265			43387.38302		66.67200		324.00000 
 43692.65567		 740.62630			42952.02937		219.66200		875.00000 
 43692.65567		 305.27265			43387.38302		66.67200		324.00000 
 43692.65567		 740.62630			42952.02937		219.66200		875.00000 
 43692.65567		 305.27265			43387.38302		66.67200		324.00000 
 43692.65567		 740.62630			42952.02937		219.66200		875.00000 
 43692.65567		 305.27265			43387.38302		66.67200		324.00000 
 43692.65567		 740.62630			42952.02937		219.66200		875.00000 
 43692.65567		 305.27265			43387.38302		66.67200		324.00000 
 43692.65567		 740.62630			42952.02937		219.66200		875.00000 
 43692.65567		 305.27265			43387.38302		66.67200		324.00000 
 43692.65567		 740.62630			42952.02937		219.66200		875.00000 
 43692.65567		 305.27265			43387.38302		66.67200		324.00000 
 43692.65567		 740.62630			42952.02937		219.66200		875.00000 
 43692.65567		 305.27265			43387.38302		66.67200		324.00000 
 43692.65567		 740.62630			42952.02937		219.66200		875.00000 
 43692.65567		 305.27265			43387.38302		66.67200		324.00000 
 43692.65567		 740.62630			42952.02937		219.66200		875.00000 
 43692.65567		 305.27265			43387.38302		66.67200		324.00000 
 43692.65567		 740.62630			42952.02937		219.66200		875.00000 
 43692.65567		 305.27265			43387.38302		66.67200		324.00000 
 43692.65567		 740.62630			42952.02937		219.66200		875.00000 
 43692.65567		 305.27265			43387.38302		66.67200		324.00000 
 43692.65567		 740.62630			42952.02937		219.66200		875.00000 
 43692.65567		 305.27265			43387.38302		66.67200		324.00000 
 43692.65567		 740.62630			42952.02937		219.66200		875.00000 
 43692.65567		 305.27265			43387.38302		66.67200		324.00000 
 43692.65567		 740.62630			42952.02937		219.66200		875.00000 
 43692.65567		 305.27265			43387.38302		66.67200		324.00000 
 43692.65567		 740.62630			42952.02937		219.66200		875.00000 
 43692.65567		 305.27265			43387.38302		66.67200		324.00000 
 43692.65567		 740.62630			42952.02937		219.66200		875.00000 
 43692.65567		 305.27265			43387.38302		66.67200		324.00000 
 43692.65567		 740.62630			42952.02937		219.66200		875.00000 
 43692.65567		 305.27265			43387.38302		66.67200		324.00000 
 43692.65567		 740.62630			42952.02937		219.66200		875.00000 
 43692.65567		 305.27265			43387.38302		66.67200		324.00000 
 43692.65567		 740.62630			42952.02937		219.66200		875.00000 
 43692.65567		 305.27265			43387.38302		66.67200		324.00000 
 43692.65567		 740.62630			42952.02937		219.66200		875.00000 
 43692.65567		 305.27265			43387.38302		66.67200		324.00000 
 43692.65567		 740.62630			42952.02937		219.66200		875.00000 
 43692.65567		 305.27265			43387.38302		66.67200		324.00000 
 43692.65567		 740.62630			42952.02937		219.66200		875.00000 
 43692.65567		 305.27265			43387.38302		66.67200		324.00000 
 43692.65567		 740.62630			42952.02937		219.66200		875.00000 
 43692.65567		 305.27265			43387.38302		66.67200		324.00000 
 43692.65567		 740.62630			42952.02937		219.66200		875.00000 
 43692.65567		 305.27265			43387.38302		66.67200		324.00000 
 43692.65567		 740.62630			42952.02937		219.66200		875.00000 
 43692.65567		 305.27265			43387.38302		66.67200		324.00000 
 43692.65567		 740.62630			42952.02937		219.66200		875.00000 
 43692.65567		 305.27265			43387.38302		66.67200		324.00000 
 43692.65567		 740.62630			42952.02937		219.66200		875.00000 
 43692.65567		 305.27265			43387.38302		66.67200		324.00000 
 43692.65567		 740.62630			42952.02937		219.66200		875.00000 
 43692.65567		 305.27265			43387.38302		66.67200		324.00000 
 43692.65567		 740.62630			42952.02937		219.66200		875.00000 
 43692.65567		 305.27265			43387.38302		66.67200		324.00000 
 43692.65567		 740.62630			42952.02937		219.66200		875.00000 
 43692.65567		 305.27265			43387.38302		66.67200		324.00000 
 43692.65567		 740.62630			42952.02937		219.66200		875.00000 
 43692.65567		 305.27265			43387.38302		66.67200		324.00000 
 43692.65567		 740.62630			42952.02937		219.66200		875.00000 
 43692.65567		 305.27265			43387.38302		66.67200		324.00000 
 43692.65567		 740.62630			42952.02937		219.66200		875.00000 
 43692.65567		 305.27265			43387.38302		66.67200		324.00000 
 43692.65567		 740.62630			42952.02937		219.66200		875.00000 
 43692.65567		 305.27265			43387.38302		66.67200		324.00000 
 43692.65567		 740.62630			42952.02937		219.66200		875.00000 
 43692.65567		 305.27265			43387.38302		66.67200		324.00000 
 43692.65567		 740.62630			42952.02937		219.66200		875.00000 
 43692.65567		 305.27265			43387.38302		66.67200		324.00000 
 43692.65567		 740.62630			42952.02937		219.66200		875.00000 
 43692.65567		 305.27265			43387.38302		66.67200		324.00000 
 43692.65567		 740.62630			42952.02937		219.66200		875.00000 
 43692.65567		 305.27265			43387.38302		66.67200		324.00000 
 43692.65567		 740.62630			42952.02937		219.66200		875.00000 
 43692.65567		 305.27265			43387.38302		66.67200		324.00000 
 43692.65567		 740.62630			42952.02937		219.66200		875.00000 
 43692.65567		 305.27265			43387.38302		66.67200		324.00000 
 43692.65567		 740.62630			42952.02937		219.66200		875.00000 
 43692.65567		 305.27265			43387.38302		66.67200		324.00000 
 43692.65567		 740.62630			42952.02937		219.66200		875.00000 
 43692.65567		 305.27265			43387.38302		66.67200		324.00000 
 43692.65567		 740.62630			42952.02937		219.66200		875.00000 
 43692.65567		 305.27265			43387.38302		66.67200		324.00000 
 43692.65567		 740.62630			42952.02937		219.66200		875.00000 
 43692.65567		 305.27265			43387.38302		66.67200		324.00000 
 43692.65567		 740.62630			42952.02937		219.66200		875.00000 
 43692.65567		 305.27265			43387.38302		66.67200		324.00000 
 43692.65567		 740.62630			42952.02937		219.66200		875.00000 
 43692.65567		 305.27265			43387.38302		66.67200		324.00000 
 43692.65567		 740.62630			42952.02937		219.66200		875.00000 
 43692.65567		 305.27265			43387.38302		66.67200		324.00000 
 43692.65567		 740.62630			42952.02937		219.66200		875.00000 
 43692.65567		 305.27265			43387.38302		66.67200		324.00000 
 43692.65567		 740.62630			42952.02937		219.66200		875.00000 
 43692.65567		 305.27265			43387.38302		66.67200		324.00000 
 43692.65567		 740.62630			42952.02937		219.66200		875.00000 
 43692.65567		 305.27265			43387.38302		66.67200		324.00000 
 43692.65567		 740.62630			42952.02937		219.66200		875.00000 
 43692.65567		 305.27265			43387.38302		66.67200		324.00000 
 43692.65567		 740.62630			42952.02937		219.66200		875.00000 
 43692.65567		 305.27265			43387.38302		66.67200		324.00000 
 43692.65567		 740.62630			42952.02937		219.66200		875.00000 
 43692.65567		 305.27265			43387.38302		66.67200		324.00000 
 43692.65567		 740.62630			42952.02937		219.66200		875.00000 
 43692.65567		 305.27265			43387.38302		66.67200		324.00000 
 43692.65567		 740.62630			42952.02937		219.66200		875.00000 
 43692.65567		 305.27265			43387.38302		66.67200		324.00000 
 43692.65567		 740.62630			42952.02937		219.66200		875.00000 
 43692.65567		 305.27265			43387.38302		66.67200		324.00000 
 43692.65567		 740.62630			42952.02937		219.66200		875.00000 
 43692.65567		 305.27265			43387.38302		66.67200		324.00000 
 43692.65567		 740.62630			42952.02937		219.66200		875.00000 
 43692.65567		 305.27265			43387.38302		66.67200		324.00000 
 43692.65567		 740.62630			42952.02937		219.66200		875.00000 
 43692.65567		 305.27265			43387.38302		66.67200		324.00000 
 43692.65567		 740.62630			42952.02937		219.66200		875.00000 
 43692.65567		 305.27265			43387.38302		66.67200		324.00000 
 43692.65567		 740.62630			42952.02937		219.66200		875.00000 
 43692.65567		 305.27265			43387.38302		66.67200		324.00000 
 43692.65567		 740.62630			42952.02937		219.66200		875.00000 
 43692.65567		 305.27265			43387.38302		66.67200		324.00000 
 43692.65567		 740.62630			42952.02937		219.66200		875.00000 
 43692.65567		 305.27265			43387.38302		66.67200		324.00000 
 43692.65567		 740.62630			42952.02937		219.66200		875.00000 
 43692.65567		 305.27265			43387.38302		66.67200		324.00000 
 43692.65567		 740.62630			42952.02937		219.66200		875.00000 
 43692.65567		 305.27265			43387.38302		66.67200		324.00000 
 43692.65567		 740.62630			42952.02937		219.66200		875.00000 
 43692.65567		 305.27265			43387.38302		66.67200		324.00000 
 43692.65567		 740.62630			42952.02937		219.06200		875.00000 
 43692.65567		 305.27265			43387.38302		66.67200		324.00000 
 43692.65567		 740.62630			42952.02937		219.06200		875.00000 
 43692.65567		 305.27265			43387.38302		66.67200		324.00000 
 43692.65567		 740.62630			42952.02937		219.06200		875.00000 
 43692.65567		 305.27265			43387.38302		66.67200		324.00000 
 43692.65567		 740.62630			42952.02937		219.06200		875.00000 
 43692.65567		 305.27265			43387.38302		66.67200		324.00000 
 43692.65567		 740.62630			42952.02937		219.06200		875.00000 
 43692.65567		 305.27265			43387.38302		66.67200		324.00000 
 43692.65567		 740.62630			42952.02937		219.06200		875.00000 
 43692.65567		 305.27265			43387.38302		66.67200		324.00000 
 43692.65567		 740.62630			42952.02937		219.06200		875.00000 
 43692.65567		 305.27265			43387.38302		66.67200		324.00000 
 43692.65567		 740.62630			42952.02937		219.06200		875.00000 
 43692.65567		 305.27265			43387.38302		66.67200		324.00000 
 43692.65567		 740.62630			42952.02937		219.06200		875.00000 
 43692.65567		 305.27265			43387.38302		66.67200		324.00000 
 43692.65567		 740.62630			42952.02937		219.06200		875.00000 
 43692.65567		 305.27265			43387.38302		66.67200		324.00000 
 43692.65567		 740.62630			42952.02937		219.06200		875.00000 
 43692.65567		 305.27265			43387.38302		66.67200		324.00000 
 43692.65567		 740.62630			42952.02937		219.06200		875.00000 
 43692.65567		 305.27265			43387.38302		66.67200		324.00000 
 43692.65567		 740.62630			42952.02937		219.06200		875.00000 
 43692.65567		 305.27265			43387.38302		66.67200		324.00000 
 43692.65567		 740.62630			42952.02937		219.06200		875.00000 
 43692.65567		 305.27265			43387.38302		66.67200		324.00000 
 43692.65567		 740.62630			42952.02937		219.06200		875.00000 
 43692.65567		 305.27265			43387.38302		66.67200		324.00000 
 43692.65567		 740.62630			42952.02937		219.06200		875.00000 
 43692.65567		 305.27265			43387.38302		66.67200		324.00000 
 43692.65567		 740.62630			42952.02937		219.06200		875.00000 
 43692.65567		 305.27265			43387.38302		66.67200		324.00000 
 43692.65567		 740.62630			42952.02937		219.06200		875.00000 
 43692.65567		 305.27265			43387.38302		66.67200		324.00000 
 43692.65567		 740.62630			42952.02937		219.06200		875.00000 
 43692.65567		 305.27265			43387.38302		66.67200		324.00000 
 43692.65567		 740.62630			42952.02937		219.06200		875.00000 
 43692.65567		 305.27265			43387.38302		66.67200		324.00000 
 43692.65567		 740.62630			42952.02937		219.06200		875.00000 
 43692.65567		 305.27265			43387.38302		66.67200		324.00000 
 43692.65567		 740.62630			42952.02937		219.06200		875.00000 
 43692.65567		 305.27265			43387.38302		66.67200		324.00000 
 43692.65567		 740.62630			42952.02937		219.06200		875.00000 
 43692.65567		 305.27265			43387.38302		66.67200		324.00000 
 43692.65567		 740.62630			42952.02937		219.06200		875.00000 
 43692.65567		 305.27265			43387.38302		66.67200		324.00000 
 43692.65567		 740.62630			42952.02937		219.06200		875.00000 
 43692.65567		 305.27265			43387.38302		66.67200		324.00000 
 43692.65567		 740.62630			42952.02937		219.06200		875.00000 
 43692.65567		 305.27265			43387.38302		66.67200		324.00000 
 43692.65567		 740.62630			42952.02937		219.06200		875.00000 
 43692.65567		 305.27265			43387.38302		66.67200		324.00000 
 43692.65567		 740.62630			42952.02937		219.06200		875.00000 
 43692.65567		 305.27265			43387.38302		66.67200		324.00000 
 43692.65567		 740.62630			42952.02937		219.06200		875.00000 
 43692.65567		 305.27265			43387.38302		66.67200		324.00000 
 43692.65567		 740.62630			42952.02937		219.06200		875.00000 
 43692.65567		 305.27265			43387.38302		66.67200		324.00000 
 43692.65567		 740.62630			42952.02937		219.06200		875.00000 
 43692.65567		 305.27265			43387.38302		66.67200		324.00000 
 43692.65567		 740.62630			42952.02937		219.06200		875.00000 
 43692.65567		 305.27265			43387.38302		66.67200		324.00000 
 43692.65567		 740.62630			42952.02937		219.06200		875.00000 
 43692.65567		 305.27265			43387.38302		66.67200		324.00000 
 43692.65567		 740.62630			42952.02937		219.06200		875.00000 
 43692.65567		 305.27265			43387.38302		66.67200		324.00000 
 43692.65567		 740.62630			42952.02937		219.06200		875.00000 
 43692.65567		 305.27265			43387.38302		66.67200		324.00000 
 43692.65567		 740.62630			42952.02937		219.06200		875.00000 
 43692.65567		 305.27265			43387.38302		66.67200		324.00000 
 43692.65567		 740.62630			42952.02937		219.06200		875.00000 
 43692.65567		 305.27265			43387.38302		66.67200		324.00000 
 43692.65567		 740.62630			42952.02937		219.06200		875.00000 
 43692.65567		 305.27265			43387.38302		66.67200		324.00000 
 43692.65567		 740.62630			42952.02937		219.06200		875.00000 
 43692.65567		 305.27265			43387.38302		66.67200		324.00000 
 43692.65567		 740.62630			42952.02937		219.06200		875.00000 
 43692.65567		 305.27265			43387.38302		66.67200		324.00000 
 43692.65567		 740.62630			42952.02937		219.06200		875.00000 
 43692.65567		 305.27265			43387.38302		66.67200		324.00000 
 43692.65567		 740.62630			42952.02937		219.06200		875.00000 
 43692.65567		 305.27265			43387.38302		66.67200		324.00000 
 43692.65567		 740.62630			42952.02937		219.06200		875.00000 
 43692.65567		 305.27265			43387.38302		66.67200		324.00000 
 43692.65567		 740.62630			42952.02937		219.06200		875.00000 
 43692.65567		 305.27265			43387.38302		66.67200		324.00000 
 43692.65567		 740.62630			42952.02937		219.06200		875.00000 
 43692.65567		 305.27265			43387.38302		66.67200		324.00000 
 43692.65567		 740.62630			42952.02937		219.06200		875.00000 
 43692.65567		 305.27265			43387.38302		66.67200		324.00000 
 43692.65567		 740.62630			42952.02937		219.06200		875.00000 
 43692.65567		 305.27265			43387.38302		66.67200		324.00000 
 43692.65567		 740.62630			42952.02937		219.06200		875.00000 
 43692.65567		 305.27265			43387.38302		66.67200		324.00000 
 43692.65567		 740.62630			42952.02937		219.06200		875.00000 
 43692.65567		 305.27265			43387.38302		66.67200		324.00000 
 43692.65567		 740.62630			42952.02937		219.06200		875.00000 
 43692.65567		 305.27265			43387.38302		66.67200		324.00000 
 43692.65567		 740.62630			42952.02937		219.06200		875.00000 
 43692.65567		 305.27265			43387.38302		66.67200		324.00000 
 43692.65567		 740.62630			42952.02937		219.06200		875.00000 
 43692.65567		 305.27265			43387.38302		66.67200		324.00000 
 43692.65567		 740.62630			42952.02937		219.06200		875.00000 
 43692.65567		 305.27265			43387.38302		66.67200		324.00000 
 43692.65567		 740.62630			42952.02937		219.06200		875.00000 
 43692.65567		 305.27265			43387.38302		66.67200		324.00000 
 43692.65567		 740.62630			42952.02937		219.06200		875.00000 
 43692.65567		 305.27265			43387.38302		66.67200		324.00000 
 43692.65567		 740.62630			42952.02937		219.06200		875.00000 
 43692.65567		 305.27265			43387.38302		66.67200		324.00000 
 43692.65567		 740.62630			42952.02937		219.06200		875.00000 
 43692.65567		 305.27265			43387.38302		66.67200		324.00000 
 43692.65567		 740.62630			42952.02937		219.06200		875.00000 
 43692.65567		 305.27265			43387.38302		66.67200		324.00000 
 43692.65567		 740.62630			42952.02937		219.06200		875.00000 
 43692.65567		 305.27265			43387.38302		66.67200		324.00000 
 43692.65567		 740.62630			42952.02937		219.06200		875.00000 
 43692.65567		 305.27265			43387.38302		66.67200		324.00000 
 43692.65567		 740.62630			42952.02937		219.06200		875.00000 
 43692.65567		 305.27265			43387.38302		66.67200		324.00000 
 43692.65567		 740.62630			42952.02937		219.06200		875.00000 
 43692.65567		 305.27265			43387.38302		66.67200		324.00000 
 43692.65567		 740.62630			42952.02937		219.06200		875.00000 
 43692.65567		 305.27265			43387.38302		66.67200		324.00000 
 43692.65567		 740.62630			42952.02937		219.06200		875.00000 
 43692.65567		 305.27265			43387.38302		66.67200		324.00000 
 43692.65567		 740.62630			42952.02937		219.06200		875.00000 
 43692.65567		 305.27265			43387.38302		66.67200		324.00000 
 43692.65567		 740.62630			42952.02937		219.06200		875.00000 
 43692.65567		 305.27265			43387.38302		66.67200		324.00000 
 43692.65567		 740.62630			42952.02937		219.06200		875.00000 
 43692.65567		 305.27265			43387.38302		66.67200		324.00000 
 43692.65567		 740.62630			42952.02937		219.06200		875.00000 
 43692.65567		 305.27265			43387.38302		66.67200		324.00000 
 43692.65567		 740.62630			42952.02937		219.06200		875.00000 
 43692.65567		 305.27265			43387.38302		66.67200		324.00000 
 43692.65567		 740.62630			42952.02937		219.06200		875.00000 
 43692.65567		 305.27265			43387.38302		66.67200		324.00000 
 43692.65567		 740.62630			42952.02937		219.06200		875.00000 
 43692.65567		 305.27265			43387.38302		66.67200		324.00000 
 43692.65567		 740.62630			42952.02937		219.06200		875.00000 
 43692.65567		 305.27265			43387.38302		66.67200		324.00000 
 43692.65567		 740.62630			42952.02937		219.06200		875.00000 
 43692.65567		 305.27265			43387.38302		66.67200		324.00000 
 43692.65567		 740.62630			42952.02937		219.06200		875.00000 
 43692.65567		 305.27265			43387.38302		66.67200		324.00000 
 43692.65567		 740.62630			42952.02937		219.06200		875.00000 
 43692.65567		 305.27265			43387.38302		66.67200		324.00000 
 43692.65567		 740.62630			42952.02937		219.06200		875.00000 
 43692.65567		 305.27265			43387.38302		66.67200		324.00000 
 43692.65567		 740.62630			42952.02937		219.06200		875.00000 
 43692.65567		 305.27265			43387.38302		66.67200		324.00000 
 43692.65567		 740.62630			42952.02937		219.06200		875.00000 
 43692.65567		 305.27265			43387.38302		66.67200		324.00000 
 43692.65567		 740.62630			42952.02937		219.06200		875.00000 
 43692.65567		 305.27265			43387.38302		66.67200		324.00000 
 43692.65567		 740.62630			42952.02937		219.06200		875.00000 
 43692.65567		 305.27265			43387.38302		66.67200		324.00000 
 43692.65567		 740.62630			42952.02937		219.06200		875.00000 
 43692.65567		 305.27265			43387.38302		66.67200		324.00000 
 43692.65567		 740.62630			42952.02937		219.06200		875.00000 
 43692.65567		 305.27265			43387.38302		66.67200		324.00000 
 43692.65567		 740.62630			42952.02937		219.06200		875.00000 
 43692.65567		 305.27265			43387.38302		66.67200		324.00000 
 43692.65567		 740.62630			42952.02937		219.06200		875.00000 
 43692.65567		 305.27265			43387.38302		66.67200		324.00000 
 43692.65567		 740.62630			42952.02937		219.06200		875.00000 
 43692.65567		 305.27265			43387.38302		66.67200		324.00000 
 43692.65567		 740.62630			42952.02937		219.06200		875.00000 
 43692.65567		 305.27265			43387.38302		66.67200		324.00000 
 43692.65567		 740.62630			42952.02937		219.06200		875.00000 
 43692.65567		 305.27265			43387.38302		66.67200		324.00000 
 43692.65567		 740.62630			42952.02937		219.06200		875.00000 
 43692.65567		 305.27265			43387.38302		66.67200		324.00000 
 43692.65567		 740.62630			42952.02937		219.06200		875.00000 
 43692.65567		 305.27265			43387.38302		66.67200		324.00000 
 43692.65567		 740.62630			42952.02937		219.06200		875.00000 
 43692.65567		 305.27265			43387.38302		66.67200		324.00000 
 43692.65567		 740.62630			42952.02937		219.06200		875.00000 
 43692.65567		 305.27265			43387.38302		66.67200		324.00000 
 43692.65567		 740.62630			42952.02937		219.06200		875.00000 
 43692.65567		 305.27265			43387.38302		66.67200		324.00000 
 43692.65567		 740.62630			42952.02937		219.06200		875.00000 
 43692.65567		 305.27265			43387.38302		66.67200		324.00000 
 43692.65567		 740.62630			42952.02937		219.06200		875.00000 
 43692.65567		 305.27265			43387.38302		66.67200		324.00000 
 43692.65567		 740.62630			42952.02937		219.06200		875.00000 
 43692.65567		 305.27265			43387.38302		66.67200		324.00000 
 43692.65567		 740.62630			42952.02937		219.06200		875.00000 
 43692.65567		 305.27265			43387.38302		66.67200		324.00000 
 43692.65567		 740.62630			42952.02937		219.06200		875.00000 
 43692.65567		 305.27265			43387.38302		66.67200		324.00000 
 43692.65567		 740.62630			42952.02937		219.06200		875.00000 
 43692.65567		 305.27265			43387.38302		66.67200		324.00000 
 43692.65567		 740.62630			42952.02937		219.06200		875.00000 
 43692.65567		 305.27265			43387.38302		66.67200		324.00000 
 43692.65567		 740.62630			42952.02937		219.06200		875.00000 
 43692.65567		 305.27265			43387.38302		66.67200		324.00000 
 43692.65567		 740.62630			42952.02937		219.06200		875.00000 
 43692.65567		 305.27265			43387.38302		66.67200		324.00000 
 43692.65567		 740.62630			42952.02937		219.06200		875.00000 
 43692.65567		 305.27265			43387.38302		66.67200		324.00000 
 43692.65567		 740.62630			42952.02937		219.06200		875.00000 
 43692.65567		 305.27265			43387.38302		66.67200		324.00000 
 43692.65567		 740.62630			42952.02937		219.06200		875.00000 
 43692.65567		 305.27265			43387.38302		66.67200		324.00000 
 43692.65567		 740.62630			42952.02937		219.06200		875.00000 
 43692.65567		 305.27265			43387.38302		66.67200		324.00000 
 43692.65567		 740.62630			42952.02937		219.06200		875.00000 
 43692.65567		 305.27265			43387.38302		66.67200		324.00000 
 43692.65567		 740.62630			42952.02937		219.06200		875.00000 
 43692.65567		 305.27265			43387.38302		66.67200		324.00000 
 43692.65567		 740.62630			42952.02937		219.06200		875.00000 
 43692.65567		 305.27265			43387.38302		66.67200		324.00000 
 43692.65567		 740.62630			42952.02937		219.06200		875.00000 
 43692.65567		 305.27265			43387.38302		66.67200		324.00000 
 43692.65567		 740.62630			42952.02937		219.06200		875.00000 
 43692.65567		 305.27265			43387.38302		66.67200		324.00000 
 43692.65567		 740.62630			42952.02937		219.06200		875.00000 
 43692.65567		 305.27265			43387.38302		66.67200		324.00000 
 43692.65567		 740.62630			42952.02937		219.06200		875.00000 
 43692.65567		 305.27265			43387.38302		66.67200		324.00000 
 43692.65567		 740.62630			42952.02937		219.06200		875.00000 
 43692.65567		 305.27265			43387.38302		66.67200		324.00000 
 43692.65567		 740.62630			42952.02937		219.06200		875.00000 
 43692.65567		 305.27265			43387.38302		66.67200		324.00000 
 43692.65567		 740.62630			42952.02937		219.06200		875.00000 
 43692.65567		 305.27265			43387.38302		66.67200		324.00000 
 43692.65567		 740.62630			42952.02937		219.06200		875.00000 
 43692.65567		 305.27265			43387.38302		66.67200		324.00000 
 43692.65567		 740.62630			42952.02937		219.06200		875.00000 
 43692.65567		 305.27265			43387.38302		66.67200		324.00000 
 43692.65567		 740.62630			42952.02937		219.06200		875.00000 
 43692.65567		 305.27265			43387.38302		66.67200		324.00000 
 43692.65567		 740.62630			42952.02937		219.06200		875.00000 
 43692.65567		 305.27265			43387.38302		66.67200		324.00000 
 43692.65567		 740.62630			42952.02937		219.06200		875.00000 
 43692.65567		 305.27265			43387.38302		66.67200		324.00000 
 43692.65567		 740.62630			42952.02937		219.06200		875.00000 
 43692.65567		 305.27265			43387.38302		66.67200		324.00000 
 43692.65567		 740.62630			42952.02937		219.06200		875.00000 
 43692.65567		 305.27265			43387.38302		66.67200		324.00000 
 43692.65567		 740.62630			42952.02937		219.06200		875.00000 
 43692.65567		 305.27265			43387.38302		66.67200		324.00000 
 43692.65567		 740.62630			42952.02937		219.06200		875.00000 
 43692.65567		 305.27265			43387.38302		66.67200		324.00000 
 43692.65567		 740.62630			42952.02937		219.06200		875.00000 
 43692.65567		 305.27265			43387.38302		66.67200		324.00000 
 43692.65567		 740.62630			42952.02937		219.06200		875.00000 
 43692.65567		 305.27265			43387.38302		66.67200		324.00000 
 43692.65567		 740.62630			42952.02937		219.06200		875.00000 
 43692.65567		 305.27265			43387.38302		66.67200		324.00000 
 43692.65567		 740.62630			42952.02937		219.06200		875.00000 
 43692.65567		 305.27265			43387.38302		66.67200		324.00000 
 43692.65567		 740.62630			42952.02937		219.06200		875.00000 
 43692.65567		 305.27265			43387.38302		66.67200		324.00000 
 43692.65567		 740.62630			42952.02937		219.06200		875.00000 
 43692.65567		 305.27265			43387.38302		66.67200		324.00000 
 43692.65567		 740.62630			42952.02937		219.06200		875.00000 
 43692.65567		 305.27265			43387.38302		66.67200		324.00000 
 43692.65567		 740.62630			42952.02937		219.06200		875.00000 
 43692.65567		 305.27265			43387.38302		66.67200		324.00000 
 43692.65567		 740.62630			42952.02937		219.06200		875.00000 
 43692.65567		 305.27265			43387.38302		66.67200		324.00000 
 43692.65567		 740.62630			42952.02937		219.06200		875.00000 
 43692.65567		 305.27265			43387.38302		66.67200		324.00000 
 43692.65567		 740.62630			42952.02937		219.06200		875.00000 
 43692.65567		 305.27265			43387.38302		66.67200		324.00000 
 43692.65567		 740.62630			42952.02937		219.06200		875.00000 
 43692.65567		 305.27265			43387.38302		66.67200		324.00000 
 43692.65567		 740.62630			42952.02937		219.06200		875.00000 
 43692.65567		 305.27265			43387.38302		66.67200		324.00000 
 43692.65567		 740.62630			42952.02937		219.06200		875.00000 
 43692.65567		 305.27265			43387.38302		66.67200		324.00000 
 43692.65567		 740.62630			42952.02937		219.06200		875.00000 
 43692.65567		 305.27265			43387.38302		66.67200		324.00000 
 43692.65567		 740.62630			42952.02937		219.06200		875.00000 
 43692.65567		 305.27265			43387.38302		66.67200		324.00000 
 43692.65567		 740.62630			42952.02937		219.06200		875.00000 
 43692.65567		 305.27265			43387.38302		66.67200		324.00000 
 43692.65567		 740.62630			42952.02937		219.06200		875.00000 
 43692.65567		 305.27265			43387.38302		66.67200		324.00000 
 43692.65567		 740.62630			42952.02937		219.06200		875.00000 
 43692.65567		 305.27265			43387.38302		66.67200		324.00000 
 43692.65567		 740.62630			42952.02937		219.06200		875.00000 
 43692.65567		 305.27265			43387.38302		66.67200		324.00000 
 43692.65567		 740.62630			42952.02937		219.06200		875.00000 
 43692.65567		 305.27265			43387.38302		66.67200		324.00000 
 43692.65567		 740.62630			42952.02937		219.06200		875.00000 
 43692.65567		 305.27265			43387.38302		66.67200		324.00000 
 43692.65567		 740.62630			42952.02937		219.06200		875.00000 
 43692.65567		 305.27265			43387.38302		66.67200		324.00000 
 43692.65567		 740.62630			42952.02937		219.06200		875.00000 
 43692.65567		 305.27265			43387.38302		66.67200		324.00000 
 43692.65567		 740.62630			42952.02937		219.06200		875.00000 
 43692.65567		 305.27265			43387.38302		66.67200		324.00000 
 43692.65567		 740.62630			42952.02937		219.06200		875.00000 
 43692.65567		 305.27265			43387.38302		66.67200		324.00000 
 43692.65567		 740.62630			42952.02937		219.06200		875.00000 
 43692.65567		 305.27265			43387.38302		66.67200		324.00000 
 43692.65567		 740.62630			42952.02937		219.06200		875.00000 
 43692.65567		 305.27265			43387.38302		66.67200		324.00000 
 43692.65567		 740.62630			42952.02937		219.06200		875.00000 
 43692.65567		 305.27265			43387.38302		66.67200		324.00000 
 43692.65567		 740.62630			42952.02937		219.06200		875.00000 
 43692.65567		 305.27265			43387.38302		66.67200		324.00000 
 43692.65567		 740.62630			42952.02937		219.06200		875.00000 
 43692.65567		 305.27265			43387.38302		66.67200		324.00000 
 43692.65567		 740.62630			42952.02937		219.06200		875.00000 
 43692.65567		 305.27265			43387.38302		66.67200		324.00000 
 43692.65567		 740.62630			42952.02937		219.06200		875.00000 
 43692.65567		 305.27265			43387.38302		66.67200		324.00000 
 43692.65567		 740.62630			42952.02937		219.06200		875.00000 
 43692.65567		 305.27265			43387.38302		66.67200		324.00000 
 43692.65567		 740.62630			42952.02937		219.06200		875.00000 
 43692.65567		 305.27265			43387.38302		66.67200		324.00000 
 43692.65567		 740.62630			42952.02937		219.06200		875.00000 
 43692.65567		 305.27265			43387.38302		66.67200		324.00000 
 43692.65567		 740.62630			42952.02937		219.06200		875.00000 
 43692.65567		 305.27265			43387.38302		66.67200		324.00000 
 43692.65567		 740.62630			42952.02937		219.06200		875.00000 
 43692.65567		 305.27265			43387.38302		66.67200		324.00000 
 43692.65567		 740.62630			42952.02937		219.06200		875.00000 
 43692.65567		 305.27265			43387.38302		66.67200		324.00000 
 43692.65567		 740.62630			42952.02937		219.06200		875.00000 
 43692.65567		 305.27265			43387.38302		66.67200		324.00000 
 43692.65567		 740.62630			42952.02937		219.06200		875.00000 
 43692.65567		 305.27265			43387.38302		66.67200		324.00000 
 43692.65567		 740.62630			42952.02937		219.06200		875.00000 
 43692.65567		 305.27265			43387.38302		66.67200		324.00000 
 43692.65567		 740.62630			42952.02937		219.06200		875.00000 
 43692.65567		 305.27265			43387.38302		66.67200		324.00000 
 43692.65567		 740.62630			42952.02937		219.06200		875.00000 
 43692.65567		 305.27265			43387.38302		66.67200		324.00000 
 43692.65567		 740.62630			42952.02937		219.06200		875.00000 
 43692.65567		 305.27265			43387.38302		66.67200		324.00000 
 43692.65567		 740.62630			42952.02937		219.06200		875.00000 
 43692.65567		 305.27265			43387.38302		66.67200		324.00000 
 43692.65567		 740.62630			42952.02937		219.06200		875.00000 
 43692.65567		 305.27265			43387.38302		66.67200		324.00000 
 43692.65567		 740.62630			42952.02937		219.06200		875.00000 
 43692.65567		 305.27265			43387.38302		66.67200		324.00000 
 43692.65567		 740.62630			42952.02937		219.06200		875.00000 
 43692.65567		 305.27265			43387.38302		66.67200		324.00000 
 43692.65567		 740.62630			42952.02937		219.06200		875.00000 
 43692.65567		 305.27265			43387.38302		66.67200		324.00000 
 43692.65567		 740.62630			42952.02937		219.06200		875.00000 
 43692.65567		 305.27265			43387.38302		66.67200		324.00000 
 43692.65567		 740.62630			42952.02937		219.06200		875.00000 
 43692.65567		 305.27265			43387.38302		66.67200		324.00000 
 43692.65567		 740.62630			42952.02937		219.06200		875.00000 
 43692.65567		 305.27265			43387.38302		66.67200		324.00000 
 43692.65567		 740.62630			42952.02937		219.06200		875.00000 
 43692.65567		 305.27265			43387.38302		66.67200		324.00000 
 43692.65567		 740.62630			42952.02937		219.06200		875.00000 
 43692.65567		 305.27265			43387.38302		66.67200		324.00000 
 43692.65567		 740.62630			42952.02937		219.06200		875.00000 
 43692.65567		 305.27265			43387.38302		66.67200		324.00000 
 43692.65567		 740.62630			42952.02937		219.06200		875.00000 
 43692.65567		 305.27265			43387.38302		66.67200		324.00000 
 43692.65567		 740.62630			42952.02937		219.06200		875.00000 
 43692.65567		 305.27265			43387.38302		66.67200		324.00000 
 43692.65567		 740.62630			42952.02937		219.06200		875.00000 
 43692.65567		 305.27265			43387.38302		66.67200		324.00000 
 43692.65567		 740.62630			42952.02937		219.06200		875.00000 
 43692.65567		 305.27265			43387.38302		66.67200		324.00000 
 43692.65567		 740.62630			42952.02937		219.06200		875.00000 
 43692.65567		 305.27265			43387.38302		66.67200		324.00000 
 43692.65567		 740.62630			42952.02937		219.06200		875.00000 
 43692.65567		 305.27265			43387.38302		66.67200		324.00000 
 43692.65567		 740.62630			42952.02937		219.06200		875.00000 
 43692.65567		 305.27265			43387.38302		66.67200		324.00000 
 43692.65567		 740.62630			42952.02937		219.06200		875.00000 
 43692.65567		 305.27265			43387.38302		66.67200		324.00000 
 43692.65567		 740.62630			42952.02937		219.06200		875.00000 
 43692.65567		 305.27265			43387.38302		66.67200		324.00000 
 43692.65567		 740.62630			42952.02937		219.06200		875.00000 
 43692.65567		 305.27265			43387.38302		66.67200		324.00000 
 43692.65567		 740.62630			42952.02937		219.06200		875.00000 
 43692.65567		 305.27265			43387.38302		66.67200		324.00000 
 43692.65567		 740.62630			42952.02937		219.06200		875.00000 
 43692.65567		 305.27265			43387.38302		66.67200		324.00000 
 43692.65567		 740.62630			42952.02937		219.06200		875.00000 
 43692.65567		 305.27265			43387.38302		66.67200		324.00000 
 43692.65567		 740.62630			42952.02937		219.06200		875.00000 
 43692.65567		 305.27265			43387.38302		66.67200		324.00000 
 43692.65567		 740.62630			42952.02937		219.06200		875.00000 
 43692.65567		 305.27265			43387.38302		66.67200		324.00000 
 43692.65567		 740.62630			42952.02937		219.06200		875.00000 
 43692.65567		 305.27265			43387.38302		66.67200		324.00000 
 43692.65567		 740.62630			42952.02937		219.06200		875.00000 
 43692.65567		 305.27265			43387.38302		66.67200		324.00000 
 43692.65567		 740.62630			42952.02937		219.06200		875.00000 
 43692.65567		 305.27265			43387.38302		66.67200		324.00000 
 43692.65567		 740.62630			42952.02937		219.06200		875.00000 
 43692.65567		 305.27265			43387.38302		66.67200		324.00000 
 43692.65567		 740.62630			42952.02937		219.06200		875.00000 
 43692.65567		 305.27265			43387.38302		66.67200		324.00000 
 43692.65567		 740.62630			42952.02937		219.06200		875.00000 
 43692.65567		 305.27265			43387.38302		66.67200		324.00000 
 43692.65567		 740.62630			42952.02937		219.06200		875.00000 
 43692.65567		 305.27265			43387.38302		66.67200		324.00000 
 43692.65567		 740.62630			42952.02937		219.06200		875.00000 
 43692.65567		 305.27265			43387.38302		66.67200		324.00000 
 43692.65567		 740.62630			42952.02937		219.06200		875.00000 
 43692.65567		 305.27265			43387.38302		66.67200		324.00000 
 43692.65567		 740.62630			42952.02937		219.06200		875.00000 
 43692.65567		 305.27265			43387.38302		66.67200		324.00000 
 43692.65567		 740.62630			42952.02937		219.06200		875.00000 
 43692.65567		 305.27265			43387.38302		66.67200		324.00000 
 43692.65567		 740.62630			42952.02937		219.06200		875.00000 
 43692.65567		 305.27265			43387.38302		66.67200		324.00000 
 43692.65567		 740.62630			42952.02937		219.06200		875.00000 
 43692.65567		 305.27265			43387.38302		66.67200		324.00000 
 43692.65567		 740.62630			42952.02937		219.06200		875.00000 
 43692.65567		 305.27265			43387.38302		66.67200		324.00000 
 43692.65567		 740.62630			42952.02937		219.06200		875.00000 
 43692.65567		 305.27265			43387.38302		66.67200		324.00000 
 43692.65567		 740.62630			42952.02937		219.06200		875.00000 
 43692.65567		 305.27265			43387.38302		66.67200		324.00000 
 43692.65567		 740.62630			42952.02937		219.06200		875.00000 
 43692.65567		 305.27265			43387.38302		66.67200		324.00000 
 43692.65567		 740.62630			42952.02937		219.06200		875.00000 
 43692.65567		 305.27265			43387.38302		66.67200		324.00000 
 43692.65567		 740.62630			42952.02937		219.06200		875.00000 
 43692.65567		 305.27265			43387.38302		66.67200		324.00000 
 43692.65567		 740.62630			42952.02937		219.06200		875.00000 
 43692.65567		 305.27265			43387.38302		66.67200		324.00000 
 43692.65567		 740.62630			42952.02937		219.06200		875.00000 
 43692.65567		 305.27265			43387.38302		66.67200		324.00000 
 43692.65567		 740.62630			42952.02937		219.06200		875.00000 
 43692.65567		 305.27265			43387.38302		66.67200		324.00000 
 43692.65567		 740.62630			42952.02937		219.06200		875.00000 
 43692.65567		 305.27265			43387.38302		66.67200		324.00000 
 43692.65567		 740.62630			42952.02937		219.06200		875.00000 
 43692.65567		 305.27265			43387.38302		66.67200		324.00000 
 43692.65567		 740.62630			42952.02937		219.06200		875.00000 
 43692.65567		 305.27265			43387.38302		66.67200		324.00000 
 43692.65567		 740.62630			42952.02937		219.06200		875.00000 
 43692.65567		 305.27265			43387.38302		66.67200		324.00000 
 43692.65567		 740.62630			42952.02937		219.06200		875.00000 
 43692.65567		 305.27265			43387.38302		66.67200		324.00000 
 43692.65567		 740.62630			42952.02937		219.06200		875.00000 
 43692.65567		 305.27265			43387.38302		66.67200		324.00000 
 43692.65567		 740.62630			42952.02937		219.06200		875.00000 
 43692.65567		 305.27265			43387.38302		66.67200		324.00000 
 43692.65567		 740.62630			42952.02937		219.06200		875.00000 
 43692.65567		 305.27265			43387.38302		66.67200		324.00000 
 43692.65567		 740.62630			42952.02937		219.06200		875.00000 
 43692.65567		 305.27265			43387.38302		66.67200		324.00000 
 43692.65567		 740.62630			42952.02937		219.06200		875.00000 
 43692.65567		 305.27265			43387.38302		70.74000		324.00000 
 43692.65567		 740.62630			42952.02937		219.06200		875.00000 
 43692.65567		 305.27265			43387.38302		70.74000		324.00000 
 43692.65567		 740.62630			42952.02937		219.06200		875.00000 
 43692.65567		 305.27265			43387.38302		70.74000		324.00000 
 43692.65567		 740.62630			42952.02937		219.06200		875.00000 
 43692.65567		 305.27265			43387.38302		70.74000		324.00000 
 43692.65567		 740.62630			42952.02937		219.06200		875.00000 
 43692.65567		 305.27265			43387.38302		70.74000		324.00000 
 43692.65567		 740.62630			42952.02937		219.06200		875.00000 
 43692.65567		 305.27265			43387.38302		70.74000		324.00000 
 43692.65567		 740.62630			42952.02937		219.06200		875.00000 
 43692.65567		 305.27265			43387.38302		70.74000		324.00000 
 43692.65567		 740.62630			42952.02937		219.06200		875.00000 
 43692.65567		 305.27265			43387.38302		70.74000		324.00000 
 43692.65567		 740.62630			42952.02937		219.06200		875.00000 
 43692.65567		 305.27265			43387.38302		70.74000		324.00000 
 43692.65567		 740.62630			42952.02937		219.06200		875.00000 
 43692.65567		 305.27265			43387.38302		70.74000		324.00000 
 43692.65567		 740.62630			42952.02937		219.06200		875.00000 
 43692.65567		 305.27265			43387.38302		70.74000		324.00000 
 43692.65567		 740.62630			42952.02937		219.06200		875.00000 
 43692.65567		 305.27265			43387.38302		70.74000		324.00000 
 43692.65567		 740.62630			42952.02937		219.06200		875.00000 
 43692.65567		 305.27265			43387.38302		70.74000		324.00000 
 43692.65567		 740.62630			42952.02937		219.06200		875.00000 
 43692.65567		 305.27265			43387.38302		70.74000		324.00000 
 43692.65567		 740.62630			42952.02937		219.06200		875.00000 
 43692.65567		 305.27265			43387.38302		70.74000		324.00000 
 43692.65567		 740.62630			42952.02937		219.06200		875.00000 
 43692.65567		 305.27265			43387.38302		70.74000		324.00000 
 43692.65567		 740.62630			42952.02937		219.06200		875.00000 
 43692.65567		 305.27265			43387.38302		70.74000		324.00000 
 43692.65567		 740.62630			42952.02937		219.06200		875.00000 
 43692.65567		 305.27265			43387.38302		70.74000		324.00000 
 43692.65567		 740.62630			42952.02937		219.06200		875.00000 
 43692.65567		 305.27265			43387.38302		70.74000		324.00000 
 43692.65567		 740.62630			42952.02937		219.06200		875.00000 
 43692.65567		 305.27265			43387.38302		70.74000		324.00000 
 43692.65567		 740.62630			42952.02937		219.06200		875.00000 
 43692.65567		 305.27265			43387.38302		70.74000		324.00000 
 43692.65567		 740.62630			42952.02937		219.06200		875.00000 
 43692.65567		 305.27265			43387.38302		70.74000		324.00000 
 43692.65567		 740.62630			42952.02937		219.06200		875.00000 
 43692.65567		 305.27265			43387.38302		70.74000		324.00000 
 43692.65567		 740.62630			42952.02937		219.06200		875.00000 
 43692.65567		 305.27265			43387.38302		70.74000		324.00000 
 43692.65567		 740.62630			42952.02937		219.06200		875.00000 
 43692.65567		 305.27265			43387.38302		70.74000		324.00000 
 43692.65567		 740.62630			42952.02937		219.06200		875.00000 
 43692.65567		 305.27265			43387.38302		70.74000		324.00000 
 43692.65567		 740.62630			42952.02937		219.06200		875.00000 
 43692.65567		 305.27265			43387.38302		70.74000		324.00000 
 43692.65567		 740.62630			42952.02937		219.06200		875.00000 
 43692.65567		 305.27265			43387.38302		70.74000		324.00000 
 43692.65567		 740.62630			42952.02937		219.06200		875.00000 
 43692.65567		 305.27265			43387.38302		70.74000		324.00000 
 43692.65567		 740.62630			42952.02937		219.06200		875.00000 
 43692.65567		 305.27265			43387.38302		70.74000		324.00000 
 43692.65567		 740.62630			42952.02937		219.06200		875.00000 
 43692.65567		 305.27265			43387.38302		70.74000		324.00000 
 43692.65567		 740.62630			42952.02937		219.06200		875.00000 
 43692.65567		 305.27265			43387.38302		70.74000		324.00000 
 43692.65567		 740.62630			42952.02937		219.06200		875.00000 
 43692.65567		 305.27265			43387.38302		70.74000		324.00000 
 43692.65567		 740.62630			42952.02937		219.06200		875.00000 
 43692.65567		 305.27265			43387.38302		70.74000		324.00000 
 43692.65567		 740.62630			42952.02937		219.06200		875.00000 
 43692.65567		 305.27265			43387.38302		70.74000		324.00000 
 43692.65567		 740.62630			42952.02937		219.06200		875.00000 
 43692.65567		 305.27265			43387.38302		70.74000		324.00000 
 43692.65567		 740.62630			42952.02937		219.06200		875.00000 
 43692.65567		 305.27265			43387.38302		70.74000		324.00000 
 43692.65567		 740.62630			42952.02937		219.06200		875.00000 
 43692.65567		 305.27265			43387.38302		70.74000		324.00000 
 43692.65567		 740.62630			42952.02937		219.06200		875.00000 
 43692.65567		 305.27265			43387.38302		70.74000		324.00000 
 43692.65567		 740.62630			42952.02937		219.06200		875.00000 
 43692.65567		 305.27265			43387.38302		70.74000		324.00000 
 43692.65567		 740.62630			42952.02937		219.06200		875.00000 
 43692.65567		 305.27265			43387.38302		70.74000		324.00000 
 43692.65567		 740.62630			42952.02937		219.06200		875.00000 
 43692.65567		 305.27265			43387.38302		70.74000		324.00000 
 43692.65567		 740.62630			42952.02937		219.06200		875.00000 
 43692.65567		 305.27265			43387.38302		70.74000		324.00000 
 43692.65567		 740.62630			42952.02937		219.06200		875.00000 
 43692.65567		 305.27265			43387.38302		70.74000		324.00000 
 43692.65567		 740.62630			42952.02937		219.06200		875.00000 
 43692.65567		 305.27265			43387.38302		70.74000		324.00000 
 43692.65567		 740.62630			42952.02937		219.06200		875.00000 
 43692.65567		 305.27265			43387.38302		70.74000		324.00000 
 43692.65567		 740.62630			42952.02937		219.06200		875.00000 
 43692.65567		 305.27265			43387.38302		70.74000		324.00000 
 43692.65567		 740.62630			42952.02937		219.06200		875.00000 
 43692.65567		 305.27265			43387.38302		70.74000		324.00000 
 43692.65567		 740.62630			42952.02937		219.06200		875.00000 
 43692.65567		 305.27265			43387.38302		70.74000		324.00000 
 43692.65567		 740.62630			42952.02937		219.06200		875.00000 
 43692.65567		 305.27265			43387.38302		70.74000		324.00000 
 43692.65567		 740.62630			42952.02937		219.06200		875.00000 
 43692.65567		 305.27265			43387.38302		70.74000		324.00000 
 43692.65567		 740.62630			42952.02937		219.06200		875.00000 
 43692.65567		 305.27265			43387.38302		70.74000		324.00000 
 43692.65567		 740.62630			42952.02937		219.06200		875.00000 
 43692.65567		 305.27265			43387.38302		70.74000		324.00000 
 43692.65567		 740.62630			42952.02937		219.06200		875.00000 
 43692.65567		 305.27265			43387.38302		70.74000		324.00000 
 43692.65567		 740.62630			42952.02937		219.06200		875.00000 
 43692.65567		 305.27265			43387.38302		70.74000		324.00000 
 43692.65567		 740.62630			42952.02937		219.06200		875.00000 
 43692.65567		 305.27265			43387.38302		70.74000		324.00000 
 43692.65567		 740.62630			42952.02937		219.06200		875.00000 
 43692.65567		 305.27265			43387.38302		70.74000		324.00000 
 43692.65567		 672.84098			43019.81470		219.06200		875.00000 
 43692.65567		 305.27265			43387.38302		70.74000		324.00000 
 43692.65567		 605.05565			43087.60002		219.06200		875.00000 
 43692.65567		 305.27265			43387.38302		70.74000		324.00000 
 43692.65567		 537.27032			43155.38535		219.06200		875.00000 
 43692.65567		 305.27265			43387.38302		70.74000		324.00000 
 43692.65567		 537.27032			43155.38535		219.06200		875.00000 
 43692.65567		 305.27265			43387.38302		70.74000		324.00000 
 43692.65567		 537.27032			43155.38535		219.06200		875.00000 
 43692.65567		 305.27265			43387.38302		70.74000		324.00000 
 43692.65567		 537.27032			43155.38535		219.06200		875.00000 
 43692.65567		 305.27265			43387.38302		70.74000		324.00000 
 43692.65567		 537.27032			43155.38535		219.06200		875.00000 
 43692.65567		 305.27265			43387.38302		70.74000		324.00000 
 43692.65567		 537.27032			43155.38535		219.06200		875.00000 
 43692.65567		 305.27265			43387.38302		70.74000		324.00000 
 43692.65567		 537.27032			43155.38535		219.06200		875.00000 
 43692.65567		 305.27265			43387.38302		70.74000		324.00000 
 43692.65567		 537.27032			43155.38535		219.06200		875.00000 
 43692.65567		 305.27265			43387.38302		70.74000		324.00000 
 43692.65567		 537.27032			43155.38535		219.06200		875.00000 
 43692.65567		 305.27265			43387.38302		70.74000		324.00000 
 43692.65567		 537.27032			43155.38535		219.06200		875.00000 
 43692.65567		 305.27265			43387.38302		70.74000		324.00000 
 43692.65567		 537.27032			43155.38535		219.06200		875.00000 
 43692.65567		 305.27265			43387.38302		70.74000		324.00000 
 43692.65567		 537.27032			43155.38535		219.06200		875.00000 
 43692.65567		 305.27265			43387.38302		70.74000		324.00000 
 43692.65567		 537.27032			43155.38535		219.06200		875.00000 
 43692.65567		 305.27265			43387.38302		70.74000		324.00000 
 43692.65567		 537.27032			43155.38535		219.06200		875.00000 
 43692.65567		 305.27265			43387.38302		70.74000		324.00000 
 43692.65567		 537.27032			43155.38535		219.06200		875.00000 
 43692.65567		 305.27265			43387.38302		70.74000		324.00000 
 43692.65567		 537.27032			43155.38535		219.06200		875.00000 
 43692.65567		 305.27265			43387.38302		70.74000		324.00000 
 43692.65567		 537.27032			43155.38535		219.06200		875.00000 
 43692.65567		 305.27265			43387.38302		70.74000		324.00000 
 43692.65567		 537.27032			43155.38535		219.06200		875.00000 
 43692.65567		 305.27265			43387.38302		70.74000		324.00000 
 43692.65567		 537.27032			43155.38535		219.06200		875.00000 
 43692.65567		 305.27265			43387.38302		70.74000		324.00000 
 43692.65567		 529.63254			43163.02313		219.06200		875.00000 
 43692.65567		 305.27265			43387.38302		70.74000		324.00000 
 43692.65567		 525.81365			43166.84203		219.06200		875.00000 
 43692.65567		 305.27265			43387.38302		70.74000		324.00000 
 43692.65567		 525.81365			43166.84203		184.00200		875.00000 
 43692.65567		 261.35540			43431.30027		70.74000		324.00000 
