Memory Total (MiB) 	 Memory Used (MiB) 	    Memory Free (MiB) 	 Power Drawed (W) 	 Clocks (Mhz) 	 
 43692.65567		 261.35540			43431.30027		167.95200		875.00000 
 43692.65567		 261.35540			43431.30027		70.24600		324.00000 
 43692.65567		 261.35540			43431.30027		167.95200		875.00000 
 43692.65567		 261.35540			43431.30027		70.24600		324.00000 
 43692.65567		 261.35540			43431.30027		167.95200		875.00000 
 43692.65567		 261.35540			43431.30027		70.24600		324.00000 
 43692.65567		 261.35540			43431.30027		167.95200		875.00000 
 43692.65567		 261.35540			43431.30027		70.24600		324.00000 
 43692.65567		 261.35540			43431.30027		167.95200		875.00000 
 43692.65567		 261.35540			43431.30027		70.24600		324.00000 
 43692.65567		 261.35540			43431.30027		167.95200		875.00000 
 43692.65567		 261.35540			43431.30027		70.24600		324.00000 
 43692.65567		 261.35540			43431.30027		167.95200		875.00000 
 43692.65567		 261.35540			43431.30027		70.24600		324.00000 
 43692.65567		 261.35540			43431.30027		167.95200		875.00000 
 43692.65567		 261.35540			43431.30027		70.24600		324.00000 
 43692.65567		 261.35540			43431.30027		167.95200		875.00000 
 43692.65567		 261.35540			43431.30027		70.24600		324.00000 
 43692.65567		 261.35540			43431.30027		167.95200		875.00000 
 43692.65567		 261.35540			43431.30027		70.24600		324.00000 
 43692.65567		 261.35540			43431.30027		167.95200		875.00000 
 43692.65567		 261.35540			43431.30027		70.24600		324.00000 
 43692.65567		 261.35540			43431.30027		167.95200		875.00000 
 43692.65567		 261.35540			43431.30027		70.24600		324.00000 
 43692.65567		 261.35540			43431.30027		167.95200		875.00000 
 43692.65567		 261.35540			43431.30027		70.24600		324.00000 
 43692.65567		 261.35540			43431.30027		167.95200		875.00000 
 43692.65567		 261.35540			43431.30027		70.24600		324.00000 
 43692.65567		 261.35540			43431.30027		167.95200		875.00000 
 43692.65567		 261.35540			43431.30027		70.24600		324.00000 
 43692.65567		 261.35540			43431.30027		167.95200		875.00000 
 43692.65567		 261.35540			43431.30027		70.24600		324.00000 
 43692.65567		 261.35540			43431.30027		167.95200		875.00000 
 43692.65567		 261.35540			43431.30027		70.24600		324.00000 
 43692.65567		 261.35540			43431.30027		167.95200		875.00000 
 43692.65567		 261.35540			43431.30027		70.24600		324.00000 
 43692.65567		 261.35540			43431.30027		167.95200		875.00000 
 43692.65567		 261.35540			43431.30027		70.24600		324.00000 
 43692.65567		 265.17429			43427.48138		167.95200		875.00000 
 43692.65567		 261.35540			43431.30027		70.24600		324.00000 
 43692.65567		 272.81207			43419.84360		167.95200		875.00000 
 43692.65567		 261.35540			43431.30027		70.24600		324.00000 
 43692.65567		 272.81207			43419.84360		167.95200		875.00000 
 43692.65567		 261.35540			43431.30027		70.24600		324.00000 
 43692.65567		 272.81207			43419.84360		167.95200		875.00000 
 43692.65567		 265.17429			43427.48138		70.24600		324.00000 
 43692.65567		 272.81207			43419.84360		167.95200		875.00000 
 43692.65567		 265.17429			43427.48138		70.24600		324.00000 
 43692.65567		 272.81207			43419.84360		167.95200		875.00000 
 43692.65567		 272.81207			43419.84360		70.24600		324.00000 
 43692.65567		 272.81207			43419.84360		167.95200		875.00000 
 43692.65567		 272.81207			43419.84360		70.24600		324.00000 
 43692.65567		 272.81207			43419.84360		167.95200		875.00000 
 43692.65567		 272.81207			43419.84360		70.24600		324.00000 
 43692.65567		 272.81207			43419.84360		167.95200		875.00000 
 43692.65567		 272.81207			43419.84360		70.24600		324.00000 
 43692.65567		 305.27265			43387.38302		145.70600		875.00000 
 43692.65567		 305.27265			43387.38302		70.24600		324.00000 
 43692.65567		 305.27265			43387.38302		145.70600		875.00000 
 43692.65567		 305.27265			43387.38302		70.24600		324.00000 
 43692.65567		 305.27265			43387.38302		145.70600		875.00000 
 43692.65567		 305.27265			43387.38302		70.24600		324.00000 
 43692.65567		 305.27265			43387.38302		145.70600		875.00000 
 43692.65567		 305.27265			43387.38302		70.24600		324.00000 
 43692.65567		 305.27265			43387.38302		145.70600		875.00000 
 43692.65567		 305.27265			43387.38302		70.24600		324.00000 
 43692.65567		 310.04627			43382.60941		145.70600		875.00000 
 43692.65567		 305.27265			43387.38302		70.24600		324.00000 
 43692.65567		 311.00099			43381.65468		145.70600		875.00000 
 43692.65567		 305.27265			43387.38302		70.24600		324.00000 
 43692.65567		 311.00099			43381.65468		145.70600		875.00000 
 43692.65567		 305.27265			43387.38302		70.24600		324.00000 
 43692.65567		 311.00099			43381.65468		145.70600		875.00000 
 43692.65567		 305.27265			43387.38302		70.24600		324.00000 
 43692.65567		 311.00099			43381.65468		145.70600		875.00000 
 43692.65567		 305.27265			43387.38302		70.24600		324.00000 
 43692.65567		 311.00099			43381.65468		145.70600		875.00000 
 43692.65567		 305.27265			43387.38302		70.24600		324.00000 
 43692.65567		 311.00099			43381.65468		145.70600		875.00000 
 43692.65567		 305.27265			43387.38302		70.24600		324.00000 
 43692.65567		 311.00099			43381.65468		145.70600		875.00000 
 43692.65567		 305.27265			43387.38302		70.24600		324.00000 
 43692.65567		 311.00099			43381.65468		145.70600		875.00000 
 43692.65567		 305.27265			43387.38302		70.24600		324.00000 
 43692.65567		 311.00099			43381.65468		145.70600		875.00000 
 43692.65567		 305.27265			43387.38302		70.24600		324.00000 
 43692.65567		 311.00099			43381.65468		145.70600		875.00000 
 43692.65567		 305.27265			43387.38302		70.24600		324.00000 
 43692.65567		 311.00099			43381.65468		145.70600		875.00000 
 43692.65567		 305.27265			43387.38302		70.24600		324.00000 
 43692.65567		 311.00099			43381.65468		145.70600		875.00000 
 43692.65567		 305.27265			43387.38302		70.24600		324.00000 
 43692.65567		 311.00099			43381.65468		145.70600		875.00000 
 43692.65567		 305.27265			43387.38302		70.24600		324.00000 
 43692.65567		 311.00099			43381.65468		145.70600		875.00000 
 43692.65567		 305.27265			43387.38302		70.24600		324.00000 
 43692.65567		 311.00099			43381.65468		145.70600		875.00000 
 43692.65567		 305.27265			43387.38302		70.24600		324.00000 
 43692.65567		 311.00099			43381.65468		145.70600		875.00000 
 43692.65567		 305.27265			43387.38302		70.24600		324.00000 
 43692.65567		 311.00099			43381.65468		145.70600		875.00000 
 43692.65567		 305.27265			43387.38302		70.24600		324.00000 
 43692.65567		 311.00099			43381.65468		145.70600		875.00000 
 43692.65567		 305.27265			43387.38302		70.24600		324.00000 
 43692.65567		 311.00099			43381.65468		145.70600		875.00000 
 43692.65567		 305.27265			43387.38302		70.24600		324.00000 
 43692.65567		 311.00099			43381.65468		145.70600		875.00000 
 43692.65567		 305.27265			43387.38302		70.24600		324.00000 
 43692.65567		 311.00099			43381.65468		145.70600		875.00000 
 43692.65567		 305.27265			43387.38302		70.24600		324.00000 
 43692.65567		 311.00099			43381.65468		145.70600		875.00000 
 43692.65567		 305.27265			43387.38302		70.24600		324.00000 
 43692.65567		 311.00099			43381.65468		145.70600		875.00000 
 43692.65567		 305.27265			43387.38302		70.24600		324.00000 
 43692.65567		 311.00099			43381.65468		145.70600		875.00000 
 43692.65567		 305.27265			43387.38302		70.24600		324.00000 
 43692.65567		 311.00099			43381.65468		145.70600		875.00000 
 43692.65567		 305.27265			43387.38302		70.24600		324.00000 
 43692.65567		 311.00099			43381.65468		145.70600		875.00000 
 43692.65567		 305.27265			43387.38302		70.24600		324.00000 
 43692.65567		 311.00099			43381.65468		145.70600		875.00000 
 43692.65567		 305.27265			43387.38302		70.24600		324.00000 
 43692.65567		 311.00099			43381.65468		145.70600		875.00000 
 43692.65567		 305.27265			43387.38302		70.24600		324.00000 
 43692.65567		 311.00099			43381.65468		136.53400		875.00000 
 43692.65567		 305.27265			43387.38302		70.24600		324.00000 
 43692.65567		 311.00099			43381.65468		136.53400		875.00000 
 43692.65567		 305.27265			43387.38302		70.24600		324.00000 
 43692.65567		 311.00099			43381.65468		136.53400		875.00000 
 43692.65567		 305.27265			43387.38302		70.24600		324.00000 
 43692.65567		 311.00099			43381.65468		136.53400		875.00000 
 43692.65567		 305.27265			43387.38302		70.24600		324.00000 
 43692.65567		 311.00099			43381.65468		136.53400		875.00000 
 43692.65567		 305.27265			43387.38302		70.24600		324.00000 
 43692.65567		 311.00099			43381.65468		136.53400		875.00000 
 43692.65567		 305.27265			43387.38302		70.24600		324.00000 
 43692.65567		 311.00099			43381.65468		136.53400		875.00000 
 43692.65567		 305.27265			43387.38302		70.24600		324.00000 
 43692.65567		 311.00099			43381.65468		136.53400		875.00000 
 43692.65567		 305.27265			43387.38302		70.24600		324.00000 
 43692.65567		 311.00099			43381.65468		136.53400		875.00000 
 43692.65567		 305.27265			43387.38302		70.24600		324.00000 
 43692.65567		 311.00099			43381.65468		136.53400		875.00000 
 43692.65567		 305.27265			43387.38302		70.24600		324.00000 
 43692.65567		 311.00099			43381.65468		136.53400		875.00000 
 43692.65567		 305.27265			43387.38302		70.24600		324.00000 
 43692.65567		 311.00099			43381.65468		136.53400		875.00000 
 43692.65567		 305.27265			43387.38302		70.24600		324.00000 
 43692.65567		 311.00099			43381.65468		136.53400		875.00000 
 43692.65567		 305.27265			43387.38302		70.24600		324.00000 
 43692.65567		 311.00099			43381.65468		136.53400		875.00000 
 43692.65567		 305.27265			43387.38302		70.24600		324.00000 
 43692.65567		 311.00099			43381.65468		136.53400		875.00000 
 43692.65567		 305.27265			43387.38302		70.24600		324.00000 
 43692.65567		 311.00099			43381.65468		136.53400		875.00000 
 43692.65567		 305.27265			43387.38302		70.24600		324.00000 
 43692.65567		 311.00099			43381.65468		136.53400		875.00000 
 43692.65567		 305.27265			43387.38302		70.24600		324.00000 
 43692.65567		 311.00099			43381.65468		136.53400		875.00000 
 43692.65567		 305.27265			43387.38302		70.24600		324.00000 
 43692.65567		 311.00099			43381.65468		136.53400		875.00000 
 43692.65567		 305.27265			43387.38302		70.24600		324.00000 
 43692.65567		 311.00099			43381.65468		136.53400		875.00000 
 43692.65567		 305.27265			43387.38302		70.24600		324.00000 
 43692.65567		 311.00099			43381.65468		136.53400		875.00000 
 43692.65567		 305.27265			43387.38302		70.24600		324.00000 
 43692.65567		 311.00099			43381.65468		136.53400		875.00000 
 43692.65567		 305.27265			43387.38302		70.24600		324.00000 
 43692.65567		 311.00099			43381.65468		136.53400		875.00000 
 43692.65567		 305.27265			43387.38302		70.24600		324.00000 
 43692.65567		 314.81988			43377.83579		136.53400		875.00000 
 43692.65567		 305.27265			43387.38302		70.24600		324.00000 
 43692.65567		 314.81988			43377.83579		136.53400		875.00000 
 43692.65567		 305.27265			43387.38302		70.24600		324.00000 
 43692.65567		 314.81988			43377.83579		136.53400		875.00000 
 43692.65567		 305.27265			43387.38302		70.24600		324.00000 
 43692.65567		 318.63877			43374.01690		136.53400		875.00000 
 43692.65567		 305.27265			43387.38302		70.24600		324.00000 
 43692.65567		 322.45767			43370.19801		136.53400		875.00000 
 43692.65567		 305.27265			43387.38302		70.24600		324.00000 
 43692.65567		 326.27656			43366.37912		136.53400		875.00000 
 43692.65567		 305.27265			43387.38302		70.24600		324.00000 
 43692.65567		 326.27656			43366.37912		136.53400		875.00000 
 43692.65567		 305.27265			43387.38302		70.24600		324.00000 
 43692.65567		 326.27656			43366.37912		136.53400		875.00000 
 43692.65567		 305.27265			43387.38302		70.24600		324.00000 
 43692.65567		 537.27032			43155.38535		136.53400		875.00000 
 43692.65567		 305.27265			43387.38302		70.24600		324.00000 
 43692.65567		 774.04161			42918.61407		136.53400		875.00000 
 43692.65567		 305.27265			43387.38302		70.24600		324.00000 
 43692.65567		 892.42725			42800.22842		136.53400		875.00000 
 43692.65567		 305.27265			43387.38302		70.24600		324.00000 
 43692.65567		 892.42725			42800.22842		135.62600		875.00000 
 43692.65567		 305.27265			43387.38302		70.24600		324.00000 
 43692.65567		 892.42725			42800.22842		135.62600		875.00000 
 43692.65567		 305.27265			43387.38302		70.24600		324.00000 
 43692.65567		 892.42725			42800.22842		135.62600		875.00000 
 43692.65567		 305.27265			43387.38302		70.24600		324.00000 
 43692.65567		 892.42725			42800.22842		135.62600		875.00000 
 43692.65567		 305.27265			43387.38302		70.24600		324.00000 
 43692.65567		 892.42725			42800.22842		135.62600		875.00000 
 43692.65567		 305.27265			43387.38302		70.24600		324.00000 
 43692.65567		 892.42725			42800.22842		135.62600		875.00000 
 43692.65567		 305.27265			43387.38302		70.24600		324.00000 
 43692.65567		 892.42725			42800.22842		135.62600		875.00000 
 43692.65567		 305.27265			43387.38302		70.24600		324.00000 
 43692.65567		 892.42725			42800.22842		135.62600		875.00000 
 43692.65567		 305.27265			43387.38302		70.24600		324.00000 
 43692.65567		 892.42725			42800.22842		135.62600		875.00000 
 43692.65567		 305.27265			43387.38302		70.24600		324.00000 
 43692.65567		 892.42725			42800.22842		135.62600		875.00000 
 43692.65567		 305.27265			43387.38302		70.24600		324.00000 
 43692.65567		 892.42725			42800.22842		135.62600		875.00000 
 43692.65567		 305.27265			43387.38302		70.24600		324.00000 
 43692.65567		 892.42725			42800.22842		135.62600		875.00000 
 43692.65567		 305.27265			43387.38302		70.24600		324.00000 
 43692.65567		 892.42725			42800.22842		135.62600		875.00000 
 43692.65567		 305.27265			43387.38302		70.24600		324.00000 
 43692.65567		 892.42725			42800.22842		135.62600		875.00000 
 43692.65567		 305.27265			43387.38302		70.24600		324.00000 
 43692.65567		 892.42725			42800.22842		135.62600		875.00000 
 43692.65567		 305.27265			43387.38302		70.24600		324.00000 
 43692.65567		 892.42725			42800.22842		135.62600		875.00000 
 43692.65567		 305.27265			43387.38302		70.24600		324.00000 
 43692.65567		 892.42725			42800.22842		135.62600		875.00000 
 43692.65567		 305.27265			43387.38302		70.24600		324.00000 
 43692.65567		 892.42725			42800.22842		135.62600		875.00000 
 43692.65567		 305.27265			43387.38302		70.24600		324.00000 
 43692.65567		 892.42725			42800.22842		135.62600		875.00000 
 43692.65567		 305.27265			43387.38302		70.24600		324.00000 
 43692.65567		 892.42725			42800.22842		135.62600		875.00000 
 43692.65567		 305.27265			43387.38302		70.24600		324.00000 
 43692.65567		 892.42725			42800.22842		135.62600		875.00000 
 43692.65567		 305.27265			43387.38302		70.24600		324.00000 
 43692.65567		 892.42725			42800.22842		135.62600		875.00000 
 43692.65567		 305.27265			43387.38302		70.24600		324.00000 
 43692.65567		 892.42725			42800.22842		135.62600		875.00000 
 43692.65567		 305.27265			43387.38302		70.24600		324.00000 
 43692.65567		 892.42725			42800.22842		135.62600		875.00000 
 43692.65567		 305.27265			43387.38302		70.24600		324.00000 
 43692.65567		 892.42725			42800.22842		135.62600		875.00000 
 43692.65567		 305.27265			43387.38302		70.24600		324.00000 
 43692.65567		 892.42725			42800.22842		135.62600		875.00000 
 43692.65567		 305.27265			43387.38302		70.24600		324.00000 
 43692.65567		 892.42725			42800.22842		135.62600		875.00000 
 43692.65567		 305.27265			43387.38302		70.24600		324.00000 
 43692.65567		 892.42725			42800.22842		135.62600		875.00000 
 43692.65567		 305.27265			43387.38302		70.24600		324.00000 
 43692.65567		 892.42725			42800.22842		135.62600		875.00000 
 43692.65567		 305.27265			43387.38302		70.24600		324.00000 
 43692.65567		 892.42725			42800.22842		135.62600		875.00000 
 43692.65567		 305.27265			43387.38302		70.24600		324.00000 
 43692.65567		 892.42725			42800.22842		135.62600		875.00000 
 43692.65567		 305.27265			43387.38302		70.24600		324.00000 
 43692.65567		 892.42725			42800.22842		135.62600		875.00000 
 43692.65567		 305.27265			43387.38302		70.24600		324.00000 
 43692.65567		 892.42725			42800.22842		135.62600		875.00000 
 43692.65567		 305.27265			43387.38302		70.24600		324.00000 
 43692.65567		 892.42725			42800.22842		135.62600		875.00000 
 43692.65567		 305.27265			43387.38302		70.24600		324.00000 
 43692.65567		 892.42725			42800.22842		135.62600		875.00000 
 43692.65567		 305.27265			43387.38302		70.24600		324.00000 
 43692.65567		 892.42725			42800.22842		135.62600		875.00000 
 43692.65567		 305.27265			43387.38302		70.24600		324.00000 
 43692.65567		 892.42725			42800.22842		135.62600		875.00000 
 43692.65567		 305.27265			43387.38302		70.24600		324.00000 
 43692.65567		 892.42725			42800.22842		135.62600		875.00000 
 43692.65567		 305.27265			43387.38302		70.24600		324.00000 
 43692.65567		 892.42725			42800.22842		135.62600		875.00000 
 43692.65567		 305.27265			43387.38302		70.24600		324.00000 
 43692.65567		 892.42725			42800.22842		135.62600		875.00000 
 43692.65567		 305.27265			43387.38302		70.24600		324.00000 
 43692.65567		 892.42725			42800.22842		135.62600		875.00000 
 43692.65567		 305.27265			43387.38302		70.24600		324.00000 
 43692.65567		 892.42725			42800.22842		135.62600		875.00000 
 43692.65567		 305.27265			43387.38302		70.24600		324.00000 
 43692.65567		 892.42725			42800.22842		135.62600		875.00000 
 43692.65567		 305.27265			43387.38302		68.23200		324.00000 
 43692.65567		 892.42725			42800.22842		135.62600		875.00000 
 43692.65567		 305.27265			43387.38302		68.23200		324.00000 
 43692.65567		 892.42725			42800.22842		135.62600		875.00000 
 43692.65567		 305.27265			43387.38302		68.23200		324.00000 
 43692.65567		 892.42725			42800.22842		135.62600		875.00000 
 43692.65567		 305.27265			43387.38302		68.23200		324.00000 
 43692.65567		 892.42725			42800.22842		135.62600		875.00000 
 43692.65567		 305.27265			43387.38302		68.23200		324.00000 
 43692.65567		 892.42725			42800.22842		135.62600		875.00000 
 43692.65567		 305.27265			43387.38302		68.23200		324.00000 
 43692.65567		 892.42725			42800.22842		135.62600		875.00000 
 43692.65567		 305.27265			43387.38302		68.23200		324.00000 
 43692.65567		 892.42725			42800.22842		135.62600		875.00000 
 43692.65567		 305.27265			43387.38302		68.23200		324.00000 
 43692.65567		 892.42725			42800.22842		135.62600		875.00000 
 43692.65567		 305.27265			43387.38302		68.23200		324.00000 
 43692.65567		 892.42725			42800.22842		135.62600		875.00000 
 43692.65567		 305.27265			43387.38302		68.23200		324.00000 
 43692.65567		 892.42725			42800.22842		135.62600		875.00000 
 43692.65567		 305.27265			43387.38302		68.23200		324.00000 
 43692.65567		 892.42725			42800.22842		135.62600		875.00000 
 43692.65567		 305.27265			43387.38302		68.23200		324.00000 
 43692.65567		 892.42725			42800.22842		135.62600		875.00000 
 43692.65567		 305.27265			43387.38302		68.23200		324.00000 
 43692.65567		 892.42725			42800.22842		135.62600		875.00000 
 43692.65567		 305.27265			43387.38302		68.23200		324.00000 
 43692.65567		 892.42725			42800.22842		135.62600		875.00000 
 43692.65567		 305.27265			43387.38302		68.23200		324.00000 
 43692.65567		 892.42725			42800.22842		135.62600		875.00000 
 43692.65567		 305.27265			43387.38302		68.23200		324.00000 
 43692.65567		 892.42725			42800.22842		135.62600		875.00000 
 43692.65567		 305.27265			43387.38302		68.23200		324.00000 
 43692.65567		 892.42725			42800.22842		135.62600		875.00000 
 43692.65567		 305.27265			43387.38302		68.23200		324.00000 
 43692.65567		 892.42725			42800.22842		135.62600		875.00000 
 43692.65567		 305.27265			43387.38302		68.23200		324.00000 
 43692.65567		 892.42725			42800.22842		192.27400		875.00000 
 43692.65567		 305.27265			43387.38302		68.23200		324.00000 
 43692.65567		 892.42725			42800.22842		192.27400		875.00000 
 43692.65567		 305.27265			43387.38302		68.23200		324.00000 
 43692.65567		 892.42725			42800.22842		192.27400		875.00000 
 43692.65567		 305.27265			43387.38302		68.23200		324.00000 
 43692.65567		 892.42725			42800.22842		192.27400		875.00000 
 43692.65567		 305.27265			43387.38302		68.23200		324.00000 
 43692.65567		 892.42725			42800.22842		192.27400		875.00000 
 43692.65567		 305.27265			43387.38302		68.23200		324.00000 
 43692.65567		 892.42725			42800.22842		192.27400		875.00000 
 43692.65567		 305.27265			43387.38302		68.23200		324.00000 
 43692.65567		 892.42725			42800.22842		192.27400		875.00000 
 43692.65567		 305.27265			43387.38302		68.23200		324.00000 
 43692.65567		 892.42725			42800.22842		192.27400		875.00000 
 43692.65567		 305.27265			43387.38302		68.23200		324.00000 
 43692.65567		 892.42725			42800.22842		192.27400		875.00000 
 43692.65567		 305.27265			43387.38302		68.23200		324.00000 
 43692.65567		 892.42725			42800.22842		192.27400		875.00000 
 43692.65567		 305.27265			43387.38302		68.23200		324.00000 
 43692.65567		 892.42725			42800.22842		192.27400		875.00000 
 43692.65567		 305.27265			43387.38302		68.23200		324.00000 
 43692.65567		 892.42725			42800.22842		192.27400		875.00000 
 43692.65567		 305.27265			43387.38302		68.23200		324.00000 
 43692.65567		 892.42725			42800.22842		192.27400		875.00000 
 43692.65567		 305.27265			43387.38302		68.23200		324.00000 
 43692.65567		 892.42725			42800.22842		192.27400		875.00000 
 43692.65567		 305.27265			43387.38302		68.23200		324.00000 
 43692.65567		 892.42725			42800.22842		192.27400		875.00000 
 43692.65567		 305.27265			43387.38302		68.23200		324.00000 
 43692.65567		 892.42725			42800.22842		192.27400		875.00000 
 43692.65567		 305.27265			43387.38302		68.23200		324.00000 
 43692.65567		 892.42725			42800.22842		192.27400		875.00000 
 43692.65567		 305.27265			43387.38302		68.23200		324.00000 
 43692.65567		 892.42725			42800.22842		192.27400		875.00000 
 43692.65567		 305.27265			43387.38302		68.23200		324.00000 
 43692.65567		 892.42725			42800.22842		192.27400		875.00000 
 43692.65567		 305.27265			43387.38302		68.23200		324.00000 
 43692.65567		 892.42725			42800.22842		192.27400		875.00000 
 43692.65567		 305.27265			43387.38302		68.23200		324.00000 
 43692.65567		 892.42725			42800.22842		192.27400		875.00000 
 43692.65567		 305.27265			43387.38302		68.23200		324.00000 
 43692.65567		 892.42725			42800.22842		192.27400		875.00000 
 43692.65567		 305.27265			43387.38302		68.23200		324.00000 
 43692.65567		 892.42725			42800.22842		192.27400		875.00000 
 43692.65567		 305.27265			43387.38302		68.23200		324.00000 
 43692.65567		 892.42725			42800.22842		192.27400		875.00000 
 43692.65567		 305.27265			43387.38302		68.23200		324.00000 
 43692.65567		 892.42725			42800.22842		192.27400		875.00000 
 43692.65567		 305.27265			43387.38302		68.23200		324.00000 
 43692.65567		 892.42725			42800.22842		192.27400		875.00000 
 43692.65567		 305.27265			43387.38302		68.23200		324.00000 
 43692.65567		 892.42725			42800.22842		192.27400		875.00000 
 43692.65567		 305.27265			43387.38302		68.23200		324.00000 
 43692.65567		 892.42725			42800.22842		192.27400		875.00000 
 43692.65567		 305.27265			43387.38302		68.23200		324.00000 
 43692.65567		 892.42725			42800.22842		192.27400		875.00000 
 43692.65567		 305.27265			43387.38302		68.23200		324.00000 
 43692.65567		 892.42725			42800.22842		192.27400		875.00000 
 43692.65567		 305.27265			43387.38302		68.23200		324.00000 
 43692.65567		 892.42725			42800.22842		192.27400		875.00000 
 43692.65567		 305.27265			43387.38302		68.23200		324.00000 
 43692.65567		 892.42725			42800.22842		192.27400		875.00000 
 43692.65567		 305.27265			43387.38302		68.23200		324.00000 
 43692.65567		 892.42725			42800.22842		192.27400		875.00000 
 43692.65567		 305.27265			43387.38302		68.23200		324.00000 
 43692.65567		 892.42725			42800.22842		192.27400		875.00000 
 43692.65567		 305.27265			43387.38302		68.23200		324.00000 
 43692.65567		 892.42725			42800.22842		192.27400		875.00000 
 43692.65567		 305.27265			43387.38302		68.23200		324.00000 
 43692.65567		 892.42725			42800.22842		192.27400		875.00000 
 43692.65567		 305.27265			43387.38302		68.23200		324.00000 
 43692.65567		 892.42725			42800.22842		192.27400		875.00000 
 43692.65567		 305.27265			43387.38302		68.23200		324.00000 
 43692.65567		 892.42725			42800.22842		192.27400		875.00000 
 43692.65567		 305.27265			43387.38302		68.23200		324.00000 
 43692.65567		 892.42725			42800.22842		192.27400		875.00000 
 43692.65567		 305.27265			43387.38302		68.23200		324.00000 
 43692.65567		 892.42725			42800.22842		192.27400		875.00000 
 43692.65567		 305.27265			43387.38302		68.23200		324.00000 
 43692.65567		 892.42725			42800.22842		192.27400		875.00000 
 43692.65567		 305.27265			43387.38302		68.23200		324.00000 
 43692.65567		 892.42725			42800.22842		192.27400		875.00000 
 43692.65567		 305.27265			43387.38302		68.23200		324.00000 
 43692.65567		 892.42725			42800.22842		192.27400		875.00000 
 43692.65567		 305.27265			43387.38302		68.23200		324.00000 
 43692.65567		 892.42725			42800.22842		192.27400		875.00000 
 43692.65567		 305.27265			43387.38302		68.23200		324.00000 
 43692.65567		 892.42725			42800.22842		192.27400		875.00000 
 43692.65567		 305.27265			43387.38302		68.23200		324.00000 
 43692.65567		 892.42725			42800.22842		192.27400		875.00000 
 43692.65567		 305.27265			43387.38302		68.23200		324.00000 
 43692.65567		 892.42725			42800.22842		192.27400		875.00000 
 43692.65567		 305.27265			43387.38302		68.23200		324.00000 
 43692.65567		 892.42725			42800.22842		192.27400		875.00000 
 43692.65567		 305.27265			43387.38302		68.23200		324.00000 
 43692.65567		 892.42725			42800.22842		192.27400		875.00000 
 43692.65567		 305.27265			43387.38302		68.23200		324.00000 
 43692.65567		 892.42725			42800.22842		192.27400		875.00000 
 43692.65567		 305.27265			43387.38302		68.23200		324.00000 
 43692.65567		 892.42725			42800.22842		192.27400		875.00000 
 43692.65567		 305.27265			43387.38302		68.23200		324.00000 
 43692.65567		 892.42725			42800.22842		192.27400		875.00000 
 43692.65567		 305.27265			43387.38302		68.23200		324.00000 
 43692.65567		 892.42725			42800.22842		192.27400		875.00000 
 43692.65567		 305.27265			43387.38302		68.23200		324.00000 
 43692.65567		 892.42725			42800.22842		192.27400		875.00000 
 43692.65567		 305.27265			43387.38302		68.23200		324.00000 
 43692.65567		 892.42725			42800.22842		192.27400		875.00000 
 43692.65567		 305.27265			43387.38302		68.23200		324.00000 
 43692.65567		 892.42725			42800.22842		192.27400		875.00000 
 43692.65567		 305.27265			43387.38302		68.23200		324.00000 
 43692.65567		 892.42725			42800.22842		192.27400		875.00000 
 43692.65567		 305.27265			43387.38302		68.23200		324.00000 
 43692.65567		 892.42725			42800.22842		192.27400		875.00000 
 43692.65567		 305.27265			43387.38302		68.23200		324.00000 
 43692.65567		 892.42725			42800.22842		192.27400		875.00000 
 43692.65567		 305.27265			43387.38302		68.23200		324.00000 
 43692.65567		 892.42725			42800.22842		192.27400		875.00000 
 43692.65567		 305.27265			43387.38302		68.23200		324.00000 
 43692.65567		 892.42725			42800.22842		192.27400		875.00000 
 43692.65567		 305.27265			43387.38302		68.23200		324.00000 
 43692.65567		 892.42725			42800.22842		192.27400		875.00000 
 43692.65567		 305.27265			43387.38302		68.23200		324.00000 
 43692.65567		 892.42725			42800.22842		192.27400		875.00000 
 43692.65567		 305.27265			43387.38302		68.23200		324.00000 
 43692.65567		 892.42725			42800.22842		192.27400		875.00000 
 43692.65567		 305.27265			43387.38302		68.23200		324.00000 
 43692.65567		 892.42725			42800.22842		192.27400		875.00000 
 43692.65567		 305.27265			43387.38302		68.23200		324.00000 
 43692.65567		 892.42725			42800.22842		212.13800		875.00000 
 43692.65567		 305.27265			43387.38302		68.23200		324.00000 
 43692.65567		 892.42725			42800.22842		212.13800		875.00000 
 43692.65567		 305.27265			43387.38302		68.23200		324.00000 
 43692.65567		 892.42725			42800.22842		212.13800		875.00000 
 43692.65567		 305.27265			43387.38302		68.23200		324.00000 
 43692.65567		 892.42725			42800.22842		212.13800		875.00000 
 43692.65567		 305.27265			43387.38302		68.23200		324.00000 
 43692.65567		 892.42725			42800.22842		212.13800		875.00000 
 43692.65567		 305.27265			43387.38302		68.23200		324.00000 
 43692.65567		 892.42725			42800.22842		212.13800		875.00000 
 43692.65567		 305.27265			43387.38302		68.23200		324.00000 
 43692.65567		 892.42725			42800.22842		212.13800		875.00000 
 43692.65567		 305.27265			43387.38302		68.23200		324.00000 
 43692.65567		 892.42725			42800.22842		212.13800		875.00000 
 43692.65567		 305.27265			43387.38302		68.23200		324.00000 
 43692.65567		 892.42725			42800.22842		212.13800		875.00000 
 43692.65567		 305.27265			43387.38302		68.23200		324.00000 
 43692.65567		 892.42725			42800.22842		212.13800		875.00000 
 43692.65567		 305.27265			43387.38302		68.23200		324.00000 
 43692.65567		 892.42725			42800.22842		212.13800		875.00000 
 43692.65567		 305.27265			43387.38302		68.23200		324.00000 
 43692.65567		 892.42725			42800.22842		212.13800		875.00000 
 43692.65567		 305.27265			43387.38302		68.23200		324.00000 
 43692.65567		 892.42725			42800.22842		212.13800		875.00000 
 43692.65567		 305.27265			43387.38302		68.23200		324.00000 
 43692.65567		 892.42725			42800.22842		212.13800		875.00000 
 43692.65567		 305.27265			43387.38302		68.23200		324.00000 
 43692.65567		 892.42725			42800.22842		212.13800		875.00000 
 43692.65567		 305.27265			43387.38302		68.23200		324.00000 
 43692.65567		 892.42725			42800.22842		212.13800		875.00000 
 43692.65567		 305.27265			43387.38302		68.23200		324.00000 
 43692.65567		 892.42725			42800.22842		212.13800		875.00000 
 43692.65567		 305.27265			43387.38302		68.23200		324.00000 
 43692.65567		 892.42725			42800.22842		212.13800		875.00000 
 43692.65567		 305.27265			43387.38302		68.23200		324.00000 
 43692.65567		 892.42725			42800.22842		212.13800		875.00000 
 43692.65567		 305.27265			43387.38302		68.23200		324.00000 
 43692.65567		 892.42725			42800.22842		212.13800		875.00000 
 43692.65567		 305.27265			43387.38302		68.23200		324.00000 
 43692.65567		 892.42725			42800.22842		212.13800		875.00000 
 43692.65567		 305.27265			43387.38302		68.23200		324.00000 
 43692.65567		 892.42725			42800.22842		212.13800		875.00000 
 43692.65567		 305.27265			43387.38302		68.23200		324.00000 
 43692.65567		 892.42725			42800.22842		212.13800		875.00000 
 43692.65567		 305.27265			43387.38302		68.23200		324.00000 
 43692.65567		 892.42725			42800.22842		212.13800		875.00000 
 43692.65567		 305.27265			43387.38302		68.23200		324.00000 
 43692.65567		 892.42725			42800.22842		212.13800		875.00000 
 43692.65567		 305.27265			43387.38302		68.23200		324.00000 
 43692.65567		 892.42725			42800.22842		212.13800		875.00000 
 43692.65567		 305.27265			43387.38302		68.23200		324.00000 
 43692.65567		 892.42725			42800.22842		212.13800		875.00000 
 43692.65567		 305.27265			43387.38302		68.23200		324.00000 
 43692.65567		 892.42725			42800.22842		212.13800		875.00000 
 43692.65567		 305.27265			43387.38302		68.23200		324.00000 
 43692.65567		 892.42725			42800.22842		212.13800		875.00000 
 43692.65567		 305.27265			43387.38302		68.23200		324.00000 
 43692.65567		 892.42725			42800.22842		212.13800		875.00000 
 43692.65567		 305.27265			43387.38302		68.23200		324.00000 
 43692.65567		 892.42725			42800.22842		212.13800		875.00000 
 43692.65567		 305.27265			43387.38302		68.23200		324.00000 
 43692.65567		 892.42725			42800.22842		212.13800		875.00000 
 43692.65567		 305.27265			43387.38302		68.23200		324.00000 
 43692.65567		 892.42725			42800.22842		212.13800		875.00000 
 43692.65567		 305.27265			43387.38302		68.23200		324.00000 
 43692.65567		 892.42725			42800.22842		212.13800		875.00000 
 43692.65567		 305.27265			43387.38302		68.23200		324.00000 
 43692.65567		 892.42725			42800.22842		212.13800		875.00000 
 43692.65567		 305.27265			43387.38302		68.23200		324.00000 
 43692.65567		 892.42725			42800.22842		212.13800		875.00000 
 43692.65567		 305.27265			43387.38302		68.23200		324.00000 
 43692.65567		 892.42725			42800.22842		212.13800		875.00000 
 43692.65567		 305.27265			43387.38302		68.23200		324.00000 
 43692.65567		 892.42725			42800.22842		212.13800		875.00000 
 43692.65567		 305.27265			43387.38302		68.23200		324.00000 
 43692.65567		 892.42725			42800.22842		212.13800		875.00000 
 43692.65567		 305.27265			43387.38302		68.23200		324.00000 
 43692.65567		 892.42725			42800.22842		212.13800		875.00000 
 43692.65567		 305.27265			43387.38302		68.23200		324.00000 
 43692.65567		 892.42725			42800.22842		212.13800		875.00000 
 43692.65567		 305.27265			43387.38302		68.23200		324.00000 
 43692.65567		 892.42725			42800.22842		212.13800		875.00000 
 43692.65567		 305.27265			43387.38302		68.23200		324.00000 
 43692.65567		 892.42725			42800.22842		212.13800		875.00000 
 43692.65567		 305.27265			43387.38302		68.23200		324.00000 
 43692.65567		 892.42725			42800.22842		212.13800		875.00000 
 43692.65567		 305.27265			43387.38302		68.23200		324.00000 
 43692.65567		 892.42725			42800.22842		212.13800		875.00000 
 43692.65567		 305.27265			43387.38302		68.23200		324.00000 
 43692.65567		 892.42725			42800.22842		212.13800		875.00000 
 43692.65567		 305.27265			43387.38302		68.23200		324.00000 
 43692.65567		 892.42725			42800.22842		212.13800		875.00000 
 43692.65567		 305.27265			43387.38302		68.23200		324.00000 
 43692.65567		 892.42725			42800.22842		212.13800		875.00000 
 43692.65567		 305.27265			43387.38302		68.23200		324.00000 
 43692.65567		 892.42725			42800.22842		212.13800		875.00000 
 43692.65567		 305.27265			43387.38302		68.23200		324.00000 
 43692.65567		 892.42725			42800.22842		212.13800		875.00000 
 43692.65567		 305.27265			43387.38302		68.23200		324.00000 
 43692.65567		 892.42725			42800.22842		212.13800		875.00000 
 43692.65567		 305.27265			43387.38302		68.23200		324.00000 
 43692.65567		 892.42725			42800.22842		212.13800		875.00000 
 43692.65567		 305.27265			43387.38302		68.23200		324.00000 
 43692.65567		 892.42725			42800.22842		212.13800		875.00000 
 43692.65567		 305.27265			43387.38302		68.23200		324.00000 
 43692.65567		 892.42725			42800.22842		212.13800		875.00000 
 43692.65567		 305.27265			43387.38302		68.23200		324.00000 
 43692.65567		 892.42725			42800.22842		212.13800		875.00000 
 43692.65567		 305.27265			43387.38302		68.23200		324.00000 
 43692.65567		 892.42725			42800.22842		212.13800		875.00000 
 43692.65567		 305.27265			43387.38302		68.23200		324.00000 
 43692.65567		 892.42725			42800.22842		212.13800		875.00000 
 43692.65567		 305.27265			43387.38302		68.23200		324.00000 
 43692.65567		 892.42725			42800.22842		212.13800		875.00000 
 43692.65567		 305.27265			43387.38302		68.23200		324.00000 
 43692.65567		 892.42725			42800.22842		212.13800		875.00000 
 43692.65567		 305.27265			43387.38302		68.23200		324.00000 
 43692.65567		 892.42725			42800.22842		212.13800		875.00000 
 43692.65567		 305.27265			43387.38302		68.23200		324.00000 
 43692.65567		 892.42725			42800.22842		212.13800		875.00000 
 43692.65567		 305.27265			43387.38302		68.23200		324.00000 
 43692.65567		 892.42725			42800.22842		212.13800		875.00000 
 43692.65567		 305.27265			43387.38302		68.23200		324.00000 
 43692.65567		 892.42725			42800.22842		212.13800		875.00000 
 43692.65567		 305.27265			43387.38302		68.23200		324.00000 
 43692.65567		 892.42725			42800.22842		212.13800		875.00000 
 43692.65567		 305.27265			43387.38302		68.23200		324.00000 
 43692.65567		 892.42725			42800.22842		219.52400		875.00000 
 43692.65567		 305.27265			43387.38302		68.23200		324.00000 
 43692.65567		 892.42725			42800.22842		219.52400		875.00000 
 43692.65567		 305.27265			43387.38302		68.23200		324.00000 
 43692.65567		 892.42725			42800.22842		219.52400		875.00000 
 43692.65567		 305.27265			43387.38302		68.23200		324.00000 
 43692.65567		 892.42725			42800.22842		219.52400		875.00000 
 43692.65567		 305.27265			43387.38302		68.23200		324.00000 
 43692.65567		 892.42725			42800.22842		219.52400		875.00000 
 43692.65567		 305.27265			43387.38302		68.23200		324.00000 
 43692.65567		 892.42725			42800.22842		219.52400		875.00000 
 43692.65567		 305.27265			43387.38302		68.23200		324.00000 
 43692.65567		 892.42725			42800.22842		219.52400		875.00000 
 43692.65567		 305.27265			43387.38302		68.23200		324.00000 
 43692.65567		 892.42725			42800.22842		219.52400		875.00000 
 43692.65567		 305.27265			43387.38302		68.23200		324.00000 
 43692.65567		 892.42725			42800.22842		219.52400		875.00000 
 43692.65567		 305.27265			43387.38302		68.23200		324.00000 
 43692.65567		 892.42725			42800.22842		219.52400		875.00000 
 43692.65567		 305.27265			43387.38302		68.23200		324.00000 
 43692.65567		 892.42725			42800.22842		219.52400		875.00000 
 43692.65567		 305.27265			43387.38302		68.23200		324.00000 
 43692.65567		 892.42725			42800.22842		219.52400		875.00000 
 43692.65567		 305.27265			43387.38302		68.23200		324.00000 
 43692.65567		 892.42725			42800.22842		219.52400		875.00000 
 43692.65567		 305.27265			43387.38302		68.23200		324.00000 
 43692.65567		 892.42725			42800.22842		219.52400		875.00000 
 43692.65567		 305.27265			43387.38302		68.23200		324.00000 
 43692.65567		 892.42725			42800.22842		219.52400		875.00000 
 43692.65567		 305.27265			43387.38302		68.23200		324.00000 
 43692.65567		 892.42725			42800.22842		219.52400		875.00000 
 43692.65567		 305.27265			43387.38302		68.23200		324.00000 
 43692.65567		 892.42725			42800.22842		219.52400		875.00000 
 43692.65567		 305.27265			43387.38302		68.23200		324.00000 
 43692.65567		 892.42725			42800.22842		219.52400		875.00000 
 43692.65567		 305.27265			43387.38302		68.23200		324.00000 
 43692.65567		 892.42725			42800.22842		219.52400		875.00000 
 43692.65567		 305.27265			43387.38302		68.23200		324.00000 
 43692.65567		 892.42725			42800.22842		219.52400		875.00000 
 43692.65567		 305.27265			43387.38302		68.23200		324.00000 
 43692.65567		 892.42725			42800.22842		219.52400		875.00000 
 43692.65567		 305.27265			43387.38302		68.23200		324.00000 
 43692.65567		 892.42725			42800.22842		219.52400		875.00000 
 43692.65567		 305.27265			43387.38302		68.23200		324.00000 
 43692.65567		 892.42725			42800.22842		219.52400		875.00000 
 43692.65567		 305.27265			43387.38302		68.23200		324.00000 
 43692.65567		 892.42725			42800.22842		219.52400		875.00000 
 43692.65567		 305.27265			43387.38302		68.23200		324.00000 
 43692.65567		 892.42725			42800.22842		219.52400		875.00000 
 43692.65567		 305.27265			43387.38302		68.23200		324.00000 
 43692.65567		 892.42725			42800.22842		219.52400		875.00000 
 43692.65567		 305.27265			43387.38302		68.23200		324.00000 
 43692.65567		 892.42725			42800.22842		219.52400		875.00000 
 43692.65567		 305.27265			43387.38302		68.23200		324.00000 
 43692.65567		 892.42725			42800.22842		219.52400		875.00000 
 43692.65567		 305.27265			43387.38302		68.23200		324.00000 
 43692.65567		 892.42725			42800.22842		219.52400		875.00000 
 43692.65567		 305.27265			43387.38302		68.23200		324.00000 
 43692.65567		 892.42725			42800.22842		219.52400		875.00000 
 43692.65567		 305.27265			43387.38302		68.23200		324.00000 
 43692.65567		 892.42725			42800.22842		219.52400		875.00000 
 43692.65567		 305.27265			43387.38302		68.23200		324.00000 
 43692.65567		 892.42725			42800.22842		219.52400		875.00000 
 43692.65567		 305.27265			43387.38302		68.23200		324.00000 
 43692.65567		 892.42725			42800.22842		219.52400		875.00000 
 43692.65567		 305.27265			43387.38302		68.23200		324.00000 
 43692.65567		 892.42725			42800.22842		219.52400		875.00000 
 43692.65567		 305.27265			43387.38302		68.23200		324.00000 
 43692.65567		 892.42725			42800.22842		219.52400		875.00000 
 43692.65567		 305.27265			43387.38302		68.23200		324.00000 
 43692.65567		 892.42725			42800.22842		219.52400		875.00000 
 43692.65567		 305.27265			43387.38302		68.23200		324.00000 
 43692.65567		 892.42725			42800.22842		219.52400		875.00000 
 43692.65567		 305.27265			43387.38302		68.23200		324.00000 
 43692.65567		 892.42725			42800.22842		219.52400		875.00000 
 43692.65567		 305.27265			43387.38302		68.23200		324.00000 
 43692.65567		 892.42725			42800.22842		219.52400		875.00000 
 43692.65567		 305.27265			43387.38302		68.23200		324.00000 
 43692.65567		 892.42725			42800.22842		219.52400		875.00000 
 43692.65567		 305.27265			43387.38302		68.23200		324.00000 
 43692.65567		 892.42725			42800.22842		219.52400		875.00000 
 43692.65567		 305.27265			43387.38302		68.23200		324.00000 
 43692.65567		 892.42725			42800.22842		219.52400		875.00000 
 43692.65567		 305.27265			43387.38302		68.23200		324.00000 
 43692.65567		 892.42725			42800.22842		219.52400		875.00000 
 43692.65567		 305.27265			43387.38302		68.23200		324.00000 
 43692.65567		 892.42725			42800.22842		219.52400		875.00000 
 43692.65567		 305.27265			43387.38302		68.23200		324.00000 
 43692.65567		 892.42725			42800.22842		219.52400		875.00000 
 43692.65567		 305.27265			43387.38302		68.23200		324.00000 
 43692.65567		 892.42725			42800.22842		219.52400		875.00000 
 43692.65567		 305.27265			43387.38302		68.23200		324.00000 
 43692.65567		 892.42725			42800.22842		219.52400		875.00000 
 43692.65567		 305.27265			43387.38302		68.23200		324.00000 
 43692.65567		 892.42725			42800.22842		219.52400		875.00000 
 43692.65567		 305.27265			43387.38302		68.23200		324.00000 
 43692.65567		 892.42725			42800.22842		219.52400		875.00000 
 43692.65567		 305.27265			43387.38302		68.23200		324.00000 
 43692.65567		 892.42725			42800.22842		219.52400		875.00000 
 43692.65567		 305.27265			43387.38302		68.23200		324.00000 
 43692.65567		 892.42725			42800.22842		219.52400		875.00000 
 43692.65567		 305.27265			43387.38302		68.23200		324.00000 
 43692.65567		 892.42725			42800.22842		219.52400		875.00000 
 43692.65567		 305.27265			43387.38302		68.23200		324.00000 
 43692.65567		 892.42725			42800.22842		219.52400		875.00000 
 43692.65567		 305.27265			43387.38302		68.23200		324.00000 
 43692.65567		 892.42725			42800.22842		219.52400		875.00000 
 43692.65567		 305.27265			43387.38302		68.23200		324.00000 
 43692.65567		 892.42725			42800.22842		219.52400		875.00000 
 43692.65567		 305.27265			43387.38302		68.23200		324.00000 
 43692.65567		 892.42725			42800.22842		219.52400		875.00000 
 43692.65567		 305.27265			43387.38302		68.23200		324.00000 
 43692.65567		 892.42725			42800.22842		219.52400		875.00000 
 43692.65567		 305.27265			43387.38302		68.23200		324.00000 
 43692.65567		 892.42725			42800.22842		219.52400		875.00000 
 43692.65567		 305.27265			43387.38302		68.23200		324.00000 
 43692.65567		 892.42725			42800.22842		219.52400		875.00000 
 43692.65567		 305.27265			43387.38302		68.23200		324.00000 
 43692.65567		 892.42725			42800.22842		219.52400		875.00000 
 43692.65567		 305.27265			43387.38302		68.23200		324.00000 
 43692.65567		 892.42725			42800.22842		219.52400		875.00000 
 43692.65567		 305.27265			43387.38302		68.23200		324.00000 
 43692.65567		 892.42725			42800.22842		219.52400		875.00000 
 43692.65567		 305.27265			43387.38302		68.23200		324.00000 
 43692.65567		 892.42725			42800.22842		219.52400		875.00000 
 43692.65567		 305.27265			43387.38302		68.23200		324.00000 
 43692.65567		 892.42725			42800.22842		219.52400		875.00000 
 43692.65567		 305.27265			43387.38302		68.23200		324.00000 
 43692.65567		 892.42725			42800.22842		219.52400		875.00000 
 43692.65567		 305.27265			43387.38302		68.23200		324.00000 
 43692.65567		 892.42725			42800.22842		222.39000		875.00000 
 43692.65567		 305.27265			43387.38302		68.23200		324.00000 
 43692.65567		 892.42725			42800.22842		222.39000		875.00000 
 43692.65567		 305.27265			43387.38302		68.23200		324.00000 
 43692.65567		 892.42725			42800.22842		222.39000		875.00000 
 43692.65567		 305.27265			43387.38302		68.23200		324.00000 
 43692.65567		 892.42725			42800.22842		222.39000		875.00000 
 43692.65567		 305.27265			43387.38302		68.23200		324.00000 
 43692.65567		 892.42725			42800.22842		222.39000		875.00000 
 43692.65567		 305.27265			43387.38302		68.23200		324.00000 
 43692.65567		 892.42725			42800.22842		222.39000		875.00000 
 43692.65567		 305.27265			43387.38302		68.23200		324.00000 
 43692.65567		 892.42725			42800.22842		222.39000		875.00000 
 43692.65567		 305.27265			43387.38302		68.23200		324.00000 
 43692.65567		 892.42725			42800.22842		222.39000		875.00000 
 43692.65567		 305.27265			43387.38302		68.23200		324.00000 
 43692.65567		 892.42725			42800.22842		222.39000		875.00000 
 43692.65567		 305.27265			43387.38302		68.23200		324.00000 
 43692.65567		 892.42725			42800.22842		222.39000		875.00000 
 43692.65567		 305.27265			43387.38302		68.23200		324.00000 
 43692.65567		 892.42725			42800.22842		222.39000		875.00000 
 43692.65567		 305.27265			43387.38302		68.23200		324.00000 
 43692.65567		 892.42725			42800.22842		222.39000		875.00000 
 43692.65567		 305.27265			43387.38302		68.23200		324.00000 
 43692.65567		 892.42725			42800.22842		222.39000		875.00000 
 43692.65567		 305.27265			43387.38302		68.23200		324.00000 
 43692.65567		 892.42725			42800.22842		222.39000		875.00000 
 43692.65567		 305.27265			43387.38302		68.23200		324.00000 
 43692.65567		 892.42725			42800.22842		222.39000		875.00000 
 43692.65567		 305.27265			43387.38302		68.23200		324.00000 
 43692.65567		 892.42725			42800.22842		222.39000		875.00000 
 43692.65567		 305.27265			43387.38302		68.23200		324.00000 
 43692.65567		 892.42725			42800.22842		222.39000		875.00000 
 43692.65567		 305.27265			43387.38302		68.23200		324.00000 
 43692.65567		 892.42725			42800.22842		222.39000		875.00000 
 43692.65567		 305.27265			43387.38302		68.23200		324.00000 
 43692.65567		 892.42725			42800.22842		222.39000		875.00000 
 43692.65567		 305.27265			43387.38302		68.23200		324.00000 
 43692.65567		 892.42725			42800.22842		222.39000		875.00000 
 43692.65567		 305.27265			43387.38302		68.23200		324.00000 
 43692.65567		 892.42725			42800.22842		222.39000		875.00000 
 43692.65567		 305.27265			43387.38302		68.23200		324.00000 
 43692.65567		 892.42725			42800.22842		222.39000		875.00000 
 43692.65567		 305.27265			43387.38302		68.23200		324.00000 
 43692.65567		 892.42725			42800.22842		222.39000		875.00000 
 43692.65567		 305.27265			43387.38302		68.23200		324.00000 
 43692.65567		 892.42725			42800.22842		222.39000		875.00000 
 43692.65567		 305.27265			43387.38302		68.23200		324.00000 
 43692.65567		 892.42725			42800.22842		222.39000		875.00000 
 43692.65567		 305.27265			43387.38302		68.23200		324.00000 
 43692.65567		 892.42725			42800.22842		222.39000		875.00000 
 43692.65567		 305.27265			43387.38302		68.23200		324.00000 
 43692.65567		 892.42725			42800.22842		222.39000		875.00000 
 43692.65567		 305.27265			43387.38302		68.23200		324.00000 
 43692.65567		 892.42725			42800.22842		222.39000		875.00000 
 43692.65567		 305.27265			43387.38302		68.23200		324.00000 
 43692.65567		 892.42725			42800.22842		222.39000		875.00000 
 43692.65567		 305.27265			43387.38302		68.23200		324.00000 
 43692.65567		 892.42725			42800.22842		222.39000		875.00000 
 43692.65567		 305.27265			43387.38302		68.23200		324.00000 
 43692.65567		 892.42725			42800.22842		222.39000		875.00000 
 43692.65567		 305.27265			43387.38302		68.23200		324.00000 
 43692.65567		 892.42725			42800.22842		222.39000		875.00000 
 43692.65567		 305.27265			43387.38302		68.23200		324.00000 
 43692.65567		 892.42725			42800.22842		222.39000		875.00000 
 43692.65567		 305.27265			43387.38302		68.23200		324.00000 
 43692.65567		 892.42725			42800.22842		222.39000		875.00000 
 43692.65567		 305.27265			43387.38302		68.23200		324.00000 
 43692.65567		 892.42725			42800.22842		222.39000		875.00000 
 43692.65567		 305.27265			43387.38302		68.23200		324.00000 
 43692.65567		 892.42725			42800.22842		222.39000		875.00000 
 43692.65567		 305.27265			43387.38302		68.23200		324.00000 
 43692.65567		 892.42725			42800.22842		222.39000		875.00000 
 43692.65567		 305.27265			43387.38302		68.23200		324.00000 
 43692.65567		 892.42725			42800.22842		222.39000		875.00000 
 43692.65567		 305.27265			43387.38302		68.23200		324.00000 
 43692.65567		 892.42725			42800.22842		222.39000		875.00000 
 43692.65567		 305.27265			43387.38302		68.23200		324.00000 
 43692.65567		 892.42725			42800.22842		222.39000		875.00000 
 43692.65567		 305.27265			43387.38302		68.23200		324.00000 
 43692.65567		 892.42725			42800.22842		222.39000		875.00000 
 43692.65567		 305.27265			43387.38302		68.23200		324.00000 
 43692.65567		 892.42725			42800.22842		222.39000		875.00000 
 43692.65567		 305.27265			43387.38302		68.23200		324.00000 
 43692.65567		 892.42725			42800.22842		222.39000		875.00000 
 43692.65567		 305.27265			43387.38302		68.23200		324.00000 
 43692.65567		 892.42725			42800.22842		222.39000		875.00000 
 43692.65567		 305.27265			43387.38302		68.23200		324.00000 
 43692.65567		 892.42725			42800.22842		222.39000		875.00000 
 43692.65567		 305.27265			43387.38302		68.23200		324.00000 
 43692.65567		 892.42725			42800.22842		222.39000		875.00000 
 43692.65567		 305.27265			43387.38302		68.23200		324.00000 
 43692.65567		 892.42725			42800.22842		222.39000		875.00000 
 43692.65567		 305.27265			43387.38302		68.23200		324.00000 
 43692.65567		 892.42725			42800.22842		222.39000		875.00000 
 43692.65567		 305.27265			43387.38302		68.23200		324.00000 
 43692.65567		 892.42725			42800.22842		222.39000		875.00000 
 43692.65567		 305.27265			43387.38302		68.23200		324.00000 
 43692.65567		 892.42725			42800.22842		222.39000		875.00000 
 43692.65567		 305.27265			43387.38302		68.23200		324.00000 
 43692.65567		 892.42725			42800.22842		222.39000		875.00000 
 43692.65567		 305.27265			43387.38302		68.23200		324.00000 
 43692.65567		 892.42725			42800.22842		222.39000		875.00000 
 43692.65567		 305.27265			43387.38302		68.23200		324.00000 
 43692.65567		 892.42725			42800.22842		222.39000		875.00000 
 43692.65567		 305.27265			43387.38302		68.23200		324.00000 
 43692.65567		 892.42725			42800.22842		222.39000		875.00000 
 43692.65567		 305.27265			43387.38302		68.23200		324.00000 
 43692.65567		 892.42725			42800.22842		222.39000		875.00000 
 43692.65567		 305.27265			43387.38302		68.23200		324.00000 
 43692.65567		 892.42725			42800.22842		222.39000		875.00000 
 43692.65567		 305.27265			43387.38302		68.23200		324.00000 
 43692.65567		 892.42725			42800.22842		222.39000		875.00000 
 43692.65567		 305.27265			43387.38302		68.23200		324.00000 
 43692.65567		 892.42725			42800.22842		222.39000		875.00000 
 43692.65567		 305.27265			43387.38302		68.23200		324.00000 
 43692.65567		 892.42725			42800.22842		222.39000		875.00000 
 43692.65567		 305.27265			43387.38302		68.23200		324.00000 
 43692.65567		 892.42725			42800.22842		222.39000		875.00000 
 43692.65567		 305.27265			43387.38302		68.23200		324.00000 
 43692.65567		 892.42725			42800.22842		222.39000		875.00000 
 43692.65567		 305.27265			43387.38302		68.23200		324.00000 
 43692.65567		 892.42725			42800.22842		222.39000		875.00000 
 43692.65567		 305.27265			43387.38302		68.23200		324.00000 
 43692.65567		 892.42725			42800.22842		222.39000		875.00000 
 43692.65567		 305.27265			43387.38302		68.23200		324.00000 
 43692.65567		 892.42725			42800.22842		222.39000		875.00000 
 43692.65567		 305.27265			43387.38302		68.23200		324.00000 
 43692.65567		 892.42725			42800.22842		223.18800		875.00000 
 43692.65567		 305.27265			43387.38302		68.23200		324.00000 
 43692.65567		 892.42725			42800.22842		223.18800		875.00000 
 43692.65567		 305.27265			43387.38302		68.23200		324.00000 
 43692.65567		 892.42725			42800.22842		223.18800		875.00000 
 43692.65567		 305.27265			43387.38302		68.23200		324.00000 
 43692.65567		 892.42725			42800.22842		223.18800		875.00000 
 43692.65567		 305.27265			43387.38302		68.23200		324.00000 
 43692.65567		 892.42725			42800.22842		223.18800		875.00000 
 43692.65567		 305.27265			43387.38302		68.23200		324.00000 
 43692.65567		 892.42725			42800.22842		223.18800		875.00000 
 43692.65567		 305.27265			43387.38302		68.23200		324.00000 
 43692.65567		 892.42725			42800.22842		223.18800		875.00000 
 43692.65567		 305.27265			43387.38302		68.23200		324.00000 
 43692.65567		 892.42725			42800.22842		223.18800		875.00000 
 43692.65567		 305.27265			43387.38302		68.23200		324.00000 
 43692.65567		 892.42725			42800.22842		223.18800		875.00000 
 43692.65567		 305.27265			43387.38302		68.23200		324.00000 
 43692.65567		 892.42725			42800.22842		223.18800		875.00000 
 43692.65567		 305.27265			43387.38302		68.23200		324.00000 
 43692.65567		 892.42725			42800.22842		223.18800		875.00000 
 43692.65567		 305.27265			43387.38302		68.23200		324.00000 
 43692.65567		 892.42725			42800.22842		223.18800		875.00000 
 43692.65567		 305.27265			43387.38302		68.23200		324.00000 
 43692.65567		 892.42725			42800.22842		223.18800		875.00000 
 43692.65567		 305.27265			43387.38302		68.23200		324.00000 
 43692.65567		 892.42725			42800.22842		223.18800		875.00000 
 43692.65567		 305.27265			43387.38302		68.23200		324.00000 
 43692.65567		 892.42725			42800.22842		223.18800		875.00000 
 43692.65567		 305.27265			43387.38302		68.23200		324.00000 
 43692.65567		 892.42725			42800.22842		223.18800		875.00000 
 43692.65567		 305.27265			43387.38302		68.23200		324.00000 
 43692.65567		 892.42725			42800.22842		223.18800		875.00000 
 43692.65567		 305.27265			43387.38302		68.23200		324.00000 
 43692.65567		 892.42725			42800.22842		223.18800		875.00000 
 43692.65567		 305.27265			43387.38302		68.23200		324.00000 
 43692.65567		 892.42725			42800.22842		223.18800		875.00000 
 43692.65567		 305.27265			43387.38302		68.23200		324.00000 
 43692.65567		 892.42725			42800.22842		223.18800		875.00000 
 43692.65567		 305.27265			43387.38302		68.23200		324.00000 
 43692.65567		 892.42725			42800.22842		223.18800		875.00000 
 43692.65567		 305.27265			43387.38302		68.23200		324.00000 
 43692.65567		 892.42725			42800.22842		223.18800		875.00000 
 43692.65567		 305.27265			43387.38302		68.23200		324.00000 
 43692.65567		 892.42725			42800.22842		223.18800		875.00000 
 43692.65567		 305.27265			43387.38302		68.23200		324.00000 
 43692.65567		 892.42725			42800.22842		223.18800		875.00000 
 43692.65567		 305.27265			43387.38302		68.23200		324.00000 
 43692.65567		 892.42725			42800.22842		223.18800		875.00000 
 43692.65567		 305.27265			43387.38302		68.23200		324.00000 
 43692.65567		 892.42725			42800.22842		223.18800		875.00000 
 43692.65567		 305.27265			43387.38302		68.23200		324.00000 
 43692.65567		 892.42725			42800.22842		223.18800		875.00000 
 43692.65567		 305.27265			43387.38302		68.23200		324.00000 
 43692.65567		 892.42725			42800.22842		223.18800		875.00000 
 43692.65567		 305.27265			43387.38302		68.23200		324.00000 
 43692.65567		 892.42725			42800.22842		223.18800		875.00000 
 43692.65567		 305.27265			43387.38302		68.23200		324.00000 
 43692.65567		 892.42725			42800.22842		223.18800		875.00000 
 43692.65567		 305.27265			43387.38302		68.23200		324.00000 
 43692.65567		 892.42725			42800.22842		223.18800		875.00000 
 43692.65567		 305.27265			43387.38302		68.23200		324.00000 
 43692.65567		 892.42725			42800.22842		223.18800		875.00000 
 43692.65567		 305.27265			43387.38302		68.23200		324.00000 
 43692.65567		 892.42725			42800.22842		223.18800		875.00000 
 43692.65567		 305.27265			43387.38302		68.23200		324.00000 
 43692.65567		 892.42725			42800.22842		223.18800		875.00000 
 43692.65567		 305.27265			43387.38302		68.23200		324.00000 
 43692.65567		 892.42725			42800.22842		223.18800		875.00000 
 43692.65567		 305.27265			43387.38302		68.23200		324.00000 
 43692.65567		 892.42725			42800.22842		223.18800		875.00000 
 43692.65567		 305.27265			43387.38302		68.23200		324.00000 
 43692.65567		 892.42725			42800.22842		223.18800		875.00000 
 43692.65567		 305.27265			43387.38302		68.23200		324.00000 
 43692.65567		 892.42725			42800.22842		223.18800		875.00000 
 43692.65567		 305.27265			43387.38302		68.23200		324.00000 
 43692.65567		 892.42725			42800.22842		223.18800		875.00000 
 43692.65567		 305.27265			43387.38302		68.23200		324.00000 
 43692.65567		 892.42725			42800.22842		223.18800		875.00000 
 43692.65567		 305.27265			43387.38302		68.23200		324.00000 
 43692.65567		 892.42725			42800.22842		223.18800		875.00000 
 43692.65567		 305.27265			43387.38302		68.23200		324.00000 
 43692.65567		 892.42725			42800.22842		223.18800		875.00000 
 43692.65567		 305.27265			43387.38302		68.23200		324.00000 
 43692.65567		 892.42725			42800.22842		223.18800		875.00000 
 43692.65567		 305.27265			43387.38302		68.23200		324.00000 
 43692.65567		 892.42725			42800.22842		223.18800		875.00000 
 43692.65567		 305.27265			43387.38302		68.23200		324.00000 
 43692.65567		 892.42725			42800.22842		223.18800		875.00000 
 43692.65567		 305.27265			43387.38302		68.23200		324.00000 
 43692.65567		 892.42725			42800.22842		223.18800		875.00000 
 43692.65567		 305.27265			43387.38302		68.23200		324.00000 
 43692.65567		 892.42725			42800.22842		223.18800		875.00000 
 43692.65567		 305.27265			43387.38302		68.23200		324.00000 
 43692.65567		 892.42725			42800.22842		223.18800		875.00000 
 43692.65567		 305.27265			43387.38302		68.23200		324.00000 
 43692.65567		 892.42725			42800.22842		223.18800		875.00000 
 43692.65567		 305.27265			43387.38302		68.23200		324.00000 
 43692.65567		 892.42725			42800.22842		223.18800		875.00000 
 43692.65567		 305.27265			43387.38302		68.23200		324.00000 
 43692.65567		 892.42725			42800.22842		223.18800		875.00000 
 43692.65567		 305.27265			43387.38302		68.23200		324.00000 
 43692.65567		 892.42725			42800.22842		223.18800		875.00000 
 43692.65567		 305.27265			43387.38302		68.23200		324.00000 
 43692.65567		 892.42725			42800.22842		223.18800		875.00000 
 43692.65567		 305.27265			43387.38302		68.23200		324.00000 
 43692.65567		 892.42725			42800.22842		223.18800		875.00000 
 43692.65567		 305.27265			43387.38302		68.23200		324.00000 
 43692.65567		 892.42725			42800.22842		223.18800		875.00000 
 43692.65567		 305.27265			43387.38302		68.23200		324.00000 
 43692.65567		 892.42725			42800.22842		223.18800		875.00000 
 43692.65567		 305.27265			43387.38302		68.23200		324.00000 
 43692.65567		 892.42725			42800.22842		223.18800		875.00000 
 43692.65567		 305.27265			43387.38302		68.23200		324.00000 
 43692.65567		 892.42725			42800.22842		223.18800		875.00000 
 43692.65567		 305.27265			43387.38302		68.23200		324.00000 
 43692.65567		 892.42725			42800.22842		223.18800		875.00000 
 43692.65567		 305.27265			43387.38302		68.23200		324.00000 
 43692.65567		 892.42725			42800.22842		223.18800		875.00000 
 43692.65567		 305.27265			43387.38302		68.23200		324.00000 
 43692.65567		 892.42725			42800.22842		223.18800		875.00000 
 43692.65567		 305.27265			43387.38302		68.23200		324.00000 
 43692.65567		 892.42725			42800.22842		223.18800		875.00000 
 43692.65567		 305.27265			43387.38302		68.23200		324.00000 
 43692.65567		 892.42725			42800.22842		223.18800		875.00000 
 43692.65567		 305.27265			43387.38302		68.23200		324.00000 
 43692.65567		 892.42725			42800.22842		223.18800		875.00000 
 43692.65567		 305.27265			43387.38302		68.23200		324.00000 
 43692.65567		 892.42725			42800.22842		223.18800		875.00000 
 43692.65567		 305.27265			43387.38302		68.23200		324.00000 
 43692.65567		 892.42725			42800.22842		223.18800		875.00000 
 43692.65567		 305.27265			43387.38302		68.23200		324.00000 
 43692.65567		 892.42725			42800.22842		223.18800		875.00000 
 43692.65567		 305.27265			43387.38302		68.23200		324.00000 
 43692.65567		 892.42725			42800.22842		223.18800		875.00000 
 43692.65567		 305.27265			43387.38302		68.23200		324.00000 
 43692.65567		 892.42725			42800.22842		223.18800		875.00000 
 43692.65567		 305.27265			43387.38302		68.23200		324.00000 
 43692.65567		 892.42725			42800.22842		223.18800		875.00000 
 43692.65567		 305.27265			43387.38302		68.23200		324.00000 
 43692.65567		 892.42725			42800.22842		223.18800		875.00000 
 43692.65567		 305.27265			43387.38302		68.23200		324.00000 
 43692.65567		 892.42725			42800.22842		223.18800		875.00000 
 43692.65567		 305.27265			43387.38302		68.23200		324.00000 
 43692.65567		 892.42725			42800.22842		223.18800		875.00000 
 43692.65567		 305.27265			43387.38302		68.23200		324.00000 
 43692.65567		 892.42725			42800.22842		223.18800		875.00000 
 43692.65567		 305.27265			43387.38302		68.23200		324.00000 
 43692.65567		 892.42725			42800.22842		223.18800		875.00000 
 43692.65567		 305.27265			43387.38302		68.23200		324.00000 
 43692.65567		 892.42725			42800.22842		223.18800		875.00000 
 43692.65567		 305.27265			43387.38302		68.23200		324.00000 
 43692.65567		 892.42725			42800.22842		223.18800		875.00000 
 43692.65567		 305.27265			43387.38302		68.23200		324.00000 
 43692.65567		 892.42725			42800.22842		223.18800		875.00000 
 43692.65567		 305.27265			43387.38302		68.23200		324.00000 
 43692.65567		 892.42725			42800.22842		223.18800		875.00000 
 43692.65567		 305.27265			43387.38302		68.23200		324.00000 
 43692.65567		 892.42725			42800.22842		223.18800		875.00000 
 43692.65567		 305.27265			43387.38302		68.23200		324.00000 
 43692.65567		 892.42725			42800.22842		223.18800		875.00000 
 43692.65567		 305.27265			43387.38302		68.23200		324.00000 
 43692.65567		 892.42725			42800.22842		223.18800		875.00000 
 43692.65567		 305.27265			43387.38302		68.23200		324.00000 
 43692.65567		 892.42725			42800.22842		223.18800		875.00000 
 43692.65567		 305.27265			43387.38302		68.23200		324.00000 
 43692.65567		 892.42725			42800.22842		223.18800		875.00000 
 43692.65567		 305.27265			43387.38302		68.23200		324.00000 
 43692.65567		 892.42725			42800.22842		223.18800		875.00000 
 43692.65567		 305.27265			43387.38302		68.23200		324.00000 
 43692.65567		 892.42725			42800.22842		223.18800		875.00000 
 43692.65567		 305.27265			43387.38302		68.23200		324.00000 
 43692.65567		 892.42725			42800.22842		223.18800		875.00000 
 43692.65567		 305.27265			43387.38302		68.23200		324.00000 
 43692.65567		 892.42725			42800.22842		223.18800		875.00000 
 43692.65567		 305.27265			43387.38302		68.23200		324.00000 
 43692.65567		 892.42725			42800.22842		223.18800		875.00000 
 43692.65567		 305.27265			43387.38302		68.23200		324.00000 
 43692.65567		 892.42725			42800.22842		223.18800		875.00000 
 43692.65567		 305.27265			43387.38302		68.23200		324.00000 
 43692.65567		 892.42725			42800.22842		223.18800		875.00000 
 43692.65567		 305.27265			43387.38302		68.23200		324.00000 
 43692.65567		 892.42725			42800.22842		223.18800		875.00000 
 43692.65567		 305.27265			43387.38302		68.23200		324.00000 
 43692.65567		 892.42725			42800.22842		223.18800		875.00000 
 43692.65567		 305.27265			43387.38302		68.23200		324.00000 
 43692.65567		 892.42725			42800.22842		223.18800		875.00000 
 43692.65567		 305.27265			43387.38302		68.23200		324.00000 
 43692.65567		 892.42725			42800.22842		223.18800		875.00000 
 43692.65567		 305.27265			43387.38302		68.23200		324.00000 
 43692.65567		 892.42725			42800.22842		223.18800		875.00000 
 43692.65567		 305.27265			43387.38302		68.23200		324.00000 
 43692.65567		 892.42725			42800.22842		223.18800		875.00000 
 43692.65567		 305.27265			43387.38302		68.23200		324.00000 
 43692.65567		 892.42725			42800.22842		223.18800		875.00000 
 43692.65567		 305.27265			43387.38302		68.23200		324.00000 
 43692.65567		 892.42725			42800.22842		223.18800		875.00000 
 43692.65567		 305.27265			43387.38302		68.23200		324.00000 
 43692.65567		 892.42725			42800.22842		223.18800		875.00000 
 43692.65567		 305.27265			43387.38302		68.23200		324.00000 
 43692.65567		 892.42725			42800.22842		223.18800		875.00000 
 43692.65567		 305.27265			43387.38302		68.23200		324.00000 
 43692.65567		 892.42725			42800.22842		223.18800		875.00000 
 43692.65567		 305.27265			43387.38302		68.23200		324.00000 
 43692.65567		 892.42725			42800.22842		223.18800		875.00000 
 43692.65567		 305.27265			43387.38302		68.23200		324.00000 
 43692.65567		 892.42725			42800.22842		223.18800		875.00000 
 43692.65567		 305.27265			43387.38302		68.23200		324.00000 
 43692.65567		 892.42725			42800.22842		223.18800		875.00000 
 43692.65567		 305.27265			43387.38302		68.23200		324.00000 
 43692.65567		 892.42725			42800.22842		223.18800		875.00000 
 43692.65567		 305.27265			43387.38302		68.23200		324.00000 
 43692.65567		 892.42725			42800.22842		223.18800		875.00000 
 43692.65567		 305.27265			43387.38302		68.23200		324.00000 
 43692.65567		 892.42725			42800.22842		223.18800		875.00000 
 43692.65567		 305.27265			43387.38302		68.23200		324.00000 
 43692.65567		 892.42725			42800.22842		223.18800		875.00000 
 43692.65567		 305.27265			43387.38302		68.23200		324.00000 
 43692.65567		 892.42725			42800.22842		223.18800		875.00000 
 43692.65567		 305.27265			43387.38302		68.23200		324.00000 
 43692.65567		 892.42725			42800.22842		223.18800		875.00000 
 43692.65567		 305.27265			43387.38302		68.23200		324.00000 
 43692.65567		 892.42725			42800.22842		223.18800		875.00000 
 43692.65567		 305.27265			43387.38302		68.23200		324.00000 
 43692.65567		 892.42725			42800.22842		223.18800		875.00000 
 43692.65567		 305.27265			43387.38302		68.23200		324.00000 
 43692.65567		 892.42725			42800.22842		223.18800		875.00000 
 43692.65567		 305.27265			43387.38302		68.23200		324.00000 
 43692.65567		 892.42725			42800.22842		223.18800		875.00000 
 43692.65567		 305.27265			43387.38302		68.23200		324.00000 
 43692.65567		 892.42725			42800.22842		223.18800		875.00000 
 43692.65567		 305.27265			43387.38302		68.23200		324.00000 
 43692.65567		 892.42725			42800.22842		223.18800		875.00000 
 43692.65567		 305.27265			43387.38302		68.23200		324.00000 
 43692.65567		 892.42725			42800.22842		223.18800		875.00000 
 43692.65567		 305.27265			43387.38302		68.23200		324.00000 
 43692.65567		 892.42725			42800.22842		223.18800		875.00000 
 43692.65567		 305.27265			43387.38302		68.23200		324.00000 
 43692.65567		 892.42725			42800.22842		223.18800		875.00000 
 43692.65567		 305.27265			43387.38302		68.23200		324.00000 
 43692.65567		 892.42725			42800.22842		223.18800		875.00000 
 43692.65567		 305.27265			43387.38302		68.23200		324.00000 
 43692.65567		 892.42725			42800.22842		223.18800		875.00000 
 43692.65567		 305.27265			43387.38302		68.23200		324.00000 
 43692.65567		 892.42725			42800.22842		223.18800		875.00000 
 43692.65567		 305.27265			43387.38302		68.23200		324.00000 
 43692.65567		 892.42725			42800.22842		223.18800		875.00000 
 43692.65567		 305.27265			43387.38302		68.23200		324.00000 
 43692.65567		 892.42725			42800.22842		223.18800		875.00000 
 43692.65567		 305.27265			43387.38302		68.23200		324.00000 
 43692.65567		 892.42725			42800.22842		223.18800		875.00000 
 43692.65567		 305.27265			43387.38302		68.23200		324.00000 
 43692.65567		 892.42725			42800.22842		223.18800		875.00000 
 43692.65567		 305.27265			43387.38302		68.23200		324.00000 
 43692.65567		 892.42725			42800.22842		223.18800		875.00000 
 43692.65567		 305.27265			43387.38302		68.23200		324.00000 
 43692.65567		 892.42725			42800.22842		223.26000		875.00000 
 43692.65567		 305.27265			43387.38302		68.23200		324.00000 
 43692.65567		 892.42725			42800.22842		223.26000		875.00000 
 43692.65567		 305.27265			43387.38302		68.23200		324.00000 
 43692.65567		 892.42725			42800.22842		223.26000		875.00000 
 43692.65567		 305.27265			43387.38302		68.23200		324.00000 
 43692.65567		 892.42725			42800.22842		223.26000		875.00000 
 43692.65567		 305.27265			43387.38302		68.23200		324.00000 
 43692.65567		 892.42725			42800.22842		223.26000		875.00000 
 43692.65567		 305.27265			43387.38302		68.23200		324.00000 
 43692.65567		 892.42725			42800.22842		223.26000		875.00000 
 43692.65567		 305.27265			43387.38302		68.23200		324.00000 
 43692.65567		 892.42725			42800.22842		223.26000		875.00000 
 43692.65567		 305.27265			43387.38302		68.23200		324.00000 
 43692.65567		 892.42725			42800.22842		223.26000		875.00000 
 43692.65567		 305.27265			43387.38302		68.23200		324.00000 
 43692.65567		 892.42725			42800.22842		223.26000		875.00000 
 43692.65567		 305.27265			43387.38302		68.23200		324.00000 
 43692.65567		 892.42725			42800.22842		223.26000		875.00000 
 43692.65567		 305.27265			43387.38302		68.23200		324.00000 
 43692.65567		 892.42725			42800.22842		223.26000		875.00000 
 43692.65567		 305.27265			43387.38302		68.23200		324.00000 
 43692.65567		 892.42725			42800.22842		223.26000		875.00000 
 43692.65567		 305.27265			43387.38302		68.23200		324.00000 
 43692.65567		 892.42725			42800.22842		223.26000		875.00000 
 43692.65567		 305.27265			43387.38302		68.23200		324.00000 
 43692.65567		 892.42725			42800.22842		223.26000		875.00000 
 43692.65567		 305.27265			43387.38302		68.23200		324.00000 
 43692.65567		 892.42725			42800.22842		223.26000		875.00000 
 43692.65567		 305.27265			43387.38302		68.23200		324.00000 
 43692.65567		 892.42725			42800.22842		223.26000		875.00000 
 43692.65567		 305.27265			43387.38302		68.23200		324.00000 
 43692.65567		 892.42725			42800.22842		223.26000		875.00000 
 43692.65567		 305.27265			43387.38302		68.23200		324.00000 
 43692.65567		 892.42725			42800.22842		223.26000		875.00000 
 43692.65567		 305.27265			43387.38302		68.23200		324.00000 
 43692.65567		 892.42725			42800.22842		223.26000		875.00000 
 43692.65567		 305.27265			43387.38302		68.23200		324.00000 
 43692.65567		 892.42725			42800.22842		223.26000		875.00000 
 43692.65567		 305.27265			43387.38302		68.23200		324.00000 
 43692.65567		 892.42725			42800.22842		223.26000		875.00000 
 43692.65567		 305.27265			43387.38302		68.23200		324.00000 
 43692.65567		 892.42725			42800.22842		223.26000		875.00000 
 43692.65567		 305.27265			43387.38302		68.23200		324.00000 
 43692.65567		 892.42725			42800.22842		223.26000		875.00000 
 43692.65567		 305.27265			43387.38302		68.23200		324.00000 
 43692.65567		 892.42725			42800.22842		223.26000		875.00000 
 43692.65567		 305.27265			43387.38302		68.23200		324.00000 
 43692.65567		 892.42725			42800.22842		223.26000		875.00000 
 43692.65567		 305.27265			43387.38302		68.23200		324.00000 
 43692.65567		 892.42725			42800.22842		223.26000		875.00000 
 43692.65567		 305.27265			43387.38302		68.23200		324.00000 
 43692.65567		 892.42725			42800.22842		223.26000		875.00000 
 43692.65567		 305.27265			43387.38302		68.23200		324.00000 
 43692.65567		 892.42725			42800.22842		223.26000		875.00000 
 43692.65567		 305.27265			43387.38302		68.23200		324.00000 
 43692.65567		 892.42725			42800.22842		223.26000		875.00000 
 43692.65567		 305.27265			43387.38302		68.23200		324.00000 
 43692.65567		 892.42725			42800.22842		223.26000		875.00000 
 43692.65567		 305.27265			43387.38302		68.23200		324.00000 
 43692.65567		 892.42725			42800.22842		223.26000		875.00000 
 43692.65567		 305.27265			43387.38302		68.23200		324.00000 
 43692.65567		 892.42725			42800.22842		223.26000		875.00000 
 43692.65567		 305.27265			43387.38302		68.23200		324.00000 
 43692.65567		 892.42725			42800.22842		223.26000		875.00000 
 43692.65567		 305.27265			43387.38302		68.23200		324.00000 
 43692.65567		 892.42725			42800.22842		223.26000		875.00000 
 43692.65567		 305.27265			43387.38302		68.23200		324.00000 
 43692.65567		 892.42725			42800.22842		223.26000		875.00000 
 43692.65567		 305.27265			43387.38302		68.23200		324.00000 
 43692.65567		 892.42725			42800.22842		223.26000		875.00000 
 43692.65567		 305.27265			43387.38302		68.23200		324.00000 
 43692.65567		 892.42725			42800.22842		223.26000		875.00000 
 43692.65567		 305.27265			43387.38302		68.23200		324.00000 
 43692.65567		 892.42725			42800.22842		223.26000		875.00000 
 43692.65567		 305.27265			43387.38302		68.23200		324.00000 
 43692.65567		 892.42725			42800.22842		223.26000		875.00000 
 43692.65567		 305.27265			43387.38302		68.23200		324.00000 
 43692.65567		 892.42725			42800.22842		223.26000		875.00000 
 43692.65567		 305.27265			43387.38302		68.23200		324.00000 
 43692.65567		 892.42725			42800.22842		223.26000		875.00000 
 43692.65567		 305.27265			43387.38302		68.23200		324.00000 
 43692.65567		 892.42725			42800.22842		223.26000		875.00000 
 43692.65567		 305.27265			43387.38302		68.23200		324.00000 
 43692.65567		 892.42725			42800.22842		223.26000		875.00000 
 43692.65567		 305.27265			43387.38302		68.23200		324.00000 
 43692.65567		 892.42725			42800.22842		223.26000		875.00000 
 43692.65567		 305.27265			43387.38302		68.23200		324.00000 
 43692.65567		 892.42725			42800.22842		223.26000		875.00000 
 43692.65567		 305.27265			43387.38302		68.23200		324.00000 
 43692.65567		 892.42725			42800.22842		223.26000		875.00000 
 43692.65567		 305.27265			43387.38302		68.23200		324.00000 
 43692.65567		 892.42725			42800.22842		223.26000		875.00000 
 43692.65567		 305.27265			43387.38302		68.23200		324.00000 
 43692.65567		 892.42725			42800.22842		223.26000		875.00000 
 43692.65567		 305.27265			43387.38302		68.23200		324.00000 
 43692.65567		 892.42725			42800.22842		223.26000		875.00000 
 43692.65567		 305.27265			43387.38302		68.23200		324.00000 
 43692.65567		 892.42725			42800.22842		223.26000		875.00000 
 43692.65567		 305.27265			43387.38302		68.23200		324.00000 
 43692.65567		 892.42725			42800.22842		223.26000		875.00000 
 43692.65567		 305.27265			43387.38302		68.23200		324.00000 
 43692.65567		 892.42725			42800.22842		223.26000		875.00000 
 43692.65567		 305.27265			43387.38302		68.23200		324.00000 
 43692.65567		 892.42725			42800.22842		223.26000		875.00000 
 43692.65567		 305.27265			43387.38302		68.23200		324.00000 
 43692.65567		 892.42725			42800.22842		223.26000		875.00000 
 43692.65567		 305.27265			43387.38302		68.23200		324.00000 
 43692.65567		 892.42725			42800.22842		223.26000		875.00000 
 43692.65567		 305.27265			43387.38302		68.23200		324.00000 
 43692.65567		 892.42725			42800.22842		223.26000		875.00000 
 43692.65567		 305.27265			43387.38302		68.23200		324.00000 
 43692.65567		 892.42725			42800.22842		223.26000		875.00000 
 43692.65567		 305.27265			43387.38302		68.23200		324.00000 
 43692.65567		 892.42725			42800.22842		223.26000		875.00000 
 43692.65567		 305.27265			43387.38302		68.23200		324.00000 
 43692.65567		 892.42725			42800.22842		223.26000		875.00000 
 43692.65567		 305.27265			43387.38302		68.23200		324.00000 
 43692.65567		 892.42725			42800.22842		223.26000		875.00000 
 43692.65567		 305.27265			43387.38302		68.23200		324.00000 
 43692.65567		 892.42725			42800.22842		223.26000		875.00000 
 43692.65567		 305.27265			43387.38302		68.23200		324.00000 
 43692.65567		 892.42725			42800.22842		223.26000		875.00000 
 43692.65567		 305.27265			43387.38302		68.23200		324.00000 
 43692.65567		 892.42725			42800.22842		223.26000		875.00000 
 43692.65567		 305.27265			43387.38302		68.23200		324.00000 
 43692.65567		 892.42725			42800.22842		223.26000		875.00000 
 43692.65567		 305.27265			43387.38302		68.23200		324.00000 
 43692.65567		 892.42725			42800.22842		222.59000		875.00000 
 43692.65567		 305.27265			43387.38302		68.23200		324.00000 
 43692.65567		 892.42725			42800.22842		222.59000		875.00000 
 43692.65567		 305.27265			43387.38302		68.23200		324.00000 
 43692.65567		 892.42725			42800.22842		222.59000		875.00000 
 43692.65567		 305.27265			43387.38302		68.23200		324.00000 
 43692.65567		 892.42725			42800.22842		222.59000		875.00000 
 43692.65567		 305.27265			43387.38302		68.23200		324.00000 
 43692.65567		 892.42725			42800.22842		222.59000		875.00000 
 43692.65567		 305.27265			43387.38302		68.23200		324.00000 
 43692.65567		 892.42725			42800.22842		222.59000		875.00000 
 43692.65567		 305.27265			43387.38302		68.23200		324.00000 
 43692.65567		 892.42725			42800.22842		222.59000		875.00000 
 43692.65567		 305.27265			43387.38302		68.23200		324.00000 
 43692.65567		 892.42725			42800.22842		222.59000		875.00000 
 43692.65567		 305.27265			43387.38302		68.23200		324.00000 
 43692.65567		 892.42725			42800.22842		222.59000		875.00000 
 43692.65567		 305.27265			43387.38302		68.23200		324.00000 
 43692.65567		 892.42725			42800.22842		222.59000		875.00000 
 43692.65567		 305.27265			43387.38302		68.23200		324.00000 
 43692.65567		 892.42725			42800.22842		222.59000		875.00000 
 43692.65567		 305.27265			43387.38302		68.23200		324.00000 
 43692.65567		 892.42725			42800.22842		222.59000		875.00000 
 43692.65567		 305.27265			43387.38302		68.23200		324.00000 
 43692.65567		 892.42725			42800.22842		222.59000		875.00000 
 43692.65567		 305.27265			43387.38302		68.23200		324.00000 
 43692.65567		 892.42725			42800.22842		222.59000		875.00000 
 43692.65567		 305.27265			43387.38302		68.23200		324.00000 
 43692.65567		 892.42725			42800.22842		222.59000		875.00000 
 43692.65567		 305.27265			43387.38302		68.23200		324.00000 
 43692.65567		 892.42725			42800.22842		222.59000		875.00000 
 43692.65567		 305.27265			43387.38302		68.23200		324.00000 
 43692.65567		 892.42725			42800.22842		222.59000		875.00000 
 43692.65567		 305.27265			43387.38302		68.23200		324.00000 
 43692.65567		 892.42725			42800.22842		222.59000		875.00000 
 43692.65567		 305.27265			43387.38302		68.23200		324.00000 
 43692.65567		 892.42725			42800.22842		222.59000		875.00000 
 43692.65567		 305.27265			43387.38302		68.23200		324.00000 
 43692.65567		 892.42725			42800.22842		222.59000		875.00000 
 43692.65567		 305.27265			43387.38302		68.23200		324.00000 
 43692.65567		 892.42725			42800.22842		222.59000		875.00000 
 43692.65567		 305.27265			43387.38302		68.23200		324.00000 
 43692.65567		 892.42725			42800.22842		222.59000		875.00000 
 43692.65567		 305.27265			43387.38302		68.23200		324.00000 
 43692.65567		 892.42725			42800.22842		222.59000		875.00000 
 43692.65567		 305.27265			43387.38302		68.23200		324.00000 
 43692.65567		 892.42725			42800.22842		222.59000		875.00000 
 43692.65567		 305.27265			43387.38302		68.23200		324.00000 
 43692.65567		 892.42725			42800.22842		222.59000		875.00000 
 43692.65567		 305.27265			43387.38302		68.23200		324.00000 
 43692.65567		 892.42725			42800.22842		222.59000		875.00000 
 43692.65567		 305.27265			43387.38302		68.23200		324.00000 
 43692.65567		 892.42725			42800.22842		222.59000		875.00000 
 43692.65567		 305.27265			43387.38302		68.23200		324.00000 
 43692.65567		 892.42725			42800.22842		222.59000		875.00000 
 43692.65567		 305.27265			43387.38302		68.23200		324.00000 
 43692.65567		 892.42725			42800.22842		222.59000		875.00000 
 43692.65567		 305.27265			43387.38302		68.23200		324.00000 
 43692.65567		 892.42725			42800.22842		222.59000		875.00000 
 43692.65567		 305.27265			43387.38302		68.23200		324.00000 
 43692.65567		 892.42725			42800.22842		222.59000		875.00000 
 43692.65567		 305.27265			43387.38302		68.23200		324.00000 
 43692.65567		 892.42725			42800.22842		222.59000		875.00000 
 43692.65567		 305.27265			43387.38302		68.23200		324.00000 
 43692.65567		 892.42725			42800.22842		222.59000		875.00000 
 43692.65567		 305.27265			43387.38302		68.23200		324.00000 
 43692.65567		 892.42725			42800.22842		222.59000		875.00000 
 43692.65567		 305.27265			43387.38302		68.23200		324.00000 
 43692.65567		 892.42725			42800.22842		222.59000		875.00000 
 43692.65567		 305.27265			43387.38302		68.23200		324.00000 
 43692.65567		 892.42725			42800.22842		222.59000		875.00000 
 43692.65567		 305.27265			43387.38302		68.23200		324.00000 
 43692.65567		 892.42725			42800.22842		222.59000		875.00000 
 43692.65567		 305.27265			43387.38302		68.23200		324.00000 
 43692.65567		 892.42725			42800.22842		222.59000		875.00000 
 43692.65567		 305.27265			43387.38302		68.23200		324.00000 
 43692.65567		 892.42725			42800.22842		222.59000		875.00000 
 43692.65567		 305.27265			43387.38302		68.23200		324.00000 
 43692.65567		 892.42725			42800.22842		222.59000		875.00000 
 43692.65567		 305.27265			43387.38302		68.23200		324.00000 
 43692.65567		 892.42725			42800.22842		222.59000		875.00000 
 43692.65567		 305.27265			43387.38302		68.23200		324.00000 
 43692.65567		 892.42725			42800.22842		222.59000		875.00000 
 43692.65567		 305.27265			43387.38302		68.23200		324.00000 
 43692.65567		 892.42725			42800.22842		222.59000		875.00000 
 43692.65567		 305.27265			43387.38302		68.23200		324.00000 
 43692.65567		 892.42725			42800.22842		222.59000		875.00000 
 43692.65567		 305.27265			43387.38302		68.23200		324.00000 
 43692.65567		 892.42725			42800.22842		222.59000		875.00000 
 43692.65567		 305.27265			43387.38302		68.23200		324.00000 
 43692.65567		 892.42725			42800.22842		222.59000		875.00000 
 43692.65567		 305.27265			43387.38302		68.23200		324.00000 
 43692.65567		 892.42725			42800.22842		222.59000		875.00000 
 43692.65567		 305.27265			43387.38302		68.23200		324.00000 
 43692.65567		 892.42725			42800.22842		222.59000		875.00000 
 43692.65567		 305.27265			43387.38302		68.23200		324.00000 
 43692.65567		 892.42725			42800.22842		222.59000		875.00000 
 43692.65567		 305.27265			43387.38302		68.23200		324.00000 
 43692.65567		 892.42725			42800.22842		222.59000		875.00000 
 43692.65567		 305.27265			43387.38302		68.23200		324.00000 
 43692.65567		 892.42725			42800.22842		222.59000		875.00000 
 43692.65567		 305.27265			43387.38302		68.23200		324.00000 
 43692.65567		 892.42725			42800.22842		222.59000		875.00000 
 43692.65567		 305.27265			43387.38302		68.23200		324.00000 
 43692.65567		 892.42725			42800.22842		222.59000		875.00000 
 43692.65567		 305.27265			43387.38302		68.23200		324.00000 
 43692.65567		 892.42725			42800.22842		222.59000		875.00000 
 43692.65567		 305.27265			43387.38302		68.23200		324.00000 
 43692.65567		 892.42725			42800.22842		222.59000		875.00000 
 43692.65567		 305.27265			43387.38302		68.23200		324.00000 
 43692.65567		 892.42725			42800.22842		222.59000		875.00000 
 43692.65567		 305.27265			43387.38302		68.23200		324.00000 
 43692.65567		 892.42725			42800.22842		222.59000		875.00000 
 43692.65567		 305.27265			43387.38302		68.23200		324.00000 
 43692.65567		 892.42725			42800.22842		222.59000		875.00000 
 43692.65567		 305.27265			43387.38302		68.23200		324.00000 
 43692.65567		 892.42725			42800.22842		222.59000		875.00000 
 43692.65567		 305.27265			43387.38302		68.23200		324.00000 
 43692.65567		 892.42725			42800.22842		222.59000		875.00000 
 43692.65567		 305.27265			43387.38302		68.23200		324.00000 
 43692.65567		 892.42725			42800.22842		222.59000		875.00000 
 43692.65567		 305.27265			43387.38302		68.23200		324.00000 
 43692.65567		 892.42725			42800.22842		222.59000		875.00000 
 43692.65567		 305.27265			43387.38302		68.23200		324.00000 
 43692.65567		 892.42725			42800.22842		222.59000		875.00000 
 43692.65567		 305.27265			43387.38302		68.23200		324.00000 
 43692.65567		 892.42725			42800.22842		222.66000		875.00000 
 43692.65567		 305.27265			43387.38302		68.23200		324.00000 
 43692.65567		 892.42725			42800.22842		222.66000		875.00000 
 43692.65567		 305.27265			43387.38302		68.23200		324.00000 
 43692.65567		 892.42725			42800.22842		222.66000		875.00000 
 43692.65567		 305.27265			43387.38302		68.23200		324.00000 
 43692.65567		 892.42725			42800.22842		222.66000		875.00000 
 43692.65567		 305.27265			43387.38302		68.23200		324.00000 
 43692.65567		 892.42725			42800.22842		222.66000		875.00000 
 43692.65567		 305.27265			43387.38302		68.23200		324.00000 
 43692.65567		 892.42725			42800.22842		222.66000		875.00000 
 43692.65567		 305.27265			43387.38302		68.23200		324.00000 
 43692.65567		 892.42725			42800.22842		222.66000		875.00000 
 43692.65567		 305.27265			43387.38302		68.23200		324.00000 
 43692.65567		 892.42725			42800.22842		222.66000		875.00000 
 43692.65567		 305.27265			43387.38302		68.23200		324.00000 
 43692.65567		 892.42725			42800.22842		222.66000		875.00000 
 43692.65567		 305.27265			43387.38302		68.23200		324.00000 
 43692.65567		 892.42725			42800.22842		222.66000		875.00000 
 43692.65567		 305.27265			43387.38302		68.23200		324.00000 
 43692.65567		 892.42725			42800.22842		222.66000		875.00000 
 43692.65567		 305.27265			43387.38302		68.23200		324.00000 
 43692.65567		 892.42725			42800.22842		222.66000		875.00000 
 43692.65567		 305.27265			43387.38302		68.23200		324.00000 
 43692.65567		 892.42725			42800.22842		222.66000		875.00000 
 43692.65567		 305.27265			43387.38302		68.23200		324.00000 
 43692.65567		 892.42725			42800.22842		222.66000		875.00000 
 43692.65567		 305.27265			43387.38302		68.23200		324.00000 
 43692.65567		 892.42725			42800.22842		222.66000		875.00000 
 43692.65567		 305.27265			43387.38302		68.23200		324.00000 
 43692.65567		 892.42725			42800.22842		222.66000		875.00000 
 43692.65567		 305.27265			43387.38302		68.23200		324.00000 
 43692.65567		 892.42725			42800.22842		222.66000		875.00000 
 43692.65567		 305.27265			43387.38302		68.23200		324.00000 
 43692.65567		 892.42725			42800.22842		222.66000		875.00000 
 43692.65567		 305.27265			43387.38302		68.23200		324.00000 
 43692.65567		 892.42725			42800.22842		222.66000		875.00000 
 43692.65567		 305.27265			43387.38302		68.23200		324.00000 
 43692.65567		 892.42725			42800.22842		222.66000		875.00000 
 43692.65567		 305.27265			43387.38302		68.23200		324.00000 
 43692.65567		 892.42725			42800.22842		222.66000		875.00000 
 43692.65567		 305.27265			43387.38302		68.23200		324.00000 
 43692.65567		 892.42725			42800.22842		222.66000		875.00000 
 43692.65567		 305.27265			43387.38302		68.23200		324.00000 
 43692.65567		 892.42725			42800.22842		222.66000		875.00000 
 43692.65567		 305.27265			43387.38302		68.23200		324.00000 
 43692.65567		 892.42725			42800.22842		222.66000		875.00000 
 43692.65567		 305.27265			43387.38302		68.23200		324.00000 
 43692.65567		 892.42725			42800.22842		222.66000		875.00000 
 43692.65567		 305.27265			43387.38302		68.23200		324.00000 
 43692.65567		 892.42725			42800.22842		222.66000		875.00000 
 43692.65567		 305.27265			43387.38302		68.23200		324.00000 
 43692.65567		 892.42725			42800.22842		222.66000		875.00000 
 43692.65567		 305.27265			43387.38302		68.23200		324.00000 
 43692.65567		 892.42725			42800.22842		222.66000		875.00000 
 43692.65567		 305.27265			43387.38302		68.23200		324.00000 
 43692.65567		 892.42725			42800.22842		222.66000		875.00000 
 43692.65567		 305.27265			43387.38302		68.23200		324.00000 
 43692.65567		 892.42725			42800.22842		222.66000		875.00000 
 43692.65567		 305.27265			43387.38302		68.23200		324.00000 
 43692.65567		 892.42725			42800.22842		222.66000		875.00000 
 43692.65567		 305.27265			43387.38302		68.23200		324.00000 
 43692.65567		 892.42725			42800.22842		222.66000		875.00000 
 43692.65567		 305.27265			43387.38302		68.23200		324.00000 
 43692.65567		 892.42725			42800.22842		222.66000		875.00000 
 43692.65567		 305.27265			43387.38302		68.23200		324.00000 
 43692.65567		 892.42725			42800.22842		222.66000		875.00000 
 43692.65567		 305.27265			43387.38302		68.23200		324.00000 
 43692.65567		 892.42725			42800.22842		222.66000		875.00000 
 43692.65567		 305.27265			43387.38302		68.23200		324.00000 
 43692.65567		 892.42725			42800.22842		222.66000		875.00000 
 43692.65567		 305.27265			43387.38302		68.23200		324.00000 
 43692.65567		 892.42725			42800.22842		222.66000		875.00000 
 43692.65567		 305.27265			43387.38302		68.23200		324.00000 
 43692.65567		 892.42725			42800.22842		222.66000		875.00000 
 43692.65567		 305.27265			43387.38302		68.23200		324.00000 
 43692.65567		 892.42725			42800.22842		222.66000		875.00000 
 43692.65567		 305.27265			43387.38302		68.23200		324.00000 
 43692.65567		 892.42725			42800.22842		222.66000		875.00000 
 43692.65567		 305.27265			43387.38302		68.23200		324.00000 
 43692.65567		 892.42725			42800.22842		222.66000		875.00000 
 43692.65567		 305.27265			43387.38302		68.23200		324.00000 
 43692.65567		 892.42725			42800.22842		222.66000		875.00000 
 43692.65567		 305.27265			43387.38302		68.23200		324.00000 
 43692.65567		 892.42725			42800.22842		222.66000		875.00000 
 43692.65567		 305.27265			43387.38302		68.23200		324.00000 
 43692.65567		 892.42725			42800.22842		222.66000		875.00000 
 43692.65567		 305.27265			43387.38302		68.23200		324.00000 
 43692.65567		 892.42725			42800.22842		222.66000		875.00000 
 43692.65567		 305.27265			43387.38302		68.23200		324.00000 
 43692.65567		 892.42725			42800.22842		222.66000		875.00000 
 43692.65567		 305.27265			43387.38302		68.23200		324.00000 
 43692.65567		 892.42725			42800.22842		222.66000		875.00000 
 43692.65567		 305.27265			43387.38302		68.23200		324.00000 
 43692.65567		 892.42725			42800.22842		222.66000		875.00000 
 43692.65567		 305.27265			43387.38302		68.23200		324.00000 
 43692.65567		 892.42725			42800.22842		222.66000		875.00000 
 43692.65567		 305.27265			43387.38302		68.23200		324.00000 
 43692.65567		 892.42725			42800.22842		222.66000		875.00000 
 43692.65567		 305.27265			43387.38302		68.23200		324.00000 
 43692.65567		 892.42725			42800.22842		222.66000		875.00000 
 43692.65567		 305.27265			43387.38302		68.23200		324.00000 
 43692.65567		 892.42725			42800.22842		222.66000		875.00000 
 43692.65567		 305.27265			43387.38302		68.23200		324.00000 
 43692.65567		 892.42725			42800.22842		222.66000		875.00000 
 43692.65567		 305.27265			43387.38302		68.23200		324.00000 
 43692.65567		 892.42725			42800.22842		222.66000		875.00000 
 43692.65567		 305.27265			43387.38302		68.23200		324.00000 
 43692.65567		 892.42725			42800.22842		222.66000		875.00000 
 43692.65567		 305.27265			43387.38302		68.23200		324.00000 
 43692.65567		 892.42725			42800.22842		222.66000		875.00000 
 43692.65567		 305.27265			43387.38302		68.23200		324.00000 
 43692.65567		 892.42725			42800.22842		222.66000		875.00000 
 43692.65567		 305.27265			43387.38302		68.23200		324.00000 
 43692.65567		 892.42725			42800.22842		222.66000		875.00000 
 43692.65567		 305.27265			43387.38302		68.23200		324.00000 
 43692.65567		 892.42725			42800.22842		222.66000		875.00000 
 43692.65567		 305.27265			43387.38302		68.23200		324.00000 
 43692.65567		 892.42725			42800.22842		222.66000		875.00000 
 43692.65567		 305.27265			43387.38302		68.23200		324.00000 
 43692.65567		 892.42725			42800.22842		222.66000		875.00000 
 43692.65567		 305.27265			43387.38302		68.23200		324.00000 
 43692.65567		 892.42725			42800.22842		222.66000		875.00000 
 43692.65567		 305.27265			43387.38302		68.23200		324.00000 
 43692.65567		 892.42725			42800.22842		222.66000		875.00000 
 43692.65567		 305.27265			43387.38302		68.23200		324.00000 
 43692.65567		 892.42725			42800.22842		222.66000		875.00000 
 43692.65567		 305.27265			43387.38302		68.23200		324.00000 
 43692.65567		 892.42725			42800.22842		222.59000		875.00000 
 43692.65567		 305.27265			43387.38302		68.23200		324.00000 
 43692.65567		 892.42725			42800.22842		222.59000		875.00000 
 43692.65567		 305.27265			43387.38302		68.23200		324.00000 
 43692.65567		 892.42725			42800.22842		222.59000		875.00000 
 43692.65567		 305.27265			43387.38302		68.23200		324.00000 
 43692.65567		 892.42725			42800.22842		222.59000		875.00000 
 43692.65567		 305.27265			43387.38302		68.23200		324.00000 
 43692.65567		 892.42725			42800.22842		222.59000		875.00000 
 43692.65567		 305.27265			43387.38302		68.23200		324.00000 
 43692.65567		 892.42725			42800.22842		222.59000		875.00000 
 43692.65567		 305.27265			43387.38302		68.23200		324.00000 
 43692.65567		 892.42725			42800.22842		222.59000		875.00000 
 43692.65567		 305.27265			43387.38302		68.23200		324.00000 
 43692.65567		 892.42725			42800.22842		222.59000		875.00000 
 43692.65567		 305.27265			43387.38302		68.23200		324.00000 
 43692.65567		 892.42725			42800.22842		222.59000		875.00000 
 43692.65567		 305.27265			43387.38302		68.23200		324.00000 
 43692.65567		 892.42725			42800.22842		222.59000		875.00000 
 43692.65567		 305.27265			43387.38302		68.23200		324.00000 
 43692.65567		 892.42725			42800.22842		222.59000		875.00000 
 43692.65567		 305.27265			43387.38302		68.23200		324.00000 
 43692.65567		 892.42725			42800.22842		222.59000		875.00000 
 43692.65567		 305.27265			43387.38302		68.23200		324.00000 
 43692.65567		 892.42725			42800.22842		222.59000		875.00000 
 43692.65567		 305.27265			43387.38302		68.23200		324.00000 
 43692.65567		 892.42725			42800.22842		222.59000		875.00000 
 43692.65567		 305.27265			43387.38302		68.23200		324.00000 
 43692.65567		 892.42725			42800.22842		222.59000		875.00000 
 43692.65567		 305.27265			43387.38302		68.23200		324.00000 
 43692.65567		 892.42725			42800.22842		222.59000		875.00000 
 43692.65567		 305.27265			43387.38302		68.23200		324.00000 
 43692.65567		 892.42725			42800.22842		222.59000		875.00000 
 43692.65567		 305.27265			43387.38302		68.23200		324.00000 
 43692.65567		 892.42725			42800.22842		222.59000		875.00000 
 43692.65567		 305.27265			43387.38302		68.23200		324.00000 
 43692.65567		 892.42725			42800.22842		222.59000		875.00000 
 43692.65567		 305.27265			43387.38302		68.23200		324.00000 
 43692.65567		 892.42725			42800.22842		222.59000		875.00000 
 43692.65567		 305.27265			43387.38302		68.23200		324.00000 
 43692.65567		 892.42725			42800.22842		222.59000		875.00000 
 43692.65567		 305.27265			43387.38302		68.23200		324.00000 
 43692.65567		 892.42725			42800.22842		222.59000		875.00000 
 43692.65567		 305.27265			43387.38302		68.23200		324.00000 
 43692.65567		 892.42725			42800.22842		222.59000		875.00000 
 43692.65567		 305.27265			43387.38302		68.23200		324.00000 
 43692.65567		 892.42725			42800.22842		222.59000		875.00000 
 43692.65567		 305.27265			43387.38302		68.23200		324.00000 
 43692.65567		 892.42725			42800.22842		222.59000		875.00000 
 43692.65567		 305.27265			43387.38302		68.23200		324.00000 
 43692.65567		 892.42725			42800.22842		222.59000		875.00000 
 43692.65567		 305.27265			43387.38302		68.23200		324.00000 
 43692.65567		 892.42725			42800.22842		222.59000		875.00000 
 43692.65567		 305.27265			43387.38302		68.23200		324.00000 
 43692.65567		 892.42725			42800.22842		222.59000		875.00000 
 43692.65567		 305.27265			43387.38302		68.23200		324.00000 
 43692.65567		 892.42725			42800.22842		222.59000		875.00000 
 43692.65567		 305.27265			43387.38302		68.23200		324.00000 
 43692.65567		 892.42725			42800.22842		222.59000		875.00000 
 43692.65567		 305.27265			43387.38302		68.23200		324.00000 
 43692.65567		 892.42725			42800.22842		222.59000		875.00000 
 43692.65567		 305.27265			43387.38302		68.23200		324.00000 
 43692.65567		 892.42725			42800.22842		222.59000		875.00000 
 43692.65567		 305.27265			43387.38302		68.23200		324.00000 
 43692.65567		 892.42725			42800.22842		222.59000		875.00000 
 43692.65567		 305.27265			43387.38302		68.23200		324.00000 
 43692.65567		 892.42725			42800.22842		222.59000		875.00000 
 43692.65567		 305.27265			43387.38302		68.23200		324.00000 
 43692.65567		 892.42725			42800.22842		222.59000		875.00000 
 43692.65567		 305.27265			43387.38302		68.23200		324.00000 
 43692.65567		 892.42725			42800.22842		222.59000		875.00000 
 43692.65567		 305.27265			43387.38302		68.23200		324.00000 
 43692.65567		 892.42725			42800.22842		222.59000		875.00000 
 43692.65567		 305.27265			43387.38302		68.23200		324.00000 
 43692.65567		 892.42725			42800.22842		222.59000		875.00000 
 43692.65567		 305.27265			43387.38302		68.23200		324.00000 
 43692.65567		 892.42725			42800.22842		222.59000		875.00000 
 43692.65567		 305.27265			43387.38302		68.23200		324.00000 
 43692.65567		 892.42725			42800.22842		222.59000		875.00000 
 43692.65567		 305.27265			43387.38302		68.23200		324.00000 
 43692.65567		 892.42725			42800.22842		222.59000		875.00000 
 43692.65567		 305.27265			43387.38302		68.23200		324.00000 
 43692.65567		 892.42725			42800.22842		222.59000		875.00000 
 43692.65567		 305.27265			43387.38302		68.23200		324.00000 
 43692.65567		 892.42725			42800.22842		222.59000		875.00000 
 43692.65567		 305.27265			43387.38302		68.23200		324.00000 
 43692.65567		 892.42725			42800.22842		222.59000		875.00000 
 43692.65567		 305.27265			43387.38302		68.23200		324.00000 
 43692.65567		 892.42725			42800.22842		222.59000		875.00000 
 43692.65567		 305.27265			43387.38302		68.23200		324.00000 
 43692.65567		 892.42725			42800.22842		222.59000		875.00000 
 43692.65567		 305.27265			43387.38302		68.23200		324.00000 
 43692.65567		 892.42725			42800.22842		222.59000		875.00000 
 43692.65567		 305.27265			43387.38302		68.23200		324.00000 
 43692.65567		 892.42725			42800.22842		222.59000		875.00000 
 43692.65567		 305.27265			43387.38302		68.23200		324.00000 
 43692.65567		 892.42725			42800.22842		222.59000		875.00000 
 43692.65567		 305.27265			43387.38302		68.23200		324.00000 
 43692.65567		 892.42725			42800.22842		222.59000		875.00000 
 43692.65567		 305.27265			43387.38302		68.23200		324.00000 
 43692.65567		 892.42725			42800.22842		222.59000		875.00000 
 43692.65567		 305.27265			43387.38302		68.23200		324.00000 
 43692.65567		 892.42725			42800.22842		222.59000		875.00000 
 43692.65567		 305.27265			43387.38302		68.23200		324.00000 
 43692.65567		 892.42725			42800.22842		222.59000		875.00000 
 43692.65567		 305.27265			43387.38302		68.23200		324.00000 
 43692.65567		 892.42725			42800.22842		222.59000		875.00000 
 43692.65567		 305.27265			43387.38302		68.23200		324.00000 
 43692.65567		 892.42725			42800.22842		222.59000		875.00000 
 43692.65567		 305.27265			43387.38302		68.23200		324.00000 
 43692.65567		 892.42725			42800.22842		222.59000		875.00000 
 43692.65567		 305.27265			43387.38302		68.23200		324.00000 
 43692.65567		 892.42725			42800.22842		222.59000		875.00000 
 43692.65567		 305.27265			43387.38302		68.23200		324.00000 
 43692.65567		 892.42725			42800.22842		222.59000		875.00000 
 43692.65567		 305.27265			43387.38302		68.23200		324.00000 
 43692.65567		 892.42725			42800.22842		222.59000		875.00000 
 43692.65567		 305.27265			43387.38302		68.23200		324.00000 
 43692.65567		 892.42725			42800.22842		222.59000		875.00000 
 43692.65567		 305.27265			43387.38302		68.23200		324.00000 
 43692.65567		 892.42725			42800.22842		222.59000		875.00000 
 43692.65567		 305.27265			43387.38302		68.23200		324.00000 
 43692.65567		 892.42725			42800.22842		222.59000		875.00000 
 43692.65567		 305.27265			43387.38302		68.23200		324.00000 
 43692.65567		 892.42725			42800.22842		222.59000		875.00000 
 43692.65567		 305.27265			43387.38302		70.74000		324.00000 
 43692.65567		 892.42725			42800.22842		222.59000		875.00000 
 43692.65567		 305.27265			43387.38302		70.74000		324.00000 
 43692.65567		 892.42725			42800.22842		222.59000		875.00000 
 43692.65567		 305.27265			43387.38302		70.74000		324.00000 
 43692.65567		 892.42725			42800.22842		222.59000		875.00000 
 43692.65567		 305.27265			43387.38302		70.74000		324.00000 
 43692.65567		 892.42725			42800.22842		222.59000		875.00000 
 43692.65567		 305.27265			43387.38302		70.74000		324.00000 
 43692.65567		 892.42725			42800.22842		222.59000		875.00000 
 43692.65567		 305.27265			43387.38302		70.74000		324.00000 
 43692.65567		 892.42725			42800.22842		222.59000		875.00000 
 43692.65567		 305.27265			43387.38302		70.74000		324.00000 
 43692.65567		 892.42725			42800.22842		222.59000		875.00000 
 43692.65567		 305.27265			43387.38302		70.74000		324.00000 
 43692.65567		 892.42725			42800.22842		222.59000		875.00000 
 43692.65567		 305.27265			43387.38302		70.74000		324.00000 
 43692.65567		 892.42725			42800.22842		222.59000		875.00000 
 43692.65567		 305.27265			43387.38302		70.74000		324.00000 
 43692.65567		 892.42725			42800.22842		222.59000		875.00000 
 43692.65567		 305.27265			43387.38302		70.74000		324.00000 
 43692.65567		 892.42725			42800.22842		222.59000		875.00000 
 43692.65567		 305.27265			43387.38302		70.74000		324.00000 
 43692.65567		 892.42725			42800.22842		222.59000		875.00000 
 43692.65567		 305.27265			43387.38302		70.74000		324.00000 
 43692.65567		 892.42725			42800.22842		222.59000		875.00000 
 43692.65567		 305.27265			43387.38302		70.74000		324.00000 
 43692.65567		 892.42725			42800.22842		222.59000		875.00000 
 43692.65567		 305.27265			43387.38302		70.74000		324.00000 
 43692.65567		 892.42725			42800.22842		222.59000		875.00000 
 43692.65567		 305.27265			43387.38302		70.74000		324.00000 
 43692.65567		 892.42725			42800.22842		222.59000		875.00000 
 43692.65567		 305.27265			43387.38302		70.74000		324.00000 
 43692.65567		 892.42725			42800.22842		222.59000		875.00000 
 43692.65567		 305.27265			43387.38302		70.74000		324.00000 
 43692.65567		 892.42725			42800.22842		222.59000		875.00000 
 43692.65567		 305.27265			43387.38302		70.74000		324.00000 
 43692.65567		 892.42725			42800.22842		222.59000		875.00000 
 43692.65567		 305.27265			43387.38302		70.74000		324.00000 
 43692.65567		 892.42725			42800.22842		222.59000		875.00000 
 43692.65567		 305.27265			43387.38302		70.74000		324.00000 
 43692.65567		 892.42725			42800.22842		222.59000		875.00000 
 43692.65567		 305.27265			43387.38302		70.74000		324.00000 
 43692.65567		 892.42725			42800.22842		222.59000		875.00000 
 43692.65567		 305.27265			43387.38302		70.74000		324.00000 
 43692.65567		 892.42725			42800.22842		222.59000		875.00000 
 43692.65567		 305.27265			43387.38302		70.74000		324.00000 
 43692.65567		 892.42725			42800.22842		222.59000		875.00000 
 43692.65567		 305.27265			43387.38302		70.74000		324.00000 
 43692.65567		 892.42725			42800.22842		222.59000		875.00000 
 43692.65567		 305.27265			43387.38302		70.74000		324.00000 
 43692.65567		 892.42725			42800.22842		222.59000		875.00000 
 43692.65567		 305.27265			43387.38302		70.74000		324.00000 
 43692.65567		 892.42725			42800.22842		222.59000		875.00000 
 43692.65567		 305.27265			43387.38302		70.74000		324.00000 
 43692.65567		 892.42725			42800.22842		222.59000		875.00000 
 43692.65567		 305.27265			43387.38302		70.74000		324.00000 
 43692.65567		 892.42725			42800.22842		222.59000		875.00000 
 43692.65567		 305.27265			43387.38302		70.74000		324.00000 
 43692.65567		 892.42725			42800.22842		222.59000		875.00000 
 43692.65567		 305.27265			43387.38302		70.74000		324.00000 
 43692.65567		 892.42725			42800.22842		222.59000		875.00000 
 43692.65567		 305.27265			43387.38302		70.74000		324.00000 
 43692.65567		 892.42725			42800.22842		222.59000		875.00000 
 43692.65567		 305.27265			43387.38302		70.74000		324.00000 
 43692.65567		 892.42725			42800.22842		222.59000		875.00000 
 43692.65567		 305.27265			43387.38302		70.74000		324.00000 
 43692.65567		 892.42725			42800.22842		222.59000		875.00000 
 43692.65567		 305.27265			43387.38302		70.74000		324.00000 
 43692.65567		 892.42725			42800.22842		222.59000		875.00000 
 43692.65567		 305.27265			43387.38302		70.74000		324.00000 
 43692.65567		 892.42725			42800.22842		222.59000		875.00000 
 43692.65567		 305.27265			43387.38302		70.74000		324.00000 
 43692.65567		 892.42725			42800.22842		222.59000		875.00000 
 43692.65567		 305.27265			43387.38302		70.74000		324.00000 
 43692.65567		 892.42725			42800.22842		222.59000		875.00000 
 43692.65567		 305.27265			43387.38302		70.74000		324.00000 
 43692.65567		 892.42725			42800.22842		222.59000		875.00000 
 43692.65567		 305.27265			43387.38302		70.74000		324.00000 
 43692.65567		 892.42725			42800.22842		222.59000		875.00000 
 43692.65567		 305.27265			43387.38302		70.74000		324.00000 
 43692.65567		 892.42725			42800.22842		222.59000		875.00000 
 43692.65567		 305.27265			43387.38302		70.74000		324.00000 
 43692.65567		 892.42725			42800.22842		222.59000		875.00000 
 43692.65567		 305.27265			43387.38302		70.74000		324.00000 
 43692.65567		 892.42725			42800.22842		222.59000		875.00000 
 43692.65567		 305.27265			43387.38302		70.74000		324.00000 
 43692.65567		 892.42725			42800.22842		222.59000		875.00000 
 43692.65567		 305.27265			43387.38302		70.74000		324.00000 
 43692.65567		 892.42725			42800.22842		222.59000		875.00000 
 43692.65567		 305.27265			43387.38302		70.74000		324.00000 
 43692.65567		 892.42725			42800.22842		222.59000		875.00000 
 43692.65567		 305.27265			43387.38302		70.74000		324.00000 
 43692.65567		 892.42725			42800.22842		222.59000		875.00000 
 43692.65567		 305.27265			43387.38302		70.74000		324.00000 
 43692.65567		 892.42725			42800.22842		222.59000		875.00000 
 43692.65567		 305.27265			43387.38302		70.74000		324.00000 
 43692.65567		 892.42725			42800.22842		222.59000		875.00000 
 43692.65567		 305.27265			43387.38302		70.74000		324.00000 
 43692.65567		 892.42725			42800.22842		222.59000		875.00000 
 43692.65567		 305.27265			43387.38302		70.74000		324.00000 
 43692.65567		 892.42725			42800.22842		222.59000		875.00000 
 43692.65567		 305.27265			43387.38302		70.74000		324.00000 
 43692.65567		 892.42725			42800.22842		222.59000		875.00000 
 43692.65567		 305.27265			43387.38302		70.74000		324.00000 
 43692.65567		 892.42725			42800.22842		222.59000		875.00000 
 43692.65567		 305.27265			43387.38302		70.74000		324.00000 
 43692.65567		 892.42725			42800.22842		222.59000		875.00000 
 43692.65567		 305.27265			43387.38302		70.74000		324.00000 
 43692.65567		 892.42725			42800.22842		222.59000		875.00000 
 43692.65567		 305.27265			43387.38302		70.74000		324.00000 
 43692.65567		 892.42725			42800.22842		222.59000		875.00000 
 43692.65567		 305.27265			43387.38302		70.74000		324.00000 
 43692.65567		 892.42725			42800.22842		222.59000		875.00000 
 43692.65567		 305.27265			43387.38302		70.74000		324.00000 
 43692.65567		 892.42725			42800.22842		222.59000		875.00000 
 43692.65567		 305.27265			43387.38302		70.74000		324.00000 
 43692.65567		 892.42725			42800.22842		222.59000		875.00000 
 43692.65567		 305.27265			43387.38302		70.74000		324.00000 
 43692.65567		 892.42725			42800.22842		222.59000		875.00000 
 43692.65567		 305.27265			43387.38302		70.74000		324.00000 
 43692.65567		 892.42725			42800.22842		222.59000		875.00000 
 43692.65567		 305.27265			43387.38302		70.74000		324.00000 
 43692.65567		 892.42725			42800.22842		222.59000		875.00000 
 43692.65567		 305.27265			43387.38302		70.74000		324.00000 
 43692.65567		 892.42725			42800.22842		222.59000		875.00000 
 43692.65567		 305.27265			43387.38302		70.74000		324.00000 
 43692.65567		 892.42725			42800.22842		222.59000		875.00000 
 43692.65567		 305.27265			43387.38302		70.74000		324.00000 
 43692.65567		 892.42725			42800.22842		222.59000		875.00000 
 43692.65567		 305.27265			43387.38302		70.74000		324.00000 
 43692.65567		 892.42725			42800.22842		222.59000		875.00000 
 43692.65567		 305.27265			43387.38302		70.74000		324.00000 
 43692.65567		 892.42725			42800.22842		222.59000		875.00000 
 43692.65567		 305.27265			43387.38302		70.74000		324.00000 
 43692.65567		 892.42725			42800.22842		222.59000		875.00000 
 43692.65567		 305.27265			43387.38302		70.74000		324.00000 
 43692.65567		 892.42725			42800.22842		222.59000		875.00000 
 43692.65567		 305.27265			43387.38302		70.74000		324.00000 
 43692.65567		 892.42725			42800.22842		222.59000		875.00000 
 43692.65567		 305.27265			43387.38302		70.74000		324.00000 
 43692.65567		 892.42725			42800.22842		222.59000		875.00000 
 43692.65567		 305.27265			43387.38302		70.74000		324.00000 
 43692.65567		 892.42725			42800.22842		222.59000		875.00000 
 43692.65567		 305.27265			43387.38302		70.74000		324.00000 
 43692.65567		 892.42725			42800.22842		222.59000		875.00000 
 43692.65567		 305.27265			43387.38302		70.74000		324.00000 
 43692.65567		 892.42725			42800.22842		222.59000		875.00000 
 43692.65567		 305.27265			43387.38302		70.74000		324.00000 
 43692.65567		 892.42725			42800.22842		222.59000		875.00000 
 43692.65567		 305.27265			43387.38302		70.74000		324.00000 
 43692.65567		 892.42725			42800.22842		222.59000		875.00000 
 43692.65567		 305.27265			43387.38302		70.74000		324.00000 
 43692.65567		 892.42725			42800.22842		222.59000		875.00000 
 43692.65567		 305.27265			43387.38302		70.74000		324.00000 
 43692.65567		 892.42725			42800.22842		222.59000		875.00000 
 43692.65567		 305.27265			43387.38302		70.74000		324.00000 
 43692.65567		 892.42725			42800.22842		222.59000		875.00000 
 43692.65567		 305.27265			43387.38302		70.74000		324.00000 
 43692.65567		 892.42725			42800.22842		222.59000		875.00000 
 43692.65567		 305.27265			43387.38302		70.74000		324.00000 
 43692.65567		 892.42725			42800.22842		222.59000		875.00000 
 43692.65567		 305.27265			43387.38302		70.74000		324.00000 
 43692.65567		 892.42725			42800.22842		222.59000		875.00000 
 43692.65567		 305.27265			43387.38302		70.74000		324.00000 
 43692.65567		 892.42725			42800.22842		222.59000		875.00000 
 43692.65567		 305.27265			43387.38302		70.74000		324.00000 
 43692.65567		 892.42725			42800.22842		222.59000		875.00000 
 43692.65567		 305.27265			43387.38302		70.74000		324.00000 
 43692.65567		 892.42725			42800.22842		222.59000		875.00000 
 43692.65567		 305.27265			43387.38302		70.74000		324.00000 
 43692.65567		 892.42725			42800.22842		222.59000		875.00000 
 43692.65567		 305.27265			43387.38302		70.74000		324.00000 
 43692.65567		 892.42725			42800.22842		222.59000		875.00000 
 43692.65567		 305.27265			43387.38302		70.74000		324.00000 
 43692.65567		 892.42725			42800.22842		222.59000		875.00000 
 43692.65567		 305.27265			43387.38302		70.74000		324.00000 
 43692.65567		 892.42725			42800.22842		222.59000		875.00000 
 43692.65567		 305.27265			43387.38302		70.74000		324.00000 
 43692.65567		 892.42725			42800.22842		222.59000		875.00000 
 43692.65567		 305.27265			43387.38302		70.74000		324.00000 
 43692.65567		 892.42725			42800.22842		222.59000		875.00000 
 43692.65567		 305.27265			43387.38302		70.74000		324.00000 
 43692.65567		 892.42725			42800.22842		222.59000		875.00000 
 43692.65567		 305.27265			43387.38302		70.74000		324.00000 
 43692.65567		 892.42725			42800.22842		222.59000		875.00000 
 43692.65567		 305.27265			43387.38302		70.74000		324.00000 
 43692.65567		 892.42725			42800.22842		222.59000		875.00000 
 43692.65567		 305.27265			43387.38302		70.74000		324.00000 
 43692.65567		 892.42725			42800.22842		222.59000		875.00000 
 43692.65567		 305.27265			43387.38302		70.74000		324.00000 
 43692.65567		 892.42725			42800.22842		222.59000		875.00000 
 43692.65567		 305.27265			43387.38302		70.74000		324.00000 
 43692.65567		 892.42725			42800.22842		222.59000		875.00000 
 43692.65567		 305.27265			43387.38302		70.74000		324.00000 
 43692.65567		 892.42725			42800.22842		222.59000		875.00000 
 43692.65567		 305.27265			43387.38302		70.74000		324.00000 
 43692.65567		 892.42725			42800.22842		222.59000		875.00000 
 43692.65567		 305.27265			43387.38302		70.74000		324.00000 
 43692.65567		 892.42725			42800.22842		222.59000		875.00000 
 43692.65567		 305.27265			43387.38302		70.74000		324.00000 
 43692.65567		 892.42725			42800.22842		222.59000		875.00000 
 43692.65567		 305.27265			43387.38302		70.74000		324.00000 
 43692.65567		 892.42725			42800.22842		222.59000		875.00000 
 43692.65567		 305.27265			43387.38302		70.74000		324.00000 
 43692.65567		 892.42725			42800.22842		222.59000		875.00000 
 43692.65567		 305.27265			43387.38302		70.74000		324.00000 
 43692.65567		 892.42725			42800.22842		222.59000		875.00000 
 43692.65567		 305.27265			43387.38302		70.74000		324.00000 
 43692.65567		 892.42725			42800.22842		222.59000		875.00000 
 43692.65567		 305.27265			43387.38302		70.74000		324.00000 
 43692.65567		 892.42725			42800.22842		222.59000		875.00000 
 43692.65567		 305.27265			43387.38302		70.74000		324.00000 
 43692.65567		 892.42725			42800.22842		222.59000		875.00000 
 43692.65567		 305.27265			43387.38302		70.74000		324.00000 
 43692.65567		 892.42725			42800.22842		222.59000		875.00000 
 43692.65567		 305.27265			43387.38302		70.74000		324.00000 
 43692.65567		 892.42725			42800.22842		222.59000		875.00000 
 43692.65567		 305.27265			43387.38302		70.74000		324.00000 
 43692.65567		 892.42725			42800.22842		222.59000		875.00000 
 43692.65567		 305.27265			43387.38302		70.74000		324.00000 
 43692.65567		 892.42725			42800.22842		222.59000		875.00000 
 43692.65567		 305.27265			43387.38302		70.74000		324.00000 
 43692.65567		 892.42725			42800.22842		222.59000		875.00000 
 43692.65567		 305.27265			43387.38302		70.74000		324.00000 
 43692.65567		 892.42725			42800.22842		222.59000		875.00000 
 43692.65567		 305.27265			43387.38302		70.74000		324.00000 
 43692.65567		 892.42725			42800.22842		222.59000		875.00000 
 43692.65567		 305.27265			43387.38302		70.74000		324.00000 
 43692.65567		 892.42725			42800.22842		222.59000		875.00000 
 43692.65567		 305.27265			43387.38302		70.74000		324.00000 
 43692.65567		 892.42725			42800.22842		222.59000		875.00000 
 43692.65567		 305.27265			43387.38302		70.74000		324.00000 
 43692.65567		 892.42725			42800.22842		222.59000		875.00000 
 43692.65567		 305.27265			43387.38302		70.74000		324.00000 
 43692.65567		 892.42725			42800.22842		222.59000		875.00000 
 43692.65567		 305.27265			43387.38302		70.74000		324.00000 
 43692.65567		 892.42725			42800.22842		222.59000		875.00000 
 43692.65567		 305.27265			43387.38302		70.74000		324.00000 
 43692.65567		 892.42725			42800.22842		222.59000		875.00000 
 43692.65567		 305.27265			43387.38302		70.74000		324.00000 
 43692.65567		 892.42725			42800.22842		222.59000		875.00000 
 43692.65567		 305.27265			43387.38302		70.74000		324.00000 
 43692.65567		 892.42725			42800.22842		222.59000		875.00000 
 43692.65567		 305.27265			43387.38302		70.74000		324.00000 
 43692.65567		 892.42725			42800.22842		222.59000		875.00000 
 43692.65567		 305.27265			43387.38302		70.74000		324.00000 
 43692.65567		 892.42725			42800.22842		222.59000		875.00000 
 43692.65567		 305.27265			43387.38302		70.74000		324.00000 
 43692.65567		 892.42725			42800.22842		222.59000		875.00000 
 43692.65567		 305.27265			43387.38302		70.74000		324.00000 
 43692.65567		 892.42725			42800.22842		222.59000		875.00000 
 43692.65567		 305.27265			43387.38302		70.74000		324.00000 
 43692.65567		 892.42725			42800.22842		222.59000		875.00000 
 43692.65567		 305.27265			43387.38302		70.74000		324.00000 
 43692.65567		 892.42725			42800.22842		222.59000		875.00000 
 43692.65567		 305.27265			43387.38302		70.74000		324.00000 
 43692.65567		 892.42725			42800.22842		222.59000		875.00000 
 43692.65567		 305.27265			43387.38302		70.74000		324.00000 
 43692.65567		 892.42725			42800.22842		222.59000		875.00000 
 43692.65567		 305.27265			43387.38302		70.74000		324.00000 
 43692.65567		 892.42725			42800.22842		221.99000		875.00000 
 43692.65567		 305.27265			43387.38302		70.74000		324.00000 
 43692.65567		 892.42725			42800.22842		221.99000		875.00000 
 43692.65567		 305.27265			43387.38302		70.74000		324.00000 
 43692.65567		 892.42725			42800.22842		221.99000		875.00000 
 43692.65567		 305.27265			43387.38302		70.74000		324.00000 
 43692.65567		 892.42725			42800.22842		221.99000		875.00000 
 43692.65567		 305.27265			43387.38302		70.74000		324.00000 
 43692.65567		 892.42725			42800.22842		221.99000		875.00000 
 43692.65567		 305.27265			43387.38302		70.74000		324.00000 
 43692.65567		 892.42725			42800.22842		221.99000		875.00000 
 43692.65567		 305.27265			43387.38302		70.74000		324.00000 
 43692.65567		 892.42725			42800.22842		221.99000		875.00000 
 43692.65567		 305.27265			43387.38302		70.74000		324.00000 
 43692.65567		 892.42725			42800.22842		221.99000		875.00000 
 43692.65567		 305.27265			43387.38302		70.74000		324.00000 
 43692.65567		 892.42725			42800.22842		221.99000		875.00000 
 43692.65567		 305.27265			43387.38302		70.74000		324.00000 
 43692.65567		 892.42725			42800.22842		221.99000		875.00000 
 43692.65567		 305.27265			43387.38302		70.74000		324.00000 
 43692.65567		 892.42725			42800.22842		221.99000		875.00000 
 43692.65567		 305.27265			43387.38302		70.74000		324.00000 
 43692.65567		 892.42725			42800.22842		221.99000		875.00000 
 43692.65567		 305.27265			43387.38302		70.74000		324.00000 
 43692.65567		 892.42725			42800.22842		221.99000		875.00000 
 43692.65567		 305.27265			43387.38302		70.74000		324.00000 
 43692.65567		 892.42725			42800.22842		221.99000		875.00000 
 43692.65567		 305.27265			43387.38302		70.74000		324.00000 
 43692.65567		 892.42725			42800.22842		221.99000		875.00000 
 43692.65567		 305.27265			43387.38302		70.74000		324.00000 
 43692.65567		 892.42725			42800.22842		221.99000		875.00000 
 43692.65567		 305.27265			43387.38302		70.74000		324.00000 
 43692.65567		 892.42725			42800.22842		221.99000		875.00000 
 43692.65567		 305.27265			43387.38302		70.74000		324.00000 
 43692.65567		 892.42725			42800.22842		221.99000		875.00000 
 43692.65567		 305.27265			43387.38302		70.74000		324.00000 
 43692.65567		 892.42725			42800.22842		221.99000		875.00000 
 43692.65567		 305.27265			43387.38302		70.74000		324.00000 
 43692.65567		 892.42725			42800.22842		221.99000		875.00000 
 43692.65567		 305.27265			43387.38302		70.74000		324.00000 
 43692.65567		 892.42725			42800.22842		221.99000		875.00000 
 43692.65567		 305.27265			43387.38302		70.74000		324.00000 
 43692.65567		 892.42725			42800.22842		221.99000		875.00000 
 43692.65567		 305.27265			43387.38302		70.74000		324.00000 
 43692.65567		 892.42725			42800.22842		221.99000		875.00000 
 43692.65567		 305.27265			43387.38302		70.74000		324.00000 
 43692.65567		 892.42725			42800.22842		221.99000		875.00000 
 43692.65567		 305.27265			43387.38302		70.74000		324.00000 
 43692.65567		 892.42725			42800.22842		221.99000		875.00000 
 43692.65567		 305.27265			43387.38302		70.74000		324.00000 
 43692.65567		 892.42725			42800.22842		221.99000		875.00000 
 43692.65567		 305.27265			43387.38302		70.74000		324.00000 
 43692.65567		 892.42725			42800.22842		221.99000		875.00000 
 43692.65567		 305.27265			43387.38302		70.74000		324.00000 
 43692.65567		 892.42725			42800.22842		221.99000		875.00000 
 43692.65567		 305.27265			43387.38302		70.74000		324.00000 
 43692.65567		 892.42725			42800.22842		221.99000		875.00000 
 43692.65567		 305.27265			43387.38302		70.74000		324.00000 
 43692.65567		 892.42725			42800.22842		221.99000		875.00000 
 43692.65567		 305.27265			43387.38302		70.74000		324.00000 
 43692.65567		 892.42725			42800.22842		221.99000		875.00000 
 43692.65567		 305.27265			43387.38302		70.74000		324.00000 
 43692.65567		 892.42725			42800.22842		221.99000		875.00000 
 43692.65567		 305.27265			43387.38302		70.74000		324.00000 
 43692.65567		 892.42725			42800.22842		221.99000		875.00000 
 43692.65567		 305.27265			43387.38302		70.74000		324.00000 
 43692.65567		 892.42725			42800.22842		221.99000		875.00000 
 43692.65567		 305.27265			43387.38302		70.74000		324.00000 
 43692.65567		 892.42725			42800.22842		221.99000		875.00000 
 43692.65567		 305.27265			43387.38302		70.74000		324.00000 
 43692.65567		 892.42725			42800.22842		221.99000		875.00000 
 43692.65567		 305.27265			43387.38302		70.74000		324.00000 
 43692.65567		 892.42725			42800.22842		221.99000		875.00000 
 43692.65567		 305.27265			43387.38302		70.74000		324.00000 
 43692.65567		 892.42725			42800.22842		221.99000		875.00000 
 43692.65567		 305.27265			43387.38302		70.74000		324.00000 
 43692.65567		 892.42725			42800.22842		221.99000		875.00000 
 43692.65567		 305.27265			43387.38302		70.74000		324.00000 
 43692.65567		 892.42725			42800.22842		221.99000		875.00000 
 43692.65567		 305.27265			43387.38302		70.74000		324.00000 
 43692.65567		 892.42725			42800.22842		221.99000		875.00000 
 43692.65567		 305.27265			43387.38302		70.74000		324.00000 
 43692.65567		 892.42725			42800.22842		221.99000		875.00000 
 43692.65567		 305.27265			43387.38302		70.74000		324.00000 
 43692.65567		 892.42725			42800.22842		221.99000		875.00000 
 43692.65567		 305.27265			43387.38302		70.74000		324.00000 
 43692.65567		 892.42725			42800.22842		221.99000		875.00000 
 43692.65567		 305.27265			43387.38302		70.74000		324.00000 
 43692.65567		 892.42725			42800.22842		221.99000		875.00000 
 43692.65567		 305.27265			43387.38302		70.74000		324.00000 
 43692.65567		 892.42725			42800.22842		221.99000		875.00000 
 43692.65567		 305.27265			43387.38302		70.74000		324.00000 
 43692.65567		 892.42725			42800.22842		221.99000		875.00000 
 43692.65567		 305.27265			43387.38302		70.74000		324.00000 
 43692.65567		 892.42725			42800.22842		221.99000		875.00000 
 43692.65567		 305.27265			43387.38302		70.74000		324.00000 
 43692.65567		 892.42725			42800.22842		221.99000		875.00000 
 43692.65567		 305.27265			43387.38302		70.74000		324.00000 
 43692.65567		 892.42725			42800.22842		221.99000		875.00000 
 43692.65567		 305.27265			43387.38302		70.74000		324.00000 
 43692.65567		 892.42725			42800.22842		221.99000		875.00000 
 43692.65567		 305.27265			43387.38302		70.74000		324.00000 
 43692.65567		 892.42725			42800.22842		221.99000		875.00000 
 43692.65567		 305.27265			43387.38302		70.74000		324.00000 
 43692.65567		 892.42725			42800.22842		221.99000		875.00000 
 43692.65567		 305.27265			43387.38302		70.74000		324.00000 
 43692.65567		 892.42725			42800.22842		221.99000		875.00000 
 43692.65567		 305.27265			43387.38302		70.74000		324.00000 
 43692.65567		 892.42725			42800.22842		221.99000		875.00000 
 43692.65567		 305.27265			43387.38302		70.74000		324.00000 
 43692.65567		 892.42725			42800.22842		221.99000		875.00000 
 43692.65567		 305.27265			43387.38302		70.74000		324.00000 
 43692.65567		 892.42725			42800.22842		221.99000		875.00000 
 43692.65567		 305.27265			43387.38302		70.74000		324.00000 
 43692.65567		 892.42725			42800.22842		221.99000		875.00000 
 43692.65567		 305.27265			43387.38302		70.74000		324.00000 
 43692.65567		 892.42725			42800.22842		221.99000		875.00000 
 43692.65567		 305.27265			43387.38302		70.74000		324.00000 
 43692.65567		 892.42725			42800.22842		221.99000		875.00000 
 43692.65567		 305.27265			43387.38302		70.74000		324.00000 
 43692.65567		 892.42725			42800.22842		221.99000		875.00000 
 43692.65567		 305.27265			43387.38302		70.74000		324.00000 
 43692.65567		 892.42725			42800.22842		221.99000		875.00000 
 43692.65567		 305.27265			43387.38302		70.74000		324.00000 
 43692.65567		 892.42725			42800.22842		221.99000		875.00000 
 43692.65567		 305.27265			43387.38302		70.74000		324.00000 
 43692.65567		 892.42725			42800.22842		221.99000		875.00000 
 43692.65567		 305.27265			43387.38302		70.74000		324.00000 
 43692.65567		 892.42725			42800.22842		221.99000		875.00000 
 43692.65567		 305.27265			43387.38302		70.74000		324.00000 
 43692.65567		 892.42725			42800.22842		222.59000		875.00000 
 43692.65567		 305.27265			43387.38302		70.74000		324.00000 
 43692.65567		 892.42725			42800.22842		222.59000		875.00000 
 43692.65567		 305.27265			43387.38302		70.74000		324.00000 
 43692.65567		 892.42725			42800.22842		222.59000		875.00000 
 43692.65567		 305.27265			43387.38302		70.74000		324.00000 
 43692.65567		 892.42725			42800.22842		222.59000		875.00000 
 43692.65567		 305.27265			43387.38302		70.74000		324.00000 
 43692.65567		 892.42725			42800.22842		222.59000		875.00000 
 43692.65567		 305.27265			43387.38302		70.74000		324.00000 
 43692.65567		 892.42725			42800.22842		222.59000		875.00000 
 43692.65567		 305.27265			43387.38302		70.74000		324.00000 
 43692.65567		 892.42725			42800.22842		222.59000		875.00000 
 43692.65567		 305.27265			43387.38302		70.74000		324.00000 
 43692.65567		 892.42725			42800.22842		222.59000		875.00000 
 43692.65567		 305.27265			43387.38302		70.74000		324.00000 
 43692.65567		 892.42725			42800.22842		222.59000		875.00000 
 43692.65567		 305.27265			43387.38302		70.74000		324.00000 
 43692.65567		 892.42725			42800.22842		222.59000		875.00000 
 43692.65567		 305.27265			43387.38302		70.74000		324.00000 
 43692.65567		 892.42725			42800.22842		222.59000		875.00000 
 43692.65567		 305.27265			43387.38302		70.74000		324.00000 
 43692.65567		 892.42725			42800.22842		222.59000		875.00000 
 43692.65567		 305.27265			43387.38302		70.74000		324.00000 
 43692.65567		 892.42725			42800.22842		222.59000		875.00000 
 43692.65567		 305.27265			43387.38302		70.74000		324.00000 
 43692.65567		 892.42725			42800.22842		222.59000		875.00000 
 43692.65567		 305.27265			43387.38302		70.74000		324.00000 
 43692.65567		 892.42725			42800.22842		222.59000		875.00000 
 43692.65567		 305.27265			43387.38302		70.74000		324.00000 
 43692.65567		 892.42725			42800.22842		222.59000		875.00000 
 43692.65567		 305.27265			43387.38302		70.74000		324.00000 
 43692.65567		 892.42725			42800.22842		222.59000		875.00000 
 43692.65567		 305.27265			43387.38302		70.74000		324.00000 
 43692.65567		 892.42725			42800.22842		222.59000		875.00000 
 43692.65567		 305.27265			43387.38302		70.74000		324.00000 
 43692.65567		 892.42725			42800.22842		222.59000		875.00000 
 43692.65567		 305.27265			43387.38302		70.74000		324.00000 
 43692.65567		 892.42725			42800.22842		222.59000		875.00000 
 43692.65567		 305.27265			43387.38302		70.74000		324.00000 
 43692.65567		 892.42725			42800.22842		222.59000		875.00000 
 43692.65567		 305.27265			43387.38302		70.74000		324.00000 
 43692.65567		 892.42725			42800.22842		222.59000		875.00000 
 43692.65567		 305.27265			43387.38302		70.74000		324.00000 
 43692.65567		 892.42725			42800.22842		222.59000		875.00000 
 43692.65567		 305.27265			43387.38302		70.74000		324.00000 
 43692.65567		 892.42725			42800.22842		222.59000		875.00000 
 43692.65567		 305.27265			43387.38302		70.74000		324.00000 
 43692.65567		 892.42725			42800.22842		222.59000		875.00000 
 43692.65567		 305.27265			43387.38302		70.74000		324.00000 
 43692.65567		 892.42725			42800.22842		222.59000		875.00000 
 43692.65567		 305.27265			43387.38302		70.74000		324.00000 
 43692.65567		 892.42725			42800.22842		222.59000		875.00000 
 43692.65567		 305.27265			43387.38302		70.74000		324.00000 
 43692.65567		 892.42725			42800.22842		222.59000		875.00000 
 43692.65567		 305.27265			43387.38302		70.74000		324.00000 
 43692.65567		 892.42725			42800.22842		222.59000		875.00000 
 43692.65567		 305.27265			43387.38302		70.74000		324.00000 
 43692.65567		 892.42725			42800.22842		222.59000		875.00000 
 43692.65567		 305.27265			43387.38302		70.74000		324.00000 
 43692.65567		 892.42725			42800.22842		222.59000		875.00000 
 43692.65567		 305.27265			43387.38302		70.74000		324.00000 
 43692.65567		 892.42725			42800.22842		222.59000		875.00000 
 43692.65567		 305.27265			43387.38302		70.74000		324.00000 
 43692.65567		 892.42725			42800.22842		222.59000		875.00000 
 43692.65567		 305.27265			43387.38302		70.74000		324.00000 
 43692.65567		 892.42725			42800.22842		222.59000		875.00000 
 43692.65567		 305.27265			43387.38302		70.74000		324.00000 
 43692.65567		 892.42725			42800.22842		222.59000		875.00000 
 43692.65567		 305.27265			43387.38302		70.74000		324.00000 
 43692.65567		 892.42725			42800.22842		222.59000		875.00000 
 43692.65567		 305.27265			43387.38302		70.74000		324.00000 
 43692.65567		 892.42725			42800.22842		222.59000		875.00000 
 43692.65567		 305.27265			43387.38302		70.74000		324.00000 
 43692.65567		 892.42725			42800.22842		222.59000		875.00000 
 43692.65567		 305.27265			43387.38302		70.74000		324.00000 
 43692.65567		 892.42725			42800.22842		222.59000		875.00000 
 43692.65567		 305.27265			43387.38302		70.74000		324.00000 
 43692.65567		 892.42725			42800.22842		222.59000		875.00000 
 43692.65567		 305.27265			43387.38302		70.74000		324.00000 
 43692.65567		 892.42725			42800.22842		222.59000		875.00000 
 43692.65567		 305.27265			43387.38302		70.74000		324.00000 
 43692.65567		 892.42725			42800.22842		222.59000		875.00000 
 43692.65567		 305.27265			43387.38302		70.74000		324.00000 
 43692.65567		 892.42725			42800.22842		222.59000		875.00000 
 43692.65567		 305.27265			43387.38302		70.74000		324.00000 
 43692.65567		 892.42725			42800.22842		222.59000		875.00000 
 43692.65567		 305.27265			43387.38302		70.74000		324.00000 
 43692.65567		 892.42725			42800.22842		222.59000		875.00000 
 43692.65567		 305.27265			43387.38302		70.74000		324.00000 
 43692.65567		 892.42725			42800.22842		222.59000		875.00000 
 43692.65567		 305.27265			43387.38302		70.74000		324.00000 
 43692.65567		 892.42725			42800.22842		222.59000		875.00000 
 43692.65567		 305.27265			43387.38302		70.74000		324.00000 
 43692.65567		 892.42725			42800.22842		222.59000		875.00000 
 43692.65567		 305.27265			43387.38302		70.74000		324.00000 
 43692.65567		 892.42725			42800.22842		222.59000		875.00000 
 43692.65567		 305.27265			43387.38302		70.74000		324.00000 
 43692.65567		 892.42725			42800.22842		222.59000		875.00000 
 43692.65567		 305.27265			43387.38302		70.74000		324.00000 
 43692.65567		 892.42725			42800.22842		222.59000		875.00000 
 43692.65567		 305.27265			43387.38302		70.74000		324.00000 
 43692.65567		 892.42725			42800.22842		222.59000		875.00000 
 43692.65567		 305.27265			43387.38302		70.74000		324.00000 
 43692.65567		 892.42725			42800.22842		222.59000		875.00000 
 43692.65567		 305.27265			43387.38302		70.74000		324.00000 
 43692.65567		 892.42725			42800.22842		222.59000		875.00000 
 43692.65567		 305.27265			43387.38302		70.74000		324.00000 
 43692.65567		 892.42725			42800.22842		222.59000		875.00000 
 43692.65567		 305.27265			43387.38302		70.74000		324.00000 
 43692.65567		 892.42725			42800.22842		222.59000		875.00000 
 43692.65567		 305.27265			43387.38302		70.74000		324.00000 
 43692.65567		 892.42725			42800.22842		222.59000		875.00000 
 43692.65567		 305.27265			43387.38302		70.74000		324.00000 
 43692.65567		 892.42725			42800.22842		222.59000		875.00000 
 43692.65567		 305.27265			43387.38302		70.74000		324.00000 
 43692.65567		 892.42725			42800.22842		222.59000		875.00000 
 43692.65567		 305.27265			43387.38302		70.74000		324.00000 
 43692.65567		 892.42725			42800.22842		222.59000		875.00000 
 43692.65567		 305.27265			43387.38302		70.74000		324.00000 
 43692.65567		 892.42725			42800.22842		222.59000		875.00000 
 43692.65567		 305.27265			43387.38302		70.74000		324.00000 
 43692.65567		 892.42725			42800.22842		222.59000		875.00000 
 43692.65567		 305.27265			43387.38302		70.74000		324.00000 
 43692.65567		 892.42725			42800.22842		222.59000		875.00000 
 43692.65567		 305.27265			43387.38302		70.74000		324.00000 
 43692.65567		 892.42725			42800.22842		222.59000		875.00000 
 43692.65567		 305.27265			43387.38302		70.74000		324.00000 
 43692.65567		 892.42725			42800.22842		222.66000		875.00000 
 43692.65567		 305.27265			43387.38302		70.74000		324.00000 
 43692.65567		 892.42725			42800.22842		222.66000		875.00000 
 43692.65567		 305.27265			43387.38302		70.74000		324.00000 
 43692.65567		 892.42725			42800.22842		222.66000		875.00000 
 43692.65567		 305.27265			43387.38302		70.74000		324.00000 
 43692.65567		 892.42725			42800.22842		222.66000		875.00000 
 43692.65567		 305.27265			43387.38302		70.74000		324.00000 
 43692.65567		 892.42725			42800.22842		222.66000		875.00000 
 43692.65567		 305.27265			43387.38302		70.74000		324.00000 
 43692.65567		 892.42725			42800.22842		222.66000		875.00000 
 43692.65567		 305.27265			43387.38302		70.74000		324.00000 
 43692.65567		 892.42725			42800.22842		222.66000		875.00000 
 43692.65567		 305.27265			43387.38302		70.74000		324.00000 
 43692.65567		 892.42725			42800.22842		222.66000		875.00000 
 43692.65567		 305.27265			43387.38302		70.74000		324.00000 
 43692.65567		 892.42725			42800.22842		222.66000		875.00000 
 43692.65567		 305.27265			43387.38302		70.74000		324.00000 
 43692.65567		 892.42725			42800.22842		222.66000		875.00000 
 43692.65567		 305.27265			43387.38302		70.74000		324.00000 
 43692.65567		 892.42725			42800.22842		222.66000		875.00000 
 43692.65567		 305.27265			43387.38302		70.74000		324.00000 
 43692.65567		 892.42725			42800.22842		222.66000		875.00000 
 43692.65567		 305.27265			43387.38302		70.74000		324.00000 
 43692.65567		 892.42725			42800.22842		222.66000		875.00000 
 43692.65567		 305.27265			43387.38302		70.74000		324.00000 
 43692.65567		 892.42725			42800.22842		222.66000		875.00000 
 43692.65567		 305.27265			43387.38302		70.74000		324.00000 
 43692.65567		 892.42725			42800.22842		222.66000		875.00000 
 43692.65567		 305.27265			43387.38302		70.74000		324.00000 
 43692.65567		 892.42725			42800.22842		222.66000		875.00000 
 43692.65567		 305.27265			43387.38302		70.74000		324.00000 
 43692.65567		 892.42725			42800.22842		222.66000		875.00000 
 43692.65567		 305.27265			43387.38302		70.74000		324.00000 
 43692.65567		 892.42725			42800.22842		222.66000		875.00000 
 43692.65567		 305.27265			43387.38302		70.74000		324.00000 
 43692.65567		 892.42725			42800.22842		222.66000		875.00000 
 43692.65567		 305.27265			43387.38302		70.74000		324.00000 
 43692.65567		 892.42725			42800.22842		222.66000		875.00000 
 43692.65567		 305.27265			43387.38302		70.74000		324.00000 
 43692.65567		 892.42725			42800.22842		222.66000		875.00000 
 43692.65567		 305.27265			43387.38302		70.74000		324.00000 
 43692.65567		 892.42725			42800.22842		222.66000		875.00000 
 43692.65567		 305.27265			43387.38302		70.74000		324.00000 
 43692.65567		 892.42725			42800.22842		222.66000		875.00000 
 43692.65567		 305.27265			43387.38302		70.74000		324.00000 
 43692.65567		 892.42725			42800.22842		222.66000		875.00000 
 43692.65567		 305.27265			43387.38302		70.74000		324.00000 
 43692.65567		 892.42725			42800.22842		222.66000		875.00000 
 43692.65567		 305.27265			43387.38302		70.74000		324.00000 
 43692.65567		 892.42725			42800.22842		222.66000		875.00000 
 43692.65567		 305.27265			43387.38302		70.74000		324.00000 
 43692.65567		 892.42725			42800.22842		222.66000		875.00000 
 43692.65567		 305.27265			43387.38302		70.74000		324.00000 
 43692.65567		 892.42725			42800.22842		222.66000		875.00000 
 43692.65567		 305.27265			43387.38302		70.74000		324.00000 
 43692.65567		 892.42725			42800.22842		222.66000		875.00000 
 43692.65567		 305.27265			43387.38302		70.74000		324.00000 
 43692.65567		 892.42725			42800.22842		222.66000		875.00000 
 43692.65567		 305.27265			43387.38302		70.74000		324.00000 
 43692.65567		 892.42725			42800.22842		222.66000		875.00000 
 43692.65567		 305.27265			43387.38302		70.74000		324.00000 
 43692.65567		 892.42725			42800.22842		222.66000		875.00000 
 43692.65567		 305.27265			43387.38302		70.74000		324.00000 
 43692.65567		 892.42725			42800.22842		222.66000		875.00000 
 43692.65567		 305.27265			43387.38302		70.74000		324.00000 
 43692.65567		 892.42725			42800.22842		222.66000		875.00000 
 43692.65567		 305.27265			43387.38302		70.74000		324.00000 
 43692.65567		 892.42725			42800.22842		222.66000		875.00000 
 43692.65567		 305.27265			43387.38302		70.74000		324.00000 
 43692.65567		 892.42725			42800.22842		222.66000		875.00000 
 43692.65567		 305.27265			43387.38302		70.74000		324.00000 
 43692.65567		 892.42725			42800.22842		222.66000		875.00000 
 43692.65567		 305.27265			43387.38302		70.74000		324.00000 
 43692.65567		 892.42725			42800.22842		222.66000		875.00000 
 43692.65567		 305.27265			43387.38302		70.74000		324.00000 
 43692.65567		 892.42725			42800.22842		222.66000		875.00000 
 43692.65567		 305.27265			43387.38302		70.74000		324.00000 
 43692.65567		 892.42725			42800.22842		222.66000		875.00000 
 43692.65567		 305.27265			43387.38302		70.74000		324.00000 
 43692.65567		 892.42725			42800.22842		222.66000		875.00000 
 43692.65567		 305.27265			43387.38302		70.74000		324.00000 
 43692.65567		 892.42725			42800.22842		222.66000		875.00000 
 43692.65567		 305.27265			43387.38302		70.74000		324.00000 
 43692.65567		 892.42725			42800.22842		222.66000		875.00000 
 43692.65567		 305.27265			43387.38302		70.74000		324.00000 
 43692.65567		 892.42725			42800.22842		222.66000		875.00000 
 43692.65567		 305.27265			43387.38302		70.74000		324.00000 
 43692.65567		 892.42725			42800.22842		222.66000		875.00000 
 43692.65567		 305.27265			43387.38302		70.74000		324.00000 
 43692.65567		 892.42725			42800.22842		222.66000		875.00000 
 43692.65567		 305.27265			43387.38302		70.74000		324.00000 
 43692.65567		 892.42725			42800.22842		222.66000		875.00000 
 43692.65567		 305.27265			43387.38302		70.74000		324.00000 
 43692.65567		 892.42725			42800.22842		222.66000		875.00000 
 43692.65567		 305.27265			43387.38302		70.74000		324.00000 
 43692.65567		 892.42725			42800.22842		222.66000		875.00000 
 43692.65567		 305.27265			43387.38302		70.74000		324.00000 
 43692.65567		 892.42725			42800.22842		222.66000		875.00000 
 43692.65567		 305.27265			43387.38302		70.74000		324.00000 
 43692.65567		 892.42725			42800.22842		222.66000		875.00000 
 43692.65567		 305.27265			43387.38302		70.74000		324.00000 
 43692.65567		 892.42725			42800.22842		222.66000		875.00000 
 43692.65567		 305.27265			43387.38302		70.74000		324.00000 
 43692.65567		 892.42725			42800.22842		222.66000		875.00000 
 43692.65567		 305.27265			43387.38302		70.74000		324.00000 
 43692.65567		 892.42725			42800.22842		222.66000		875.00000 
 43692.65567		 305.27265			43387.38302		70.74000		324.00000 
 43692.65567		 892.42725			42800.22842		222.66000		875.00000 
 43692.65567		 305.27265			43387.38302		70.74000		324.00000 
 43692.65567		 892.42725			42800.22842		222.66000		875.00000 
 43692.65567		 305.27265			43387.38302		70.74000		324.00000 
 43692.65567		 892.42725			42800.22842		222.66000		875.00000 
 43692.65567		 305.27265			43387.38302		70.74000		324.00000 
 43692.65567		 892.42725			42800.22842		222.66000		875.00000 
 43692.65567		 305.27265			43387.38302		70.74000		324.00000 
 43692.65567		 892.42725			42800.22842		222.66000		875.00000 
 43692.65567		 305.27265			43387.38302		70.74000		324.00000 
 43692.65567		 892.42725			42800.22842		222.66000		875.00000 
 43692.65567		 305.27265			43387.38302		70.74000		324.00000 
 43692.65567		 892.42725			42800.22842		223.55400		875.00000 
 43692.65567		 305.27265			43387.38302		70.74000		324.00000 
 43692.65567		 892.42725			42800.22842		223.55400		875.00000 
 43692.65567		 305.27265			43387.38302		70.74000		324.00000 
 43692.65567		 892.42725			42800.22842		223.55400		875.00000 
 43692.65567		 305.27265			43387.38302		70.74000		324.00000 
 43692.65567		 892.42725			42800.22842		223.55400		875.00000 
 43692.65567		 305.27265			43387.38302		70.74000		324.00000 
 43692.65567		 892.42725			42800.22842		223.55400		875.00000 
 43692.65567		 305.27265			43387.38302		70.74000		324.00000 
 43692.65567		 892.42725			42800.22842		223.55400		875.00000 
 43692.65567		 305.27265			43387.38302		70.74000		324.00000 
 43692.65567		 892.42725			42800.22842		223.55400		875.00000 
 43692.65567		 305.27265			43387.38302		70.74000		324.00000 
 43692.65567		 892.42725			42800.22842		223.55400		875.00000 
 43692.65567		 305.27265			43387.38302		70.74000		324.00000 
 43692.65567		 892.42725			42800.22842		223.55400		875.00000 
 43692.65567		 305.27265			43387.38302		70.74000		324.00000 
 43692.65567		 892.42725			42800.22842		223.55400		875.00000 
 43692.65567		 305.27265			43387.38302		70.74000		324.00000 
 43692.65567		 892.42725			42800.22842		223.55400		875.00000 
 43692.65567		 305.27265			43387.38302		70.74000		324.00000 
 43692.65567		 892.42725			42800.22842		223.55400		875.00000 
 43692.65567		 305.27265			43387.38302		70.74000		324.00000 
 43692.65567		 892.42725			42800.22842		223.55400		875.00000 
 43692.65567		 305.27265			43387.38302		70.74000		324.00000 
 43692.65567		 892.42725			42800.22842		223.55400		875.00000 
 43692.65567		 305.27265			43387.38302		70.74000		324.00000 
 43692.65567		 892.42725			42800.22842		223.55400		875.00000 
 43692.65567		 305.27265			43387.38302		70.74000		324.00000 
 43692.65567		 892.42725			42800.22842		223.55400		875.00000 
 43692.65567		 305.27265			43387.38302		70.74000		324.00000 
 43692.65567		 892.42725			42800.22842		223.55400		875.00000 
 43692.65567		 305.27265			43387.38302		70.74000		324.00000 
 43692.65567		 892.42725			42800.22842		223.55400		875.00000 
 43692.65567		 305.27265			43387.38302		70.74000		324.00000 
 43692.65567		 892.42725			42800.22842		223.55400		875.00000 
 43692.65567		 305.27265			43387.38302		70.74000		324.00000 
 43692.65567		 892.42725			42800.22842		223.55400		875.00000 
 43692.65567		 305.27265			43387.38302		70.74000		324.00000 
 43692.65567		 892.42725			42800.22842		223.55400		875.00000 
 43692.65567		 305.27265			43387.38302		70.74000		324.00000 
 43692.65567		 892.42725			42800.22842		223.55400		875.00000 
 43692.65567		 305.27265			43387.38302		70.74000		324.00000 
 43692.65567		 892.42725			42800.22842		223.55400		875.00000 
 43692.65567		 305.27265			43387.38302		70.74000		324.00000 
 43692.65567		 892.42725			42800.22842		223.55400		875.00000 
 43692.65567		 305.27265			43387.38302		70.74000		324.00000 
 43692.65567		 892.42725			42800.22842		223.55400		875.00000 
 43692.65567		 305.27265			43387.38302		70.74000		324.00000 
 43692.65567		 892.42725			42800.22842		223.55400		875.00000 
 43692.65567		 305.27265			43387.38302		70.74000		324.00000 
 43692.65567		 892.42725			42800.22842		223.55400		875.00000 
 43692.65567		 305.27265			43387.38302		70.74000		324.00000 
 43692.65567		 892.42725			42800.22842		223.55400		875.00000 
 43692.65567		 305.27265			43387.38302		70.74000		324.00000 
 43692.65567		 892.42725			42800.22842		223.55400		875.00000 
 43692.65567		 305.27265			43387.38302		70.74000		324.00000 
 43692.65567		 892.42725			42800.22842		223.55400		875.00000 
 43692.65567		 305.27265			43387.38302		70.74000		324.00000 
 43692.65567		 892.42725			42800.22842		223.55400		875.00000 
 43692.65567		 305.27265			43387.38302		70.74000		324.00000 
 43692.65567		 892.42725			42800.22842		223.55400		875.00000 
 43692.65567		 305.27265			43387.38302		70.74000		324.00000 
 43692.65567		 892.42725			42800.22842		223.55400		875.00000 
 43692.65567		 305.27265			43387.38302		70.74000		324.00000 
 43692.65567		 892.42725			42800.22842		223.55400		875.00000 
 43692.65567		 305.27265			43387.38302		70.74000		324.00000 
 43692.65567		 892.42725			42800.22842		223.55400		875.00000 
 43692.65567		 305.27265			43387.38302		70.74000		324.00000 
 43692.65567		 892.42725			42800.22842		223.55400		875.00000 
 43692.65567		 305.27265			43387.38302		70.74000		324.00000 
 43692.65567		 892.42725			42800.22842		223.55400		875.00000 
 43692.65567		 305.27265			43387.38302		70.74000		324.00000 
 43692.65567		 892.42725			42800.22842		223.55400		875.00000 
 43692.65567		 305.27265			43387.38302		70.74000		324.00000 
 43692.65567		 892.42725			42800.22842		223.55400		875.00000 
 43692.65567		 305.27265			43387.38302		70.74000		324.00000 
 43692.65567		 892.42725			42800.22842		223.55400		875.00000 
 43692.65567		 305.27265			43387.38302		70.74000		324.00000 
 43692.65567		 892.42725			42800.22842		223.55400		875.00000 
 43692.65567		 305.27265			43387.38302		70.74000		324.00000 
 43692.65567		 892.42725			42800.22842		223.55400		875.00000 
 43692.65567		 305.27265			43387.38302		70.74000		324.00000 
 43692.65567		 892.42725			42800.22842		223.55400		875.00000 
 43692.65567		 305.27265			43387.38302		70.74000		324.00000 
 43692.65567		 892.42725			42800.22842		223.55400		875.00000 
 43692.65567		 305.27265			43387.38302		70.74000		324.00000 
 43692.65567		 892.42725			42800.22842		223.55400		875.00000 
 43692.65567		 305.27265			43387.38302		70.74000		324.00000 
 43692.65567		 892.42725			42800.22842		223.55400		875.00000 
 43692.65567		 305.27265			43387.38302		70.74000		324.00000 
 43692.65567		 892.42725			42800.22842		223.55400		875.00000 
 43692.65567		 305.27265			43387.38302		70.74000		324.00000 
 43692.65567		 892.42725			42800.22842		223.55400		875.00000 
 43692.65567		 305.27265			43387.38302		70.74000		324.00000 
 43692.65567		 892.42725			42800.22842		223.55400		875.00000 
 43692.65567		 305.27265			43387.38302		70.74000		324.00000 
 43692.65567		 892.42725			42800.22842		223.55400		875.00000 
 43692.65567		 305.27265			43387.38302		70.74000		324.00000 
 43692.65567		 892.42725			42800.22842		223.55400		875.00000 
 43692.65567		 305.27265			43387.38302		70.74000		324.00000 
 43692.65567		 892.42725			42800.22842		223.55400		875.00000 
 43692.65567		 305.27265			43387.38302		70.74000		324.00000 
 43692.65567		 892.42725			42800.22842		223.55400		875.00000 
 43692.65567		 305.27265			43387.38302		70.74000		324.00000 
 43692.65567		 892.42725			42800.22842		223.55400		875.00000 
 43692.65567		 305.27265			43387.38302		70.74000		324.00000 
 43692.65567		 892.42725			42800.22842		223.55400		875.00000 
 43692.65567		 305.27265			43387.38302		70.74000		324.00000 
 43692.65567		 892.42725			42800.22842		223.55400		875.00000 
 43692.65567		 305.27265			43387.38302		70.74000		324.00000 
 43692.65567		 892.42725			42800.22842		223.55400		875.00000 
 43692.65567		 305.27265			43387.38302		70.74000		324.00000 
 43692.65567		 892.42725			42800.22842		223.55400		875.00000 
 43692.65567		 305.27265			43387.38302		70.74000		324.00000 
 43692.65567		 892.42725			42800.22842		223.55400		875.00000 
 43692.65567		 305.27265			43387.38302		70.74000		324.00000 
 43692.65567		 892.42725			42800.22842		223.55400		875.00000 
 43692.65567		 305.27265			43387.38302		70.74000		324.00000 
 43692.65567		 892.42725			42800.22842		223.55400		875.00000 
 43692.65567		 305.27265			43387.38302		70.74000		324.00000 
 43692.65567		 892.42725			42800.22842		223.55400		875.00000 
 43692.65567		 305.27265			43387.38302		70.74000		324.00000 
 43692.65567		 892.42725			42800.22842		223.55400		875.00000 
 43692.65567		 305.27265			43387.38302		70.74000		324.00000 
 43692.65567		 892.42725			42800.22842		223.55400		875.00000 
 43692.65567		 305.27265			43387.38302		70.74000		324.00000 
 43692.65567		 892.42725			42800.22842		223.26000		875.00000 
 43692.65567		 305.27265			43387.38302		70.74000		324.00000 
 43692.65567		 892.42725			42800.22842		223.26000		875.00000 
 43692.65567		 305.27265			43387.38302		70.74000		324.00000 
 43692.65567		 892.42725			42800.22842		223.26000		875.00000 
 43692.65567		 305.27265			43387.38302		70.74000		324.00000 
 43692.65567		 892.42725			42800.22842		223.26000		875.00000 
 43692.65567		 305.27265			43387.38302		70.74000		324.00000 
 43692.65567		 892.42725			42800.22842		223.26000		875.00000 
 43692.65567		 305.27265			43387.38302		70.74000		324.00000 
 43692.65567		 892.42725			42800.22842		223.26000		875.00000 
 43692.65567		 305.27265			43387.38302		70.74000		324.00000 
 43692.65567		 892.42725			42800.22842		223.26000		875.00000 
 43692.65567		 305.27265			43387.38302		70.74000		324.00000 
 43692.65567		 892.42725			42800.22842		223.26000		875.00000 
 43692.65567		 305.27265			43387.38302		70.74000		324.00000 
 43692.65567		 892.42725			42800.22842		223.26000		875.00000 
 43692.65567		 305.27265			43387.38302		70.74000		324.00000 
 43692.65567		 892.42725			42800.22842		223.26000		875.00000 
 43692.65567		 305.27265			43387.38302		70.74000		324.00000 
 43692.65567		 892.42725			42800.22842		223.26000		875.00000 
 43692.65567		 305.27265			43387.38302		70.74000		324.00000 
 43692.65567		 892.42725			42800.22842		223.26000		875.00000 
 43692.65567		 305.27265			43387.38302		70.74000		324.00000 
 43692.65567		 892.42725			42800.22842		223.26000		875.00000 
 43692.65567		 305.27265			43387.38302		70.74000		324.00000 
 43692.65567		 892.42725			42800.22842		223.26000		875.00000 
 43692.65567		 305.27265			43387.38302		70.74000		324.00000 
 43692.65567		 892.42725			42800.22842		223.26000		875.00000 
 43692.65567		 305.27265			43387.38302		70.74000		324.00000 
 43692.65567		 892.42725			42800.22842		223.26000		875.00000 
 43692.65567		 305.27265			43387.38302		70.74000		324.00000 
 43692.65567		 892.42725			42800.22842		223.26000		875.00000 
 43692.65567		 305.27265			43387.38302		70.74000		324.00000 
 43692.65567		 892.42725			42800.22842		223.26000		875.00000 
 43692.65567		 305.27265			43387.38302		70.74000		324.00000 
 43692.65567		 892.42725			42800.22842		223.26000		875.00000 
 43692.65567		 305.27265			43387.38302		70.74000		324.00000 
 43692.65567		 892.42725			42800.22842		223.26000		875.00000 
 43692.65567		 305.27265			43387.38302		70.74000		324.00000 
 43692.65567		 892.42725			42800.22842		223.26000		875.00000 
 43692.65567		 305.27265			43387.38302		70.74000		324.00000 
 43692.65567		 892.42725			42800.22842		223.26000		875.00000 
 43692.65567		 305.27265			43387.38302		70.74000		324.00000 
 43692.65567		 892.42725			42800.22842		223.26000		875.00000 
 43692.65567		 305.27265			43387.38302		70.74000		324.00000 
 43692.65567		 892.42725			42800.22842		223.26000		875.00000 
 43692.65567		 305.27265			43387.38302		70.74000		324.00000 
 43692.65567		 892.42725			42800.22842		223.26000		875.00000 
 43692.65567		 305.27265			43387.38302		70.74000		324.00000 
 43692.65567		 892.42725			42800.22842		223.26000		875.00000 
 43692.65567		 305.27265			43387.38302		70.74000		324.00000 
 43692.65567		 892.42725			42800.22842		223.26000		875.00000 
 43692.65567		 305.27265			43387.38302		70.74000		324.00000 
 43692.65567		 892.42725			42800.22842		223.26000		875.00000 
 43692.65567		 305.27265			43387.38302		70.74000		324.00000 
 43692.65567		 892.42725			42800.22842		223.26000		875.00000 
 43692.65567		 305.27265			43387.38302		70.74000		324.00000 
 43692.65567		 892.42725			42800.22842		223.26000		875.00000 
 43692.65567		 305.27265			43387.38302		70.74000		324.00000 
 43692.65567		 892.42725			42800.22842		223.26000		875.00000 
 43692.65567		 305.27265			43387.38302		70.74000		324.00000 
 43692.65567		 892.42725			42800.22842		223.26000		875.00000 
 43692.65567		 305.27265			43387.38302		70.74000		324.00000 
 43692.65567		 892.42725			42800.22842		223.26000		875.00000 
 43692.65567		 305.27265			43387.38302		70.74000		324.00000 
 43692.65567		 892.42725			42800.22842		223.26000		875.00000 
 43692.65567		 305.27265			43387.38302		70.74000		324.00000 
 43692.65567		 892.42725			42800.22842		223.26000		875.00000 
 43692.65567		 305.27265			43387.38302		70.74000		324.00000 
 43692.65567		 892.42725			42800.22842		223.26000		875.00000 
 43692.65567		 305.27265			43387.38302		70.74000		324.00000 
 43692.65567		 892.42725			42800.22842		223.26000		875.00000 
 43692.65567		 305.27265			43387.38302		70.74000		324.00000 
 43692.65567		 892.42725			42800.22842		223.26000		875.00000 
 43692.65567		 305.27265			43387.38302		70.74000		324.00000 
 43692.65567		 892.42725			42800.22842		223.26000		875.00000 
 43692.65567		 305.27265			43387.38302		70.74000		324.00000 
 43692.65567		 892.42725			42800.22842		223.26000		875.00000 
 43692.65567		 305.27265			43387.38302		70.74000		324.00000 
 43692.65567		 892.42725			42800.22842		223.26000		875.00000 
 43692.65567		 305.27265			43387.38302		70.74000		324.00000 
 43692.65567		 892.42725			42800.22842		223.26000		875.00000 
 43692.65567		 305.27265			43387.38302		70.74000		324.00000 
 43692.65567		 892.42725			42800.22842		223.26000		875.00000 
 43692.65567		 305.27265			43387.38302		70.74000		324.00000 
 43692.65567		 892.42725			42800.22842		223.26000		875.00000 
 43692.65567		 305.27265			43387.38302		70.74000		324.00000 
 43692.65567		 892.42725			42800.22842		223.26000		875.00000 
 43692.65567		 305.27265			43387.38302		70.74000		324.00000 
 43692.65567		 892.42725			42800.22842		223.26000		875.00000 
 43692.65567		 305.27265			43387.38302		70.74000		324.00000 
 43692.65567		 892.42725			42800.22842		223.26000		875.00000 
 43692.65567		 305.27265			43387.38302		70.74000		324.00000 
 43692.65567		 892.42725			42800.22842		223.26000		875.00000 
 43692.65567		 305.27265			43387.38302		70.74000		324.00000 
 43692.65567		 892.42725			42800.22842		223.26000		875.00000 
 43692.65567		 305.27265			43387.38302		70.74000		324.00000 
 43692.65567		 892.42725			42800.22842		223.26000		875.00000 
 43692.65567		 305.27265			43387.38302		70.74000		324.00000 
 43692.65567		 892.42725			42800.22842		223.26000		875.00000 
 43692.65567		 305.27265			43387.38302		70.74000		324.00000 
 43692.65567		 892.42725			42800.22842		223.26000		875.00000 
 43692.65567		 305.27265			43387.38302		70.74000		324.00000 
 43692.65567		 892.42725			42800.22842		223.26000		875.00000 
 43692.65567		 305.27265			43387.38302		70.74000		324.00000 
 43692.65567		 892.42725			42800.22842		223.26000		875.00000 
 43692.65567		 305.27265			43387.38302		70.74000		324.00000 
 43692.65567		 892.42725			42800.22842		223.26000		875.00000 
 43692.65567		 305.27265			43387.38302		70.74000		324.00000 
 43692.65567		 892.42725			42800.22842		223.26000		875.00000 
 43692.65567		 305.27265			43387.38302		70.74000		324.00000 
 43692.65567		 892.42725			42800.22842		223.26000		875.00000 
 43692.65567		 305.27265			43387.38302		70.74000		324.00000 
 43692.65567		 892.42725			42800.22842		223.26000		875.00000 
 43692.65567		 305.27265			43387.38302		70.74000		324.00000 
 43692.65567		 892.42725			42800.22842		223.26000		875.00000 
 43692.65567		 305.27265			43387.38302		70.74000		324.00000 
 43692.65567		 892.42725			42800.22842		223.26000		875.00000 
 43692.65567		 305.27265			43387.38302		70.74000		324.00000 
 43692.65567		 892.42725			42800.22842		223.26000		875.00000 
 43692.65567		 305.27265			43387.38302		70.74000		324.00000 
 43692.65567		 892.42725			42800.22842		223.26000		875.00000 
 43692.65567		 305.27265			43387.38302		70.74000		324.00000 
 43692.65567		 892.42725			42800.22842		223.26000		875.00000 
 43692.65567		 305.27265			43387.38302		70.74000		324.00000 
 43692.65567		 892.42725			42800.22842		223.26000		875.00000 
 43692.65567		 305.27265			43387.38302		70.74000		324.00000 
 43692.65567		 892.42725			42800.22842		222.66000		875.00000 
 43692.65567		 305.27265			43387.38302		70.74000		324.00000 
 43692.65567		 892.42725			42800.22842		222.66000		875.00000 
 43692.65567		 305.27265			43387.38302		70.74000		324.00000 
 43692.65567		 892.42725			42800.22842		222.66000		875.00000 
 43692.65567		 305.27265			43387.38302		70.74000		324.00000 
 43692.65567		 892.42725			42800.22842		222.66000		875.00000 
 43692.65567		 305.27265			43387.38302		70.74000		324.00000 
 43692.65567		 892.42725			42800.22842		222.66000		875.00000 
 43692.65567		 305.27265			43387.38302		70.74000		324.00000 
 43692.65567		 892.42725			42800.22842		222.66000		875.00000 
 43692.65567		 305.27265			43387.38302		70.74000		324.00000 
 43692.65567		 892.42725			42800.22842		222.66000		875.00000 
 43692.65567		 305.27265			43387.38302		70.74000		324.00000 
 43692.65567		 892.42725			42800.22842		222.66000		875.00000 
 43692.65567		 305.27265			43387.38302		70.74000		324.00000 
 43692.65567		 892.42725			42800.22842		222.66000		875.00000 
 43692.65567		 305.27265			43387.38302		70.74000		324.00000 
 43692.65567		 892.42725			42800.22842		222.66000		875.00000 
 43692.65567		 305.27265			43387.38302		70.74000		324.00000 
 43692.65567		 892.42725			42800.22842		222.66000		875.00000 
 43692.65567		 305.27265			43387.38302		70.74000		324.00000 
 43692.65567		 892.42725			42800.22842		222.66000		875.00000 
 43692.65567		 305.27265			43387.38302		70.74000		324.00000 
 43692.65567		 892.42725			42800.22842		222.66000		875.00000 
 43692.65567		 305.27265			43387.38302		70.74000		324.00000 
 43692.65567		 892.42725			42800.22842		222.66000		875.00000 
 43692.65567		 305.27265			43387.38302		70.74000		324.00000 
 43692.65567		 892.42725			42800.22842		222.66000		875.00000 
 43692.65567		 305.27265			43387.38302		70.74000		324.00000 
 43692.65567		 892.42725			42800.22842		222.66000		875.00000 
 43692.65567		 305.27265			43387.38302		70.74000		324.00000 
 43692.65567		 892.42725			42800.22842		222.66000		875.00000 
 43692.65567		 305.27265			43387.38302		70.74000		324.00000 
 43692.65567		 892.42725			42800.22842		222.66000		875.00000 
 43692.65567		 305.27265			43387.38302		70.74000		324.00000 
 43692.65567		 892.42725			42800.22842		222.66000		875.00000 
 43692.65567		 305.27265			43387.38302		70.74000		324.00000 
 43692.65567		 892.42725			42800.22842		222.66000		875.00000 
 43692.65567		 305.27265			43387.38302		70.74000		324.00000 
 43692.65567		 892.42725			42800.22842		222.66000		875.00000 
 43692.65567		 305.27265			43387.38302		70.74000		324.00000 
 43692.65567		 892.42725			42800.22842		222.66000		875.00000 
 43692.65567		 305.27265			43387.38302		70.74000		324.00000 
 43692.65567		 892.42725			42800.22842		222.66000		875.00000 
 43692.65567		 305.27265			43387.38302		70.74000		324.00000 
 43692.65567		 892.42725			42800.22842		222.66000		875.00000 
 43692.65567		 305.27265			43387.38302		70.74000		324.00000 
 43692.65567		 892.42725			42800.22842		222.66000		875.00000 
 43692.65567		 305.27265			43387.38302		70.74000		324.00000 
 43692.65567		 892.42725			42800.22842		222.66000		875.00000 
 43692.65567		 305.27265			43387.38302		70.74000		324.00000 
 43692.65567		 892.42725			42800.22842		222.66000		875.00000 
 43692.65567		 305.27265			43387.38302		70.74000		324.00000 
 43692.65567		 892.42725			42800.22842		222.66000		875.00000 
 43692.65567		 305.27265			43387.38302		70.74000		324.00000 
 43692.65567		 892.42725			42800.22842		222.66000		875.00000 
 43692.65567		 305.27265			43387.38302		70.74000		324.00000 
 43692.65567		 892.42725			42800.22842		222.66000		875.00000 
 43692.65567		 305.27265			43387.38302		70.74000		324.00000 
 43692.65567		 892.42725			42800.22842		222.66000		875.00000 
 43692.65567		 305.27265			43387.38302		70.74000		324.00000 
 43692.65567		 892.42725			42800.22842		222.66000		875.00000 
 43692.65567		 305.27265			43387.38302		70.74000		324.00000 
 43692.65567		 892.42725			42800.22842		222.66000		875.00000 
 43692.65567		 305.27265			43387.38302		70.74000		324.00000 
 43692.65567		 892.42725			42800.22842		222.66000		875.00000 
 43692.65567		 305.27265			43387.38302		70.74000		324.00000 
 43692.65567		 892.42725			42800.22842		222.66000		875.00000 
 43692.65567		 305.27265			43387.38302		70.74000		324.00000 
 43692.65567		 892.42725			42800.22842		222.66000		875.00000 
 43692.65567		 305.27265			43387.38302		70.74000		324.00000 
 43692.65567		 892.42725			42800.22842		222.66000		875.00000 
 43692.65567		 305.27265			43387.38302		70.74000		324.00000 
 43692.65567		 892.42725			42800.22842		222.66000		875.00000 
 43692.65567		 305.27265			43387.38302		70.74000		324.00000 
 43692.65567		 892.42725			42800.22842		222.66000		875.00000 
 43692.65567		 305.27265			43387.38302		70.74000		324.00000 
 43692.65567		 892.42725			42800.22842		222.66000		875.00000 
 43692.65567		 305.27265			43387.38302		70.74000		324.00000 
 43692.65567		 892.42725			42800.22842		222.66000		875.00000 
 43692.65567		 305.27265			43387.38302		70.74000		324.00000 
 43692.65567		 892.42725			42800.22842		222.66000		875.00000 
 43692.65567		 305.27265			43387.38302		70.74000		324.00000 
 43692.65567		 892.42725			42800.22842		222.66000		875.00000 
 43692.65567		 305.27265			43387.38302		70.74000		324.00000 
 43692.65567		 892.42725			42800.22842		222.66000		875.00000 
 43692.65567		 305.27265			43387.38302		70.74000		324.00000 
 43692.65567		 892.42725			42800.22842		222.66000		875.00000 
 43692.65567		 305.27265			43387.38302		70.74000		324.00000 
 43692.65567		 892.42725			42800.22842		222.66000		875.00000 
 43692.65567		 305.27265			43387.38302		70.74000		324.00000 
 43692.65567		 892.42725			42800.22842		222.66000		875.00000 
 43692.65567		 305.27265			43387.38302		70.74000		324.00000 
 43692.65567		 892.42725			42800.22842		222.66000		875.00000 
 43692.65567		 305.27265			43387.38302		70.74000		324.00000 
 43692.65567		 892.42725			42800.22842		222.66000		875.00000 
 43692.65567		 305.27265			43387.38302		70.74000		324.00000 
 43692.65567		 892.42725			42800.22842		222.66000		875.00000 
 43692.65567		 305.27265			43387.38302		70.74000		324.00000 
 43692.65567		 892.42725			42800.22842		222.66000		875.00000 
 43692.65567		 305.27265			43387.38302		70.74000		324.00000 
 43692.65567		 892.42725			42800.22842		222.66000		875.00000 
 43692.65567		 305.27265			43387.38302		70.74000		324.00000 
 43692.65567		 892.42725			42800.22842		222.66000		875.00000 
 43692.65567		 305.27265			43387.38302		70.74000		324.00000 
 43692.65567		 892.42725			42800.22842		222.66000		875.00000 
 43692.65567		 305.27265			43387.38302		70.74000		324.00000 
 43692.65567		 892.42725			42800.22842		222.66000		875.00000 
 43692.65567		 305.27265			43387.38302		70.74000		324.00000 
 43692.65567		 892.42725			42800.22842		222.66000		875.00000 
 43692.65567		 305.27265			43387.38302		70.74000		324.00000 
 43692.65567		 892.42725			42800.22842		222.66000		875.00000 
 43692.65567		 305.27265			43387.38302		70.74000		324.00000 
 43692.65567		 892.42725			42800.22842		222.66000		875.00000 
 43692.65567		 305.27265			43387.38302		70.74000		324.00000 
 43692.65567		 892.42725			42800.22842		222.66000		875.00000 
 43692.65567		 305.27265			43387.38302		70.74000		324.00000 
 43692.65567		 892.42725			42800.22842		222.66000		875.00000 
 43692.65567		 305.27265			43387.38302		70.74000		324.00000 
 43692.65567		 892.42725			42800.22842		222.66000		875.00000 
 43692.65567		 305.27265			43387.38302		70.74000		324.00000 
 43692.65567		 892.42725			42800.22842		222.66000		875.00000 
 43692.65567		 305.27265			43387.38302		70.74000		324.00000 
 43692.65567		 892.42725			42800.22842		222.66000		875.00000 
 43692.65567		 305.27265			43387.38302		70.74000		324.00000 
 43692.65567		 892.42725			42800.22842		222.66000		875.00000 
 43692.65567		 305.27265			43387.38302		70.74000		324.00000 
 43692.65567		 892.42725			42800.22842		222.66000		875.00000 
 43692.65567		 305.27265			43387.38302		70.74000		324.00000 
 43692.65567		 892.42725			42800.22842		222.66000		875.00000 
 43692.65567		 305.27265			43387.38302		70.74000		324.00000 
 43692.65567		 892.42725			42800.22842		222.66000		875.00000 
 43692.65567		 305.27265			43387.38302		70.74000		324.00000 
 43692.65567		 892.42725			42800.22842		222.66000		875.00000 
 43692.65567		 305.27265			43387.38302		70.74000		324.00000 
 43692.65567		 892.42725			42800.22842		222.66000		875.00000 
 43692.65567		 305.27265			43387.38302		70.74000		324.00000 
 43692.65567		 892.42725			42800.22842		222.66000		875.00000 
 43692.65567		 305.27265			43387.38302		70.74000		324.00000 
 43692.65567		 892.42725			42800.22842		222.66000		875.00000 
 43692.65567		 305.27265			43387.38302		70.74000		324.00000 
 43692.65567		 892.42725			42800.22842		222.66000		875.00000 
 43692.65567		 305.27265			43387.38302		70.74000		324.00000 
 43692.65567		 892.42725			42800.22842		222.66000		875.00000 
 43692.65567		 305.27265			43387.38302		70.74000		324.00000 
 43692.65567		 892.42725			42800.22842		222.66000		875.00000 
 43692.65567		 305.27265			43387.38302		70.74000		324.00000 
 43692.65567		 892.42725			42800.22842		222.66000		875.00000 
 43692.65567		 305.27265			43387.38302		70.74000		324.00000 
 43692.65567		 892.42725			42800.22842		222.66000		875.00000 
 43692.65567		 305.27265			43387.38302		70.74000		324.00000 
 43692.65567		 892.42725			42800.22842		222.66000		875.00000 
 43692.65567		 305.27265			43387.38302		70.74000		324.00000 
 43692.65567		 892.42725			42800.22842		222.66000		875.00000 
 43692.65567		 305.27265			43387.38302		70.74000		324.00000 
 43692.65567		 892.42725			42800.22842		222.66000		875.00000 
 43692.65567		 305.27265			43387.38302		70.74000		324.00000 
 43692.65567		 892.42725			42800.22842		222.66000		875.00000 
 43692.65567		 305.27265			43387.38302		70.74000		324.00000 
 43692.65567		 892.42725			42800.22842		222.66000		875.00000 
 43692.65567		 305.27265			43387.38302		70.74000		324.00000 
 43692.65567		 892.42725			42800.22842		222.66000		875.00000 
 43692.65567		 305.27265			43387.38302		70.74000		324.00000 
 43692.65567		 892.42725			42800.22842		222.66000		875.00000 
 43692.65567		 305.27265			43387.38302		70.74000		324.00000 
 43692.65567		 892.42725			42800.22842		222.66000		875.00000 
 43692.65567		 305.27265			43387.38302		70.74000		324.00000 
 43692.65567		 892.42725			42800.22842		222.66000		875.00000 
 43692.65567		 305.27265			43387.38302		70.74000		324.00000 
 43692.65567		 892.42725			42800.22842		222.66000		875.00000 
 43692.65567		 305.27265			43387.38302		70.74000		324.00000 
 43692.65567		 892.42725			42800.22842		222.66000		875.00000 
 43692.65567		 305.27265			43387.38302		70.74000		324.00000 
 43692.65567		 892.42725			42800.22842		222.66000		875.00000 
 43692.65567		 305.27265			43387.38302		70.74000		324.00000 
 43692.65567		 892.42725			42800.22842		222.66000		875.00000 
 43692.65567		 305.27265			43387.38302		70.74000		324.00000 
 43692.65567		 892.42725			42800.22842		222.66000		875.00000 
 43692.65567		 305.27265			43387.38302		70.74000		324.00000 
 43692.65567		 892.42725			42800.22842		222.66000		875.00000 
 43692.65567		 305.27265			43387.38302		70.74000		324.00000 
 43692.65567		 892.42725			42800.22842		222.66000		875.00000 
 43692.65567		 305.27265			43387.38302		70.74000		324.00000 
 43692.65567		 892.42725			42800.22842		222.66000		875.00000 
 43692.65567		 305.27265			43387.38302		70.74000		324.00000 
 43692.65567		 892.42725			42800.22842		222.66000		875.00000 
 43692.65567		 305.27265			43387.38302		70.74000		324.00000 
 43692.65567		 892.42725			42800.22842		222.66000		875.00000 
 43692.65567		 305.27265			43387.38302		70.74000		324.00000 
 43692.65567		 892.42725			42800.22842		222.66000		875.00000 
 43692.65567		 305.27265			43387.38302		70.74000		324.00000 
 43692.65567		 892.42725			42800.22842		222.66000		875.00000 
 43692.65567		 305.27265			43387.38302		70.74000		324.00000 
 43692.65567		 892.42725			42800.22842		222.66000		875.00000 
 43692.65567		 305.27265			43387.38302		70.74000		324.00000 
 43692.65567		 892.42725			42800.22842		222.66000		875.00000 
 43692.65567		 305.27265			43387.38302		70.74000		324.00000 
 43692.65567		 892.42725			42800.22842		222.66000		875.00000 
 43692.65567		 305.27265			43387.38302		70.74000		324.00000 
 43692.65567		 892.42725			42800.22842		222.66000		875.00000 
 43692.65567		 305.27265			43387.38302		70.74000		324.00000 
 43692.65567		 892.42725			42800.22842		222.66000		875.00000 
 43692.65567		 305.27265			43387.38302		70.74000		324.00000 
 43692.65567		 892.42725			42800.22842		222.66000		875.00000 
 43692.65567		 305.27265			43387.38302		70.74000		324.00000 
 43692.65567		 892.42725			42800.22842		222.66000		875.00000 
 43692.65567		 305.27265			43387.38302		70.74000		324.00000 
 43692.65567		 892.42725			42800.22842		222.66000		875.00000 
 43692.65567		 305.27265			43387.38302		70.74000		324.00000 
 43692.65567		 892.42725			42800.22842		222.66000		875.00000 
 43692.65567		 305.27265			43387.38302		70.74000		324.00000 
 43692.65567		 892.42725			42800.22842		222.66000		875.00000 
 43692.65567		 305.27265			43387.38302		70.74000		324.00000 
 43692.65567		 892.42725			42800.22842		222.66000		875.00000 
 43692.65567		 305.27265			43387.38302		70.74000		324.00000 
 43692.65567		 892.42725			42800.22842		222.66000		875.00000 
 43692.65567		 305.27265			43387.38302		70.74000		324.00000 
 43692.65567		 892.42725			42800.22842		222.66000		875.00000 
 43692.65567		 305.27265			43387.38302		70.74000		324.00000 
 43692.65567		 892.42725			42800.22842		222.66000		875.00000 
 43692.65567		 305.27265			43387.38302		70.74000		324.00000 
 43692.65567		 892.42725			42800.22842		222.66000		875.00000 
 43692.65567		 305.27265			43387.38302		70.74000		324.00000 
 43692.65567		 892.42725			42800.22842		222.66000		875.00000 
 43692.65567		 305.27265			43387.38302		70.74000		324.00000 
 43692.65567		 892.42725			42800.22842		222.66000		875.00000 
 43692.65567		 305.27265			43387.38302		70.74000		324.00000 
 43692.65567		 892.42725			42800.22842		222.66000		875.00000 
 43692.65567		 305.27265			43387.38302		70.74000		324.00000 
 43692.65567		 892.42725			42800.22842		222.66000		875.00000 
 43692.65567		 305.27265			43387.38302		70.74000		324.00000 
 43692.65567		 892.42725			42800.22842		222.66000		875.00000 
 43692.65567		 305.27265			43387.38302		70.74000		324.00000 
 43692.65567		 892.42725			42800.22842		222.66000		875.00000 
 43692.65567		 305.27265			43387.38302		70.74000		324.00000 
 43692.65567		 892.42725			42800.22842		222.66000		875.00000 
 43692.65567		 305.27265			43387.38302		70.74000		324.00000 
 43692.65567		 892.42725			42800.22842		222.66000		875.00000 
 43692.65567		 305.27265			43387.38302		70.74000		324.00000 
 43692.65567		 892.42725			42800.22842		222.66000		875.00000 
 43692.65567		 305.27265			43387.38302		70.74000		324.00000 
 43692.65567		 892.42725			42800.22842		222.66000		875.00000 
 43692.65567		 305.27265			43387.38302		70.74000		324.00000 
 43692.65567		 892.42725			42800.22842		222.66000		875.00000 
 43692.65567		 305.27265			43387.38302		70.74000		324.00000 
 43692.65567		 774.04161			42918.61407		222.66000		875.00000 
 43692.65567		 305.27265			43387.38302		70.74000		324.00000 
 43692.65567		 774.04161			42918.61407		222.66000		875.00000 
 43692.65567		 305.27265			43387.38302		70.74000		324.00000 
 43692.65567		 655.65596			43036.99971		222.66000		875.00000 
 43692.65567		 305.27265			43387.38302		70.74000		324.00000 
 43692.65567		 655.65596			43036.99971		222.66000		875.00000 
 43692.65567		 305.27265			43387.38302		70.74000		324.00000 
 43692.65567		 537.27032			43155.38535		222.66000		875.00000 
 43692.65567		 305.27265			43387.38302		70.74000		324.00000 
 43692.65567		 537.27032			43155.38535		222.66000		875.00000 
 43692.65567		 305.27265			43387.38302		70.74000		324.00000 
 43692.65567		 537.27032			43155.38535		214.14000		875.00000 
 43692.65567		 305.27265			43387.38302		70.74000		324.00000 
 43692.65567		 537.27032			43155.38535		214.14000		875.00000 
 43692.65567		 305.27265			43387.38302		70.74000		324.00000 
 43692.65567		 537.27032			43155.38535		214.14000		875.00000 
 43692.65567		 305.27265			43387.38302		70.74000		324.00000 
 43692.65567		 537.27032			43155.38535		214.14000		875.00000 
 43692.65567		 305.27265			43387.38302		70.74000		324.00000 
 43692.65567		 537.27032			43155.38535		214.14000		875.00000 
 43692.65567		 305.27265			43387.38302		70.74000		324.00000 
 43692.65567		 537.27032			43155.38535		214.14000		875.00000 
 43692.65567		 305.27265			43387.38302		70.74000		324.00000 
 43692.65567		 537.27032			43155.38535		214.14000		875.00000 
 43692.65567		 305.27265			43387.38302		70.74000		324.00000 
 43692.65567		 537.27032			43155.38535		214.14000		875.00000 
 43692.65567		 305.27265			43387.38302		70.74000		324.00000 
 43692.65567		 537.27032			43155.38535		214.14000		875.00000 
 43692.65567		 305.27265			43387.38302		70.74000		324.00000 
 43692.65567		 537.27032			43155.38535		214.14000		875.00000 
 43692.65567		 305.27265			43387.38302		70.74000		324.00000 
 43692.65567		 537.27032			43155.38535		214.14000		875.00000 
 43692.65567		 305.27265			43387.38302		70.74000		324.00000 
 43692.65567		 537.27032			43155.38535		214.14000		875.00000 
 43692.65567		 305.27265			43387.38302		70.74000		324.00000 
 43692.65567		 537.27032			43155.38535		214.14000		875.00000 
 43692.65567		 305.27265			43387.38302		70.74000		324.00000 
 43692.65567		 537.27032			43155.38535		214.14000		875.00000 
 43692.65567		 305.27265			43387.38302		70.74000		324.00000 
 43692.65567		 537.27032			43155.38535		214.14000		875.00000 
 43692.65567		 305.27265			43387.38302		70.74000		324.00000 
 43692.65567		 537.27032			43155.38535		214.14000		875.00000 
 43692.65567		 305.27265			43387.38302		70.74000		324.00000 
 43692.65567		 537.27032			43155.38535		214.14000		875.00000 
 43692.65567		 305.27265			43387.38302		70.74000		324.00000 
 43692.65567		 537.27032			43155.38535		214.14000		875.00000 
 43692.65567		 305.27265			43387.38302		70.74000		324.00000 
 43692.65567		 537.27032			43155.38535		214.14000		875.00000 
 43692.65567		 305.27265			43387.38302		70.74000		324.00000 
 43692.65567		 537.27032			43155.38535		214.14000		875.00000 
 43692.65567		 305.27265			43387.38302		70.74000		324.00000 
 43692.65567		 525.81365			43166.84203		214.14000		875.00000 
 43692.65567		 305.27265			43387.38302		70.74000		324.00000 
 43692.65567		 525.81365			43166.84203		214.14000		875.00000 
 43692.65567		 261.35540			43431.30027		70.74000		324.00000 
 43692.65567		 261.35540			43431.30027		214.14000		875.00000 
 43692.65567		 261.35540			43431.30027		70.74000		324.00000 
