Memory Total (MiB) 	 Memory Used (MiB) 	    Memory Free (MiB) 	 Power Drawed (W) 	 Clocks (Mhz) 	 
 43692.65567		 261.35540			43431.30027		180.73200		875.00000 
 43692.65567		 261.35540			43431.30027		65.60400		324.00000 
 43692.65567		 261.35540			43431.30027		180.73200		875.00000 
 43692.65567		 261.35540			43431.30027		65.60400		324.00000 
 43692.65567		 261.35540			43431.30027		180.73200		875.00000 
 43692.65567		 261.35540			43431.30027		65.60400		324.00000 
 43692.65567		 261.35540			43431.30027		180.73200		875.00000 
 43692.65567		 261.35540			43431.30027		65.60400		324.00000 
 43692.65567		 261.35540			43431.30027		180.73200		875.00000 
 43692.65567		 261.35540			43431.30027		65.60400		324.00000 
 43692.65567		 261.35540			43431.30027		180.73200		875.00000 
 43692.65567		 261.35540			43431.30027		65.60400		324.00000 
 43692.65567		 261.35540			43431.30027		180.73200		875.00000 
 43692.65567		 261.35540			43431.30027		65.60400		324.00000 
 43692.65567		 261.35540			43431.30027		180.73200		875.00000 
 43692.65567		 261.35540			43431.30027		65.60400		324.00000 
 43692.65567		 261.35540			43431.30027		180.73200		875.00000 
 43692.65567		 261.35540			43431.30027		65.60400		324.00000 
 43692.65567		 261.35540			43431.30027		180.73200		875.00000 
 43692.65567		 261.35540			43431.30027		65.60400		324.00000 
 43692.65567		 261.35540			43431.30027		180.73200		875.00000 
 43692.65567		 261.35540			43431.30027		65.60400		324.00000 
 43692.65567		 261.35540			43431.30027		180.73200		875.00000 
 43692.65567		 261.35540			43431.30027		65.60400		324.00000 
 43692.65567		 261.35540			43431.30027		180.73200		875.00000 
 43692.65567		 261.35540			43431.30027		65.60400		324.00000 
 43692.65567		 261.35540			43431.30027		180.73200		875.00000 
 43692.65567		 261.35540			43431.30027		65.60400		324.00000 
 43692.65567		 261.35540			43431.30027		180.73200		875.00000 
 43692.65567		 261.35540			43431.30027		65.60400		324.00000 
 43692.65567		 261.35540			43431.30027		180.73200		875.00000 
 43692.65567		 261.35540			43431.30027		65.60400		324.00000 
 43692.65567		 261.35540			43431.30027		180.73200		875.00000 
 43692.65567		 261.35540			43431.30027		65.60400		324.00000 
 43692.65567		 261.35540			43431.30027		180.73200		875.00000 
 43692.65567		 261.35540			43431.30027		65.60400		324.00000 
 43692.65567		 265.17429			43427.48138		180.73200		875.00000 
 43692.65567		 261.35540			43431.30027		65.60400		324.00000 
 43692.65567		 265.17429			43427.48138		180.73200		875.00000 
 43692.65567		 261.35540			43431.30027		65.60400		324.00000 
 43692.65567		 272.81207			43419.84360		180.73200		875.00000 
 43692.65567		 261.35540			43431.30027		65.60400		324.00000 
 43692.65567		 272.81207			43419.84360		180.73200		875.00000 
 43692.65567		 261.35540			43431.30027		65.60400		324.00000 
 43692.65567		 272.81207			43419.84360		180.73200		875.00000 
 43692.65567		 265.17429			43427.48138		65.60400		324.00000 
 43692.65567		 272.81207			43419.84360		180.73200		875.00000 
 43692.65567		 265.17429			43427.48138		65.60400		324.00000 
 43692.65567		 272.81207			43419.84360		180.73200		875.00000 
 43692.65567		 265.17429			43427.48138		65.60400		324.00000 
 43692.65567		 272.81207			43419.84360		180.73200		875.00000 
 43692.65567		 272.81207			43419.84360		65.60400		324.00000 
 43692.65567		 272.81207			43419.84360		180.73200		875.00000 
 43692.65567		 272.81207			43419.84360		65.60400		324.00000 
 43692.65567		 272.81207			43419.84360		180.73200		875.00000 
 43692.65567		 272.81207			43419.84360		65.60400		324.00000 
 43692.65567		 305.27265			43387.38302		180.73200		875.00000 
 43692.65567		 305.27265			43387.38302		65.60400		324.00000 
 43692.65567		 305.27265			43387.38302		150.00000		875.00000 
 43692.65567		 305.27265			43387.38302		65.60400		324.00000 
 43692.65567		 305.27265			43387.38302		150.00000		875.00000 
 43692.65567		 305.27265			43387.38302		65.60400		324.00000 
 43692.65567		 305.27265			43387.38302		150.00000		875.00000 
 43692.65567		 305.27265			43387.38302		65.60400		324.00000 
 43692.65567		 305.27265			43387.38302		150.00000		875.00000 
 43692.65567		 305.27265			43387.38302		65.60400		324.00000 
 43692.65567		 310.04627			43382.60941		150.00000		875.00000 
 43692.65567		 305.27265			43387.38302		65.60400		324.00000 
 43692.65567		 311.00099			43381.65468		150.00000		875.00000 
 43692.65567		 305.27265			43387.38302		65.60400		324.00000 
 43692.65567		 311.00099			43381.65468		150.00000		875.00000 
 43692.65567		 305.27265			43387.38302		65.60400		324.00000 
 43692.65567		 311.00099			43381.65468		150.00000		875.00000 
 43692.65567		 305.27265			43387.38302		65.60400		324.00000 
 43692.65567		 311.00099			43381.65468		150.00000		875.00000 
 43692.65567		 305.27265			43387.38302		65.60400		324.00000 
 43692.65567		 311.00099			43381.65468		150.00000		875.00000 
 43692.65567		 305.27265			43387.38302		65.60400		324.00000 
 43692.65567		 311.00099			43381.65468		150.00000		875.00000 
 43692.65567		 305.27265			43387.38302		65.60400		324.00000 
 43692.65567		 311.00099			43381.65468		150.00000		875.00000 
 43692.65567		 305.27265			43387.38302		65.60400		324.00000 
 43692.65567		 311.00099			43381.65468		150.00000		875.00000 
 43692.65567		 305.27265			43387.38302		65.60400		324.00000 
 43692.65567		 311.00099			43381.65468		150.00000		875.00000 
 43692.65567		 305.27265			43387.38302		65.60400		324.00000 
 43692.65567		 311.00099			43381.65468		150.00000		875.00000 
 43692.65567		 305.27265			43387.38302		65.60400		324.00000 
 43692.65567		 311.00099			43381.65468		150.00000		875.00000 
 43692.65567		 305.27265			43387.38302		65.60400		324.00000 
 43692.65567		 311.00099			43381.65468		150.00000		875.00000 
 43692.65567		 305.27265			43387.38302		65.60400		324.00000 
 43692.65567		 311.00099			43381.65468		150.00000		875.00000 
 43692.65567		 305.27265			43387.38302		65.60400		324.00000 
 43692.65567		 311.00099			43381.65468		150.00000		875.00000 
 43692.65567		 305.27265			43387.38302		65.60400		324.00000 
 43692.65567		 311.00099			43381.65468		150.00000		875.00000 
 43692.65567		 305.27265			43387.38302		65.60400		324.00000 
 43692.65567		 311.00099			43381.65468		150.00000		875.00000 
 43692.65567		 305.27265			43387.38302		65.60400		324.00000 
 43692.65567		 311.00099			43381.65468		150.00000		875.00000 
 43692.65567		 305.27265			43387.38302		65.60400		324.00000 
 43692.65567		 311.00099			43381.65468		150.00000		875.00000 
 43692.65567		 305.27265			43387.38302		65.60400		324.00000 
 43692.65567		 311.00099			43381.65468		150.00000		875.00000 
 43692.65567		 305.27265			43387.38302		65.60400		324.00000 
 43692.65567		 311.00099			43381.65468		150.00000		875.00000 
 43692.65567		 305.27265			43387.38302		65.60400		324.00000 
 43692.65567		 311.00099			43381.65468		150.00000		875.00000 
 43692.65567		 305.27265			43387.38302		65.60400		324.00000 
 43692.65567		 311.00099			43381.65468		150.00000		875.00000 
 43692.65567		 305.27265			43387.38302		65.60400		324.00000 
 43692.65567		 311.00099			43381.65468		150.00000		875.00000 
 43692.65567		 305.27265			43387.38302		65.60400		324.00000 
 43692.65567		 311.00099			43381.65468		150.00000		875.00000 
 43692.65567		 305.27265			43387.38302		65.60400		324.00000 
 43692.65567		 311.00099			43381.65468		150.00000		875.00000 
 43692.65567		 305.27265			43387.38302		65.60400		324.00000 
 43692.65567		 311.00099			43381.65468		150.00000		875.00000 
 43692.65567		 305.27265			43387.38302		65.60400		324.00000 
 43692.65567		 311.00099			43381.65468		150.00000		875.00000 
 43692.65567		 305.27265			43387.38302		65.60400		324.00000 
 43692.65567		 311.00099			43381.65468		137.98600		875.00000 
 43692.65567		 305.27265			43387.38302		65.60400		324.00000 
 43692.65567		 311.00099			43381.65468		137.98600		875.00000 
 43692.65567		 305.27265			43387.38302		65.60400		324.00000 
 43692.65567		 311.00099			43381.65468		137.98600		875.00000 
 43692.65567		 305.27265			43387.38302		65.60400		324.00000 
 43692.65567		 311.00099			43381.65468		137.98600		875.00000 
 43692.65567		 305.27265			43387.38302		65.60400		324.00000 
 43692.65567		 311.00099			43381.65468		137.98600		875.00000 
 43692.65567		 305.27265			43387.38302		65.60400		324.00000 
 43692.65567		 311.00099			43381.65468		137.98600		875.00000 
 43692.65567		 305.27265			43387.38302		65.60400		324.00000 
 43692.65567		 311.00099			43381.65468		137.98600		875.00000 
 43692.65567		 305.27265			43387.38302		65.60400		324.00000 
 43692.65567		 311.00099			43381.65468		137.98600		875.00000 
 43692.65567		 305.27265			43387.38302		65.60400		324.00000 
 43692.65567		 311.00099			43381.65468		137.98600		875.00000 
 43692.65567		 305.27265			43387.38302		65.60400		324.00000 
 43692.65567		 311.00099			43381.65468		137.98600		875.00000 
 43692.65567		 305.27265			43387.38302		65.60400		324.00000 
 43692.65567		 311.00099			43381.65468		137.98600		875.00000 
 43692.65567		 305.27265			43387.38302		65.60400		324.00000 
 43692.65567		 311.00099			43381.65468		137.98600		875.00000 
 43692.65567		 305.27265			43387.38302		65.60400		324.00000 
 43692.65567		 311.00099			43381.65468		137.98600		875.00000 
 43692.65567		 305.27265			43387.38302		65.60400		324.00000 
 43692.65567		 311.00099			43381.65468		137.98600		875.00000 
 43692.65567		 305.27265			43387.38302		65.60400		324.00000 
 43692.65567		 311.00099			43381.65468		137.98600		875.00000 
 43692.65567		 305.27265			43387.38302		65.60400		324.00000 
 43692.65567		 311.00099			43381.65468		137.98600		875.00000 
 43692.65567		 305.27265			43387.38302		65.60400		324.00000 
 43692.65567		 311.00099			43381.65468		137.98600		875.00000 
 43692.65567		 305.27265			43387.38302		65.60400		324.00000 
 43692.65567		 311.00099			43381.65468		137.98600		875.00000 
 43692.65567		 305.27265			43387.38302		65.60400		324.00000 
 43692.65567		 311.00099			43381.65468		137.98600		875.00000 
 43692.65567		 305.27265			43387.38302		65.60400		324.00000 
 43692.65567		 311.00099			43381.65468		137.98600		875.00000 
 43692.65567		 305.27265			43387.38302		65.60400		324.00000 
 43692.65567		 311.00099			43381.65468		137.98600		875.00000 
 43692.65567		 305.27265			43387.38302		65.60400		324.00000 
 43692.65567		 311.00099			43381.65468		137.98600		875.00000 
 43692.65567		 305.27265			43387.38302		65.60400		324.00000 
 43692.65567		 311.00099			43381.65468		137.98600		875.00000 
 43692.65567		 305.27265			43387.38302		65.60400		324.00000 
 43692.65567		 314.81988			43377.83579		137.98600		875.00000 
 43692.65567		 305.27265			43387.38302		65.60400		324.00000 
 43692.65567		 314.81988			43377.83579		137.98600		875.00000 
 43692.65567		 305.27265			43387.38302		65.60400		324.00000 
 43692.65567		 314.81988			43377.83579		137.98600		875.00000 
 43692.65567		 305.27265			43387.38302		65.60400		324.00000 
 43692.65567		 318.63877			43374.01690		137.98600		875.00000 
 43692.65567		 305.27265			43387.38302		65.60400		324.00000 
 43692.65567		 322.45767			43370.19801		137.98600		875.00000 
 43692.65567		 305.27265			43387.38302		65.60400		324.00000 
 43692.65567		 326.27656			43366.37912		137.98600		875.00000 
 43692.65567		 305.27265			43387.38302		65.60400		324.00000 
 43692.65567		 326.27656			43366.37912		137.98600		875.00000 
 43692.65567		 305.27265			43387.38302		65.60400		324.00000 
 43692.65567		 326.27656			43366.37912		137.98600		875.00000 
 43692.65567		 305.27265			43387.38302		65.60400		324.00000 
 43692.65567		 326.27656			43366.37912		137.98600		875.00000 
 43692.65567		 305.27265			43387.38302		65.60400		324.00000 
 43692.65567		 537.27032			43155.38535		137.98600		875.00000 
 43692.65567		 305.27265			43387.38302		65.60400		324.00000 
 43692.65567		 588.82536			43103.83031		133.38400		875.00000 
 43692.65567		 305.27265			43387.38302		65.60400		324.00000 
 43692.65567		 614.60288			43078.05279		133.38400		875.00000 
 43692.65567		 305.27265			43387.38302		65.60400		324.00000 
 43692.65567		 614.60288			43078.05279		133.38400		875.00000 
 43692.65567		 305.27265			43387.38302		65.60400		324.00000 
 43692.65567		 614.60288			43078.05279		133.38400		875.00000 
 43692.65567		 305.27265			43387.38302		65.60400		324.00000 
 43692.65567		 614.60288			43078.05279		133.38400		875.00000 
 43692.65567		 305.27265			43387.38302		65.60400		324.00000 
 43692.65567		 614.60288			43078.05279		133.38400		875.00000 
 43692.65567		 305.27265			43387.38302		65.60400		324.00000 
 43692.65567		 614.60288			43078.05279		133.38400		875.00000 
 43692.65567		 305.27265			43387.38302		65.60400		324.00000 
 43692.65567		 614.60288			43078.05279		133.38400		875.00000 
 43692.65567		 305.27265			43387.38302		65.60400		324.00000 
 43692.65567		 614.60288			43078.05279		133.38400		875.00000 
 43692.65567		 305.27265			43387.38302		65.60400		324.00000 
 43692.65567		 614.60288			43078.05279		133.38400		875.00000 
 43692.65567		 305.27265			43387.38302		65.60400		324.00000 
 43692.65567		 614.60288			43078.05279		133.38400		875.00000 
 43692.65567		 305.27265			43387.38302		65.60400		324.00000 
 43692.65567		 614.60288			43078.05279		133.38400		875.00000 
 43692.65567		 305.27265			43387.38302		65.60400		324.00000 
 43692.65567		 614.60288			43078.05279		133.38400		875.00000 
 43692.65567		 305.27265			43387.38302		65.60400		324.00000 
 43692.65567		 614.60288			43078.05279		133.38400		875.00000 
 43692.65567		 305.27265			43387.38302		65.60400		324.00000 
 43692.65567		 614.60288			43078.05279		133.38400		875.00000 
 43692.65567		 305.27265			43387.38302		65.60400		324.00000 
 43692.65567		 614.60288			43078.05279		133.38400		875.00000 
 43692.65567		 305.27265			43387.38302		65.60400		324.00000 
 43692.65567		 614.60288			43078.05279		133.38400		875.00000 
 43692.65567		 305.27265			43387.38302		65.60400		324.00000 
 43692.65567		 614.60288			43078.05279		133.38400		875.00000 
 43692.65567		 305.27265			43387.38302		65.60400		324.00000 
 43692.65567		 614.60288			43078.05279		133.38400		875.00000 
 43692.65567		 305.27265			43387.38302		65.60400		324.00000 
 43692.65567		 614.60288			43078.05279		133.38400		875.00000 
 43692.65567		 305.27265			43387.38302		65.60400		324.00000 
 43692.65567		 614.60288			43078.05279		133.38400		875.00000 
 43692.65567		 305.27265			43387.38302		65.60400		324.00000 
 43692.65567		 614.60288			43078.05279		133.38400		875.00000 
 43692.65567		 305.27265			43387.38302		65.60400		324.00000 
 43692.65567		 614.60288			43078.05279		133.38400		875.00000 
 43692.65567		 305.27265			43387.38302		65.60400		324.00000 
 43692.65567		 614.60288			43078.05279		133.38400		875.00000 
 43692.65567		 305.27265			43387.38302		65.60400		324.00000 
 43692.65567		 614.60288			43078.05279		133.38400		875.00000 
 43692.65567		 305.27265			43387.38302		65.60400		324.00000 
 43692.65567		 614.60288			43078.05279		133.38400		875.00000 
 43692.65567		 305.27265			43387.38302		65.60400		324.00000 
 43692.65567		 614.60288			43078.05279		133.38400		875.00000 
 43692.65567		 305.27265			43387.38302		65.60400		324.00000 
 43692.65567		 614.60288			43078.05279		133.38400		875.00000 
 43692.65567		 305.27265			43387.38302		65.60400		324.00000 
 43692.65567		 614.60288			43078.05279		133.38400		875.00000 
 43692.65567		 305.27265			43387.38302		65.60400		324.00000 
 43692.65567		 614.60288			43078.05279		133.38400		875.00000 
 43692.65567		 305.27265			43387.38302		65.60400		324.00000 
 43692.65567		 614.60288			43078.05279		133.38400		875.00000 
 43692.65567		 305.27265			43387.38302		65.60400		324.00000 
 43692.65567		 614.60288			43078.05279		133.38400		875.00000 
 43692.65567		 305.27265			43387.38302		65.60400		324.00000 
 43692.65567		 614.60288			43078.05279		133.38400		875.00000 
 43692.65567		 305.27265			43387.38302		65.60400		324.00000 
 43692.65567		 614.60288			43078.05279		133.38400		875.00000 
 43692.65567		 305.27265			43387.38302		65.60400		324.00000 
 43692.65567		 614.60288			43078.05279		133.38400		875.00000 
 43692.65567		 305.27265			43387.38302		65.60400		324.00000 
 43692.65567		 614.60288			43078.05279		133.38400		875.00000 
 43692.65567		 305.27265			43387.38302		65.60400		324.00000 
 43692.65567		 614.60288			43078.05279		133.38400		875.00000 
 43692.65567		 305.27265			43387.38302		65.60400		324.00000 
 43692.65567		 614.60288			43078.05279		133.38400		875.00000 
 43692.65567		 305.27265			43387.38302		65.60400		324.00000 
 43692.65567		 614.60288			43078.05279		133.38400		875.00000 
 43692.65567		 305.27265			43387.38302		65.60400		324.00000 
 43692.65567		 614.60288			43078.05279		133.38400		875.00000 
 43692.65567		 305.27265			43387.38302		65.60400		324.00000 
 43692.65567		 614.60288			43078.05279		133.38400		875.00000 
 43692.65567		 305.27265			43387.38302		65.60400		324.00000 
 43692.65567		 614.60288			43078.05279		133.38400		875.00000 
 43692.65567		 305.27265			43387.38302		65.60400		324.00000 
 43692.65567		 614.60288			43078.05279		133.38400		875.00000 
 43692.65567		 305.27265			43387.38302		65.60400		324.00000 
 43692.65567		 614.60288			43078.05279		133.38400		875.00000 
 43692.65567		 305.27265			43387.38302		65.60400		324.00000 
 43692.65567		 614.60288			43078.05279		133.38400		875.00000 
 43692.65567		 305.27265			43387.38302		65.60400		324.00000 
 43692.65567		 614.60288			43078.05279		133.38400		875.00000 
 43692.65567		 305.27265			43387.38302		65.60400		324.00000 
 43692.65567		 614.60288			43078.05279		133.38400		875.00000 
 43692.65567		 305.27265			43387.38302		65.60400		324.00000 
 43692.65567		 614.60288			43078.05279		133.38400		875.00000 
 43692.65567		 305.27265			43387.38302		65.60400		324.00000 
 43692.65567		 614.60288			43078.05279		133.38400		875.00000 
 43692.65567		 305.27265			43387.38302		65.60400		324.00000 
 43692.65567		 614.60288			43078.05279		133.38400		875.00000 
 43692.65567		 305.27265			43387.38302		65.60400		324.00000 
 43692.65567		 614.60288			43078.05279		133.38400		875.00000 
 43692.65567		 305.27265			43387.38302		65.60400		324.00000 
 43692.65567		 614.60288			43078.05279		133.38400		875.00000 
 43692.65567		 305.27265			43387.38302		65.60400		324.00000 
 43692.65567		 614.60288			43078.05279		133.38400		875.00000 
 43692.65567		 305.27265			43387.38302		65.60400		324.00000 
 43692.65567		 614.60288			43078.05279		133.38400		875.00000 
 43692.65567		 305.27265			43387.38302		65.60400		324.00000 
 43692.65567		 614.60288			43078.05279		133.38400		875.00000 
 43692.65567		 305.27265			43387.38302		65.60400		324.00000 
 43692.65567		 614.60288			43078.05279		133.38400		875.00000 
 43692.65567		 305.27265			43387.38302		65.60400		324.00000 
 43692.65567		 614.60288			43078.05279		133.38400		875.00000 
 43692.65567		 305.27265			43387.38302		65.60400		324.00000 
 43692.65567		 614.60288			43078.05279		133.38400		875.00000 
 43692.65567		 305.27265			43387.38302		65.60400		324.00000 
 43692.65567		 614.60288			43078.05279		133.38400		875.00000 
 43692.65567		 305.27265			43387.38302		65.60400		324.00000 
 43692.65567		 614.60288			43078.05279		133.38400		875.00000 
 43692.65567		 305.27265			43387.38302		65.60400		324.00000 
 43692.65567		 614.60288			43078.05279		133.38400		875.00000 
 43692.65567		 305.27265			43387.38302		65.60400		324.00000 
 43692.65567		 614.60288			43078.05279		133.38400		875.00000 
 43692.65567		 305.27265			43387.38302		65.60400		324.00000 
 43692.65567		 614.60288			43078.05279		133.38400		875.00000 
 43692.65567		 305.27265			43387.38302		65.60400		324.00000 
 43692.65567		 614.60288			43078.05279		133.38400		875.00000 
 43692.65567		 305.27265			43387.38302		65.60400		324.00000 
 43692.65567		 614.60288			43078.05279		183.51000		875.00000 
 43692.65567		 305.27265			43387.38302		65.60400		324.00000 
 43692.65567		 614.60288			43078.05279		183.51000		875.00000 
 43692.65567		 305.27265			43387.38302		65.60400		324.00000 
 43692.65567		 614.60288			43078.05279		183.51000		875.00000 
 43692.65567		 305.27265			43387.38302		65.60400		324.00000 
 43692.65567		 614.60288			43078.05279		183.51000		875.00000 
 43692.65567		 305.27265			43387.38302		65.60400		324.00000 
 43692.65567		 614.60288			43078.05279		183.51000		875.00000 
 43692.65567		 305.27265			43387.38302		65.60400		324.00000 
 43692.65567		 614.60288			43078.05279		183.51000		875.00000 
 43692.65567		 305.27265			43387.38302		65.60400		324.00000 
 43692.65567		 614.60288			43078.05279		183.51000		875.00000 
 43692.65567		 305.27265			43387.38302		65.60400		324.00000 
 43692.65567		 614.60288			43078.05279		183.51000		875.00000 
 43692.65567		 305.27265			43387.38302		65.60400		324.00000 
 43692.65567		 614.60288			43078.05279		183.51000		875.00000 
 43692.65567		 305.27265			43387.38302		65.60400		324.00000 
 43692.65567		 614.60288			43078.05279		183.51000		875.00000 
 43692.65567		 305.27265			43387.38302		65.60400		324.00000 
 43692.65567		 614.60288			43078.05279		183.51000		875.00000 
 43692.65567		 305.27265			43387.38302		65.60400		324.00000 
 43692.65567		 614.60288			43078.05279		183.51000		875.00000 
 43692.65567		 305.27265			43387.38302		65.60400		324.00000 
 43692.65567		 614.60288			43078.05279		183.51000		875.00000 
 43692.65567		 305.27265			43387.38302		65.60400		324.00000 
 43692.65567		 614.60288			43078.05279		183.51000		875.00000 
 43692.65567		 305.27265			43387.38302		65.60400		324.00000 
 43692.65567		 614.60288			43078.05279		183.51000		875.00000 
 43692.65567		 305.27265			43387.38302		65.60400		324.00000 
 43692.65567		 614.60288			43078.05279		183.51000		875.00000 
 43692.65567		 305.27265			43387.38302		65.60400		324.00000 
 43692.65567		 614.60288			43078.05279		183.51000		875.00000 
 43692.65567		 305.27265			43387.38302		65.60400		324.00000 
 43692.65567		 614.60288			43078.05279		183.51000		875.00000 
 43692.65567		 305.27265			43387.38302		65.60400		324.00000 
 43692.65567		 614.60288			43078.05279		183.51000		875.00000 
 43692.65567		 305.27265			43387.38302		65.60400		324.00000 
 43692.65567		 614.60288			43078.05279		183.51000		875.00000 
 43692.65567		 305.27265			43387.38302		65.60400		324.00000 
 43692.65567		 614.60288			43078.05279		183.51000		875.00000 
 43692.65567		 305.27265			43387.38302		65.60400		324.00000 
 43692.65567		 614.60288			43078.05279		183.51000		875.00000 
 43692.65567		 305.27265			43387.38302		65.60400		324.00000 
 43692.65567		 614.60288			43078.05279		183.51000		875.00000 
 43692.65567		 305.27265			43387.38302		65.60400		324.00000 
 43692.65567		 614.60288			43078.05279		183.51000		875.00000 
 43692.65567		 305.27265			43387.38302		65.60400		324.00000 
 43692.65567		 614.60288			43078.05279		183.51000		875.00000 
 43692.65567		 305.27265			43387.38302		65.60400		324.00000 
 43692.65567		 614.60288			43078.05279		183.51000		875.00000 
 43692.65567		 305.27265			43387.38302		65.60400		324.00000 
 43692.65567		 614.60288			43078.05279		183.51000		875.00000 
 43692.65567		 305.27265			43387.38302		65.60400		324.00000 
 43692.65567		 614.60288			43078.05279		183.51000		875.00000 
 43692.65567		 305.27265			43387.38302		65.60400		324.00000 
 43692.65567		 614.60288			43078.05279		183.51000		875.00000 
 43692.65567		 305.27265			43387.38302		65.60400		324.00000 
 43692.65567		 614.60288			43078.05279		183.51000		875.00000 
 43692.65567		 305.27265			43387.38302		65.60400		324.00000 
 43692.65567		 614.60288			43078.05279		183.51000		875.00000 
 43692.65567		 305.27265			43387.38302		65.60400		324.00000 
 43692.65567		 614.60288			43078.05279		183.51000		875.00000 
 43692.65567		 305.27265			43387.38302		65.60400		324.00000 
 43692.65567		 614.60288			43078.05279		183.51000		875.00000 
 43692.65567		 305.27265			43387.38302		65.60400		324.00000 
 43692.65567		 614.60288			43078.05279		183.51000		875.00000 
 43692.65567		 305.27265			43387.38302		65.60400		324.00000 
 43692.65567		 614.60288			43078.05279		183.51000		875.00000 
 43692.65567		 305.27265			43387.38302		65.60400		324.00000 
 43692.65567		 614.60288			43078.05279		183.51000		875.00000 
 43692.65567		 305.27265			43387.38302		65.60400		324.00000 
 43692.65567		 614.60288			43078.05279		183.51000		875.00000 
 43692.65567		 305.27265			43387.38302		65.60400		324.00000 
 43692.65567		 614.60288			43078.05279		183.51000		875.00000 
 43692.65567		 305.27265			43387.38302		65.60400		324.00000 
 43692.65567		 614.60288			43078.05279		183.51000		875.00000 
 43692.65567		 305.27265			43387.38302		65.60400		324.00000 
 43692.65567		 614.60288			43078.05279		183.51000		875.00000 
 43692.65567		 305.27265			43387.38302		65.60400		324.00000 
 43692.65567		 614.60288			43078.05279		183.51000		875.00000 
 43692.65567		 305.27265			43387.38302		65.60400		324.00000 
 43692.65567		 614.60288			43078.05279		183.51000		875.00000 
 43692.65567		 305.27265			43387.38302		65.60400		324.00000 
 43692.65567		 614.60288			43078.05279		183.51000		875.00000 
 43692.65567		 305.27265			43387.38302		65.60400		324.00000 
 43692.65567		 614.60288			43078.05279		183.51000		875.00000 
 43692.65567		 305.27265			43387.38302		65.60400		324.00000 
 43692.65567		 614.60288			43078.05279		183.51000		875.00000 
 43692.65567		 305.27265			43387.38302		65.60400		324.00000 
 43692.65567		 614.60288			43078.05279		183.51000		875.00000 
 43692.65567		 305.27265			43387.38302		65.60400		324.00000 
 43692.65567		 614.60288			43078.05279		183.51000		875.00000 
 43692.65567		 305.27265			43387.38302		65.60400		324.00000 
 43692.65567		 614.60288			43078.05279		183.51000		875.00000 
 43692.65567		 305.27265			43387.38302		65.60400		324.00000 
 43692.65567		 614.60288			43078.05279		183.51000		875.00000 
 43692.65567		 305.27265			43387.38302		65.60400		324.00000 
 43692.65567		 614.60288			43078.05279		183.51000		875.00000 
 43692.65567		 305.27265			43387.38302		65.60400		324.00000 
 43692.65567		 614.60288			43078.05279		183.51000		875.00000 
 43692.65567		 305.27265			43387.38302		65.60400		324.00000 
 43692.65567		 614.60288			43078.05279		183.51000		875.00000 
 43692.65567		 305.27265			43387.38302		65.60400		324.00000 
 43692.65567		 614.60288			43078.05279		183.51000		875.00000 
 43692.65567		 305.27265			43387.38302		65.60400		324.00000 
 43692.65567		 614.60288			43078.05279		183.51000		875.00000 
 43692.65567		 305.27265			43387.38302		65.60400		324.00000 
 43692.65567		 614.60288			43078.05279		183.51000		875.00000 
 43692.65567		 305.27265			43387.38302		65.60400		324.00000 
 43692.65567		 614.60288			43078.05279		183.51000		875.00000 
 43692.65567		 305.27265			43387.38302		65.60400		324.00000 
 43692.65567		 614.60288			43078.05279		183.51000		875.00000 
 43692.65567		 305.27265			43387.38302		65.60400		324.00000 
 43692.65567		 614.60288			43078.05279		183.51000		875.00000 
 43692.65567		 305.27265			43387.38302		65.60400		324.00000 
 43692.65567		 614.60288			43078.05279		183.51000		875.00000 
 43692.65567		 305.27265			43387.38302		65.60400		324.00000 
 43692.65567		 614.60288			43078.05279		183.51000		875.00000 
 43692.65567		 305.27265			43387.38302		65.60400		324.00000 
 43692.65567		 614.60288			43078.05279		183.51000		875.00000 
 43692.65567		 305.27265			43387.38302		65.60400		324.00000 
 43692.65567		 614.60288			43078.05279		183.51000		875.00000 
 43692.65567		 305.27265			43387.38302		65.60400		324.00000 
 43692.65567		 614.60288			43078.05279		183.51000		875.00000 
 43692.65567		 305.27265			43387.38302		65.60400		324.00000 
 43692.65567		 614.60288			43078.05279		183.51000		875.00000 
 43692.65567		 305.27265			43387.38302		65.60400		324.00000 
 43692.65567		 614.60288			43078.05279		204.29000		875.00000 
 43692.65567		 305.27265			43387.38302		65.60400		324.00000 
 43692.65567		 614.60288			43078.05279		204.29000		875.00000 
 43692.65567		 305.27265			43387.38302		65.60400		324.00000 
 43692.65567		 614.60288			43078.05279		204.29000		875.00000 
 43692.65567		 305.27265			43387.38302		65.60400		324.00000 
 43692.65567		 614.60288			43078.05279		204.29000		875.00000 
 43692.65567		 305.27265			43387.38302		65.60400		324.00000 
 43692.65567		 614.60288			43078.05279		204.29000		875.00000 
 43692.65567		 305.27265			43387.38302		65.60400		324.00000 
 43692.65567		 614.60288			43078.05279		204.29000		875.00000 
 43692.65567		 305.27265			43387.38302		65.60400		324.00000 
 43692.65567		 614.60288			43078.05279		204.29000		875.00000 
 43692.65567		 305.27265			43387.38302		65.60400		324.00000 
 43692.65567		 614.60288			43078.05279		204.29000		875.00000 
 43692.65567		 305.27265			43387.38302		65.60400		324.00000 
 43692.65567		 614.60288			43078.05279		204.29000		875.00000 
 43692.65567		 305.27265			43387.38302		65.60400		324.00000 
 43692.65567		 614.60288			43078.05279		204.29000		875.00000 
 43692.65567		 305.27265			43387.38302		65.60400		324.00000 
 43692.65567		 614.60288			43078.05279		204.29000		875.00000 
 43692.65567		 305.27265			43387.38302		65.60400		324.00000 
 43692.65567		 614.60288			43078.05279		204.29000		875.00000 
 43692.65567		 305.27265			43387.38302		65.60400		324.00000 
 43692.65567		 614.60288			43078.05279		204.29000		875.00000 
 43692.65567		 305.27265			43387.38302		65.60400		324.00000 
 43692.65567		 614.60288			43078.05279		204.29000		875.00000 
 43692.65567		 305.27265			43387.38302		65.60400		324.00000 
 43692.65567		 614.60288			43078.05279		204.29000		875.00000 
 43692.65567		 305.27265			43387.38302		65.60400		324.00000 
 43692.65567		 614.60288			43078.05279		204.29000		875.00000 
 43692.65567		 305.27265			43387.38302		65.60400		324.00000 
 43692.65567		 614.60288			43078.05279		204.29000		875.00000 
 43692.65567		 305.27265			43387.38302		65.60400		324.00000 
 43692.65567		 614.60288			43078.05279		204.29000		875.00000 
 43692.65567		 305.27265			43387.38302		65.60400		324.00000 
 43692.65567		 614.60288			43078.05279		204.29000		875.00000 
 43692.65567		 305.27265			43387.38302		65.60400		324.00000 
 43692.65567		 614.60288			43078.05279		204.29000		875.00000 
 43692.65567		 305.27265			43387.38302		65.60400		324.00000 
 43692.65567		 614.60288			43078.05279		204.29000		875.00000 
 43692.65567		 305.27265			43387.38302		65.60400		324.00000 
 43692.65567		 614.60288			43078.05279		204.29000		875.00000 
 43692.65567		 305.27265			43387.38302		65.60400		324.00000 
 43692.65567		 614.60288			43078.05279		204.29000		875.00000 
 43692.65567		 305.27265			43387.38302		65.60400		324.00000 
 43692.65567		 614.60288			43078.05279		204.29000		875.00000 
 43692.65567		 305.27265			43387.38302		69.65600		324.00000 
 43692.65567		 614.60288			43078.05279		204.29000		875.00000 
 43692.65567		 305.27265			43387.38302		69.65600		324.00000 
 43692.65567		 614.60288			43078.05279		204.29000		875.00000 
 43692.65567		 305.27265			43387.38302		69.65600		324.00000 
 43692.65567		 614.60288			43078.05279		204.29000		875.00000 
 43692.65567		 305.27265			43387.38302		69.65600		324.00000 
 43692.65567		 614.60288			43078.05279		204.29000		875.00000 
 43692.65567		 305.27265			43387.38302		69.65600		324.00000 
 43692.65567		 614.60288			43078.05279		204.29000		875.00000 
 43692.65567		 305.27265			43387.38302		69.65600		324.00000 
 43692.65567		 614.60288			43078.05279		204.29000		875.00000 
 43692.65567		 305.27265			43387.38302		69.65600		324.00000 
 43692.65567		 614.60288			43078.05279		204.29000		875.00000 
 43692.65567		 305.27265			43387.38302		69.65600		324.00000 
 43692.65567		 614.60288			43078.05279		204.29000		875.00000 
 43692.65567		 305.27265			43387.38302		69.65600		324.00000 
 43692.65567		 614.60288			43078.05279		204.29000		875.00000 
 43692.65567		 305.27265			43387.38302		69.65600		324.00000 
 43692.65567		 614.60288			43078.05279		204.29000		875.00000 
 43692.65567		 305.27265			43387.38302		69.65600		324.00000 
 43692.65567		 614.60288			43078.05279		204.29000		875.00000 
 43692.65567		 305.27265			43387.38302		69.65600		324.00000 
 43692.65567		 614.60288			43078.05279		204.29000		875.00000 
 43692.65567		 305.27265			43387.38302		69.65600		324.00000 
 43692.65567		 614.60288			43078.05279		204.29000		875.00000 
 43692.65567		 305.27265			43387.38302		69.65600		324.00000 
 43692.65567		 614.60288			43078.05279		204.29000		875.00000 
 43692.65567		 305.27265			43387.38302		69.65600		324.00000 
 43692.65567		 614.60288			43078.05279		204.29000		875.00000 
 43692.65567		 305.27265			43387.38302		69.65600		324.00000 
 43692.65567		 614.60288			43078.05279		204.29000		875.00000 
 43692.65567		 305.27265			43387.38302		69.65600		324.00000 
 43692.65567		 614.60288			43078.05279		204.29000		875.00000 
 43692.65567		 305.27265			43387.38302		69.65600		324.00000 
 43692.65567		 614.60288			43078.05279		204.29000		875.00000 
 43692.65567		 305.27265			43387.38302		69.65600		324.00000 
 43692.65567		 614.60288			43078.05279		204.29000		875.00000 
 43692.65567		 305.27265			43387.38302		69.65600		324.00000 
 43692.65567		 614.60288			43078.05279		204.29000		875.00000 
 43692.65567		 305.27265			43387.38302		69.65600		324.00000 
 43692.65567		 614.60288			43078.05279		204.29000		875.00000 
 43692.65567		 305.27265			43387.38302		69.65600		324.00000 
 43692.65567		 614.60288			43078.05279		204.29000		875.00000 
 43692.65567		 305.27265			43387.38302		69.65600		324.00000 
 43692.65567		 614.60288			43078.05279		204.29000		875.00000 
 43692.65567		 305.27265			43387.38302		69.65600		324.00000 
 43692.65567		 614.60288			43078.05279		204.29000		875.00000 
 43692.65567		 305.27265			43387.38302		69.65600		324.00000 
 43692.65567		 614.60288			43078.05279		204.29000		875.00000 
 43692.65567		 305.27265			43387.38302		69.65600		324.00000 
 43692.65567		 614.60288			43078.05279		204.29000		875.00000 
 43692.65567		 305.27265			43387.38302		69.65600		324.00000 
 43692.65567		 614.60288			43078.05279		204.29000		875.00000 
 43692.65567		 305.27265			43387.38302		69.65600		324.00000 
 43692.65567		 614.60288			43078.05279		204.29000		875.00000 
 43692.65567		 305.27265			43387.38302		69.65600		324.00000 
 43692.65567		 614.60288			43078.05279		204.29000		875.00000 
 43692.65567		 305.27265			43387.38302		69.65600		324.00000 
 43692.65567		 614.60288			43078.05279		204.29000		875.00000 
 43692.65567		 305.27265			43387.38302		69.65600		324.00000 
 43692.65567		 614.60288			43078.05279		204.29000		875.00000 
 43692.65567		 305.27265			43387.38302		69.65600		324.00000 
 43692.65567		 614.60288			43078.05279		204.29000		875.00000 
 43692.65567		 305.27265			43387.38302		69.65600		324.00000 
 43692.65567		 614.60288			43078.05279		204.29000		875.00000 
 43692.65567		 305.27265			43387.38302		69.65600		324.00000 
 43692.65567		 614.60288			43078.05279		204.29000		875.00000 
 43692.65567		 305.27265			43387.38302		69.65600		324.00000 
 43692.65567		 614.60288			43078.05279		204.29000		875.00000 
 43692.65567		 305.27265			43387.38302		69.65600		324.00000 
 43692.65567		 614.60288			43078.05279		204.29000		875.00000 
 43692.65567		 305.27265			43387.38302		69.65600		324.00000 
 43692.65567		 614.60288			43078.05279		204.29000		875.00000 
 43692.65567		 305.27265			43387.38302		69.65600		324.00000 
 43692.65567		 614.60288			43078.05279		211.45600		875.00000 
 43692.65567		 305.27265			43387.38302		69.65600		324.00000 
 43692.65567		 614.60288			43078.05279		211.45600		875.00000 
 43692.65567		 305.27265			43387.38302		69.65600		324.00000 
 43692.65567		 614.60288			43078.05279		211.45600		875.00000 
 43692.65567		 305.27265			43387.38302		69.65600		324.00000 
 43692.65567		 614.60288			43078.05279		211.45600		875.00000 
 43692.65567		 305.27265			43387.38302		69.65600		324.00000 
 43692.65567		 614.60288			43078.05279		211.45600		875.00000 
 43692.65567		 305.27265			43387.38302		69.65600		324.00000 
 43692.65567		 614.60288			43078.05279		211.45600		875.00000 
 43692.65567		 305.27265			43387.38302		69.65600		324.00000 
 43692.65567		 614.60288			43078.05279		211.45600		875.00000 
 43692.65567		 305.27265			43387.38302		69.65600		324.00000 
 43692.65567		 614.60288			43078.05279		211.45600		875.00000 
 43692.65567		 305.27265			43387.38302		69.65600		324.00000 
 43692.65567		 614.60288			43078.05279		211.45600		875.00000 
 43692.65567		 305.27265			43387.38302		69.65600		324.00000 
 43692.65567		 614.60288			43078.05279		211.45600		875.00000 
 43692.65567		 305.27265			43387.38302		69.65600		324.00000 
 43692.65567		 614.60288			43078.05279		211.45600		875.00000 
 43692.65567		 305.27265			43387.38302		69.65600		324.00000 
 43692.65567		 614.60288			43078.05279		211.45600		875.00000 
 43692.65567		 305.27265			43387.38302		69.65600		324.00000 
 43692.65567		 614.60288			43078.05279		211.45600		875.00000 
 43692.65567		 305.27265			43387.38302		69.65600		324.00000 
 43692.65567		 614.60288			43078.05279		211.45600		875.00000 
 43692.65567		 305.27265			43387.38302		69.65600		324.00000 
 43692.65567		 614.60288			43078.05279		211.45600		875.00000 
 43692.65567		 305.27265			43387.38302		69.65600		324.00000 
 43692.65567		 614.60288			43078.05279		211.45600		875.00000 
 43692.65567		 305.27265			43387.38302		69.65600		324.00000 
 43692.65567		 614.60288			43078.05279		211.45600		875.00000 
 43692.65567		 305.27265			43387.38302		69.65600		324.00000 
 43692.65567		 614.60288			43078.05279		211.45600		875.00000 
 43692.65567		 305.27265			43387.38302		69.65600		324.00000 
 43692.65567		 614.60288			43078.05279		211.45600		875.00000 
 43692.65567		 305.27265			43387.38302		69.65600		324.00000 
 43692.65567		 614.60288			43078.05279		211.45600		875.00000 
 43692.65567		 305.27265			43387.38302		69.65600		324.00000 
 43692.65567		 614.60288			43078.05279		211.45600		875.00000 
 43692.65567		 305.27265			43387.38302		69.65600		324.00000 
 43692.65567		 614.60288			43078.05279		211.45600		875.00000 
 43692.65567		 305.27265			43387.38302		69.65600		324.00000 
 43692.65567		 614.60288			43078.05279		211.45600		875.00000 
 43692.65567		 305.27265			43387.38302		69.65600		324.00000 
 43692.65567		 614.60288			43078.05279		211.45600		875.00000 
 43692.65567		 305.27265			43387.38302		69.65600		324.00000 
 43692.65567		 614.60288			43078.05279		211.45600		875.00000 
 43692.65567		 305.27265			43387.38302		69.65600		324.00000 
 43692.65567		 614.60288			43078.05279		211.45600		875.00000 
 43692.65567		 305.27265			43387.38302		69.65600		324.00000 
 43692.65567		 614.60288			43078.05279		211.45600		875.00000 
 43692.65567		 305.27265			43387.38302		69.65600		324.00000 
 43692.65567		 614.60288			43078.05279		211.45600		875.00000 
 43692.65567		 305.27265			43387.38302		69.65600		324.00000 
 43692.65567		 614.60288			43078.05279		211.45600		875.00000 
 43692.65567		 305.27265			43387.38302		69.65600		324.00000 
 43692.65567		 614.60288			43078.05279		211.45600		875.00000 
 43692.65567		 305.27265			43387.38302		69.65600		324.00000 
 43692.65567		 614.60288			43078.05279		211.45600		875.00000 
 43692.65567		 305.27265			43387.38302		69.65600		324.00000 
 43692.65567		 614.60288			43078.05279		211.45600		875.00000 
 43692.65567		 305.27265			43387.38302		69.65600		324.00000 
 43692.65567		 614.60288			43078.05279		211.45600		875.00000 
 43692.65567		 305.27265			43387.38302		69.65600		324.00000 
 43692.65567		 614.60288			43078.05279		211.45600		875.00000 
 43692.65567		 305.27265			43387.38302		69.65600		324.00000 
 43692.65567		 614.60288			43078.05279		211.45600		875.00000 
 43692.65567		 305.27265			43387.38302		69.65600		324.00000 
 43692.65567		 614.60288			43078.05279		211.45600		875.00000 
 43692.65567		 305.27265			43387.38302		69.65600		324.00000 
 43692.65567		 614.60288			43078.05279		211.45600		875.00000 
 43692.65567		 305.27265			43387.38302		69.65600		324.00000 
 43692.65567		 614.60288			43078.05279		211.45600		875.00000 
 43692.65567		 305.27265			43387.38302		69.65600		324.00000 
 43692.65567		 614.60288			43078.05279		211.45600		875.00000 
 43692.65567		 305.27265			43387.38302		69.65600		324.00000 
 43692.65567		 614.60288			43078.05279		211.45600		875.00000 
 43692.65567		 305.27265			43387.38302		69.65600		324.00000 
 43692.65567		 614.60288			43078.05279		211.45600		875.00000 
 43692.65567		 305.27265			43387.38302		69.65600		324.00000 
 43692.65567		 614.60288			43078.05279		211.45600		875.00000 
 43692.65567		 305.27265			43387.38302		69.65600		324.00000 
 43692.65567		 614.60288			43078.05279		211.45600		875.00000 
 43692.65567		 305.27265			43387.38302		69.65600		324.00000 
 43692.65567		 614.60288			43078.05279		211.45600		875.00000 
 43692.65567		 305.27265			43387.38302		69.65600		324.00000 
 43692.65567		 614.60288			43078.05279		211.45600		875.00000 
 43692.65567		 305.27265			43387.38302		69.65600		324.00000 
 43692.65567		 614.60288			43078.05279		211.45600		875.00000 
 43692.65567		 305.27265			43387.38302		69.65600		324.00000 
 43692.65567		 614.60288			43078.05279		211.45600		875.00000 
 43692.65567		 305.27265			43387.38302		69.65600		324.00000 
 43692.65567		 614.60288			43078.05279		211.45600		875.00000 
 43692.65567		 305.27265			43387.38302		69.65600		324.00000 
 43692.65567		 614.60288			43078.05279		211.45600		875.00000 
 43692.65567		 305.27265			43387.38302		69.65600		324.00000 
 43692.65567		 614.60288			43078.05279		211.45600		875.00000 
 43692.65567		 305.27265			43387.38302		69.65600		324.00000 
 43692.65567		 614.60288			43078.05279		211.45600		875.00000 
 43692.65567		 305.27265			43387.38302		69.65600		324.00000 
 43692.65567		 614.60288			43078.05279		211.45600		875.00000 
 43692.65567		 305.27265			43387.38302		69.65600		324.00000 
 43692.65567		 614.60288			43078.05279		211.45600		875.00000 
 43692.65567		 305.27265			43387.38302		69.65600		324.00000 
 43692.65567		 614.60288			43078.05279		211.45600		875.00000 
 43692.65567		 305.27265			43387.38302		69.65600		324.00000 
 43692.65567		 614.60288			43078.05279		211.45600		875.00000 
 43692.65567		 305.27265			43387.38302		69.65600		324.00000 
 43692.65567		 614.60288			43078.05279		211.45600		875.00000 
 43692.65567		 305.27265			43387.38302		69.65600		324.00000 
 43692.65567		 614.60288			43078.05279		211.45600		875.00000 
 43692.65567		 305.27265			43387.38302		69.65600		324.00000 
 43692.65567		 614.60288			43078.05279		211.45600		875.00000 
 43692.65567		 305.27265			43387.38302		69.65600		324.00000 
 43692.65567		 614.60288			43078.05279		211.45600		875.00000 
 43692.65567		 305.27265			43387.38302		69.65600		324.00000 
 43692.65567		 614.60288			43078.05279		211.45600		875.00000 
 43692.65567		 305.27265			43387.38302		69.65600		324.00000 
 43692.65567		 614.60288			43078.05279		211.45600		875.00000 
 43692.65567		 305.27265			43387.38302		69.65600		324.00000 
 43692.65567		 614.60288			43078.05279		211.45600		875.00000 
 43692.65567		 305.27265			43387.38302		69.65600		324.00000 
 43692.65567		 614.60288			43078.05279		211.45600		875.00000 
 43692.65567		 305.27265			43387.38302		69.65600		324.00000 
 43692.65567		 614.60288			43078.05279		211.45600		875.00000 
 43692.65567		 305.27265			43387.38302		69.65600		324.00000 
 43692.65567		 614.60288			43078.05279		211.45600		875.00000 
 43692.65567		 305.27265			43387.38302		69.65600		324.00000 
 43692.65567		 614.60288			43078.05279		214.92200		875.00000 
 43692.65567		 305.27265			43387.38302		69.65600		324.00000 
 43692.65567		 614.60288			43078.05279		214.92200		875.00000 
 43692.65567		 305.27265			43387.38302		69.65600		324.00000 
 43692.65567		 614.60288			43078.05279		214.92200		875.00000 
 43692.65567		 305.27265			43387.38302		69.65600		324.00000 
 43692.65567		 614.60288			43078.05279		214.92200		875.00000 
 43692.65567		 305.27265			43387.38302		69.65600		324.00000 
 43692.65567		 614.60288			43078.05279		214.92200		875.00000 
 43692.65567		 305.27265			43387.38302		69.65600		324.00000 
 43692.65567		 614.60288			43078.05279		214.92200		875.00000 
 43692.65567		 305.27265			43387.38302		69.65600		324.00000 
 43692.65567		 614.60288			43078.05279		214.92200		875.00000 
 43692.65567		 305.27265			43387.38302		69.65600		324.00000 
 43692.65567		 614.60288			43078.05279		214.92200		875.00000 
 43692.65567		 305.27265			43387.38302		69.65600		324.00000 
 43692.65567		 614.60288			43078.05279		214.92200		875.00000 
 43692.65567		 305.27265			43387.38302		69.65600		324.00000 
 43692.65567		 614.60288			43078.05279		214.92200		875.00000 
 43692.65567		 305.27265			43387.38302		69.65600		324.00000 
 43692.65567		 614.60288			43078.05279		214.92200		875.00000 
 43692.65567		 305.27265			43387.38302		69.65600		324.00000 
 43692.65567		 614.60288			43078.05279		214.92200		875.00000 
 43692.65567		 305.27265			43387.38302		69.65600		324.00000 
 43692.65567		 614.60288			43078.05279		214.92200		875.00000 
 43692.65567		 305.27265			43387.38302		69.65600		324.00000 
 43692.65567		 614.60288			43078.05279		214.92200		875.00000 
 43692.65567		 305.27265			43387.38302		69.65600		324.00000 
 43692.65567		 614.60288			43078.05279		214.92200		875.00000 
 43692.65567		 305.27265			43387.38302		69.65600		324.00000 
 43692.65567		 614.60288			43078.05279		214.92200		875.00000 
 43692.65567		 305.27265			43387.38302		69.65600		324.00000 
 43692.65567		 614.60288			43078.05279		214.92200		875.00000 
 43692.65567		 305.27265			43387.38302		69.65600		324.00000 
 43692.65567		 614.60288			43078.05279		214.92200		875.00000 
 43692.65567		 305.27265			43387.38302		69.65600		324.00000 
 43692.65567		 614.60288			43078.05279		214.92200		875.00000 
 43692.65567		 305.27265			43387.38302		69.65600		324.00000 
 43692.65567		 614.60288			43078.05279		214.92200		875.00000 
 43692.65567		 305.27265			43387.38302		69.65600		324.00000 
 43692.65567		 614.60288			43078.05279		214.92200		875.00000 
 43692.65567		 305.27265			43387.38302		69.65600		324.00000 
 43692.65567		 614.60288			43078.05279		214.92200		875.00000 
 43692.65567		 305.27265			43387.38302		69.65600		324.00000 
 43692.65567		 614.60288			43078.05279		214.92200		875.00000 
 43692.65567		 305.27265			43387.38302		69.65600		324.00000 
 43692.65567		 614.60288			43078.05279		214.92200		875.00000 
 43692.65567		 305.27265			43387.38302		69.65600		324.00000 
 43692.65567		 614.60288			43078.05279		214.92200		875.00000 
 43692.65567		 305.27265			43387.38302		69.65600		324.00000 
 43692.65567		 614.60288			43078.05279		214.92200		875.00000 
 43692.65567		 305.27265			43387.38302		69.65600		324.00000 
 43692.65567		 614.60288			43078.05279		214.92200		875.00000 
 43692.65567		 305.27265			43387.38302		69.65600		324.00000 
 43692.65567		 614.60288			43078.05279		214.92200		875.00000 
 43692.65567		 305.27265			43387.38302		69.65600		324.00000 
 43692.65567		 614.60288			43078.05279		214.92200		875.00000 
 43692.65567		 305.27265			43387.38302		69.65600		324.00000 
 43692.65567		 614.60288			43078.05279		214.92200		875.00000 
 43692.65567		 305.27265			43387.38302		69.65600		324.00000 
 43692.65567		 614.60288			43078.05279		214.92200		875.00000 
 43692.65567		 305.27265			43387.38302		69.65600		324.00000 
 43692.65567		 614.60288			43078.05279		214.92200		875.00000 
 43692.65567		 305.27265			43387.38302		69.65600		324.00000 
 43692.65567		 614.60288			43078.05279		214.92200		875.00000 
 43692.65567		 305.27265			43387.38302		69.65600		324.00000 
 43692.65567		 614.60288			43078.05279		214.92200		875.00000 
 43692.65567		 305.27265			43387.38302		69.65600		324.00000 
 43692.65567		 614.60288			43078.05279		214.92200		875.00000 
 43692.65567		 305.27265			43387.38302		69.65600		324.00000 
 43692.65567		 614.60288			43078.05279		214.92200		875.00000 
 43692.65567		 305.27265			43387.38302		69.65600		324.00000 
 43692.65567		 614.60288			43078.05279		214.92200		875.00000 
 43692.65567		 305.27265			43387.38302		69.65600		324.00000 
 43692.65567		 614.60288			43078.05279		214.92200		875.00000 
 43692.65567		 305.27265			43387.38302		69.65600		324.00000 
 43692.65567		 614.60288			43078.05279		214.92200		875.00000 
 43692.65567		 305.27265			43387.38302		69.65600		324.00000 
 43692.65567		 614.60288			43078.05279		214.92200		875.00000 
 43692.65567		 305.27265			43387.38302		69.65600		324.00000 
 43692.65567		 614.60288			43078.05279		214.92200		875.00000 
 43692.65567		 305.27265			43387.38302		69.65600		324.00000 
 43692.65567		 614.60288			43078.05279		214.92200		875.00000 
 43692.65567		 305.27265			43387.38302		69.65600		324.00000 
 43692.65567		 614.60288			43078.05279		214.92200		875.00000 
 43692.65567		 305.27265			43387.38302		69.65600		324.00000 
 43692.65567		 614.60288			43078.05279		214.92200		875.00000 
 43692.65567		 305.27265			43387.38302		69.65600		324.00000 
 43692.65567		 614.60288			43078.05279		214.92200		875.00000 
 43692.65567		 305.27265			43387.38302		69.65600		324.00000 
 43692.65567		 588.82536			43103.83031		214.92200		875.00000 
 43692.65567		 305.27265			43387.38302		69.65600		324.00000 
 43692.65567		 537.27032			43155.38535		214.92200		875.00000 
 43692.65567		 305.27265			43387.38302		69.65600		324.00000 
 43692.65567		 537.27032			43155.38535		214.92200		875.00000 
 43692.65567		 305.27265			43387.38302		69.65600		324.00000 
 43692.65567		 537.27032			43155.38535		214.92200		875.00000 
 43692.65567		 305.27265			43387.38302		69.65600		324.00000 
 43692.65567		 537.27032			43155.38535		214.92200		875.00000 
 43692.65567		 305.27265			43387.38302		69.65600		324.00000 
 43692.65567		 537.27032			43155.38535		214.92200		875.00000 
 43692.65567		 305.27265			43387.38302		69.65600		324.00000 
 43692.65567		 537.27032			43155.38535		214.92200		875.00000 
 43692.65567		 305.27265			43387.38302		69.65600		324.00000 
 43692.65567		 537.27032			43155.38535		214.92200		875.00000 
 43692.65567		 305.27265			43387.38302		69.65600		324.00000 
 43692.65567		 537.27032			43155.38535		214.92200		875.00000 
 43692.65567		 305.27265			43387.38302		69.65600		324.00000 
 43692.65567		 537.27032			43155.38535		214.92200		875.00000 
 43692.65567		 305.27265			43387.38302		69.65600		324.00000 
 43692.65567		 537.27032			43155.38535		214.92200		875.00000 
 43692.65567		 305.27265			43387.38302		69.65600		324.00000 
 43692.65567		 537.27032			43155.38535		214.92200		875.00000 
 43692.65567		 305.27265			43387.38302		69.65600		324.00000 
 43692.65567		 537.27032			43155.38535		214.92200		875.00000 
 43692.65567		 305.27265			43387.38302		69.65600		324.00000 
 43692.65567		 537.27032			43155.38535		214.92200		875.00000 
 43692.65567		 305.27265			43387.38302		69.65600		324.00000 
 43692.65567		 537.27032			43155.38535		214.92200		875.00000 
 43692.65567		 305.27265			43387.38302		69.65600		324.00000 
 43692.65567		 537.27032			43155.38535		214.92200		875.00000 
 43692.65567		 305.27265			43387.38302		69.65600		324.00000 
 43692.65567		 537.27032			43155.38535		193.97000		875.00000 
 43692.65567		 305.27265			43387.38302		69.65600		324.00000 
 43692.65567		 537.27032			43155.38535		193.97000		875.00000 
 43692.65567		 305.27265			43387.38302		69.65600		324.00000 
 43692.65567		 537.27032			43155.38535		193.97000		875.00000 
 43692.65567		 305.27265			43387.38302		69.65600		324.00000 
 43692.65567		 537.27032			43155.38535		193.97000		875.00000 
 43692.65567		 305.27265			43387.38302		69.65600		324.00000 
 43692.65567		 537.27032			43155.38535		193.97000		875.00000 
 43692.65567		 305.27265			43387.38302		69.65600		324.00000 
 43692.65567		 537.27032			43155.38535		193.97000		875.00000 
 43692.65567		 305.27265			43387.38302		69.65600		324.00000 
 43692.65567		 525.81365			43166.84203		193.97000		875.00000 
 43692.65567		 305.27265			43387.38302		69.65600		324.00000 
 43692.65567		 525.81365			43166.84203		193.97000		875.00000 
 43692.65567		 261.35540			43431.30027		69.65600		324.00000 
 43692.65567		 261.35540			43431.30027		193.97000		875.00000 
 43692.65567		 261.35540			43431.30027		69.65600		324.00000 
