Memory Total (MiB) 	 Memory Used (MiB) 	    Memory Free (MiB) 	 Power Drawed (W) 	 Clocks (Mhz) 	 
 43692.65567		 261.35540			43431.30027		163.51000		875.00000 
 43692.65567		 261.35540			43431.30027		69.17400		324.00000 
 43692.65567		 261.35540			43431.30027		163.51000		875.00000 
 43692.65567		 261.35540			43431.30027		69.17400		324.00000 
 43692.65567		 261.35540			43431.30027		163.51000		875.00000 
 43692.65567		 261.35540			43431.30027		69.17400		324.00000 
 43692.65567		 261.35540			43431.30027		163.51000		875.00000 
 43692.65567		 261.35540			43431.30027		69.17400		324.00000 
 43692.65567		 261.35540			43431.30027		163.51000		875.00000 
 43692.65567		 261.35540			43431.30027		69.17400		324.00000 
 43692.65567		 261.35540			43431.30027		163.51000		875.00000 
 43692.65567		 261.35540			43431.30027		69.17400		324.00000 
 43692.65567		 261.35540			43431.30027		163.51000		875.00000 
 43692.65567		 261.35540			43431.30027		69.17400		324.00000 
 43692.65567		 261.35540			43431.30027		163.51000		875.00000 
 43692.65567		 261.35540			43431.30027		69.17400		324.00000 
 43692.65567		 261.35540			43431.30027		163.51000		875.00000 
 43692.65567		 261.35540			43431.30027		69.17400		324.00000 
 43692.65567		 261.35540			43431.30027		163.51000		875.00000 
 43692.65567		 261.35540			43431.30027		69.17400		324.00000 
 43692.65567		 261.35540			43431.30027		163.51000		875.00000 
 43692.65567		 261.35540			43431.30027		69.17400		324.00000 
 43692.65567		 261.35540			43431.30027		163.51000		875.00000 
 43692.65567		 261.35540			43431.30027		69.17400		324.00000 
 43692.65567		 261.35540			43431.30027		163.51000		875.00000 
 43692.65567		 261.35540			43431.30027		69.17400		324.00000 
 43692.65567		 261.35540			43431.30027		163.51000		875.00000 
 43692.65567		 261.35540			43431.30027		69.17400		324.00000 
 43692.65567		 261.35540			43431.30027		163.51000		875.00000 
 43692.65567		 261.35540			43431.30027		69.17400		324.00000 
 43692.65567		 261.35540			43431.30027		163.51000		875.00000 
 43692.65567		 261.35540			43431.30027		69.17400		324.00000 
 43692.65567		 261.35540			43431.30027		163.51000		875.00000 
 43692.65567		 261.35540			43431.30027		69.17400		324.00000 
 43692.65567		 265.17429			43427.48138		163.51000		875.00000 
 43692.65567		 261.35540			43431.30027		69.17400		324.00000 
 43692.65567		 265.17429			43427.48138		163.51000		875.00000 
 43692.65567		 261.35540			43431.30027		69.17400		324.00000 
 43692.65567		 272.81207			43419.84360		163.51000		875.00000 
 43692.65567		 261.35540			43431.30027		69.17400		324.00000 
 43692.65567		 272.81207			43419.84360		163.51000		875.00000 
 43692.65567		 261.35540			43431.30027		69.17400		324.00000 
 43692.65567		 272.81207			43419.84360		163.51000		875.00000 
 43692.65567		 265.17429			43427.48138		69.17400		324.00000 
 43692.65567		 272.81207			43419.84360		143.77800		875.00000 
 43692.65567		 265.17429			43427.48138		69.17400		324.00000 
 43692.65567		 272.81207			43419.84360		143.77800		875.00000 
 43692.65567		 272.81207			43419.84360		69.17400		324.00000 
 43692.65567		 272.81207			43419.84360		143.77800		875.00000 
 43692.65567		 272.81207			43419.84360		69.17400		324.00000 
 43692.65567		 272.81207			43419.84360		143.77800		875.00000 
 43692.65567		 272.81207			43419.84360		69.17400		324.00000 
 43692.65567		 305.27265			43387.38302		143.77800		875.00000 
 43692.65567		 305.27265			43387.38302		69.17400		324.00000 
 43692.65567		 305.27265			43387.38302		143.77800		875.00000 
 43692.65567		 305.27265			43387.38302		69.17400		324.00000 
 43692.65567		 305.27265			43387.38302		143.77800		875.00000 
 43692.65567		 305.27265			43387.38302		69.17400		324.00000 
 43692.65567		 305.27265			43387.38302		143.77800		875.00000 
 43692.65567		 305.27265			43387.38302		69.17400		324.00000 
 43692.65567		 305.27265			43387.38302		143.77800		875.00000 
 43692.65567		 305.27265			43387.38302		69.17400		324.00000 
 43692.65567		 309.56891			43383.08677		143.77800		875.00000 
 43692.65567		 305.27265			43387.38302		69.17400		324.00000 
 43692.65567		 311.00099			43381.65468		143.77800		875.00000 
 43692.65567		 305.27265			43387.38302		69.17400		324.00000 
 43692.65567		 311.00099			43381.65468		143.77800		875.00000 
 43692.65567		 305.27265			43387.38302		69.17400		324.00000 
 43692.65567		 311.00099			43381.65468		143.77800		875.00000 
 43692.65567		 305.27265			43387.38302		69.17400		324.00000 
 43692.65567		 311.00099			43381.65468		143.77800		875.00000 
 43692.65567		 305.27265			43387.38302		69.17400		324.00000 
 43692.65567		 311.00099			43381.65468		143.77800		875.00000 
 43692.65567		 305.27265			43387.38302		69.17400		324.00000 
 43692.65567		 311.00099			43381.65468		143.77800		875.00000 
 43692.65567		 305.27265			43387.38302		69.17400		324.00000 
 43692.65567		 311.00099			43381.65468		143.77800		875.00000 
 43692.65567		 305.27265			43387.38302		69.17400		324.00000 
 43692.65567		 311.00099			43381.65468		143.77800		875.00000 
 43692.65567		 305.27265			43387.38302		69.17400		324.00000 
 43692.65567		 311.00099			43381.65468		143.77800		875.00000 
 43692.65567		 305.27265			43387.38302		69.17400		324.00000 
 43692.65567		 311.00099			43381.65468		143.77800		875.00000 
 43692.65567		 305.27265			43387.38302		69.17400		324.00000 
 43692.65567		 311.00099			43381.65468		143.77800		875.00000 
 43692.65567		 305.27265			43387.38302		69.17400		324.00000 
 43692.65567		 311.00099			43381.65468		143.77800		875.00000 
 43692.65567		 305.27265			43387.38302		69.17400		324.00000 
 43692.65567		 311.00099			43381.65468		143.77800		875.00000 
 43692.65567		 305.27265			43387.38302		69.17400		324.00000 
 43692.65567		 311.00099			43381.65468		143.77800		875.00000 
 43692.65567		 305.27265			43387.38302		69.17400		324.00000 
 43692.65567		 311.00099			43381.65468		143.77800		875.00000 
 43692.65567		 305.27265			43387.38302		69.17400		324.00000 
 43692.65567		 311.00099			43381.65468		143.77800		875.00000 
 43692.65567		 305.27265			43387.38302		69.17400		324.00000 
 43692.65567		 311.00099			43381.65468		143.77800		875.00000 
 43692.65567		 305.27265			43387.38302		69.17400		324.00000 
 43692.65567		 311.00099			43381.65468		143.77800		875.00000 
 43692.65567		 305.27265			43387.38302		69.17400		324.00000 
 43692.65567		 311.00099			43381.65468		143.77800		875.00000 
 43692.65567		 305.27265			43387.38302		69.17400		324.00000 
 43692.65567		 311.00099			43381.65468		143.77800		875.00000 
 43692.65567		 305.27265			43387.38302		69.17400		324.00000 
 43692.65567		 311.00099			43381.65468		143.77800		875.00000 
 43692.65567		 305.27265			43387.38302		69.17400		324.00000 
 43692.65567		 311.00099			43381.65468		143.77800		875.00000 
 43692.65567		 305.27265			43387.38302		69.17400		324.00000 
 43692.65567		 311.00099			43381.65468		136.80400		875.00000 
 43692.65567		 305.27265			43387.38302		69.17400		324.00000 
 43692.65567		 311.00099			43381.65468		136.80400		875.00000 
 43692.65567		 305.27265			43387.38302		69.17400		324.00000 
 43692.65567		 311.00099			43381.65468		136.80400		875.00000 
 43692.65567		 305.27265			43387.38302		69.17400		324.00000 
 43692.65567		 311.00099			43381.65468		136.80400		875.00000 
 43692.65567		 305.27265			43387.38302		69.17400		324.00000 
 43692.65567		 311.00099			43381.65468		136.80400		875.00000 
 43692.65567		 305.27265			43387.38302		69.17400		324.00000 
 43692.65567		 311.00099			43381.65468		136.80400		875.00000 
 43692.65567		 305.27265			43387.38302		69.17400		324.00000 
 43692.65567		 311.00099			43381.65468		136.80400		875.00000 
 43692.65567		 305.27265			43387.38302		69.17400		324.00000 
 43692.65567		 311.00099			43381.65468		136.80400		875.00000 
 43692.65567		 305.27265			43387.38302		69.17400		324.00000 
 43692.65567		 311.00099			43381.65468		136.80400		875.00000 
 43692.65567		 305.27265			43387.38302		69.17400		324.00000 
 43692.65567		 311.00099			43381.65468		136.80400		875.00000 
 43692.65567		 305.27265			43387.38302		69.17400		324.00000 
 43692.65567		 311.00099			43381.65468		136.80400		875.00000 
 43692.65567		 305.27265			43387.38302		69.17400		324.00000 
 43692.65567		 311.00099			43381.65468		136.80400		875.00000 
 43692.65567		 305.27265			43387.38302		69.17400		324.00000 
 43692.65567		 311.00099			43381.65468		136.80400		875.00000 
 43692.65567		 305.27265			43387.38302		69.17400		324.00000 
 43692.65567		 311.00099			43381.65468		136.80400		875.00000 
 43692.65567		 305.27265			43387.38302		69.17400		324.00000 
 43692.65567		 311.00099			43381.65468		136.80400		875.00000 
 43692.65567		 305.27265			43387.38302		69.17400		324.00000 
 43692.65567		 311.00099			43381.65468		136.80400		875.00000 
 43692.65567		 305.27265			43387.38302		69.17400		324.00000 
 43692.65567		 311.00099			43381.65468		136.80400		875.00000 
 43692.65567		 305.27265			43387.38302		69.17400		324.00000 
 43692.65567		 311.00099			43381.65468		136.80400		875.00000 
 43692.65567		 305.27265			43387.38302		69.17400		324.00000 
 43692.65567		 311.00099			43381.65468		136.80400		875.00000 
 43692.65567		 305.27265			43387.38302		69.17400		324.00000 
 43692.65567		 311.00099			43381.65468		136.80400		875.00000 
 43692.65567		 305.27265			43387.38302		69.17400		324.00000 
 43692.65567		 311.00099			43381.65468		136.80400		875.00000 
 43692.65567		 305.27265			43387.38302		69.17400		324.00000 
 43692.65567		 311.00099			43381.65468		136.80400		875.00000 
 43692.65567		 305.27265			43387.38302		69.17400		324.00000 
 43692.65567		 311.00099			43381.65468		136.80400		875.00000 
 43692.65567		 305.27265			43387.38302		69.17400		324.00000 
 43692.65567		 311.00099			43381.65468		136.80400		875.00000 
 43692.65567		 305.27265			43387.38302		69.17400		324.00000 
 43692.65567		 311.00099			43381.65468		136.80400		875.00000 
 43692.65567		 305.27265			43387.38302		69.17400		324.00000 
 43692.65567		 311.00099			43381.65468		136.80400		875.00000 
 43692.65567		 305.27265			43387.38302		69.17400		324.00000 
 43692.65567		 311.00099			43381.65468		136.80400		875.00000 
 43692.65567		 305.27265			43387.38302		69.17400		324.00000 
 43692.65567		 311.00099			43381.65468		136.80400		875.00000 
 43692.65567		 305.27265			43387.38302		69.17400		324.00000 
 43692.65567		 311.00099			43381.65468		136.80400		875.00000 
 43692.65567		 305.27265			43387.38302		69.17400		324.00000 
 43692.65567		 314.81988			43377.83579		136.80400		875.00000 
 43692.65567		 305.27265			43387.38302		69.17400		324.00000 
 43692.65567		 314.81988			43377.83579		136.80400		875.00000 
 43692.65567		 305.27265			43387.38302		69.17400		324.00000 
 43692.65567		 314.81988			43377.83579		136.80400		875.00000 
 43692.65567		 305.27265			43387.38302		69.17400		324.00000 
 43692.65567		 318.63877			43374.01690		136.80400		875.00000 
 43692.65567		 305.27265			43387.38302		69.17400		324.00000 
 43692.65567		 322.45767			43370.19801		133.77200		875.00000 
 43692.65567		 305.27265			43387.38302		69.17400		324.00000 
 43692.65567		 326.27656			43366.37912		133.77200		875.00000 
 43692.65567		 305.27265			43387.38302		69.17400		324.00000 
 43692.65567		 326.27656			43366.37912		133.77200		875.00000 
 43692.65567		 305.27265			43387.38302		69.17400		324.00000 
 43692.65567		 326.27656			43366.37912		133.77200		875.00000 
 43692.65567		 305.27265			43387.38302		69.17400		324.00000 
 43692.65567		 537.27032			43155.38535		133.77200		875.00000 
 43692.65567		 305.27265			43387.38302		69.17400		324.00000 
 43692.65567		 675.70515			43016.95053		133.77200		875.00000 
 43692.65567		 305.27265			43387.38302		69.17400		324.00000 
 43692.65567		 952.57479			42740.08088		133.77200		875.00000 
 43692.65567		 305.27265			43387.38302		69.17400		324.00000 
 43692.65567		 952.57479			42740.08088		133.77200		875.00000 
 43692.65567		 305.27265			43387.38302		69.17400		324.00000 
 43692.65567		 952.57479			42740.08088		133.77200		875.00000 
 43692.65567		 305.27265			43387.38302		69.17400		324.00000 
 43692.65567		 952.57479			42740.08088		133.77200		875.00000 
 43692.65567		 305.27265			43387.38302		69.17400		324.00000 
 43692.65567		 952.57479			42740.08088		133.77200		875.00000 
 43692.65567		 305.27265			43387.38302		69.17400		324.00000 
 43692.65567		 952.57479			42740.08088		133.77200		875.00000 
 43692.65567		 305.27265			43387.38302		69.17400		324.00000 
 43692.65567		 952.57479			42740.08088		133.77200		875.00000 
 43692.65567		 305.27265			43387.38302		69.17400		324.00000 
 43692.65567		 952.57479			42740.08088		133.77200		875.00000 
 43692.65567		 305.27265			43387.38302		69.17400		324.00000 
 43692.65567		 952.57479			42740.08088		133.77200		875.00000 
 43692.65567		 305.27265			43387.38302		69.17400		324.00000 
 43692.65567		 952.57479			42740.08088		133.77200		875.00000 
 43692.65567		 305.27265			43387.38302		69.17400		324.00000 
 43692.65567		 952.57479			42740.08088		133.77200		875.00000 
 43692.65567		 305.27265			43387.38302		69.17400		324.00000 
 43692.65567		 952.57479			42740.08088		133.77200		875.00000 
 43692.65567		 305.27265			43387.38302		69.17400		324.00000 
 43692.65567		 952.57479			42740.08088		133.77200		875.00000 
 43692.65567		 305.27265			43387.38302		69.17400		324.00000 
 43692.65567		 952.57479			42740.08088		133.77200		875.00000 
 43692.65567		 305.27265			43387.38302		69.17400		324.00000 
 43692.65567		 952.57479			42740.08088		133.77200		875.00000 
 43692.65567		 305.27265			43387.38302		69.17400		324.00000 
 43692.65567		 952.57479			42740.08088		133.77200		875.00000 
 43692.65567		 305.27265			43387.38302		69.17400		324.00000 
 43692.65567		 952.57479			42740.08088		133.77200		875.00000 
 43692.65567		 305.27265			43387.38302		69.17400		324.00000 
 43692.65567		 952.57479			42740.08088		133.77200		875.00000 
 43692.65567		 305.27265			43387.38302		66.67800		324.00000 
 43692.65567		 952.57479			42740.08088		133.77200		875.00000 
 43692.65567		 305.27265			43387.38302		66.67800		324.00000 
 43692.65567		 952.57479			42740.08088		133.77200		875.00000 
 43692.65567		 305.27265			43387.38302		66.67800		324.00000 
 43692.65567		 952.57479			42740.08088		133.77200		875.00000 
 43692.65567		 305.27265			43387.38302		66.67800		324.00000 
 43692.65567		 952.57479			42740.08088		133.77200		875.00000 
 43692.65567		 305.27265			43387.38302		66.67800		324.00000 
 43692.65567		 952.57479			42740.08088		133.77200		875.00000 
 43692.65567		 305.27265			43387.38302		66.67800		324.00000 
 43692.65567		 952.57479			42740.08088		133.77200		875.00000 
 43692.65567		 305.27265			43387.38302		66.67800		324.00000 
 43692.65567		 952.57479			42740.08088		133.77200		875.00000 
 43692.65567		 305.27265			43387.38302		66.67800		324.00000 
 43692.65567		 952.57479			42740.08088		133.77200		875.00000 
 43692.65567		 305.27265			43387.38302		66.67800		324.00000 
 43692.65567		 952.57479			42740.08088		133.77200		875.00000 
 43692.65567		 305.27265			43387.38302		66.67800		324.00000 
 43692.65567		 952.57479			42740.08088		133.77200		875.00000 
 43692.65567		 305.27265			43387.38302		66.67800		324.00000 
 43692.65567		 952.57479			42740.08088		133.77200		875.00000 
 43692.65567		 305.27265			43387.38302		66.67800		324.00000 
 43692.65567		 952.57479			42740.08088		133.77200		875.00000 
 43692.65567		 305.27265			43387.38302		66.67800		324.00000 
 43692.65567		 952.57479			42740.08088		133.77200		875.00000 
 43692.65567		 305.27265			43387.38302		66.67800		324.00000 
 43692.65567		 952.57479			42740.08088		133.77200		875.00000 
 43692.65567		 305.27265			43387.38302		66.67800		324.00000 
 43692.65567		 952.57479			42740.08088		133.77200		875.00000 
 43692.65567		 305.27265			43387.38302		66.67800		324.00000 
 43692.65567		 952.57479			42740.08088		133.77200		875.00000 
 43692.65567		 305.27265			43387.38302		66.67800		324.00000 
 43692.65567		 952.57479			42740.08088		133.77200		875.00000 
 43692.65567		 305.27265			43387.38302		66.67800		324.00000 
 43692.65567		 952.57479			42740.08088		133.77200		875.00000 
 43692.65567		 305.27265			43387.38302		66.67800		324.00000 
 43692.65567		 952.57479			42740.08088		133.77200		875.00000 
 43692.65567		 305.27265			43387.38302		66.67800		324.00000 
 43692.65567		 952.57479			42740.08088		133.77200		875.00000 
 43692.65567		 305.27265			43387.38302		66.67800		324.00000 
 43692.65567		 952.57479			42740.08088		133.77200		875.00000 
 43692.65567		 305.27265			43387.38302		66.67800		324.00000 
 43692.65567		 952.57479			42740.08088		133.77200		875.00000 
 43692.65567		 305.27265			43387.38302		66.67800		324.00000 
 43692.65567		 952.57479			42740.08088		133.77200		875.00000 
 43692.65567		 305.27265			43387.38302		66.67800		324.00000 
 43692.65567		 952.57479			42740.08088		133.77200		875.00000 
 43692.65567		 305.27265			43387.38302		66.67800		324.00000 
 43692.65567		 952.57479			42740.08088		133.77200		875.00000 
 43692.65567		 305.27265			43387.38302		66.67800		324.00000 
 43692.65567		 952.57479			42740.08088		133.77200		875.00000 
 43692.65567		 305.27265			43387.38302		66.67800		324.00000 
 43692.65567		 952.57479			42740.08088		133.77200		875.00000 
 43692.65567		 305.27265			43387.38302		66.67800		324.00000 
 43692.65567		 952.57479			42740.08088		133.77200		875.00000 
 43692.65567		 305.27265			43387.38302		66.67800		324.00000 
 43692.65567		 952.57479			42740.08088		133.77200		875.00000 
 43692.65567		 305.27265			43387.38302		66.67800		324.00000 
 43692.65567		 952.57479			42740.08088		133.77200		875.00000 
 43692.65567		 305.27265			43387.38302		66.67800		324.00000 
 43692.65567		 952.57479			42740.08088		133.77200		875.00000 
 43692.65567		 305.27265			43387.38302		66.67800		324.00000 
 43692.65567		 952.57479			42740.08088		133.77200		875.00000 
 43692.65567		 305.27265			43387.38302		66.67800		324.00000 
 43692.65567		 952.57479			42740.08088		133.77200		875.00000 
 43692.65567		 305.27265			43387.38302		66.67800		324.00000 
 43692.65567		 952.57479			42740.08088		133.77200		875.00000 
 43692.65567		 305.27265			43387.38302		66.67800		324.00000 
 43692.65567		 952.57479			42740.08088		133.77200		875.00000 
 43692.65567		 305.27265			43387.38302		66.67800		324.00000 
 43692.65567		 952.57479			42740.08088		188.67400		875.00000 
 43692.65567		 305.27265			43387.38302		66.67800		324.00000 
 43692.65567		 952.57479			42740.08088		188.67400		875.00000 
 43692.65567		 305.27265			43387.38302		66.67800		324.00000 
 43692.65567		 952.57479			42740.08088		188.67400		875.00000 
 43692.65567		 305.27265			43387.38302		66.67800		324.00000 
 43692.65567		 952.57479			42740.08088		188.67400		875.00000 
 43692.65567		 305.27265			43387.38302		66.67800		324.00000 
 43692.65567		 952.57479			42740.08088		188.67400		875.00000 
 43692.65567		 305.27265			43387.38302		66.67800		324.00000 
 43692.65567		 952.57479			42740.08088		188.67400		875.00000 
 43692.65567		 305.27265			43387.38302		66.67800		324.00000 
 43692.65567		 952.57479			42740.08088		188.67400		875.00000 
 43692.65567		 305.27265			43387.38302		66.67800		324.00000 
 43692.65567		 952.57479			42740.08088		188.67400		875.00000 
 43692.65567		 305.27265			43387.38302		66.67800		324.00000 
 43692.65567		 952.57479			42740.08088		188.67400		875.00000 
 43692.65567		 305.27265			43387.38302		66.67800		324.00000 
 43692.65567		 952.57479			42740.08088		188.67400		875.00000 
 43692.65567		 305.27265			43387.38302		66.67800		324.00000 
 43692.65567		 952.57479			42740.08088		188.67400		875.00000 
 43692.65567		 305.27265			43387.38302		66.67800		324.00000 
 43692.65567		 952.57479			42740.08088		188.67400		875.00000 
 43692.65567		 305.27265			43387.38302		66.67800		324.00000 
 43692.65567		 952.57479			42740.08088		188.67400		875.00000 
 43692.65567		 305.27265			43387.38302		66.67800		324.00000 
 43692.65567		 952.57479			42740.08088		188.67400		875.00000 
 43692.65567		 305.27265			43387.38302		66.67800		324.00000 
 43692.65567		 952.57479			42740.08088		188.67400		875.00000 
 43692.65567		 305.27265			43387.38302		66.67800		324.00000 
 43692.65567		 952.57479			42740.08088		188.67400		875.00000 
 43692.65567		 305.27265			43387.38302		66.67800		324.00000 
 43692.65567		 952.57479			42740.08088		188.67400		875.00000 
 43692.65567		 305.27265			43387.38302		66.67800		324.00000 
 43692.65567		 952.57479			42740.08088		188.67400		875.00000 
 43692.65567		 305.27265			43387.38302		66.67800		324.00000 
 43692.65567		 952.57479			42740.08088		188.67400		875.00000 
 43692.65567		 305.27265			43387.38302		66.67800		324.00000 
 43692.65567		 952.57479			42740.08088		188.67400		875.00000 
 43692.65567		 305.27265			43387.38302		66.67800		324.00000 
 43692.65567		 952.57479			42740.08088		188.67400		875.00000 
 43692.65567		 305.27265			43387.38302		66.67800		324.00000 
 43692.65567		 952.57479			42740.08088		188.67400		875.00000 
 43692.65567		 305.27265			43387.38302		66.67800		324.00000 
 43692.65567		 952.57479			42740.08088		188.67400		875.00000 
 43692.65567		 305.27265			43387.38302		66.67800		324.00000 
 43692.65567		 952.57479			42740.08088		188.67400		875.00000 
 43692.65567		 305.27265			43387.38302		66.67800		324.00000 
 43692.65567		 952.57479			42740.08088		188.67400		875.00000 
 43692.65567		 305.27265			43387.38302		66.67800		324.00000 
 43692.65567		 952.57479			42740.08088		188.67400		875.00000 
 43692.65567		 305.27265			43387.38302		66.67800		324.00000 
 43692.65567		 952.57479			42740.08088		188.67400		875.00000 
 43692.65567		 305.27265			43387.38302		66.67800		324.00000 
 43692.65567		 952.57479			42740.08088		188.67400		875.00000 
 43692.65567		 305.27265			43387.38302		66.67800		324.00000 
 43692.65567		 952.57479			42740.08088		188.67400		875.00000 
 43692.65567		 305.27265			43387.38302		66.67800		324.00000 
 43692.65567		 952.57479			42740.08088		188.67400		875.00000 
 43692.65567		 305.27265			43387.38302		66.67800		324.00000 
 43692.65567		 952.57479			42740.08088		188.67400		875.00000 
 43692.65567		 305.27265			43387.38302		66.67800		324.00000 
 43692.65567		 952.57479			42740.08088		188.67400		875.00000 
 43692.65567		 305.27265			43387.38302		66.67800		324.00000 
 43692.65567		 952.57479			42740.08088		188.67400		875.00000 
 43692.65567		 305.27265			43387.38302		66.67800		324.00000 
 43692.65567		 952.57479			42740.08088		188.67400		875.00000 
 43692.65567		 305.27265			43387.38302		66.67800		324.00000 
 43692.65567		 952.57479			42740.08088		188.67400		875.00000 
 43692.65567		 305.27265			43387.38302		66.67800		324.00000 
 43692.65567		 952.57479			42740.08088		188.67400		875.00000 
 43692.65567		 305.27265			43387.38302		66.67800		324.00000 
 43692.65567		 952.57479			42740.08088		188.67400		875.00000 
 43692.65567		 305.27265			43387.38302		66.67800		324.00000 
 43692.65567		 952.57479			42740.08088		188.67400		875.00000 
 43692.65567		 305.27265			43387.38302		66.67800		324.00000 
 43692.65567		 952.57479			42740.08088		188.67400		875.00000 
 43692.65567		 305.27265			43387.38302		66.67800		324.00000 
 43692.65567		 952.57479			42740.08088		188.67400		875.00000 
 43692.65567		 305.27265			43387.38302		66.67800		324.00000 
 43692.65567		 952.57479			42740.08088		188.67400		875.00000 
 43692.65567		 305.27265			43387.38302		66.67800		324.00000 
 43692.65567		 952.57479			42740.08088		188.67400		875.00000 
 43692.65567		 305.27265			43387.38302		66.67800		324.00000 
 43692.65567		 952.57479			42740.08088		188.67400		875.00000 
 43692.65567		 305.27265			43387.38302		66.67800		324.00000 
 43692.65567		 952.57479			42740.08088		188.67400		875.00000 
 43692.65567		 305.27265			43387.38302		66.67800		324.00000 
 43692.65567		 952.57479			42740.08088		188.67400		875.00000 
 43692.65567		 305.27265			43387.38302		66.67800		324.00000 
 43692.65567		 952.57479			42740.08088		188.67400		875.00000 
 43692.65567		 305.27265			43387.38302		66.67800		324.00000 
 43692.65567		 952.57479			42740.08088		188.67400		875.00000 
 43692.65567		 305.27265			43387.38302		66.67800		324.00000 
 43692.65567		 952.57479			42740.08088		188.67400		875.00000 
 43692.65567		 305.27265			43387.38302		66.67800		324.00000 
 43692.65567		 952.57479			42740.08088		188.67400		875.00000 
 43692.65567		 305.27265			43387.38302		66.67800		324.00000 
 43692.65567		 952.57479			42740.08088		188.67400		875.00000 
 43692.65567		 305.27265			43387.38302		66.67800		324.00000 
 43692.65567		 952.57479			42740.08088		188.67400		875.00000 
 43692.65567		 305.27265			43387.38302		66.67800		324.00000 
 43692.65567		 952.57479			42740.08088		188.67400		875.00000 
 43692.65567		 305.27265			43387.38302		66.67800		324.00000 
 43692.65567		 952.57479			42740.08088		188.67400		875.00000 
 43692.65567		 305.27265			43387.38302		66.67800		324.00000 
 43692.65567		 952.57479			42740.08088		188.67400		875.00000 
 43692.65567		 305.27265			43387.38302		66.67800		324.00000 
 43692.65567		 952.57479			42740.08088		188.67400		875.00000 
 43692.65567		 305.27265			43387.38302		66.67800		324.00000 
 43692.65567		 952.57479			42740.08088		188.67400		875.00000 
 43692.65567		 305.27265			43387.38302		66.67800		324.00000 
 43692.65567		 952.57479			42740.08088		188.67400		875.00000 
 43692.65567		 305.27265			43387.38302		66.67800		324.00000 
 43692.65567		 952.57479			42740.08088		188.67400		875.00000 
 43692.65567		 305.27265			43387.38302		66.67800		324.00000 
 43692.65567		 952.57479			42740.08088		188.67400		875.00000 
 43692.65567		 305.27265			43387.38302		66.67800		324.00000 
 43692.65567		 952.57479			42740.08088		188.67400		875.00000 
 43692.65567		 305.27265			43387.38302		66.67800		324.00000 
 43692.65567		 952.57479			42740.08088		188.67400		875.00000 
 43692.65567		 305.27265			43387.38302		66.67800		324.00000 
 43692.65567		 952.57479			42740.08088		188.67400		875.00000 
 43692.65567		 305.27265			43387.38302		66.67800		324.00000 
 43692.65567		 952.57479			42740.08088		188.67400		875.00000 
 43692.65567		 305.27265			43387.38302		66.67800		324.00000 
 43692.65567		 952.57479			42740.08088		188.67400		875.00000 
 43692.65567		 305.27265			43387.38302		66.67800		324.00000 
 43692.65567		 952.57479			42740.08088		188.67400		875.00000 
 43692.65567		 305.27265			43387.38302		66.67800		324.00000 
 43692.65567		 952.57479			42740.08088		215.50000		875.00000 
 43692.65567		 305.27265			43387.38302		66.67800		324.00000 
 43692.65567		 952.57479			42740.08088		215.50000		875.00000 
 43692.65567		 305.27265			43387.38302		66.67800		324.00000 
 43692.65567		 952.57479			42740.08088		215.50000		875.00000 
 43692.65567		 305.27265			43387.38302		66.67800		324.00000 
 43692.65567		 952.57479			42740.08088		215.50000		875.00000 
 43692.65567		 305.27265			43387.38302		66.67800		324.00000 
 43692.65567		 952.57479			42740.08088		215.50000		875.00000 
 43692.65567		 305.27265			43387.38302		66.67800		324.00000 
 43692.65567		 952.57479			42740.08088		215.50000		875.00000 
 43692.65567		 305.27265			43387.38302		66.67800		324.00000 
 43692.65567		 952.57479			42740.08088		215.50000		875.00000 
 43692.65567		 305.27265			43387.38302		66.67800		324.00000 
 43692.65567		 952.57479			42740.08088		215.50000		875.00000 
 43692.65567		 305.27265			43387.38302		66.67800		324.00000 
 43692.65567		 952.57479			42740.08088		215.50000		875.00000 
 43692.65567		 305.27265			43387.38302		66.67800		324.00000 
 43692.65567		 952.57479			42740.08088		215.50000		875.00000 
 43692.65567		 305.27265			43387.38302		66.67800		324.00000 
 43692.65567		 952.57479			42740.08088		215.50000		875.00000 
 43692.65567		 305.27265			43387.38302		66.67800		324.00000 
 43692.65567		 952.57479			42740.08088		215.50000		875.00000 
 43692.65567		 305.27265			43387.38302		66.67800		324.00000 
 43692.65567		 952.57479			42740.08088		215.50000		875.00000 
 43692.65567		 305.27265			43387.38302		66.67800		324.00000 
 43692.65567		 952.57479			42740.08088		215.50000		875.00000 
 43692.65567		 305.27265			43387.38302		66.67800		324.00000 
 43692.65567		 952.57479			42740.08088		215.50000		875.00000 
 43692.65567		 305.27265			43387.38302		66.67800		324.00000 
 43692.65567		 952.57479			42740.08088		215.50000		875.00000 
 43692.65567		 305.27265			43387.38302		66.67800		324.00000 
 43692.65567		 952.57479			42740.08088		215.50000		875.00000 
 43692.65567		 305.27265			43387.38302		66.67800		324.00000 
 43692.65567		 952.57479			42740.08088		215.50000		875.00000 
 43692.65567		 305.27265			43387.38302		66.67800		324.00000 
 43692.65567		 952.57479			42740.08088		215.50000		875.00000 
 43692.65567		 305.27265			43387.38302		66.67800		324.00000 
 43692.65567		 952.57479			42740.08088		215.50000		875.00000 
 43692.65567		 305.27265			43387.38302		66.67800		324.00000 
 43692.65567		 952.57479			42740.08088		215.50000		875.00000 
 43692.65567		 305.27265			43387.38302		66.67800		324.00000 
 43692.65567		 952.57479			42740.08088		215.50000		875.00000 
 43692.65567		 305.27265			43387.38302		66.67800		324.00000 
 43692.65567		 952.57479			42740.08088		215.50000		875.00000 
 43692.65567		 305.27265			43387.38302		66.67800		324.00000 
 43692.65567		 952.57479			42740.08088		215.50000		875.00000 
 43692.65567		 305.27265			43387.38302		66.67800		324.00000 
 43692.65567		 952.57479			42740.08088		215.50000		875.00000 
 43692.65567		 305.27265			43387.38302		66.67800		324.00000 
 43692.65567		 952.57479			42740.08088		215.50000		875.00000 
 43692.65567		 305.27265			43387.38302		66.67800		324.00000 
 43692.65567		 952.57479			42740.08088		215.50000		875.00000 
 43692.65567		 305.27265			43387.38302		66.67800		324.00000 
 43692.65567		 952.57479			42740.08088		215.50000		875.00000 
 43692.65567		 305.27265			43387.38302		66.67800		324.00000 
 43692.65567		 952.57479			42740.08088		215.50000		875.00000 
 43692.65567		 305.27265			43387.38302		66.67800		324.00000 
 43692.65567		 952.57479			42740.08088		215.50000		875.00000 
 43692.65567		 305.27265			43387.38302		66.67800		324.00000 
 43692.65567		 952.57479			42740.08088		215.50000		875.00000 
 43692.65567		 305.27265			43387.38302		66.67800		324.00000 
 43692.65567		 952.57479			42740.08088		215.50000		875.00000 
 43692.65567		 305.27265			43387.38302		66.67800		324.00000 
 43692.65567		 952.57479			42740.08088		215.50000		875.00000 
 43692.65567		 305.27265			43387.38302		66.67800		324.00000 
 43692.65567		 952.57479			42740.08088		215.50000		875.00000 
 43692.65567		 305.27265			43387.38302		66.67800		324.00000 
 43692.65567		 952.57479			42740.08088		215.50000		875.00000 
 43692.65567		 305.27265			43387.38302		66.67800		324.00000 
 43692.65567		 952.57479			42740.08088		215.50000		875.00000 
 43692.65567		 305.27265			43387.38302		66.67800		324.00000 
 43692.65567		 952.57479			42740.08088		215.50000		875.00000 
 43692.65567		 305.27265			43387.38302		66.67800		324.00000 
 43692.65567		 952.57479			42740.08088		215.50000		875.00000 
 43692.65567		 305.27265			43387.38302		66.67800		324.00000 
 43692.65567		 952.57479			42740.08088		215.50000		875.00000 
 43692.65567		 305.27265			43387.38302		66.67800		324.00000 
 43692.65567		 952.57479			42740.08088		215.50000		875.00000 
 43692.65567		 305.27265			43387.38302		66.67800		324.00000 
 43692.65567		 952.57479			42740.08088		215.50000		875.00000 
 43692.65567		 305.27265			43387.38302		66.67800		324.00000 
 43692.65567		 952.57479			42740.08088		215.50000		875.00000 
 43692.65567		 305.27265			43387.38302		66.67800		324.00000 
 43692.65567		 952.57479			42740.08088		215.50000		875.00000 
 43692.65567		 305.27265			43387.38302		66.67800		324.00000 
 43692.65567		 952.57479			42740.08088		215.50000		875.00000 
 43692.65567		 305.27265			43387.38302		66.67800		324.00000 
 43692.65567		 952.57479			42740.08088		215.50000		875.00000 
 43692.65567		 305.27265			43387.38302		66.67800		324.00000 
 43692.65567		 952.57479			42740.08088		215.50000		875.00000 
 43692.65567		 305.27265			43387.38302		66.67800		324.00000 
 43692.65567		 952.57479			42740.08088		215.50000		875.00000 
 43692.65567		 305.27265			43387.38302		66.67800		324.00000 
 43692.65567		 952.57479			42740.08088		215.50000		875.00000 
 43692.65567		 305.27265			43387.38302		66.67800		324.00000 
 43692.65567		 952.57479			42740.08088		215.50000		875.00000 
 43692.65567		 305.27265			43387.38302		66.67800		324.00000 
 43692.65567		 952.57479			42740.08088		215.50000		875.00000 
 43692.65567		 305.27265			43387.38302		66.67800		324.00000 
 43692.65567		 952.57479			42740.08088		215.50000		875.00000 
 43692.65567		 305.27265			43387.38302		66.67800		324.00000 
 43692.65567		 952.57479			42740.08088		215.50000		875.00000 
 43692.65567		 305.27265			43387.38302		66.67800		324.00000 
 43692.65567		 952.57479			42740.08088		215.50000		875.00000 
 43692.65567		 305.27265			43387.38302		66.67800		324.00000 
 43692.65567		 952.57479			42740.08088		215.50000		875.00000 
 43692.65567		 305.27265			43387.38302		66.67800		324.00000 
 43692.65567		 952.57479			42740.08088		215.50000		875.00000 
 43692.65567		 305.27265			43387.38302		66.67800		324.00000 
 43692.65567		 952.57479			42740.08088		215.50000		875.00000 
 43692.65567		 305.27265			43387.38302		66.67800		324.00000 
 43692.65567		 952.57479			42740.08088		215.50000		875.00000 
 43692.65567		 305.27265			43387.38302		66.67800		324.00000 
 43692.65567		 952.57479			42740.08088		215.50000		875.00000 
 43692.65567		 305.27265			43387.38302		66.67800		324.00000 
 43692.65567		 952.57479			42740.08088		215.50000		875.00000 
 43692.65567		 305.27265			43387.38302		66.67800		324.00000 
 43692.65567		 952.57479			42740.08088		215.50000		875.00000 
 43692.65567		 305.27265			43387.38302		66.67800		324.00000 
 43692.65567		 952.57479			42740.08088		215.50000		875.00000 
 43692.65567		 305.27265			43387.38302		66.67800		324.00000 
 43692.65567		 952.57479			42740.08088		215.50000		875.00000 
 43692.65567		 305.27265			43387.38302		66.67800		324.00000 
 43692.65567		 952.57479			42740.08088		215.50000		875.00000 
 43692.65567		 305.27265			43387.38302		66.67800		324.00000 
 43692.65567		 952.57479			42740.08088		215.50000		875.00000 
 43692.65567		 305.27265			43387.38302		66.67800		324.00000 
 43692.65567		 952.57479			42740.08088		224.55000		875.00000 
 43692.65567		 305.27265			43387.38302		66.67800		324.00000 
 43692.65567		 952.57479			42740.08088		224.55000		875.00000 
 43692.65567		 305.27265			43387.38302		66.67800		324.00000 
 43692.65567		 952.57479			42740.08088		224.55000		875.00000 
 43692.65567		 305.27265			43387.38302		66.67800		324.00000 
 43692.65567		 952.57479			42740.08088		224.55000		875.00000 
 43692.65567		 305.27265			43387.38302		66.67800		324.00000 
 43692.65567		 952.57479			42740.08088		224.55000		875.00000 
 43692.65567		 305.27265			43387.38302		66.67800		324.00000 
 43692.65567		 952.57479			42740.08088		224.55000		875.00000 
 43692.65567		 305.27265			43387.38302		66.67800		324.00000 
 43692.65567		 952.57479			42740.08088		224.55000		875.00000 
 43692.65567		 305.27265			43387.38302		66.67800		324.00000 
 43692.65567		 952.57479			42740.08088		224.55000		875.00000 
 43692.65567		 305.27265			43387.38302		66.67800		324.00000 
 43692.65567		 952.57479			42740.08088		224.55000		875.00000 
 43692.65567		 305.27265			43387.38302		66.67800		324.00000 
 43692.65567		 952.57479			42740.08088		224.55000		875.00000 
 43692.65567		 305.27265			43387.38302		66.67800		324.00000 
 43692.65567		 952.57479			42740.08088		224.55000		875.00000 
 43692.65567		 305.27265			43387.38302		66.67800		324.00000 
 43692.65567		 952.57479			42740.08088		224.55000		875.00000 
 43692.65567		 305.27265			43387.38302		66.67800		324.00000 
 43692.65567		 952.57479			42740.08088		224.55000		875.00000 
 43692.65567		 305.27265			43387.38302		66.67800		324.00000 
 43692.65567		 952.57479			42740.08088		224.55000		875.00000 
 43692.65567		 305.27265			43387.38302		66.67800		324.00000 
 43692.65567		 952.57479			42740.08088		224.55000		875.00000 
 43692.65567		 305.27265			43387.38302		66.67800		324.00000 
 43692.65567		 952.57479			42740.08088		224.55000		875.00000 
 43692.65567		 305.27265			43387.38302		66.67800		324.00000 
 43692.65567		 952.57479			42740.08088		224.55000		875.00000 
 43692.65567		 305.27265			43387.38302		66.67800		324.00000 
 43692.65567		 952.57479			42740.08088		224.55000		875.00000 
 43692.65567		 305.27265			43387.38302		66.67800		324.00000 
 43692.65567		 952.57479			42740.08088		224.55000		875.00000 
 43692.65567		 305.27265			43387.38302		66.67800		324.00000 
 43692.65567		 952.57479			42740.08088		224.55000		875.00000 
 43692.65567		 305.27265			43387.38302		66.67800		324.00000 
 43692.65567		 952.57479			42740.08088		224.55000		875.00000 
 43692.65567		 305.27265			43387.38302		66.67800		324.00000 
 43692.65567		 952.57479			42740.08088		224.55000		875.00000 
 43692.65567		 305.27265			43387.38302		66.67800		324.00000 
 43692.65567		 952.57479			42740.08088		224.55000		875.00000 
 43692.65567		 305.27265			43387.38302		66.67800		324.00000 
 43692.65567		 952.57479			42740.08088		224.55000		875.00000 
 43692.65567		 305.27265			43387.38302		66.67800		324.00000 
 43692.65567		 952.57479			42740.08088		224.55000		875.00000 
 43692.65567		 305.27265			43387.38302		66.67800		324.00000 
 43692.65567		 952.57479			42740.08088		224.55000		875.00000 
 43692.65567		 305.27265			43387.38302		66.67800		324.00000 
 43692.65567		 952.57479			42740.08088		224.55000		875.00000 
 43692.65567		 305.27265			43387.38302		66.67800		324.00000 
 43692.65567		 952.57479			42740.08088		224.55000		875.00000 
 43692.65567		 305.27265			43387.38302		66.67800		324.00000 
 43692.65567		 952.57479			42740.08088		224.55000		875.00000 
 43692.65567		 305.27265			43387.38302		66.67800		324.00000 
 43692.65567		 952.57479			42740.08088		224.55000		875.00000 
 43692.65567		 305.27265			43387.38302		66.67800		324.00000 
 43692.65567		 952.57479			42740.08088		224.55000		875.00000 
 43692.65567		 305.27265			43387.38302		66.67800		324.00000 
 43692.65567		 952.57479			42740.08088		224.55000		875.00000 
 43692.65567		 305.27265			43387.38302		66.67800		324.00000 
 43692.65567		 952.57479			42740.08088		224.55000		875.00000 
 43692.65567		 305.27265			43387.38302		66.67800		324.00000 
 43692.65567		 952.57479			42740.08088		224.55000		875.00000 
 43692.65567		 305.27265			43387.38302		66.67800		324.00000 
 43692.65567		 952.57479			42740.08088		224.55000		875.00000 
 43692.65567		 305.27265			43387.38302		66.67800		324.00000 
 43692.65567		 952.57479			42740.08088		224.55000		875.00000 
 43692.65567		 305.27265			43387.38302		66.67800		324.00000 
 43692.65567		 952.57479			42740.08088		224.55000		875.00000 
 43692.65567		 305.27265			43387.38302		66.67800		324.00000 
 43692.65567		 952.57479			42740.08088		224.55000		875.00000 
 43692.65567		 305.27265			43387.38302		66.67800		324.00000 
 43692.65567		 952.57479			42740.08088		224.55000		875.00000 
 43692.65567		 305.27265			43387.38302		66.67800		324.00000 
 43692.65567		 952.57479			42740.08088		224.55000		875.00000 
 43692.65567		 305.27265			43387.38302		66.67800		324.00000 
 43692.65567		 952.57479			42740.08088		224.55000		875.00000 
 43692.65567		 305.27265			43387.38302		66.67800		324.00000 
 43692.65567		 952.57479			42740.08088		224.55000		875.00000 
 43692.65567		 305.27265			43387.38302		66.67800		324.00000 
 43692.65567		 952.57479			42740.08088		224.55000		875.00000 
 43692.65567		 305.27265			43387.38302		66.67800		324.00000 
 43692.65567		 952.57479			42740.08088		224.55000		875.00000 
 43692.65567		 305.27265			43387.38302		66.67800		324.00000 
 43692.65567		 952.57479			42740.08088		224.55000		875.00000 
 43692.65567		 305.27265			43387.38302		66.67800		324.00000 
 43692.65567		 952.57479			42740.08088		224.55000		875.00000 
 43692.65567		 305.27265			43387.38302		66.67800		324.00000 
 43692.65567		 952.57479			42740.08088		224.55000		875.00000 
 43692.65567		 305.27265			43387.38302		66.67800		324.00000 
 43692.65567		 952.57479			42740.08088		224.55000		875.00000 
 43692.65567		 305.27265			43387.38302		66.67800		324.00000 
 43692.65567		 952.57479			42740.08088		224.55000		875.00000 
 43692.65567		 305.27265			43387.38302		66.67800		324.00000 
 43692.65567		 952.57479			42740.08088		224.55000		875.00000 
 43692.65567		 305.27265			43387.38302		66.67800		324.00000 
 43692.65567		 952.57479			42740.08088		224.55000		875.00000 
 43692.65567		 305.27265			43387.38302		66.67800		324.00000 
 43692.65567		 952.57479			42740.08088		224.55000		875.00000 
 43692.65567		 305.27265			43387.38302		66.67800		324.00000 
 43692.65567		 952.57479			42740.08088		224.55000		875.00000 
 43692.65567		 305.27265			43387.38302		66.67800		324.00000 
 43692.65567		 952.57479			42740.08088		224.55000		875.00000 
 43692.65567		 305.27265			43387.38302		66.67800		324.00000 
 43692.65567		 952.57479			42740.08088		224.55000		875.00000 
 43692.65567		 305.27265			43387.38302		66.67800		324.00000 
 43692.65567		 952.57479			42740.08088		224.55000		875.00000 
 43692.65567		 305.27265			43387.38302		66.67800		324.00000 
 43692.65567		 952.57479			42740.08088		224.55000		875.00000 
 43692.65567		 305.27265			43387.38302		66.67800		324.00000 
 43692.65567		 952.57479			42740.08088		224.55000		875.00000 
 43692.65567		 305.27265			43387.38302		66.67800		324.00000 
 43692.65567		 952.57479			42740.08088		224.55000		875.00000 
 43692.65567		 305.27265			43387.38302		66.67800		324.00000 
 43692.65567		 952.57479			42740.08088		224.55000		875.00000 
 43692.65567		 305.27265			43387.38302		66.67800		324.00000 
 43692.65567		 952.57479			42740.08088		224.55000		875.00000 
 43692.65567		 305.27265			43387.38302		66.67800		324.00000 
 43692.65567		 952.57479			42740.08088		224.55000		875.00000 
 43692.65567		 305.27265			43387.38302		66.67800		324.00000 
 43692.65567		 952.57479			42740.08088		224.55000		875.00000 
 43692.65567		 305.27265			43387.38302		66.67800		324.00000 
 43692.65567		 952.57479			42740.08088		224.55000		875.00000 
 43692.65567		 305.27265			43387.38302		66.67800		324.00000 
 43692.65567		 952.57479			42740.08088		227.49800		875.00000 
 43692.65567		 305.27265			43387.38302		66.67800		324.00000 
 43692.65567		 952.57479			42740.08088		227.49800		875.00000 
 43692.65567		 305.27265			43387.38302		66.67800		324.00000 
 43692.65567		 952.57479			42740.08088		227.49800		875.00000 
 43692.65567		 305.27265			43387.38302		66.67800		324.00000 
 43692.65567		 952.57479			42740.08088		227.49800		875.00000 
 43692.65567		 305.27265			43387.38302		66.67800		324.00000 
 43692.65567		 952.57479			42740.08088		227.49800		875.00000 
 43692.65567		 305.27265			43387.38302		66.67800		324.00000 
 43692.65567		 952.57479			42740.08088		227.49800		875.00000 
 43692.65567		 305.27265			43387.38302		66.67800		324.00000 
 43692.65567		 952.57479			42740.08088		227.49800		875.00000 
 43692.65567		 305.27265			43387.38302		66.67800		324.00000 
 43692.65567		 952.57479			42740.08088		227.49800		875.00000 
 43692.65567		 305.27265			43387.38302		66.67800		324.00000 
 43692.65567		 952.57479			42740.08088		227.49800		875.00000 
 43692.65567		 305.27265			43387.38302		66.67800		324.00000 
 43692.65567		 952.57479			42740.08088		227.49800		875.00000 
 43692.65567		 305.27265			43387.38302		66.67800		324.00000 
 43692.65567		 952.57479			42740.08088		227.49800		875.00000 
 43692.65567		 305.27265			43387.38302		66.67800		324.00000 
 43692.65567		 952.57479			42740.08088		227.49800		875.00000 
 43692.65567		 305.27265			43387.38302		66.67800		324.00000 
 43692.65567		 952.57479			42740.08088		227.49800		875.00000 
 43692.65567		 305.27265			43387.38302		66.67800		324.00000 
 43692.65567		 952.57479			42740.08088		227.49800		875.00000 
 43692.65567		 305.27265			43387.38302		66.67800		324.00000 
 43692.65567		 952.57479			42740.08088		227.49800		875.00000 
 43692.65567		 305.27265			43387.38302		66.67800		324.00000 
 43692.65567		 952.57479			42740.08088		227.49800		875.00000 
 43692.65567		 305.27265			43387.38302		66.67800		324.00000 
 43692.65567		 952.57479			42740.08088		227.49800		875.00000 
 43692.65567		 305.27265			43387.38302		66.67800		324.00000 
 43692.65567		 952.57479			42740.08088		227.49800		875.00000 
 43692.65567		 305.27265			43387.38302		66.67800		324.00000 
 43692.65567		 952.57479			42740.08088		227.49800		875.00000 
 43692.65567		 305.27265			43387.38302		66.67800		324.00000 
 43692.65567		 952.57479			42740.08088		227.49800		875.00000 
 43692.65567		 305.27265			43387.38302		66.67800		324.00000 
 43692.65567		 952.57479			42740.08088		227.49800		875.00000 
 43692.65567		 305.27265			43387.38302		66.67800		324.00000 
 43692.65567		 952.57479			42740.08088		227.49800		875.00000 
 43692.65567		 305.27265			43387.38302		66.67800		324.00000 
 43692.65567		 952.57479			42740.08088		227.49800		875.00000 
 43692.65567		 305.27265			43387.38302		66.67800		324.00000 
 43692.65567		 952.57479			42740.08088		227.49800		875.00000 
 43692.65567		 305.27265			43387.38302		66.67800		324.00000 
 43692.65567		 952.57479			42740.08088		227.49800		875.00000 
 43692.65567		 305.27265			43387.38302		66.67800		324.00000 
 43692.65567		 952.57479			42740.08088		227.49800		875.00000 
 43692.65567		 305.27265			43387.38302		66.67800		324.00000 
 43692.65567		 952.57479			42740.08088		227.49800		875.00000 
 43692.65567		 305.27265			43387.38302		66.67800		324.00000 
 43692.65567		 952.57479			42740.08088		227.49800		875.00000 
 43692.65567		 305.27265			43387.38302		66.67800		324.00000 
 43692.65567		 952.57479			42740.08088		227.49800		875.00000 
 43692.65567		 305.27265			43387.38302		66.67800		324.00000 
 43692.65567		 952.57479			42740.08088		227.49800		875.00000 
 43692.65567		 305.27265			43387.38302		66.67800		324.00000 
 43692.65567		 952.57479			42740.08088		227.49800		875.00000 
 43692.65567		 305.27265			43387.38302		66.67800		324.00000 
 43692.65567		 952.57479			42740.08088		227.49800		875.00000 
 43692.65567		 305.27265			43387.38302		66.67800		324.00000 
 43692.65567		 952.57479			42740.08088		227.49800		875.00000 
 43692.65567		 305.27265			43387.38302		66.67800		324.00000 
 43692.65567		 952.57479			42740.08088		227.49800		875.00000 
 43692.65567		 305.27265			43387.38302		66.67800		324.00000 
 43692.65567		 952.57479			42740.08088		227.49800		875.00000 
 43692.65567		 305.27265			43387.38302		66.67800		324.00000 
 43692.65567		 952.57479			42740.08088		227.49800		875.00000 
 43692.65567		 305.27265			43387.38302		66.67800		324.00000 
 43692.65567		 952.57479			42740.08088		227.49800		875.00000 
 43692.65567		 305.27265			43387.38302		66.67800		324.00000 
 43692.65567		 952.57479			42740.08088		227.49800		875.00000 
 43692.65567		 305.27265			43387.38302		66.67800		324.00000 
 43692.65567		 952.57479			42740.08088		227.49800		875.00000 
 43692.65567		 305.27265			43387.38302		66.67800		324.00000 
 43692.65567		 952.57479			42740.08088		227.49800		875.00000 
 43692.65567		 305.27265			43387.38302		66.67800		324.00000 
 43692.65567		 952.57479			42740.08088		227.49800		875.00000 
 43692.65567		 305.27265			43387.38302		66.67800		324.00000 
 43692.65567		 952.57479			42740.08088		227.49800		875.00000 
 43692.65567		 305.27265			43387.38302		66.67800		324.00000 
 43692.65567		 952.57479			42740.08088		227.49800		875.00000 
 43692.65567		 305.27265			43387.38302		66.67800		324.00000 
 43692.65567		 952.57479			42740.08088		227.49800		875.00000 
 43692.65567		 305.27265			43387.38302		66.67800		324.00000 
 43692.65567		 952.57479			42740.08088		227.49800		875.00000 
 43692.65567		 305.27265			43387.38302		66.67800		324.00000 
 43692.65567		 952.57479			42740.08088		227.49800		875.00000 
 43692.65567		 305.27265			43387.38302		66.67800		324.00000 
 43692.65567		 952.57479			42740.08088		227.49800		875.00000 
 43692.65567		 305.27265			43387.38302		66.67800		324.00000 
 43692.65567		 952.57479			42740.08088		227.49800		875.00000 
 43692.65567		 305.27265			43387.38302		66.67800		324.00000 
 43692.65567		 952.57479			42740.08088		227.49800		875.00000 
 43692.65567		 305.27265			43387.38302		66.67800		324.00000 
 43692.65567		 952.57479			42740.08088		227.49800		875.00000 
 43692.65567		 305.27265			43387.38302		66.67800		324.00000 
 43692.65567		 952.57479			42740.08088		227.49800		875.00000 
 43692.65567		 305.27265			43387.38302		66.67800		324.00000 
 43692.65567		 952.57479			42740.08088		227.49800		875.00000 
 43692.65567		 305.27265			43387.38302		66.67800		324.00000 
 43692.65567		 952.57479			42740.08088		227.49800		875.00000 
 43692.65567		 305.27265			43387.38302		66.67800		324.00000 
 43692.65567		 952.57479			42740.08088		227.49800		875.00000 
 43692.65567		 305.27265			43387.38302		66.67800		324.00000 
 43692.65567		 952.57479			42740.08088		227.49800		875.00000 
 43692.65567		 305.27265			43387.38302		66.67800		324.00000 
 43692.65567		 952.57479			42740.08088		227.49800		875.00000 
 43692.65567		 305.27265			43387.38302		66.67800		324.00000 
 43692.65567		 952.57479			42740.08088		227.49800		875.00000 
 43692.65567		 305.27265			43387.38302		66.67800		324.00000 
 43692.65567		 952.57479			42740.08088		227.49800		875.00000 
 43692.65567		 305.27265			43387.38302		66.67800		324.00000 
 43692.65567		 952.57479			42740.08088		227.49800		875.00000 
 43692.65567		 305.27265			43387.38302		66.67800		324.00000 
 43692.65567		 952.57479			42740.08088		227.49800		875.00000 
 43692.65567		 305.27265			43387.38302		66.67800		324.00000 
 43692.65567		 952.57479			42740.08088		227.49800		875.00000 
 43692.65567		 305.27265			43387.38302		66.67800		324.00000 
 43692.65567		 952.57479			42740.08088		227.49800		875.00000 
 43692.65567		 305.27265			43387.38302		66.67800		324.00000 
 43692.65567		 952.57479			42740.08088		227.49800		875.00000 
 43692.65567		 305.27265			43387.38302		66.67800		324.00000 
 43692.65567		 952.57479			42740.08088		227.49800		875.00000 
 43692.65567		 305.27265			43387.38302		66.67800		324.00000 
 43692.65567		 952.57479			42740.08088		227.49800		875.00000 
 43692.65567		 305.27265			43387.38302		66.67800		324.00000 
 43692.65567		 952.57479			42740.08088		229.30200		875.00000 
 43692.65567		 305.27265			43387.38302		66.67800		324.00000 
 43692.65567		 952.57479			42740.08088		229.30200		875.00000 
 43692.65567		 305.27265			43387.38302		66.67800		324.00000 
 43692.65567		 952.57479			42740.08088		229.30200		875.00000 
 43692.65567		 305.27265			43387.38302		66.67800		324.00000 
 43692.65567		 952.57479			42740.08088		229.30200		875.00000 
 43692.65567		 305.27265			43387.38302		66.67800		324.00000 
 43692.65567		 952.57479			42740.08088		229.30200		875.00000 
 43692.65567		 305.27265			43387.38302		66.67800		324.00000 
 43692.65567		 952.57479			42740.08088		229.30200		875.00000 
 43692.65567		 305.27265			43387.38302		66.67800		324.00000 
 43692.65567		 952.57479			42740.08088		229.30200		875.00000 
 43692.65567		 305.27265			43387.38302		66.67800		324.00000 
 43692.65567		 952.57479			42740.08088		229.30200		875.00000 
 43692.65567		 305.27265			43387.38302		66.67800		324.00000 
 43692.65567		 952.57479			42740.08088		229.30200		875.00000 
 43692.65567		 305.27265			43387.38302		66.67800		324.00000 
 43692.65567		 952.57479			42740.08088		229.30200		875.00000 
 43692.65567		 305.27265			43387.38302		66.67800		324.00000 
 43692.65567		 952.57479			42740.08088		229.30200		875.00000 
 43692.65567		 305.27265			43387.38302		66.67800		324.00000 
 43692.65567		 952.57479			42740.08088		229.30200		875.00000 
 43692.65567		 305.27265			43387.38302		66.67800		324.00000 
 43692.65567		 952.57479			42740.08088		229.30200		875.00000 
 43692.65567		 305.27265			43387.38302		66.67800		324.00000 
 43692.65567		 952.57479			42740.08088		229.30200		875.00000 
 43692.65567		 305.27265			43387.38302		66.67800		324.00000 
 43692.65567		 952.57479			42740.08088		229.30200		875.00000 
 43692.65567		 305.27265			43387.38302		66.67800		324.00000 
 43692.65567		 952.57479			42740.08088		229.30200		875.00000 
 43692.65567		 305.27265			43387.38302		66.67800		324.00000 
 43692.65567		 952.57479			42740.08088		229.30200		875.00000 
 43692.65567		 305.27265			43387.38302		66.67800		324.00000 
 43692.65567		 952.57479			42740.08088		229.30200		875.00000 
 43692.65567		 305.27265			43387.38302		66.67800		324.00000 
 43692.65567		 952.57479			42740.08088		229.30200		875.00000 
 43692.65567		 305.27265			43387.38302		66.67800		324.00000 
 43692.65567		 952.57479			42740.08088		229.30200		875.00000 
 43692.65567		 305.27265			43387.38302		66.67800		324.00000 
 43692.65567		 952.57479			42740.08088		229.30200		875.00000 
 43692.65567		 305.27265			43387.38302		66.67800		324.00000 
 43692.65567		 952.57479			42740.08088		229.30200		875.00000 
 43692.65567		 305.27265			43387.38302		66.67800		324.00000 
 43692.65567		 952.57479			42740.08088		229.30200		875.00000 
 43692.65567		 305.27265			43387.38302		66.67800		324.00000 
 43692.65567		 952.57479			42740.08088		229.30200		875.00000 
 43692.65567		 305.27265			43387.38302		66.67800		324.00000 
 43692.65567		 952.57479			42740.08088		229.30200		875.00000 
 43692.65567		 305.27265			43387.38302		66.67800		324.00000 
 43692.65567		 952.57479			42740.08088		229.30200		875.00000 
 43692.65567		 305.27265			43387.38302		66.67800		324.00000 
 43692.65567		 952.57479			42740.08088		229.30200		875.00000 
 43692.65567		 305.27265			43387.38302		66.67800		324.00000 
 43692.65567		 952.57479			42740.08088		229.30200		875.00000 
 43692.65567		 305.27265			43387.38302		66.67800		324.00000 
 43692.65567		 952.57479			42740.08088		229.30200		875.00000 
 43692.65567		 305.27265			43387.38302		66.67800		324.00000 
 43692.65567		 952.57479			42740.08088		229.30200		875.00000 
 43692.65567		 305.27265			43387.38302		66.67800		324.00000 
 43692.65567		 952.57479			42740.08088		229.30200		875.00000 
 43692.65567		 305.27265			43387.38302		66.67800		324.00000 
 43692.65567		 952.57479			42740.08088		229.30200		875.00000 
 43692.65567		 305.27265			43387.38302		66.67800		324.00000 
 43692.65567		 952.57479			42740.08088		229.30200		875.00000 
 43692.65567		 305.27265			43387.38302		66.67800		324.00000 
 43692.65567		 952.57479			42740.08088		229.30200		875.00000 
 43692.65567		 305.27265			43387.38302		66.67800		324.00000 
 43692.65567		 952.57479			42740.08088		229.30200		875.00000 
 43692.65567		 305.27265			43387.38302		66.67800		324.00000 
 43692.65567		 952.57479			42740.08088		229.30200		875.00000 
 43692.65567		 305.27265			43387.38302		66.67800		324.00000 
 43692.65567		 952.57479			42740.08088		229.30200		875.00000 
 43692.65567		 305.27265			43387.38302		66.67800		324.00000 
 43692.65567		 952.57479			42740.08088		229.30200		875.00000 
 43692.65567		 305.27265			43387.38302		66.67800		324.00000 
 43692.65567		 952.57479			42740.08088		229.30200		875.00000 
 43692.65567		 305.27265			43387.38302		66.67800		324.00000 
 43692.65567		 952.57479			42740.08088		229.30200		875.00000 
 43692.65567		 305.27265			43387.38302		66.67800		324.00000 
 43692.65567		 952.57479			42740.08088		229.30200		875.00000 
 43692.65567		 305.27265			43387.38302		66.67800		324.00000 
 43692.65567		 952.57479			42740.08088		229.30200		875.00000 
 43692.65567		 305.27265			43387.38302		66.67800		324.00000 
 43692.65567		 952.57479			42740.08088		229.30200		875.00000 
 43692.65567		 305.27265			43387.38302		66.67800		324.00000 
 43692.65567		 952.57479			42740.08088		229.30200		875.00000 
 43692.65567		 305.27265			43387.38302		66.67800		324.00000 
 43692.65567		 952.57479			42740.08088		229.30200		875.00000 
 43692.65567		 305.27265			43387.38302		66.67800		324.00000 
 43692.65567		 952.57479			42740.08088		229.30200		875.00000 
 43692.65567		 305.27265			43387.38302		66.67800		324.00000 
 43692.65567		 952.57479			42740.08088		229.30200		875.00000 
 43692.65567		 305.27265			43387.38302		66.67800		324.00000 
 43692.65567		 952.57479			42740.08088		229.30200		875.00000 
 43692.65567		 305.27265			43387.38302		66.67800		324.00000 
 43692.65567		 952.57479			42740.08088		229.30200		875.00000 
 43692.65567		 305.27265			43387.38302		66.67800		324.00000 
 43692.65567		 952.57479			42740.08088		229.30200		875.00000 
 43692.65567		 305.27265			43387.38302		66.67800		324.00000 
 43692.65567		 952.57479			42740.08088		229.30200		875.00000 
 43692.65567		 305.27265			43387.38302		66.67800		324.00000 
 43692.65567		 952.57479			42740.08088		229.30200		875.00000 
 43692.65567		 305.27265			43387.38302		66.67800		324.00000 
 43692.65567		 952.57479			42740.08088		229.30200		875.00000 
 43692.65567		 305.27265			43387.38302		66.67800		324.00000 
 43692.65567		 952.57479			42740.08088		229.30200		875.00000 
 43692.65567		 305.27265			43387.38302		66.67800		324.00000 
 43692.65567		 952.57479			42740.08088		229.30200		875.00000 
 43692.65567		 305.27265			43387.38302		66.67800		324.00000 
 43692.65567		 952.57479			42740.08088		229.30200		875.00000 
 43692.65567		 305.27265			43387.38302		66.67800		324.00000 
 43692.65567		 952.57479			42740.08088		229.30200		875.00000 
 43692.65567		 305.27265			43387.38302		66.67800		324.00000 
 43692.65567		 952.57479			42740.08088		229.30200		875.00000 
 43692.65567		 305.27265			43387.38302		66.67800		324.00000 
 43692.65567		 952.57479			42740.08088		229.30200		875.00000 
 43692.65567		 305.27265			43387.38302		66.67800		324.00000 
 43692.65567		 952.57479			42740.08088		229.30200		875.00000 
 43692.65567		 305.27265			43387.38302		66.67800		324.00000 
 43692.65567		 952.57479			42740.08088		229.30200		875.00000 
 43692.65567		 305.27265			43387.38302		66.67800		324.00000 
 43692.65567		 952.57479			42740.08088		229.30200		875.00000 
 43692.65567		 305.27265			43387.38302		66.67800		324.00000 
 43692.65567		 952.57479			42740.08088		229.30200		875.00000 
 43692.65567		 305.27265			43387.38302		66.67800		324.00000 
 43692.65567		 952.57479			42740.08088		229.30200		875.00000 
 43692.65567		 305.27265			43387.38302		66.67800		324.00000 
 43692.65567		 952.57479			42740.08088		229.30200		875.00000 
 43692.65567		 305.27265			43387.38302		66.67800		324.00000 
 43692.65567		 952.57479			42740.08088		229.30200		875.00000 
 43692.65567		 305.27265			43387.38302		66.67800		324.00000 
 43692.65567		 952.57479			42740.08088		229.54400		875.00000 
 43692.65567		 305.27265			43387.38302		66.67800		324.00000 
 43692.65567		 952.57479			42740.08088		229.54400		875.00000 
 43692.65567		 305.27265			43387.38302		66.67800		324.00000 
 43692.65567		 952.57479			42740.08088		229.54400		875.00000 
 43692.65567		 305.27265			43387.38302		66.67800		324.00000 
 43692.65567		 952.57479			42740.08088		229.54400		875.00000 
 43692.65567		 305.27265			43387.38302		66.67800		324.00000 
 43692.65567		 952.57479			42740.08088		229.54400		875.00000 
 43692.65567		 305.27265			43387.38302		66.67800		324.00000 
 43692.65567		 952.57479			42740.08088		229.54400		875.00000 
 43692.65567		 305.27265			43387.38302		66.67800		324.00000 
 43692.65567		 952.57479			42740.08088		229.54400		875.00000 
 43692.65567		 305.27265			43387.38302		66.67800		324.00000 
 43692.65567		 952.57479			42740.08088		229.54400		875.00000 
 43692.65567		 305.27265			43387.38302		66.67800		324.00000 
 43692.65567		 952.57479			42740.08088		229.54400		875.00000 
 43692.65567		 305.27265			43387.38302		66.67800		324.00000 
 43692.65567		 952.57479			42740.08088		229.54400		875.00000 
 43692.65567		 305.27265			43387.38302		66.67800		324.00000 
 43692.65567		 952.57479			42740.08088		229.54400		875.00000 
 43692.65567		 305.27265			43387.38302		66.67800		324.00000 
 43692.65567		 952.57479			42740.08088		229.54400		875.00000 
 43692.65567		 305.27265			43387.38302		66.67800		324.00000 
 43692.65567		 952.57479			42740.08088		229.54400		875.00000 
 43692.65567		 305.27265			43387.38302		66.67800		324.00000 
 43692.65567		 952.57479			42740.08088		229.54400		875.00000 
 43692.65567		 305.27265			43387.38302		66.67800		324.00000 
 43692.65567		 952.57479			42740.08088		229.54400		875.00000 
 43692.65567		 305.27265			43387.38302		66.67800		324.00000 
 43692.65567		 952.57479			42740.08088		229.54400		875.00000 
 43692.65567		 305.27265			43387.38302		66.67800		324.00000 
 43692.65567		 952.57479			42740.08088		229.54400		875.00000 
 43692.65567		 305.27265			43387.38302		66.67800		324.00000 
 43692.65567		 952.57479			42740.08088		229.54400		875.00000 
 43692.65567		 305.27265			43387.38302		66.67800		324.00000 
 43692.65567		 952.57479			42740.08088		229.54400		875.00000 
 43692.65567		 305.27265			43387.38302		66.67800		324.00000 
 43692.65567		 952.57479			42740.08088		229.54400		875.00000 
 43692.65567		 305.27265			43387.38302		66.67800		324.00000 
 43692.65567		 952.57479			42740.08088		229.54400		875.00000 
 43692.65567		 305.27265			43387.38302		66.67800		324.00000 
 43692.65567		 952.57479			42740.08088		229.54400		875.00000 
 43692.65567		 305.27265			43387.38302		66.67800		324.00000 
 43692.65567		 952.57479			42740.08088		229.54400		875.00000 
 43692.65567		 305.27265			43387.38302		66.67800		324.00000 
 43692.65567		 952.57479			42740.08088		229.54400		875.00000 
 43692.65567		 305.27265			43387.38302		66.67800		324.00000 
 43692.65567		 952.57479			42740.08088		229.54400		875.00000 
 43692.65567		 305.27265			43387.38302		66.67800		324.00000 
 43692.65567		 952.57479			42740.08088		229.54400		875.00000 
 43692.65567		 305.27265			43387.38302		66.67800		324.00000 
 43692.65567		 952.57479			42740.08088		229.54400		875.00000 
 43692.65567		 305.27265			43387.38302		66.67800		324.00000 
 43692.65567		 952.57479			42740.08088		229.54400		875.00000 
 43692.65567		 305.27265			43387.38302		66.67800		324.00000 
 43692.65567		 952.57479			42740.08088		229.54400		875.00000 
 43692.65567		 305.27265			43387.38302		66.67800		324.00000 
 43692.65567		 952.57479			42740.08088		229.54400		875.00000 
 43692.65567		 305.27265			43387.38302		66.67800		324.00000 
 43692.65567		 952.57479			42740.08088		229.54400		875.00000 
 43692.65567		 305.27265			43387.38302		66.67800		324.00000 
 43692.65567		 952.57479			42740.08088		229.54400		875.00000 
 43692.65567		 305.27265			43387.38302		66.67800		324.00000 
 43692.65567		 952.57479			42740.08088		229.54400		875.00000 
 43692.65567		 305.27265			43387.38302		66.67800		324.00000 
 43692.65567		 952.57479			42740.08088		229.54400		875.00000 
 43692.65567		 305.27265			43387.38302		66.67800		324.00000 
 43692.65567		 952.57479			42740.08088		229.54400		875.00000 
 43692.65567		 305.27265			43387.38302		66.67800		324.00000 
 43692.65567		 952.57479			42740.08088		229.54400		875.00000 
 43692.65567		 305.27265			43387.38302		66.67800		324.00000 
 43692.65567		 952.57479			42740.08088		229.54400		875.00000 
 43692.65567		 305.27265			43387.38302		66.67800		324.00000 
 43692.65567		 952.57479			42740.08088		229.54400		875.00000 
 43692.65567		 305.27265			43387.38302		66.67800		324.00000 
 43692.65567		 952.57479			42740.08088		229.54400		875.00000 
 43692.65567		 305.27265			43387.38302		66.67800		324.00000 
 43692.65567		 952.57479			42740.08088		229.54400		875.00000 
 43692.65567		 305.27265			43387.38302		66.67800		324.00000 
 43692.65567		 952.57479			42740.08088		229.54400		875.00000 
 43692.65567		 305.27265			43387.38302		66.67800		324.00000 
 43692.65567		 952.57479			42740.08088		229.54400		875.00000 
 43692.65567		 305.27265			43387.38302		66.67800		324.00000 
 43692.65567		 952.57479			42740.08088		229.54400		875.00000 
 43692.65567		 305.27265			43387.38302		66.67800		324.00000 
 43692.65567		 952.57479			42740.08088		229.54400		875.00000 
 43692.65567		 305.27265			43387.38302		66.67800		324.00000 
 43692.65567		 952.57479			42740.08088		229.54400		875.00000 
 43692.65567		 305.27265			43387.38302		66.67800		324.00000 
 43692.65567		 952.57479			42740.08088		229.54400		875.00000 
 43692.65567		 305.27265			43387.38302		66.67800		324.00000 
 43692.65567		 952.57479			42740.08088		229.54400		875.00000 
 43692.65567		 305.27265			43387.38302		66.67800		324.00000 
 43692.65567		 952.57479			42740.08088		229.54400		875.00000 
 43692.65567		 305.27265			43387.38302		66.67800		324.00000 
 43692.65567		 952.57479			42740.08088		229.54400		875.00000 
 43692.65567		 305.27265			43387.38302		66.67800		324.00000 
 43692.65567		 952.57479			42740.08088		229.54400		875.00000 
 43692.65567		 305.27265			43387.38302		66.67800		324.00000 
 43692.65567		 952.57479			42740.08088		229.54400		875.00000 
 43692.65567		 305.27265			43387.38302		66.67800		324.00000 
 43692.65567		 952.57479			42740.08088		229.54400		875.00000 
 43692.65567		 305.27265			43387.38302		66.67800		324.00000 
 43692.65567		 952.57479			42740.08088		229.54400		875.00000 
 43692.65567		 305.27265			43387.38302		66.67800		324.00000 
 43692.65567		 952.57479			42740.08088		229.54400		875.00000 
 43692.65567		 305.27265			43387.38302		66.67800		324.00000 
 43692.65567		 952.57479			42740.08088		229.54400		875.00000 
 43692.65567		 305.27265			43387.38302		66.67800		324.00000 
 43692.65567		 952.57479			42740.08088		229.54400		875.00000 
 43692.65567		 305.27265			43387.38302		66.67800		324.00000 
 43692.65567		 952.57479			42740.08088		229.54400		875.00000 
 43692.65567		 305.27265			43387.38302		66.67800		324.00000 
 43692.65567		 952.57479			42740.08088		229.54400		875.00000 
 43692.65567		 305.27265			43387.38302		66.67800		324.00000 
 43692.65567		 952.57479			42740.08088		229.54400		875.00000 
 43692.65567		 305.27265			43387.38302		66.67800		324.00000 
 43692.65567		 952.57479			42740.08088		229.54400		875.00000 
 43692.65567		 305.27265			43387.38302		66.67800		324.00000 
 43692.65567		 952.57479			42740.08088		229.54400		875.00000 
 43692.65567		 305.27265			43387.38302		66.67800		324.00000 
 43692.65567		 952.57479			42740.08088		229.54400		875.00000 
 43692.65567		 305.27265			43387.38302		66.67800		324.00000 
 43692.65567		 952.57479			42740.08088		229.54400		875.00000 
 43692.65567		 305.27265			43387.38302		66.67800		324.00000 
 43692.65567		 952.57479			42740.08088		229.54400		875.00000 
 43692.65567		 305.27265			43387.38302		66.67800		324.00000 
 43692.65567		 952.57479			42740.08088		228.94600		875.00000 
 43692.65567		 305.27265			43387.38302		66.67800		324.00000 
 43692.65567		 952.57479			42740.08088		228.94600		875.00000 
 43692.65567		 305.27265			43387.38302		66.67800		324.00000 
 43692.65567		 952.57479			42740.08088		228.94600		875.00000 
 43692.65567		 305.27265			43387.38302		66.67800		324.00000 
 43692.65567		 952.57479			42740.08088		228.94600		875.00000 
 43692.65567		 305.27265			43387.38302		66.67800		324.00000 
 43692.65567		 952.57479			42740.08088		228.94600		875.00000 
 43692.65567		 305.27265			43387.38302		66.67800		324.00000 
 43692.65567		 952.57479			42740.08088		228.94600		875.00000 
 43692.65567		 305.27265			43387.38302		66.67800		324.00000 
 43692.65567		 952.57479			42740.08088		228.94600		875.00000 
 43692.65567		 305.27265			43387.38302		66.67800		324.00000 
 43692.65567		 952.57479			42740.08088		228.94600		875.00000 
 43692.65567		 305.27265			43387.38302		66.67800		324.00000 
 43692.65567		 952.57479			42740.08088		228.94600		875.00000 
 43692.65567		 305.27265			43387.38302		66.67800		324.00000 
 43692.65567		 952.57479			42740.08088		228.94600		875.00000 
 43692.65567		 305.27265			43387.38302		66.67800		324.00000 
 43692.65567		 952.57479			42740.08088		228.94600		875.00000 
 43692.65567		 305.27265			43387.38302		66.67800		324.00000 
 43692.65567		 952.57479			42740.08088		228.94600		875.00000 
 43692.65567		 305.27265			43387.38302		66.67800		324.00000 
 43692.65567		 952.57479			42740.08088		228.94600		875.00000 
 43692.65567		 305.27265			43387.38302		66.67800		324.00000 
 43692.65567		 952.57479			42740.08088		228.94600		875.00000 
 43692.65567		 305.27265			43387.38302		66.67800		324.00000 
 43692.65567		 952.57479			42740.08088		228.94600		875.00000 
 43692.65567		 305.27265			43387.38302		66.67800		324.00000 
 43692.65567		 952.57479			42740.08088		228.94600		875.00000 
 43692.65567		 305.27265			43387.38302		66.67800		324.00000 
 43692.65567		 952.57479			42740.08088		228.94600		875.00000 
 43692.65567		 305.27265			43387.38302		66.67800		324.00000 
 43692.65567		 952.57479			42740.08088		228.94600		875.00000 
 43692.65567		 305.27265			43387.38302		66.67800		324.00000 
 43692.65567		 952.57479			42740.08088		228.94600		875.00000 
 43692.65567		 305.27265			43387.38302		66.67800		324.00000 
 43692.65567		 952.57479			42740.08088		228.94600		875.00000 
 43692.65567		 305.27265			43387.38302		66.67800		324.00000 
 43692.65567		 952.57479			42740.08088		228.94600		875.00000 
 43692.65567		 305.27265			43387.38302		66.67800		324.00000 
 43692.65567		 952.57479			42740.08088		228.94600		875.00000 
 43692.65567		 305.27265			43387.38302		66.67800		324.00000 
 43692.65567		 952.57479			42740.08088		228.94600		875.00000 
 43692.65567		 305.27265			43387.38302		66.67800		324.00000 
 43692.65567		 952.57479			42740.08088		228.94600		875.00000 
 43692.65567		 305.27265			43387.38302		66.67800		324.00000 
 43692.65567		 952.57479			42740.08088		228.94600		875.00000 
 43692.65567		 305.27265			43387.38302		66.67800		324.00000 
 43692.65567		 952.57479			42740.08088		228.94600		875.00000 
 43692.65567		 305.27265			43387.38302		66.67800		324.00000 
 43692.65567		 952.57479			42740.08088		228.94600		875.00000 
 43692.65567		 305.27265			43387.38302		66.67800		324.00000 
 43692.65567		 952.57479			42740.08088		228.94600		875.00000 
 43692.65567		 305.27265			43387.38302		66.67800		324.00000 
 43692.65567		 952.57479			42740.08088		228.94600		875.00000 
 43692.65567		 305.27265			43387.38302		66.67800		324.00000 
 43692.65567		 952.57479			42740.08088		228.94600		875.00000 
 43692.65567		 305.27265			43387.38302		66.67800		324.00000 
 43692.65567		 952.57479			42740.08088		228.94600		875.00000 
 43692.65567		 305.27265			43387.38302		66.67800		324.00000 
 43692.65567		 952.57479			42740.08088		228.94600		875.00000 
 43692.65567		 305.27265			43387.38302		66.67800		324.00000 
 43692.65567		 952.57479			42740.08088		228.94600		875.00000 
 43692.65567		 305.27265			43387.38302		66.67800		324.00000 
 43692.65567		 952.57479			42740.08088		228.94600		875.00000 
 43692.65567		 305.27265			43387.38302		66.67800		324.00000 
 43692.65567		 952.57479			42740.08088		228.94600		875.00000 
 43692.65567		 305.27265			43387.38302		66.67800		324.00000 
 43692.65567		 952.57479			42740.08088		228.94600		875.00000 
 43692.65567		 305.27265			43387.38302		66.67800		324.00000 
 43692.65567		 952.57479			42740.08088		228.94600		875.00000 
 43692.65567		 305.27265			43387.38302		66.67800		324.00000 
 43692.65567		 952.57479			42740.08088		228.94600		875.00000 
 43692.65567		 305.27265			43387.38302		66.67800		324.00000 
 43692.65567		 952.57479			42740.08088		228.94600		875.00000 
 43692.65567		 305.27265			43387.38302		66.67800		324.00000 
 43692.65567		 952.57479			42740.08088		228.94600		875.00000 
 43692.65567		 305.27265			43387.38302		66.67800		324.00000 
 43692.65567		 952.57479			42740.08088		228.94600		875.00000 
 43692.65567		 305.27265			43387.38302		66.67800		324.00000 
 43692.65567		 952.57479			42740.08088		228.94600		875.00000 
 43692.65567		 305.27265			43387.38302		66.67800		324.00000 
 43692.65567		 952.57479			42740.08088		228.94600		875.00000 
 43692.65567		 305.27265			43387.38302		66.67800		324.00000 
 43692.65567		 952.57479			42740.08088		228.94600		875.00000 
 43692.65567		 305.27265			43387.38302		66.67800		324.00000 
 43692.65567		 952.57479			42740.08088		228.94600		875.00000 
 43692.65567		 305.27265			43387.38302		66.67800		324.00000 
 43692.65567		 952.57479			42740.08088		228.94600		875.00000 
 43692.65567		 305.27265			43387.38302		66.67800		324.00000 
 43692.65567		 952.57479			42740.08088		228.94600		875.00000 
 43692.65567		 305.27265			43387.38302		66.67800		324.00000 
 43692.65567		 952.57479			42740.08088		228.94600		875.00000 
 43692.65567		 305.27265			43387.38302		66.67800		324.00000 
 43692.65567		 952.57479			42740.08088		228.94600		875.00000 
 43692.65567		 305.27265			43387.38302		66.67800		324.00000 
 43692.65567		 952.57479			42740.08088		228.94600		875.00000 
 43692.65567		 305.27265			43387.38302		66.67800		324.00000 
 43692.65567		 952.57479			42740.08088		228.94600		875.00000 
 43692.65567		 305.27265			43387.38302		66.67800		324.00000 
 43692.65567		 952.57479			42740.08088		228.94600		875.00000 
 43692.65567		 305.27265			43387.38302		66.67800		324.00000 
 43692.65567		 952.57479			42740.08088		228.94600		875.00000 
 43692.65567		 305.27265			43387.38302		66.67800		324.00000 
 43692.65567		 952.57479			42740.08088		228.94600		875.00000 
 43692.65567		 305.27265			43387.38302		66.67800		324.00000 
 43692.65567		 952.57479			42740.08088		228.94600		875.00000 
 43692.65567		 305.27265			43387.38302		66.67800		324.00000 
 43692.65567		 952.57479			42740.08088		228.94600		875.00000 
 43692.65567		 305.27265			43387.38302		66.67800		324.00000 
 43692.65567		 952.57479			42740.08088		228.94600		875.00000 
 43692.65567		 305.27265			43387.38302		66.67800		324.00000 
 43692.65567		 952.57479			42740.08088		228.94600		875.00000 
 43692.65567		 305.27265			43387.38302		66.67800		324.00000 
 43692.65567		 952.57479			42740.08088		228.94600		875.00000 
 43692.65567		 305.27265			43387.38302		66.67800		324.00000 
 43692.65567		 952.57479			42740.08088		228.94600		875.00000 
 43692.65567		 305.27265			43387.38302		66.67800		324.00000 
 43692.65567		 952.57479			42740.08088		228.94600		875.00000 
 43692.65567		 305.27265			43387.38302		66.67800		324.00000 
 43692.65567		 952.57479			42740.08088		228.94600		875.00000 
 43692.65567		 305.27265			43387.38302		66.67800		324.00000 
 43692.65567		 952.57479			42740.08088		228.94600		875.00000 
 43692.65567		 305.27265			43387.38302		66.67800		324.00000 
 43692.65567		 952.57479			42740.08088		228.94600		875.00000 
 43692.65567		 305.27265			43387.38302		66.67800		324.00000 
 43692.65567		 952.57479			42740.08088		228.94600		875.00000 
 43692.65567		 305.27265			43387.38302		66.67800		324.00000 
 43692.65567		 952.57479			42740.08088		228.94600		875.00000 
 43692.65567		 305.27265			43387.38302		66.67800		324.00000 
 43692.65567		 952.57479			42740.08088		228.94600		875.00000 
 43692.65567		 305.27265			43387.38302		66.67800		324.00000 
 43692.65567		 952.57479			42740.08088		228.94600		875.00000 
 43692.65567		 305.27265			43387.38302		66.67800		324.00000 
 43692.65567		 952.57479			42740.08088		228.94600		875.00000 
 43692.65567		 305.27265			43387.38302		66.67800		324.00000 
 43692.65567		 952.57479			42740.08088		228.94600		875.00000 
 43692.65567		 305.27265			43387.38302		66.67800		324.00000 
 43692.65567		 952.57479			42740.08088		228.94600		875.00000 
 43692.65567		 305.27265			43387.38302		66.67800		324.00000 
 43692.65567		 952.57479			42740.08088		228.94600		875.00000 
 43692.65567		 305.27265			43387.38302		66.67800		324.00000 
 43692.65567		 952.57479			42740.08088		228.94600		875.00000 
 43692.65567		 305.27265			43387.38302		66.67800		324.00000 
 43692.65567		 952.57479			42740.08088		228.94600		875.00000 
 43692.65567		 305.27265			43387.38302		66.67800		324.00000 
 43692.65567		 952.57479			42740.08088		228.94600		875.00000 
 43692.65567		 305.27265			43387.38302		66.67800		324.00000 
 43692.65567		 952.57479			42740.08088		228.94600		875.00000 
 43692.65567		 305.27265			43387.38302		66.67800		324.00000 
 43692.65567		 952.57479			42740.08088		228.94600		875.00000 
 43692.65567		 305.27265			43387.38302		66.67800		324.00000 
 43692.65567		 952.57479			42740.08088		228.94600		875.00000 
 43692.65567		 305.27265			43387.38302		66.67800		324.00000 
 43692.65567		 952.57479			42740.08088		228.94600		875.00000 
 43692.65567		 305.27265			43387.38302		66.67800		324.00000 
 43692.65567		 952.57479			42740.08088		228.94600		875.00000 
 43692.65567		 305.27265			43387.38302		66.67800		324.00000 
 43692.65567		 952.57479			42740.08088		228.94600		875.00000 
 43692.65567		 305.27265			43387.38302		66.67800		324.00000 
 43692.65567		 952.57479			42740.08088		228.94600		875.00000 
 43692.65567		 305.27265			43387.38302		66.67800		324.00000 
 43692.65567		 952.57479			42740.08088		228.94600		875.00000 
 43692.65567		 305.27265			43387.38302		66.67800		324.00000 
 43692.65567		 952.57479			42740.08088		228.94600		875.00000 
 43692.65567		 305.27265			43387.38302		66.67800		324.00000 
 43692.65567		 952.57479			42740.08088		228.94600		875.00000 
 43692.65567		 305.27265			43387.38302		66.67800		324.00000 
 43692.65567		 952.57479			42740.08088		228.94600		875.00000 
 43692.65567		 305.27265			43387.38302		66.67800		324.00000 
 43692.65567		 952.57479			42740.08088		228.94600		875.00000 
 43692.65567		 305.27265			43387.38302		66.67800		324.00000 
 43692.65567		 952.57479			42740.08088		228.94600		875.00000 
 43692.65567		 305.27265			43387.38302		66.67800		324.00000 
 43692.65567		 952.57479			42740.08088		228.94600		875.00000 
 43692.65567		 305.27265			43387.38302		66.67800		324.00000 
 43692.65567		 952.57479			42740.08088		228.94600		875.00000 
 43692.65567		 305.27265			43387.38302		66.67800		324.00000 
 43692.65567		 952.57479			42740.08088		228.94600		875.00000 
 43692.65567		 305.27265			43387.38302		66.67800		324.00000 
 43692.65567		 952.57479			42740.08088		228.94600		875.00000 
 43692.65567		 305.27265			43387.38302		66.67800		324.00000 
 43692.65567		 952.57479			42740.08088		228.94600		875.00000 
 43692.65567		 305.27265			43387.38302		66.67800		324.00000 
 43692.65567		 952.57479			42740.08088		228.94600		875.00000 
 43692.65567		 305.27265			43387.38302		66.67800		324.00000 
 43692.65567		 952.57479			42740.08088		228.94600		875.00000 
 43692.65567		 305.27265			43387.38302		66.67800		324.00000 
 43692.65567		 952.57479			42740.08088		228.94600		875.00000 
 43692.65567		 305.27265			43387.38302		66.67800		324.00000 
 43692.65567		 952.57479			42740.08088		228.94600		875.00000 
 43692.65567		 305.27265			43387.38302		66.67800		324.00000 
 43692.65567		 952.57479			42740.08088		228.94600		875.00000 
 43692.65567		 305.27265			43387.38302		66.67800		324.00000 
 43692.65567		 952.57479			42740.08088		228.94600		875.00000 
 43692.65567		 305.27265			43387.38302		66.67800		324.00000 
 43692.65567		 952.57479			42740.08088		228.94600		875.00000 
 43692.65567		 305.27265			43387.38302		66.67800		324.00000 
 43692.65567		 952.57479			42740.08088		228.94600		875.00000 
 43692.65567		 305.27265			43387.38302		66.67800		324.00000 
 43692.65567		 952.57479			42740.08088		228.94600		875.00000 
 43692.65567		 305.27265			43387.38302		66.67800		324.00000 
 43692.65567		 952.57479			42740.08088		228.94600		875.00000 
 43692.65567		 305.27265			43387.38302		66.67800		324.00000 
 43692.65567		 952.57479			42740.08088		228.94600		875.00000 
 43692.65567		 305.27265			43387.38302		66.67800		324.00000 
 43692.65567		 952.57479			42740.08088		228.94600		875.00000 
 43692.65567		 305.27265			43387.38302		66.67800		324.00000 
 43692.65567		 952.57479			42740.08088		228.94600		875.00000 
 43692.65567		 305.27265			43387.38302		66.67800		324.00000 
 43692.65567		 952.57479			42740.08088		228.94600		875.00000 
 43692.65567		 305.27265			43387.38302		66.67800		324.00000 
 43692.65567		 952.57479			42740.08088		228.94600		875.00000 
 43692.65567		 305.27265			43387.38302		66.67800		324.00000 
 43692.65567		 952.57479			42740.08088		228.94600		875.00000 
 43692.65567		 305.27265			43387.38302		66.67800		324.00000 
 43692.65567		 952.57479			42740.08088		228.94600		875.00000 
 43692.65567		 305.27265			43387.38302		66.67800		324.00000 
 43692.65567		 952.57479			42740.08088		228.94600		875.00000 
 43692.65567		 305.27265			43387.38302		66.67800		324.00000 
 43692.65567		 952.57479			42740.08088		228.94600		875.00000 
 43692.65567		 305.27265			43387.38302		66.67800		324.00000 
 43692.65567		 952.57479			42740.08088		228.94600		875.00000 
 43692.65567		 305.27265			43387.38302		66.67800		324.00000 
 43692.65567		 952.57479			42740.08088		228.94600		875.00000 
 43692.65567		 305.27265			43387.38302		66.67800		324.00000 
 43692.65567		 952.57479			42740.08088		228.94600		875.00000 
 43692.65567		 305.27265			43387.38302		66.67800		324.00000 
 43692.65567		 952.57479			42740.08088		228.94600		875.00000 
 43692.65567		 305.27265			43387.38302		66.67800		324.00000 
 43692.65567		 952.57479			42740.08088		228.94600		875.00000 
 43692.65567		 305.27265			43387.38302		66.67800		324.00000 
 43692.65567		 952.57479			42740.08088		228.94600		875.00000 
 43692.65567		 305.27265			43387.38302		66.67800		324.00000 
 43692.65567		 952.57479			42740.08088		228.94600		875.00000 
 43692.65567		 305.27265			43387.38302		66.67800		324.00000 
 43692.65567		 952.57479			42740.08088		228.94600		875.00000 
 43692.65567		 305.27265			43387.38302		66.67800		324.00000 
 43692.65567		 952.57479			42740.08088		228.94600		875.00000 
 43692.65567		 305.27265			43387.38302		66.67800		324.00000 
 43692.65567		 952.57479			42740.08088		228.94600		875.00000 
 43692.65567		 305.27265			43387.38302		66.67800		324.00000 
 43692.65567		 952.57479			42740.08088		228.94600		875.00000 
 43692.65567		 305.27265			43387.38302		66.67800		324.00000 
 43692.65567		 952.57479			42740.08088		228.94600		875.00000 
 43692.65567		 305.27265			43387.38302		66.67800		324.00000 
 43692.65567		 952.57479			42740.08088		228.94600		875.00000 
 43692.65567		 305.27265			43387.38302		66.67800		324.00000 
 43692.65567		 952.57479			42740.08088		228.94600		875.00000 
 43692.65567		 305.27265			43387.38302		66.67800		324.00000 
 43692.65567		 952.57479			42740.08088		228.94600		875.00000 
 43692.65567		 305.27265			43387.38302		66.67800		324.00000 
 43692.65567		 952.57479			42740.08088		228.94600		875.00000 
 43692.65567		 305.27265			43387.38302		66.67800		324.00000 
 43692.65567		 952.57479			42740.08088		228.94600		875.00000 
 43692.65567		 305.27265			43387.38302		66.67800		324.00000 
 43692.65567		 952.57479			42740.08088		228.94600		875.00000 
 43692.65567		 305.27265			43387.38302		66.67800		324.00000 
 43692.65567		 952.57479			42740.08088		228.94600		875.00000 
 43692.65567		 305.27265			43387.38302		66.67800		324.00000 
 43692.65567		 952.57479			42740.08088		228.94600		875.00000 
 43692.65567		 305.27265			43387.38302		66.67800		324.00000 
 43692.65567		 952.57479			42740.08088		228.94600		875.00000 
 43692.65567		 305.27265			43387.38302		66.67800		324.00000 
 43692.65567		 952.57479			42740.08088		228.94600		875.00000 
 43692.65567		 305.27265			43387.38302		66.67800		324.00000 
 43692.65567		 952.57479			42740.08088		228.94600		875.00000 
 43692.65567		 305.27265			43387.38302		66.67800		324.00000 
 43692.65567		 952.57479			42740.08088		228.94600		875.00000 
 43692.65567		 305.27265			43387.38302		66.67800		324.00000 
 43692.65567		 952.57479			42740.08088		228.94600		875.00000 
 43692.65567		 305.27265			43387.38302		66.67800		324.00000 
 43692.65567		 952.57479			42740.08088		228.94600		875.00000 
 43692.65567		 305.27265			43387.38302		66.67800		324.00000 
 43692.65567		 952.57479			42740.08088		228.94600		875.00000 
 43692.65567		 305.27265			43387.38302		66.67800		324.00000 
 43692.65567		 952.57479			42740.08088		228.94600		875.00000 
 43692.65567		 305.27265			43387.38302		66.67800		324.00000 
 43692.65567		 952.57479			42740.08088		228.94600		875.00000 
 43692.65567		 305.27265			43387.38302		66.67800		324.00000 
 43692.65567		 952.57479			42740.08088		228.94600		875.00000 
 43692.65567		 305.27265			43387.38302		66.67800		324.00000 
 43692.65567		 952.57479			42740.08088		228.94600		875.00000 
 43692.65567		 305.27265			43387.38302		66.67800		324.00000 
 43692.65567		 952.57479			42740.08088		228.94600		875.00000 
 43692.65567		 305.27265			43387.38302		66.67800		324.00000 
 43692.65567		 952.57479			42740.08088		228.94600		875.00000 
 43692.65567		 305.27265			43387.38302		66.67800		324.00000 
 43692.65567		 952.57479			42740.08088		228.94600		875.00000 
 43692.65567		 305.27265			43387.38302		66.67800		324.00000 
 43692.65567		 952.57479			42740.08088		228.94600		875.00000 
 43692.65567		 305.27265			43387.38302		66.67800		324.00000 
 43692.65567		 952.57479			42740.08088		228.94600		875.00000 
 43692.65567		 305.27265			43387.38302		66.67800		324.00000 
 43692.65567		 952.57479			42740.08088		228.94600		875.00000 
 43692.65567		 305.27265			43387.38302		66.67800		324.00000 
 43692.65567		 952.57479			42740.08088		228.94600		875.00000 
 43692.65567		 305.27265			43387.38302		66.67800		324.00000 
 43692.65567		 952.57479			42740.08088		228.94600		875.00000 
 43692.65567		 305.27265			43387.38302		66.67800		324.00000 
 43692.65567		 952.57479			42740.08088		228.94600		875.00000 
 43692.65567		 305.27265			43387.38302		66.67800		324.00000 
 43692.65567		 952.57479			42740.08088		228.94600		875.00000 
 43692.65567		 305.27265			43387.38302		66.67800		324.00000 
 43692.65567		 952.57479			42740.08088		228.94600		875.00000 
 43692.65567		 305.27265			43387.38302		66.67800		324.00000 
 43692.65567		 952.57479			42740.08088		228.94600		875.00000 
 43692.65567		 305.27265			43387.38302		66.67800		324.00000 
 43692.65567		 952.57479			42740.08088		228.94600		875.00000 
 43692.65567		 305.27265			43387.38302		66.67800		324.00000 
 43692.65567		 952.57479			42740.08088		228.94600		875.00000 
 43692.65567		 305.27265			43387.38302		66.67800		324.00000 
 43692.65567		 952.57479			42740.08088		228.94600		875.00000 
 43692.65567		 305.27265			43387.38302		66.67800		324.00000 
 43692.65567		 952.57479			42740.08088		228.94600		875.00000 
 43692.65567		 305.27265			43387.38302		66.67800		324.00000 
 43692.65567		 952.57479			42740.08088		228.94600		875.00000 
 43692.65567		 305.27265			43387.38302		66.67800		324.00000 
 43692.65567		 952.57479			42740.08088		228.94600		875.00000 
 43692.65567		 305.27265			43387.38302		66.67800		324.00000 
 43692.65567		 952.57479			42740.08088		228.94600		875.00000 
 43692.65567		 305.27265			43387.38302		66.67800		324.00000 
 43692.65567		 952.57479			42740.08088		228.94600		875.00000 
 43692.65567		 305.27265			43387.38302		66.67800		324.00000 
 43692.65567		 952.57479			42740.08088		228.94600		875.00000 
 43692.65567		 305.27265			43387.38302		66.67800		324.00000 
 43692.65567		 952.57479			42740.08088		228.94600		875.00000 
 43692.65567		 305.27265			43387.38302		66.67800		324.00000 
 43692.65567		 952.57479			42740.08088		228.94600		875.00000 
 43692.65567		 305.27265			43387.38302		66.67800		324.00000 
 43692.65567		 952.57479			42740.08088		228.94600		875.00000 
 43692.65567		 305.27265			43387.38302		66.67800		324.00000 
 43692.65567		 952.57479			42740.08088		228.94600		875.00000 
 43692.65567		 305.27265			43387.38302		66.67800		324.00000 
 43692.65567		 952.57479			42740.08088		228.94600		875.00000 
 43692.65567		 305.27265			43387.38302		66.67800		324.00000 
 43692.65567		 952.57479			42740.08088		228.94600		875.00000 
 43692.65567		 305.27265			43387.38302		66.67800		324.00000 
 43692.65567		 952.57479			42740.08088		228.94600		875.00000 
 43692.65567		 305.27265			43387.38302		66.67800		324.00000 
 43692.65567		 952.57479			42740.08088		228.94600		875.00000 
 43692.65567		 305.27265			43387.38302		66.67800		324.00000 
 43692.65567		 952.57479			42740.08088		228.94600		875.00000 
 43692.65567		 305.27265			43387.38302		66.67800		324.00000 
 43692.65567		 952.57479			42740.08088		228.94600		875.00000 
 43692.65567		 305.27265			43387.38302		66.67800		324.00000 
 43692.65567		 952.57479			42740.08088		228.94600		875.00000 
 43692.65567		 305.27265			43387.38302		66.67800		324.00000 
 43692.65567		 952.57479			42740.08088		228.94600		875.00000 
 43692.65567		 305.27265			43387.38302		66.67800		324.00000 
 43692.65567		 952.57479			42740.08088		228.94600		875.00000 
 43692.65567		 305.27265			43387.38302		66.67800		324.00000 
 43692.65567		 952.57479			42740.08088		228.94600		875.00000 
 43692.65567		 305.27265			43387.38302		66.67800		324.00000 
 43692.65567		 952.57479			42740.08088		228.94600		875.00000 
 43692.65567		 305.27265			43387.38302		66.67800		324.00000 
 43692.65567		 952.57479			42740.08088		228.94600		875.00000 
 43692.65567		 305.27265			43387.38302		66.67800		324.00000 
 43692.65567		 952.57479			42740.08088		228.94600		875.00000 
 43692.65567		 305.27265			43387.38302		66.67800		324.00000 
 43692.65567		 952.57479			42740.08088		228.94600		875.00000 
 43692.65567		 305.27265			43387.38302		66.67800		324.00000 
 43692.65567		 952.57479			42740.08088		228.94600		875.00000 
 43692.65567		 305.27265			43387.38302		66.67800		324.00000 
 43692.65567		 952.57479			42740.08088		228.94600		875.00000 
 43692.65567		 305.27265			43387.38302		66.67800		324.00000 
 43692.65567		 952.57479			42740.08088		228.94600		875.00000 
 43692.65567		 305.27265			43387.38302		66.67800		324.00000 
 43692.65567		 952.57479			42740.08088		228.94600		875.00000 
 43692.65567		 305.27265			43387.38302		66.67800		324.00000 
 43692.65567		 952.57479			42740.08088		228.94600		875.00000 
 43692.65567		 305.27265			43387.38302		66.67800		324.00000 
 43692.65567		 952.57479			42740.08088		228.94600		875.00000 
 43692.65567		 305.27265			43387.38302		66.67800		324.00000 
 43692.65567		 952.57479			42740.08088		228.94600		875.00000 
 43692.65567		 305.27265			43387.38302		66.67800		324.00000 
 43692.65567		 952.57479			42740.08088		228.94600		875.00000 
 43692.65567		 305.27265			43387.38302		66.67800		324.00000 
 43692.65567		 952.57479			42740.08088		228.94600		875.00000 
 43692.65567		 305.27265			43387.38302		66.67800		324.00000 
 43692.65567		 952.57479			42740.08088		228.94600		875.00000 
 43692.65567		 305.27265			43387.38302		66.67800		324.00000 
 43692.65567		 952.57479			42740.08088		228.94600		875.00000 
 43692.65567		 305.27265			43387.38302		66.67800		324.00000 
 43692.65567		 952.57479			42740.08088		228.94600		875.00000 
 43692.65567		 305.27265			43387.38302		66.67800		324.00000 
 43692.65567		 952.57479			42740.08088		228.94600		875.00000 
 43692.65567		 305.27265			43387.38302		66.67800		324.00000 
 43692.65567		 952.57479			42740.08088		228.94600		875.00000 
 43692.65567		 305.27265			43387.38302		66.67800		324.00000 
 43692.65567		 952.57479			42740.08088		228.94600		875.00000 
 43692.65567		 305.27265			43387.38302		66.67800		324.00000 
 43692.65567		 952.57479			42740.08088		228.94600		875.00000 
 43692.65567		 305.27265			43387.38302		66.67800		324.00000 
 43692.65567		 952.57479			42740.08088		228.94600		875.00000 
 43692.65567		 305.27265			43387.38302		66.67800		324.00000 
 43692.65567		 952.57479			42740.08088		228.94600		875.00000 
 43692.65567		 305.27265			43387.38302		66.67800		324.00000 
 43692.65567		 952.57479			42740.08088		228.94600		875.00000 
 43692.65567		 305.27265			43387.38302		66.67800		324.00000 
 43692.65567		 952.57479			42740.08088		228.94600		875.00000 
 43692.65567		 305.27265			43387.38302		66.67800		324.00000 
 43692.65567		 952.57479			42740.08088		228.94600		875.00000 
 43692.65567		 305.27265			43387.38302		66.67800		324.00000 
 43692.65567		 952.57479			42740.08088		228.94600		875.00000 
 43692.65567		 305.27265			43387.38302		66.67800		324.00000 
 43692.65567		 952.57479			42740.08088		228.94600		875.00000 
 43692.65567		 305.27265			43387.38302		66.67800		324.00000 
 43692.65567		 952.57479			42740.08088		228.94600		875.00000 
 43692.65567		 305.27265			43387.38302		66.67800		324.00000 
 43692.65567		 952.57479			42740.08088		228.94600		875.00000 
 43692.65567		 305.27265			43387.38302		66.67800		324.00000 
 43692.65567		 952.57479			42740.08088		228.94600		875.00000 
 43692.65567		 305.27265			43387.38302		66.67800		324.00000 
 43692.65567		 952.57479			42740.08088		228.94600		875.00000 
 43692.65567		 305.27265			43387.38302		66.67800		324.00000 
 43692.65567		 952.57479			42740.08088		228.94600		875.00000 
 43692.65567		 305.27265			43387.38302		66.67800		324.00000 
 43692.65567		 952.57479			42740.08088		228.94600		875.00000 
 43692.65567		 305.27265			43387.38302		66.67800		324.00000 
 43692.65567		 952.57479			42740.08088		228.94600		875.00000 
 43692.65567		 305.27265			43387.38302		66.67800		324.00000 
 43692.65567		 952.57479			42740.08088		228.94600		875.00000 
 43692.65567		 305.27265			43387.38302		66.67800		324.00000 
 43692.65567		 952.57479			42740.08088		228.94600		875.00000 
 43692.65567		 305.27265			43387.38302		66.67800		324.00000 
 43692.65567		 952.57479			42740.08088		228.94600		875.00000 
 43692.65567		 305.27265			43387.38302		66.67800		324.00000 
 43692.65567		 952.57479			42740.08088		228.94600		875.00000 
 43692.65567		 305.27265			43387.38302		66.67800		324.00000 
 43692.65567		 952.57479			42740.08088		228.94600		875.00000 
 43692.65567		 305.27265			43387.38302		66.67800		324.00000 
 43692.65567		 952.57479			42740.08088		228.94600		875.00000 
 43692.65567		 305.27265			43387.38302		66.67800		324.00000 
 43692.65567		 952.57479			42740.08088		228.94600		875.00000 
 43692.65567		 305.27265			43387.38302		66.67800		324.00000 
 43692.65567		 952.57479			42740.08088		228.94600		875.00000 
 43692.65567		 305.27265			43387.38302		66.67800		324.00000 
 43692.65567		 952.57479			42740.08088		228.94600		875.00000 
 43692.65567		 305.27265			43387.38302		66.67800		324.00000 
 43692.65567		 952.57479			42740.08088		228.94600		875.00000 
 43692.65567		 305.27265			43387.38302		66.67800		324.00000 
 43692.65567		 952.57479			42740.08088		228.94600		875.00000 
 43692.65567		 305.27265			43387.38302		66.67800		324.00000 
 43692.65567		 952.57479			42740.08088		228.94600		875.00000 
 43692.65567		 305.27265			43387.38302		66.67800		324.00000 
 43692.65567		 952.57479			42740.08088		228.94600		875.00000 
 43692.65567		 305.27265			43387.38302		66.67800		324.00000 
 43692.65567		 952.57479			42740.08088		228.94600		875.00000 
 43692.65567		 305.27265			43387.38302		66.67800		324.00000 
 43692.65567		 952.57479			42740.08088		228.94600		875.00000 
 43692.65567		 305.27265			43387.38302		66.67800		324.00000 
 43692.65567		 952.57479			42740.08088		228.94600		875.00000 
 43692.65567		 305.27265			43387.38302		66.67800		324.00000 
 43692.65567		 952.57479			42740.08088		228.94600		875.00000 
 43692.65567		 305.27265			43387.38302		66.67800		324.00000 
 43692.65567		 952.57479			42740.08088		228.94600		875.00000 
 43692.65567		 305.27265			43387.38302		66.67800		324.00000 
 43692.65567		 952.57479			42740.08088		228.94600		875.00000 
 43692.65567		 305.27265			43387.38302		66.67800		324.00000 
 43692.65567		 952.57479			42740.08088		228.94600		875.00000 
 43692.65567		 305.27265			43387.38302		66.67800		324.00000 
 43692.65567		 952.57479			42740.08088		228.94600		875.00000 
 43692.65567		 305.27265			43387.38302		66.67800		324.00000 
 43692.65567		 952.57479			42740.08088		228.94600		875.00000 
 43692.65567		 305.27265			43387.38302		66.67800		324.00000 
 43692.65567		 952.57479			42740.08088		228.94600		875.00000 
 43692.65567		 305.27265			43387.38302		66.67800		324.00000 
 43692.65567		 952.57479			42740.08088		228.94600		875.00000 
 43692.65567		 305.27265			43387.38302		66.67800		324.00000 
 43692.65567		 952.57479			42740.08088		228.94600		875.00000 
 43692.65567		 305.27265			43387.38302		70.72800		324.00000 
 43692.65567		 952.57479			42740.08088		228.94600		875.00000 
 43692.65567		 305.27265			43387.38302		70.72800		324.00000 
 43692.65567		 952.57479			42740.08088		228.94600		875.00000 
 43692.65567		 305.27265			43387.38302		70.72800		324.00000 
 43692.65567		 952.57479			42740.08088		228.94600		875.00000 
 43692.65567		 305.27265			43387.38302		70.72800		324.00000 
 43692.65567		 952.57479			42740.08088		228.94600		875.00000 
 43692.65567		 305.27265			43387.38302		70.72800		324.00000 
 43692.65567		 952.57479			42740.08088		228.94600		875.00000 
 43692.65567		 305.27265			43387.38302		70.72800		324.00000 
 43692.65567		 952.57479			42740.08088		228.94600		875.00000 
 43692.65567		 305.27265			43387.38302		70.72800		324.00000 
 43692.65567		 952.57479			42740.08088		228.94600		875.00000 
 43692.65567		 305.27265			43387.38302		70.72800		324.00000 
 43692.65567		 952.57479			42740.08088		228.94600		875.00000 
 43692.65567		 305.27265			43387.38302		70.72800		324.00000 
 43692.65567		 952.57479			42740.08088		228.94600		875.00000 
 43692.65567		 305.27265			43387.38302		70.72800		324.00000 
 43692.65567		 952.57479			42740.08088		228.94600		875.00000 
 43692.65567		 305.27265			43387.38302		70.72800		324.00000 
 43692.65567		 952.57479			42740.08088		228.94600		875.00000 
 43692.65567		 305.27265			43387.38302		70.72800		324.00000 
 43692.65567		 952.57479			42740.08088		228.94600		875.00000 
 43692.65567		 305.27265			43387.38302		70.72800		324.00000 
 43692.65567		 952.57479			42740.08088		228.94600		875.00000 
 43692.65567		 305.27265			43387.38302		70.72800		324.00000 
 43692.65567		 952.57479			42740.08088		228.94600		875.00000 
 43692.65567		 305.27265			43387.38302		70.72800		324.00000 
 43692.65567		 952.57479			42740.08088		228.94600		875.00000 
 43692.65567		 305.27265			43387.38302		70.72800		324.00000 
 43692.65567		 952.57479			42740.08088		228.94600		875.00000 
 43692.65567		 305.27265			43387.38302		70.72800		324.00000 
 43692.65567		 952.57479			42740.08088		229.54400		875.00000 
 43692.65567		 305.27265			43387.38302		70.72800		324.00000 
 43692.65567		 952.57479			42740.08088		229.54400		875.00000 
 43692.65567		 305.27265			43387.38302		70.72800		324.00000 
 43692.65567		 952.57479			42740.08088		229.54400		875.00000 
 43692.65567		 305.27265			43387.38302		70.72800		324.00000 
 43692.65567		 952.57479			42740.08088		229.54400		875.00000 
 43692.65567		 305.27265			43387.38302		70.72800		324.00000 
 43692.65567		 952.57479			42740.08088		229.54400		875.00000 
 43692.65567		 305.27265			43387.38302		70.72800		324.00000 
 43692.65567		 952.57479			42740.08088		229.54400		875.00000 
 43692.65567		 305.27265			43387.38302		70.72800		324.00000 
 43692.65567		 952.57479			42740.08088		229.54400		875.00000 
 43692.65567		 305.27265			43387.38302		70.72800		324.00000 
 43692.65567		 952.57479			42740.08088		229.54400		875.00000 
 43692.65567		 305.27265			43387.38302		70.72800		324.00000 
 43692.65567		 952.57479			42740.08088		229.54400		875.00000 
 43692.65567		 305.27265			43387.38302		70.72800		324.00000 
 43692.65567		 952.57479			42740.08088		229.54400		875.00000 
 43692.65567		 305.27265			43387.38302		70.72800		324.00000 
 43692.65567		 952.57479			42740.08088		229.54400		875.00000 
 43692.65567		 305.27265			43387.38302		70.72800		324.00000 
 43692.65567		 952.57479			42740.08088		229.54400		875.00000 
 43692.65567		 305.27265			43387.38302		70.72800		324.00000 
 43692.65567		 952.57479			42740.08088		229.54400		875.00000 
 43692.65567		 305.27265			43387.38302		70.72800		324.00000 
 43692.65567		 952.57479			42740.08088		229.54400		875.00000 
 43692.65567		 305.27265			43387.38302		70.72800		324.00000 
 43692.65567		 952.57479			42740.08088		229.54400		875.00000 
 43692.65567		 305.27265			43387.38302		70.72800		324.00000 
 43692.65567		 952.57479			42740.08088		229.54400		875.00000 
 43692.65567		 305.27265			43387.38302		70.72800		324.00000 
 43692.65567		 952.57479			42740.08088		229.54400		875.00000 
 43692.65567		 305.27265			43387.38302		70.72800		324.00000 
 43692.65567		 952.57479			42740.08088		229.54400		875.00000 
 43692.65567		 305.27265			43387.38302		70.72800		324.00000 
 43692.65567		 952.57479			42740.08088		229.54400		875.00000 
 43692.65567		 305.27265			43387.38302		70.72800		324.00000 
 43692.65567		 952.57479			42740.08088		229.54400		875.00000 
 43692.65567		 305.27265			43387.38302		70.72800		324.00000 
 43692.65567		 952.57479			42740.08088		229.54400		875.00000 
 43692.65567		 305.27265			43387.38302		70.72800		324.00000 
 43692.65567		 952.57479			42740.08088		229.54400		875.00000 
 43692.65567		 305.27265			43387.38302		70.72800		324.00000 
 43692.65567		 952.57479			42740.08088		229.54400		875.00000 
 43692.65567		 305.27265			43387.38302		70.72800		324.00000 
 43692.65567		 952.57479			42740.08088		229.54400		875.00000 
 43692.65567		 305.27265			43387.38302		70.72800		324.00000 
 43692.65567		 952.57479			42740.08088		229.54400		875.00000 
 43692.65567		 305.27265			43387.38302		70.72800		324.00000 
 43692.65567		 952.57479			42740.08088		229.54400		875.00000 
 43692.65567		 305.27265			43387.38302		70.72800		324.00000 
 43692.65567		 952.57479			42740.08088		229.54400		875.00000 
 43692.65567		 305.27265			43387.38302		70.72800		324.00000 
 43692.65567		 952.57479			42740.08088		229.54400		875.00000 
 43692.65567		 305.27265			43387.38302		70.72800		324.00000 
 43692.65567		 952.57479			42740.08088		229.54400		875.00000 
 43692.65567		 305.27265			43387.38302		70.72800		324.00000 
 43692.65567		 952.57479			42740.08088		229.54400		875.00000 
 43692.65567		 305.27265			43387.38302		70.72800		324.00000 
 43692.65567		 952.57479			42740.08088		229.54400		875.00000 
 43692.65567		 305.27265			43387.38302		70.72800		324.00000 
 43692.65567		 952.57479			42740.08088		229.54400		875.00000 
 43692.65567		 305.27265			43387.38302		70.72800		324.00000 
 43692.65567		 952.57479			42740.08088		229.54400		875.00000 
 43692.65567		 305.27265			43387.38302		70.72800		324.00000 
 43692.65567		 952.57479			42740.08088		229.54400		875.00000 
 43692.65567		 305.27265			43387.38302		70.72800		324.00000 
 43692.65567		 952.57479			42740.08088		229.54400		875.00000 
 43692.65567		 305.27265			43387.38302		70.72800		324.00000 
 43692.65567		 952.57479			42740.08088		229.54400		875.00000 
 43692.65567		 305.27265			43387.38302		70.72800		324.00000 
 43692.65567		 952.57479			42740.08088		229.54400		875.00000 
 43692.65567		 305.27265			43387.38302		70.72800		324.00000 
 43692.65567		 952.57479			42740.08088		229.54400		875.00000 
 43692.65567		 305.27265			43387.38302		70.72800		324.00000 
 43692.65567		 952.57479			42740.08088		229.54400		875.00000 
 43692.65567		 305.27265			43387.38302		70.72800		324.00000 
 43692.65567		 952.57479			42740.08088		229.54400		875.00000 
 43692.65567		 305.27265			43387.38302		70.72800		324.00000 
 43692.65567		 952.57479			42740.08088		229.54400		875.00000 
 43692.65567		 305.27265			43387.38302		70.72800		324.00000 
 43692.65567		 952.57479			42740.08088		229.54400		875.00000 
 43692.65567		 305.27265			43387.38302		70.72800		324.00000 
 43692.65567		 952.57479			42740.08088		229.54400		875.00000 
 43692.65567		 305.27265			43387.38302		70.72800		324.00000 
 43692.65567		 952.57479			42740.08088		229.54400		875.00000 
 43692.65567		 305.27265			43387.38302		70.72800		324.00000 
 43692.65567		 952.57479			42740.08088		229.54400		875.00000 
 43692.65567		 305.27265			43387.38302		70.72800		324.00000 
 43692.65567		 952.57479			42740.08088		229.54400		875.00000 
 43692.65567		 305.27265			43387.38302		70.72800		324.00000 
 43692.65567		 952.57479			42740.08088		229.54400		875.00000 
 43692.65567		 305.27265			43387.38302		70.72800		324.00000 
 43692.65567		 952.57479			42740.08088		229.54400		875.00000 
 43692.65567		 305.27265			43387.38302		70.72800		324.00000 
 43692.65567		 952.57479			42740.08088		229.54400		875.00000 
 43692.65567		 305.27265			43387.38302		70.72800		324.00000 
 43692.65567		 952.57479			42740.08088		229.54400		875.00000 
 43692.65567		 305.27265			43387.38302		70.72800		324.00000 
 43692.65567		 952.57479			42740.08088		229.54400		875.00000 
 43692.65567		 305.27265			43387.38302		70.72800		324.00000 
 43692.65567		 952.57479			42740.08088		229.54400		875.00000 
 43692.65567		 305.27265			43387.38302		70.72800		324.00000 
 43692.65567		 952.57479			42740.08088		229.54400		875.00000 
 43692.65567		 305.27265			43387.38302		70.72800		324.00000 
 43692.65567		 952.57479			42740.08088		229.54400		875.00000 
 43692.65567		 305.27265			43387.38302		70.72800		324.00000 
 43692.65567		 952.57479			42740.08088		229.54400		875.00000 
 43692.65567		 305.27265			43387.38302		70.72800		324.00000 
 43692.65567		 952.57479			42740.08088		229.54400		875.00000 
 43692.65567		 305.27265			43387.38302		70.72800		324.00000 
 43692.65567		 952.57479			42740.08088		229.54400		875.00000 
 43692.65567		 305.27265			43387.38302		70.72800		324.00000 
 43692.65567		 952.57479			42740.08088		229.54400		875.00000 
 43692.65567		 305.27265			43387.38302		70.72800		324.00000 
 43692.65567		 952.57479			42740.08088		229.54400		875.00000 
 43692.65567		 305.27265			43387.38302		70.72800		324.00000 
 43692.65567		 952.57479			42740.08088		229.54400		875.00000 
 43692.65567		 305.27265			43387.38302		70.72800		324.00000 
 43692.65567		 952.57479			42740.08088		229.54400		875.00000 
 43692.65567		 305.27265			43387.38302		70.72800		324.00000 
 43692.65567		 952.57479			42740.08088		229.54400		875.00000 
 43692.65567		 305.27265			43387.38302		70.72800		324.00000 
 43692.65567		 952.57479			42740.08088		229.54400		875.00000 
 43692.65567		 305.27265			43387.38302		70.72800		324.00000 
 43692.65567		 952.57479			42740.08088		229.54400		875.00000 
 43692.65567		 305.27265			43387.38302		70.72800		324.00000 
 43692.65567		 952.57479			42740.08088		229.54400		875.00000 
 43692.65567		 305.27265			43387.38302		70.72800		324.00000 
 43692.65567		 952.57479			42740.08088		229.54400		875.00000 
 43692.65567		 305.27265			43387.38302		70.72800		324.00000 
 43692.65567		 952.57479			42740.08088		228.94600		875.00000 
 43692.65567		 305.27265			43387.38302		70.72800		324.00000 
 43692.65567		 952.57479			42740.08088		228.94600		875.00000 
 43692.65567		 305.27265			43387.38302		70.72800		324.00000 
 43692.65567		 952.57479			42740.08088		228.94600		875.00000 
 43692.65567		 305.27265			43387.38302		70.72800		324.00000 
 43692.65567		 952.57479			42740.08088		228.94600		875.00000 
 43692.65567		 305.27265			43387.38302		70.72800		324.00000 
 43692.65567		 952.57479			42740.08088		228.94600		875.00000 
 43692.65567		 305.27265			43387.38302		70.72800		324.00000 
 43692.65567		 952.57479			42740.08088		228.94600		875.00000 
 43692.65567		 305.27265			43387.38302		70.72800		324.00000 
 43692.65567		 952.57479			42740.08088		228.94600		875.00000 
 43692.65567		 305.27265			43387.38302		70.72800		324.00000 
 43692.65567		 952.57479			42740.08088		228.94600		875.00000 
 43692.65567		 305.27265			43387.38302		70.72800		324.00000 
 43692.65567		 952.57479			42740.08088		228.94600		875.00000 
 43692.65567		 305.27265			43387.38302		70.72800		324.00000 
 43692.65567		 952.57479			42740.08088		228.94600		875.00000 
 43692.65567		 305.27265			43387.38302		70.72800		324.00000 
 43692.65567		 952.57479			42740.08088		228.94600		875.00000 
 43692.65567		 305.27265			43387.38302		70.72800		324.00000 
 43692.65567		 952.57479			42740.08088		228.94600		875.00000 
 43692.65567		 305.27265			43387.38302		70.72800		324.00000 
 43692.65567		 952.57479			42740.08088		228.94600		875.00000 
 43692.65567		 305.27265			43387.38302		70.72800		324.00000 
 43692.65567		 952.57479			42740.08088		228.94600		875.00000 
 43692.65567		 305.27265			43387.38302		70.72800		324.00000 
 43692.65567		 952.57479			42740.08088		228.94600		875.00000 
 43692.65567		 305.27265			43387.38302		70.72800		324.00000 
 43692.65567		 952.57479			42740.08088		228.94600		875.00000 
 43692.65567		 305.27265			43387.38302		70.72800		324.00000 
 43692.65567		 952.57479			42740.08088		228.94600		875.00000 
 43692.65567		 305.27265			43387.38302		70.72800		324.00000 
 43692.65567		 952.57479			42740.08088		228.94600		875.00000 
 43692.65567		 305.27265			43387.38302		70.72800		324.00000 
 43692.65567		 952.57479			42740.08088		228.94600		875.00000 
 43692.65567		 305.27265			43387.38302		70.72800		324.00000 
 43692.65567		 952.57479			42740.08088		228.94600		875.00000 
 43692.65567		 305.27265			43387.38302		70.72800		324.00000 
 43692.65567		 952.57479			42740.08088		228.94600		875.00000 
 43692.65567		 305.27265			43387.38302		70.72800		324.00000 
 43692.65567		 952.57479			42740.08088		228.94600		875.00000 
 43692.65567		 305.27265			43387.38302		70.72800		324.00000 
 43692.65567		 952.57479			42740.08088		228.94600		875.00000 
 43692.65567		 305.27265			43387.38302		70.72800		324.00000 
 43692.65567		 952.57479			42740.08088		228.94600		875.00000 
 43692.65567		 305.27265			43387.38302		70.72800		324.00000 
 43692.65567		 952.57479			42740.08088		228.94600		875.00000 
 43692.65567		 305.27265			43387.38302		70.72800		324.00000 
 43692.65567		 952.57479			42740.08088		228.94600		875.00000 
 43692.65567		 305.27265			43387.38302		70.72800		324.00000 
 43692.65567		 952.57479			42740.08088		228.94600		875.00000 
 43692.65567		 305.27265			43387.38302		70.72800		324.00000 
 43692.65567		 952.57479			42740.08088		228.94600		875.00000 
 43692.65567		 305.27265			43387.38302		70.72800		324.00000 
 43692.65567		 952.57479			42740.08088		228.94600		875.00000 
 43692.65567		 305.27265			43387.38302		70.72800		324.00000 
 43692.65567		 952.57479			42740.08088		228.94600		875.00000 
 43692.65567		 305.27265			43387.38302		70.72800		324.00000 
 43692.65567		 952.57479			42740.08088		228.94600		875.00000 
 43692.65567		 305.27265			43387.38302		70.72800		324.00000 
 43692.65567		 952.57479			42740.08088		228.94600		875.00000 
 43692.65567		 305.27265			43387.38302		70.72800		324.00000 
 43692.65567		 952.57479			42740.08088		228.94600		875.00000 
 43692.65567		 305.27265			43387.38302		70.72800		324.00000 
 43692.65567		 952.57479			42740.08088		228.94600		875.00000 
 43692.65567		 305.27265			43387.38302		70.72800		324.00000 
 43692.65567		 952.57479			42740.08088		228.94600		875.00000 
 43692.65567		 305.27265			43387.38302		70.72800		324.00000 
 43692.65567		 952.57479			42740.08088		228.94600		875.00000 
 43692.65567		 305.27265			43387.38302		70.72800		324.00000 
 43692.65567		 952.57479			42740.08088		228.94600		875.00000 
 43692.65567		 305.27265			43387.38302		70.72800		324.00000 
 43692.65567		 952.57479			42740.08088		228.94600		875.00000 
 43692.65567		 305.27265			43387.38302		70.72800		324.00000 
 43692.65567		 952.57479			42740.08088		228.94600		875.00000 
 43692.65567		 305.27265			43387.38302		70.72800		324.00000 
 43692.65567		 952.57479			42740.08088		228.94600		875.00000 
 43692.65567		 305.27265			43387.38302		70.72800		324.00000 
 43692.65567		 952.57479			42740.08088		228.94600		875.00000 
 43692.65567		 305.27265			43387.38302		70.72800		324.00000 
 43692.65567		 952.57479			42740.08088		228.94600		875.00000 
 43692.65567		 305.27265			43387.38302		70.72800		324.00000 
 43692.65567		 952.57479			42740.08088		228.94600		875.00000 
 43692.65567		 305.27265			43387.38302		70.72800		324.00000 
 43692.65567		 952.57479			42740.08088		228.94600		875.00000 
 43692.65567		 305.27265			43387.38302		70.72800		324.00000 
 43692.65567		 952.57479			42740.08088		228.94600		875.00000 
 43692.65567		 305.27265			43387.38302		70.72800		324.00000 
 43692.65567		 952.57479			42740.08088		228.94600		875.00000 
 43692.65567		 305.27265			43387.38302		70.72800		324.00000 
 43692.65567		 952.57479			42740.08088		228.94600		875.00000 
 43692.65567		 305.27265			43387.38302		70.72800		324.00000 
 43692.65567		 952.57479			42740.08088		228.94600		875.00000 
 43692.65567		 305.27265			43387.38302		70.72800		324.00000 
 43692.65567		 952.57479			42740.08088		228.94600		875.00000 
 43692.65567		 305.27265			43387.38302		70.72800		324.00000 
 43692.65567		 952.57479			42740.08088		228.94600		875.00000 
 43692.65567		 305.27265			43387.38302		70.72800		324.00000 
 43692.65567		 952.57479			42740.08088		228.94600		875.00000 
 43692.65567		 305.27265			43387.38302		70.72800		324.00000 
 43692.65567		 952.57479			42740.08088		228.94600		875.00000 
 43692.65567		 305.27265			43387.38302		70.72800		324.00000 
 43692.65567		 952.57479			42740.08088		228.94600		875.00000 
 43692.65567		 305.27265			43387.38302		70.72800		324.00000 
 43692.65567		 952.57479			42740.08088		228.94600		875.00000 
 43692.65567		 305.27265			43387.38302		70.72800		324.00000 
 43692.65567		 952.57479			42740.08088		228.94600		875.00000 
 43692.65567		 305.27265			43387.38302		70.72800		324.00000 
 43692.65567		 952.57479			42740.08088		228.94600		875.00000 
 43692.65567		 305.27265			43387.38302		70.72800		324.00000 
 43692.65567		 952.57479			42740.08088		228.94600		875.00000 
 43692.65567		 305.27265			43387.38302		70.72800		324.00000 
 43692.65567		 952.57479			42740.08088		228.94600		875.00000 
 43692.65567		 305.27265			43387.38302		70.72800		324.00000 
 43692.65567		 952.57479			42740.08088		228.94600		875.00000 
 43692.65567		 305.27265			43387.38302		70.72800		324.00000 
 43692.65567		 952.57479			42740.08088		228.94600		875.00000 
 43692.65567		 305.27265			43387.38302		70.72800		324.00000 
 43692.65567		 952.57479			42740.08088		228.94600		875.00000 
 43692.65567		 305.27265			43387.38302		70.72800		324.00000 
 43692.65567		 952.57479			42740.08088		228.94600		875.00000 
 43692.65567		 305.27265			43387.38302		70.72800		324.00000 
 43692.65567		 952.57479			42740.08088		228.94600		875.00000 
 43692.65567		 305.27265			43387.38302		70.72800		324.00000 
 43692.65567		 952.57479			42740.08088		228.94600		875.00000 
 43692.65567		 305.27265			43387.38302		70.72800		324.00000 
 43692.65567		 952.57479			42740.08088		229.54400		875.00000 
 43692.65567		 305.27265			43387.38302		70.72800		324.00000 
 43692.65567		 952.57479			42740.08088		229.54400		875.00000 
 43692.65567		 305.27265			43387.38302		70.72800		324.00000 
 43692.65567		 952.57479			42740.08088		229.54400		875.00000 
 43692.65567		 305.27265			43387.38302		70.72800		324.00000 
 43692.65567		 952.57479			42740.08088		229.54400		875.00000 
 43692.65567		 305.27265			43387.38302		70.72800		324.00000 
 43692.65567		 952.57479			42740.08088		229.54400		875.00000 
 43692.65567		 305.27265			43387.38302		70.72800		324.00000 
 43692.65567		 952.57479			42740.08088		229.54400		875.00000 
 43692.65567		 305.27265			43387.38302		70.72800		324.00000 
 43692.65567		 952.57479			42740.08088		229.54400		875.00000 
 43692.65567		 305.27265			43387.38302		70.72800		324.00000 
 43692.65567		 952.57479			42740.08088		229.54400		875.00000 
 43692.65567		 305.27265			43387.38302		70.72800		324.00000 
 43692.65567		 952.57479			42740.08088		229.54400		875.00000 
 43692.65567		 305.27265			43387.38302		70.72800		324.00000 
 43692.65567		 952.57479			42740.08088		229.54400		875.00000 
 43692.65567		 305.27265			43387.38302		70.72800		324.00000 
 43692.65567		 952.57479			42740.08088		229.54400		875.00000 
 43692.65567		 305.27265			43387.38302		70.72800		324.00000 
 43692.65567		 952.57479			42740.08088		229.54400		875.00000 
 43692.65567		 305.27265			43387.38302		70.72800		324.00000 
 43692.65567		 952.57479			42740.08088		229.54400		875.00000 
 43692.65567		 305.27265			43387.38302		70.72800		324.00000 
 43692.65567		 952.57479			42740.08088		229.54400		875.00000 
 43692.65567		 305.27265			43387.38302		70.72800		324.00000 
 43692.65567		 952.57479			42740.08088		229.54400		875.00000 
 43692.65567		 305.27265			43387.38302		70.72800		324.00000 
 43692.65567		 952.57479			42740.08088		229.54400		875.00000 
 43692.65567		 305.27265			43387.38302		70.72800		324.00000 
 43692.65567		 952.57479			42740.08088		229.54400		875.00000 
 43692.65567		 305.27265			43387.38302		70.72800		324.00000 
 43692.65567		 952.57479			42740.08088		229.54400		875.00000 
 43692.65567		 305.27265			43387.38302		70.72800		324.00000 
 43692.65567		 952.57479			42740.08088		229.54400		875.00000 
 43692.65567		 305.27265			43387.38302		70.72800		324.00000 
 43692.65567		 952.57479			42740.08088		229.54400		875.00000 
 43692.65567		 305.27265			43387.38302		70.72800		324.00000 
 43692.65567		 952.57479			42740.08088		229.54400		875.00000 
 43692.65567		 305.27265			43387.38302		70.72800		324.00000 
 43692.65567		 952.57479			42740.08088		229.54400		875.00000 
 43692.65567		 305.27265			43387.38302		70.72800		324.00000 
 43692.65567		 952.57479			42740.08088		229.54400		875.00000 
 43692.65567		 305.27265			43387.38302		70.72800		324.00000 
 43692.65567		 952.57479			42740.08088		229.54400		875.00000 
 43692.65567		 305.27265			43387.38302		70.72800		324.00000 
 43692.65567		 952.57479			42740.08088		229.54400		875.00000 
 43692.65567		 305.27265			43387.38302		70.72800		324.00000 
 43692.65567		 952.57479			42740.08088		229.54400		875.00000 
 43692.65567		 305.27265			43387.38302		70.72800		324.00000 
 43692.65567		 952.57479			42740.08088		229.54400		875.00000 
 43692.65567		 305.27265			43387.38302		70.72800		324.00000 
 43692.65567		 952.57479			42740.08088		229.54400		875.00000 
 43692.65567		 305.27265			43387.38302		70.72800		324.00000 
 43692.65567		 952.57479			42740.08088		229.54400		875.00000 
 43692.65567		 305.27265			43387.38302		70.72800		324.00000 
 43692.65567		 952.57479			42740.08088		229.54400		875.00000 
 43692.65567		 305.27265			43387.38302		70.72800		324.00000 
 43692.65567		 952.57479			42740.08088		229.54400		875.00000 
 43692.65567		 305.27265			43387.38302		70.72800		324.00000 
 43692.65567		 952.57479			42740.08088		229.54400		875.00000 
 43692.65567		 305.27265			43387.38302		70.72800		324.00000 
 43692.65567		 952.57479			42740.08088		229.54400		875.00000 
 43692.65567		 305.27265			43387.38302		70.72800		324.00000 
 43692.65567		 952.57479			42740.08088		229.54400		875.00000 
 43692.65567		 305.27265			43387.38302		70.72800		324.00000 
 43692.65567		 952.57479			42740.08088		229.54400		875.00000 
 43692.65567		 305.27265			43387.38302		70.72800		324.00000 
 43692.65567		 952.57479			42740.08088		229.54400		875.00000 
 43692.65567		 305.27265			43387.38302		70.72800		324.00000 
 43692.65567		 952.57479			42740.08088		229.54400		875.00000 
 43692.65567		 305.27265			43387.38302		70.72800		324.00000 
 43692.65567		 952.57479			42740.08088		229.54400		875.00000 
 43692.65567		 305.27265			43387.38302		70.72800		324.00000 
 43692.65567		 952.57479			42740.08088		229.54400		875.00000 
 43692.65567		 305.27265			43387.38302		70.72800		324.00000 
 43692.65567		 952.57479			42740.08088		229.54400		875.00000 
 43692.65567		 305.27265			43387.38302		70.72800		324.00000 
 43692.65567		 952.57479			42740.08088		229.54400		875.00000 
 43692.65567		 305.27265			43387.38302		70.72800		324.00000 
 43692.65567		 952.57479			42740.08088		229.54400		875.00000 
 43692.65567		 305.27265			43387.38302		70.72800		324.00000 
 43692.65567		 952.57479			42740.08088		229.54400		875.00000 
 43692.65567		 305.27265			43387.38302		70.72800		324.00000 
 43692.65567		 952.57479			42740.08088		229.54400		875.00000 
 43692.65567		 305.27265			43387.38302		70.72800		324.00000 
 43692.65567		 952.57479			42740.08088		229.54400		875.00000 
 43692.65567		 305.27265			43387.38302		70.72800		324.00000 
 43692.65567		 952.57479			42740.08088		229.54400		875.00000 
 43692.65567		 305.27265			43387.38302		70.72800		324.00000 
 43692.65567		 952.57479			42740.08088		229.54400		875.00000 
 43692.65567		 305.27265			43387.38302		70.72800		324.00000 
 43692.65567		 952.57479			42740.08088		229.54400		875.00000 
 43692.65567		 305.27265			43387.38302		70.72800		324.00000 
 43692.65567		 952.57479			42740.08088		229.54400		875.00000 
 43692.65567		 305.27265			43387.38302		70.72800		324.00000 
 43692.65567		 952.57479			42740.08088		229.54400		875.00000 
 43692.65567		 305.27265			43387.38302		70.72800		324.00000 
 43692.65567		 952.57479			42740.08088		229.54400		875.00000 
 43692.65567		 305.27265			43387.38302		70.72800		324.00000 
 43692.65567		 952.57479			42740.08088		229.54400		875.00000 
 43692.65567		 305.27265			43387.38302		70.72800		324.00000 
 43692.65567		 952.57479			42740.08088		229.54400		875.00000 
 43692.65567		 305.27265			43387.38302		70.72800		324.00000 
 43692.65567		 952.57479			42740.08088		229.54400		875.00000 
 43692.65567		 305.27265			43387.38302		70.72800		324.00000 
 43692.65567		 952.57479			42740.08088		229.54400		875.00000 
 43692.65567		 305.27265			43387.38302		70.72800		324.00000 
 43692.65567		 952.57479			42740.08088		229.54400		875.00000 
 43692.65567		 305.27265			43387.38302		70.72800		324.00000 
 43692.65567		 952.57479			42740.08088		229.54400		875.00000 
 43692.65567		 305.27265			43387.38302		70.72800		324.00000 
 43692.65567		 952.57479			42740.08088		229.54400		875.00000 
 43692.65567		 305.27265			43387.38302		70.72800		324.00000 
 43692.65567		 952.57479			42740.08088		229.54400		875.00000 
 43692.65567		 305.27265			43387.38302		70.72800		324.00000 
 43692.65567		 952.57479			42740.08088		229.54400		875.00000 
 43692.65567		 305.27265			43387.38302		70.72800		324.00000 
 43692.65567		 952.57479			42740.08088		229.54400		875.00000 
 43692.65567		 305.27265			43387.38302		70.72800		324.00000 
 43692.65567		 952.57479			42740.08088		229.54400		875.00000 
 43692.65567		 305.27265			43387.38302		70.72800		324.00000 
 43692.65567		 952.57479			42740.08088		229.54400		875.00000 
 43692.65567		 305.27265			43387.38302		70.72800		324.00000 
 43692.65567		 952.57479			42740.08088		229.54400		875.00000 
 43692.65567		 305.27265			43387.38302		70.72800		324.00000 
 43692.65567		 952.57479			42740.08088		229.54400		875.00000 
 43692.65567		 305.27265			43387.38302		70.72800		324.00000 
 43692.65567		 952.57479			42740.08088		229.54400		875.00000 
 43692.65567		 305.27265			43387.38302		70.72800		324.00000 
 43692.65567		 952.57479			42740.08088		229.54400		875.00000 
 43692.65567		 305.27265			43387.38302		70.72800		324.00000 
 43692.65567		 952.57479			42740.08088		229.54400		875.00000 
 43692.65567		 305.27265			43387.38302		70.72800		324.00000 
 43692.65567		 952.57479			42740.08088		229.54400		875.00000 
 43692.65567		 305.27265			43387.38302		70.72800		324.00000 
 43692.65567		 952.57479			42740.08088		229.54400		875.00000 
 43692.65567		 305.27265			43387.38302		70.72800		324.00000 
 43692.65567		 952.57479			42740.08088		229.54400		875.00000 
 43692.65567		 305.27265			43387.38302		70.72800		324.00000 
 43692.65567		 952.57479			42740.08088		229.54400		875.00000 
 43692.65567		 305.27265			43387.38302		70.72800		324.00000 
 43692.65567		 952.57479			42740.08088		229.54400		875.00000 
 43692.65567		 305.27265			43387.38302		70.72800		324.00000 
 43692.65567		 952.57479			42740.08088		229.54400		875.00000 
 43692.65567		 305.27265			43387.38302		70.72800		324.00000 
 43692.65567		 952.57479			42740.08088		229.54400		875.00000 
 43692.65567		 305.27265			43387.38302		70.72800		324.00000 
 43692.65567		 952.57479			42740.08088		229.54400		875.00000 
 43692.65567		 305.27265			43387.38302		70.72800		324.00000 
 43692.65567		 952.57479			42740.08088		229.54400		875.00000 
 43692.65567		 305.27265			43387.38302		70.72800		324.00000 
 43692.65567		 952.57479			42740.08088		229.54400		875.00000 
 43692.65567		 305.27265			43387.38302		70.72800		324.00000 
 43692.65567		 952.57479			42740.08088		229.54400		875.00000 
 43692.65567		 305.27265			43387.38302		70.72800		324.00000 
 43692.65567		 952.57479			42740.08088		229.54400		875.00000 
 43692.65567		 305.27265			43387.38302		70.72800		324.00000 
 43692.65567		 952.57479			42740.08088		229.54400		875.00000 
 43692.65567		 305.27265			43387.38302		70.72800		324.00000 
 43692.65567		 952.57479			42740.08088		229.54400		875.00000 
 43692.65567		 305.27265			43387.38302		70.72800		324.00000 
 43692.65567		 952.57479			42740.08088		229.54400		875.00000 
 43692.65567		 305.27265			43387.38302		70.72800		324.00000 
 43692.65567		 952.57479			42740.08088		229.54400		875.00000 
 43692.65567		 305.27265			43387.38302		70.72800		324.00000 
 43692.65567		 952.57479			42740.08088		229.54400		875.00000 
 43692.65567		 305.27265			43387.38302		70.72800		324.00000 
 43692.65567		 952.57479			42740.08088		229.54400		875.00000 
 43692.65567		 305.27265			43387.38302		70.72800		324.00000 
 43692.65567		 952.57479			42740.08088		229.54400		875.00000 
 43692.65567		 305.27265			43387.38302		70.72800		324.00000 
 43692.65567		 952.57479			42740.08088		229.54400		875.00000 
 43692.65567		 305.27265			43387.38302		70.72800		324.00000 
 43692.65567		 952.57479			42740.08088		229.54400		875.00000 
 43692.65567		 305.27265			43387.38302		70.72800		324.00000 
 43692.65567		 952.57479			42740.08088		229.54400		875.00000 
 43692.65567		 305.27265			43387.38302		70.72800		324.00000 
 43692.65567		 952.57479			42740.08088		229.54400		875.00000 
 43692.65567		 305.27265			43387.38302		70.72800		324.00000 
 43692.65567		 952.57479			42740.08088		229.54400		875.00000 
 43692.65567		 305.27265			43387.38302		70.72800		324.00000 
 43692.65567		 952.57479			42740.08088		229.54400		875.00000 
 43692.65567		 305.27265			43387.38302		70.72800		324.00000 
 43692.65567		 952.57479			42740.08088		229.54400		875.00000 
 43692.65567		 305.27265			43387.38302		70.72800		324.00000 
 43692.65567		 952.57479			42740.08088		229.54400		875.00000 
 43692.65567		 305.27265			43387.38302		70.72800		324.00000 
 43692.65567		 952.57479			42740.08088		229.54400		875.00000 
 43692.65567		 305.27265			43387.38302		70.72800		324.00000 
 43692.65567		 952.57479			42740.08088		229.54400		875.00000 
 43692.65567		 305.27265			43387.38302		70.72800		324.00000 
 43692.65567		 952.57479			42740.08088		229.54400		875.00000 
 43692.65567		 305.27265			43387.38302		70.72800		324.00000 
 43692.65567		 952.57479			42740.08088		229.54400		875.00000 
 43692.65567		 305.27265			43387.38302		70.72800		324.00000 
 43692.65567		 952.57479			42740.08088		229.54400		875.00000 
 43692.65567		 305.27265			43387.38302		70.72800		324.00000 
 43692.65567		 952.57479			42740.08088		229.54400		875.00000 
 43692.65567		 305.27265			43387.38302		70.72800		324.00000 
 43692.65567		 952.57479			42740.08088		229.54400		875.00000 
 43692.65567		 305.27265			43387.38302		70.72800		324.00000 
 43692.65567		 952.57479			42740.08088		229.54400		875.00000 
 43692.65567		 305.27265			43387.38302		70.72800		324.00000 
 43692.65567		 952.57479			42740.08088		229.54400		875.00000 
 43692.65567		 305.27265			43387.38302		70.72800		324.00000 
 43692.65567		 952.57479			42740.08088		229.54400		875.00000 
 43692.65567		 305.27265			43387.38302		70.72800		324.00000 
 43692.65567		 952.57479			42740.08088		229.54400		875.00000 
 43692.65567		 305.27265			43387.38302		70.72800		324.00000 
 43692.65567		 952.57479			42740.08088		229.54400		875.00000 
 43692.65567		 305.27265			43387.38302		70.72800		324.00000 
 43692.65567		 952.57479			42740.08088		229.54400		875.00000 
 43692.65567		 305.27265			43387.38302		70.72800		324.00000 
 43692.65567		 952.57479			42740.08088		229.54400		875.00000 
 43692.65567		 305.27265			43387.38302		70.72800		324.00000 
 43692.65567		 952.57479			42740.08088		229.54400		875.00000 
 43692.65567		 305.27265			43387.38302		70.72800		324.00000 
 43692.65567		 952.57479			42740.08088		229.54400		875.00000 
 43692.65567		 305.27265			43387.38302		70.72800		324.00000 
 43692.65567		 952.57479			42740.08088		229.54400		875.00000 
 43692.65567		 305.27265			43387.38302		70.72800		324.00000 
 43692.65567		 952.57479			42740.08088		229.54400		875.00000 
 43692.65567		 305.27265			43387.38302		70.72800		324.00000 
 43692.65567		 952.57479			42740.08088		229.54400		875.00000 
 43692.65567		 305.27265			43387.38302		70.72800		324.00000 
 43692.65567		 952.57479			42740.08088		229.54400		875.00000 
 43692.65567		 305.27265			43387.38302		70.72800		324.00000 
 43692.65567		 952.57479			42740.08088		229.54400		875.00000 
 43692.65567		 305.27265			43387.38302		70.72800		324.00000 
 43692.65567		 952.57479			42740.08088		229.54400		875.00000 
 43692.65567		 305.27265			43387.38302		70.72800		324.00000 
 43692.65567		 952.57479			42740.08088		229.54400		875.00000 
 43692.65567		 305.27265			43387.38302		70.72800		324.00000 
 43692.65567		 952.57479			42740.08088		229.54400		875.00000 
 43692.65567		 305.27265			43387.38302		70.72800		324.00000 
 43692.65567		 952.57479			42740.08088		229.54400		875.00000 
 43692.65567		 305.27265			43387.38302		70.72800		324.00000 
 43692.65567		 952.57479			42740.08088		229.54400		875.00000 
 43692.65567		 305.27265			43387.38302		70.72800		324.00000 
 43692.65567		 952.57479			42740.08088		229.54400		875.00000 
 43692.65567		 305.27265			43387.38302		70.72800		324.00000 
 43692.65567		 952.57479			42740.08088		229.54400		875.00000 
 43692.65567		 305.27265			43387.38302		70.72800		324.00000 
 43692.65567		 952.57479			42740.08088		229.54400		875.00000 
 43692.65567		 305.27265			43387.38302		70.72800		324.00000 
 43692.65567		 952.57479			42740.08088		229.54400		875.00000 
 43692.65567		 305.27265			43387.38302		70.72800		324.00000 
 43692.65567		 952.57479			42740.08088		229.54400		875.00000 
 43692.65567		 305.27265			43387.38302		70.72800		324.00000 
 43692.65567		 952.57479			42740.08088		229.54400		875.00000 
 43692.65567		 305.27265			43387.38302		70.72800		324.00000 
 43692.65567		 952.57479			42740.08088		229.54400		875.00000 
 43692.65567		 305.27265			43387.38302		70.72800		324.00000 
 43692.65567		 952.57479			42740.08088		229.54400		875.00000 
 43692.65567		 305.27265			43387.38302		70.72800		324.00000 
 43692.65567		 952.57479			42740.08088		229.54400		875.00000 
 43692.65567		 305.27265			43387.38302		70.72800		324.00000 
 43692.65567		 952.57479			42740.08088		229.54400		875.00000 
 43692.65567		 305.27265			43387.38302		70.72800		324.00000 
 43692.65567		 952.57479			42740.08088		229.54400		875.00000 
 43692.65567		 305.27265			43387.38302		70.72800		324.00000 
 43692.65567		 952.57479			42740.08088		229.54400		875.00000 
 43692.65567		 305.27265			43387.38302		70.72800		324.00000 
 43692.65567		 952.57479			42740.08088		229.54400		875.00000 
 43692.65567		 305.27265			43387.38302		70.72800		324.00000 
 43692.65567		 952.57479			42740.08088		229.54400		875.00000 
 43692.65567		 305.27265			43387.38302		70.72800		324.00000 
 43692.65567		 952.57479			42740.08088		229.54400		875.00000 
 43692.65567		 305.27265			43387.38302		70.72800		324.00000 
 43692.65567		 952.57479			42740.08088		229.54400		875.00000 
 43692.65567		 305.27265			43387.38302		70.72800		324.00000 
 43692.65567		 952.57479			42740.08088		229.54400		875.00000 
 43692.65567		 305.27265			43387.38302		70.72800		324.00000 
 43692.65567		 952.57479			42740.08088		229.54400		875.00000 
 43692.65567		 305.27265			43387.38302		70.72800		324.00000 
 43692.65567		 952.57479			42740.08088		229.54400		875.00000 
 43692.65567		 305.27265			43387.38302		70.72800		324.00000 
 43692.65567		 952.57479			42740.08088		229.54400		875.00000 
 43692.65567		 305.27265			43387.38302		70.72800		324.00000 
 43692.65567		 952.57479			42740.08088		229.54400		875.00000 
 43692.65567		 305.27265			43387.38302		70.72800		324.00000 
 43692.65567		 952.57479			42740.08088		229.54400		875.00000 
 43692.65567		 305.27265			43387.38302		70.72800		324.00000 
 43692.65567		 952.57479			42740.08088		229.54400		875.00000 
 43692.65567		 305.27265			43387.38302		70.72800		324.00000 
 43692.65567		 952.57479			42740.08088		229.54400		875.00000 
 43692.65567		 305.27265			43387.38302		70.72800		324.00000 
 43692.65567		 952.57479			42740.08088		229.54400		875.00000 
 43692.65567		 305.27265			43387.38302		70.72800		324.00000 
 43692.65567		 952.57479			42740.08088		229.54400		875.00000 
 43692.65567		 305.27265			43387.38302		70.72800		324.00000 
 43692.65567		 952.57479			42740.08088		229.54400		875.00000 
 43692.65567		 305.27265			43387.38302		70.72800		324.00000 
 43692.65567		 952.57479			42740.08088		229.54400		875.00000 
 43692.65567		 305.27265			43387.38302		70.72800		324.00000 
 43692.65567		 952.57479			42740.08088		229.54400		875.00000 
 43692.65567		 305.27265			43387.38302		70.72800		324.00000 
 43692.65567		 952.57479			42740.08088		229.54400		875.00000 
 43692.65567		 305.27265			43387.38302		70.72800		324.00000 
 43692.65567		 952.57479			42740.08088		229.54400		875.00000 
 43692.65567		 305.27265			43387.38302		70.72800		324.00000 
 43692.65567		 952.57479			42740.08088		229.54400		875.00000 
 43692.65567		 305.27265			43387.38302		70.72800		324.00000 
 43692.65567		 952.57479			42740.08088		229.54400		875.00000 
 43692.65567		 305.27265			43387.38302		70.72800		324.00000 
 43692.65567		 952.57479			42740.08088		229.54400		875.00000 
 43692.65567		 305.27265			43387.38302		70.72800		324.00000 
 43692.65567		 952.57479			42740.08088		229.54400		875.00000 
 43692.65567		 305.27265			43387.38302		70.72800		324.00000 
 43692.65567		 952.57479			42740.08088		229.54400		875.00000 
 43692.65567		 305.27265			43387.38302		70.72800		324.00000 
 43692.65567		 952.57479			42740.08088		229.54400		875.00000 
 43692.65567		 305.27265			43387.38302		70.72800		324.00000 
 43692.65567		 952.57479			42740.08088		229.54400		875.00000 
 43692.65567		 305.27265			43387.38302		70.72800		324.00000 
 43692.65567		 952.57479			42740.08088		229.54400		875.00000 
 43692.65567		 305.27265			43387.38302		70.72800		324.00000 
 43692.65567		 952.57479			42740.08088		229.54400		875.00000 
 43692.65567		 305.27265			43387.38302		70.72800		324.00000 
 43692.65567		 952.57479			42740.08088		229.54400		875.00000 
 43692.65567		 305.27265			43387.38302		70.72800		324.00000 
 43692.65567		 952.57479			42740.08088		229.54400		875.00000 
 43692.65567		 305.27265			43387.38302		70.72800		324.00000 
 43692.65567		 952.57479			42740.08088		229.54400		875.00000 
 43692.65567		 305.27265			43387.38302		70.72800		324.00000 
 43692.65567		 952.57479			42740.08088		229.54400		875.00000 
 43692.65567		 305.27265			43387.38302		70.72800		324.00000 
 43692.65567		 952.57479			42740.08088		229.54400		875.00000 
 43692.65567		 305.27265			43387.38302		70.72800		324.00000 
 43692.65567		 952.57479			42740.08088		229.54400		875.00000 
 43692.65567		 305.27265			43387.38302		70.72800		324.00000 
 43692.65567		 952.57479			42740.08088		229.54400		875.00000 
 43692.65567		 305.27265			43387.38302		70.72800		324.00000 
 43692.65567		 952.57479			42740.08088		229.54400		875.00000 
 43692.65567		 305.27265			43387.38302		70.72800		324.00000 
 43692.65567		 952.57479			42740.08088		229.54400		875.00000 
 43692.65567		 305.27265			43387.38302		70.72800		324.00000 
 43692.65567		 952.57479			42740.08088		229.54400		875.00000 
 43692.65567		 305.27265			43387.38302		70.72800		324.00000 
 43692.65567		 952.57479			42740.08088		229.54400		875.00000 
 43692.65567		 305.27265			43387.38302		70.72800		324.00000 
 43692.65567		 952.57479			42740.08088		229.54400		875.00000 
 43692.65567		 305.27265			43387.38302		70.72800		324.00000 
 43692.65567		 952.57479			42740.08088		229.54400		875.00000 
 43692.65567		 305.27265			43387.38302		70.72800		324.00000 
 43692.65567		 952.57479			42740.08088		229.54400		875.00000 
 43692.65567		 305.27265			43387.38302		70.72800		324.00000 
 43692.65567		 952.57479			42740.08088		229.54400		875.00000 
 43692.65567		 305.27265			43387.38302		70.72800		324.00000 
 43692.65567		 952.57479			42740.08088		229.54400		875.00000 
 43692.65567		 305.27265			43387.38302		70.72800		324.00000 
 43692.65567		 952.57479			42740.08088		229.54400		875.00000 
 43692.65567		 305.27265			43387.38302		70.72800		324.00000 
 43692.65567		 952.57479			42740.08088		229.54400		875.00000 
 43692.65567		 305.27265			43387.38302		70.72800		324.00000 
 43692.65567		 952.57479			42740.08088		229.54400		875.00000 
 43692.65567		 305.27265			43387.38302		70.72800		324.00000 
 43692.65567		 952.57479			42740.08088		229.54400		875.00000 
 43692.65567		 305.27265			43387.38302		70.72800		324.00000 
 43692.65567		 952.57479			42740.08088		229.54400		875.00000 
 43692.65567		 305.27265			43387.38302		70.72800		324.00000 
 43692.65567		 952.57479			42740.08088		229.54400		875.00000 
 43692.65567		 305.27265			43387.38302		70.72800		324.00000 
 43692.65567		 952.57479			42740.08088		229.54400		875.00000 
 43692.65567		 305.27265			43387.38302		70.72800		324.00000 
 43692.65567		 952.57479			42740.08088		229.54400		875.00000 
 43692.65567		 305.27265			43387.38302		70.72800		324.00000 
 43692.65567		 952.57479			42740.08088		229.54400		875.00000 
 43692.65567		 305.27265			43387.38302		70.72800		324.00000 
 43692.65567		 952.57479			42740.08088		229.54400		875.00000 
 43692.65567		 305.27265			43387.38302		70.72800		324.00000 
 43692.65567		 952.57479			42740.08088		229.54400		875.00000 
 43692.65567		 305.27265			43387.38302		70.72800		324.00000 
 43692.65567		 952.57479			42740.08088		229.54400		875.00000 
 43692.65567		 305.27265			43387.38302		70.72800		324.00000 
 43692.65567		 952.57479			42740.08088		229.54400		875.00000 
 43692.65567		 305.27265			43387.38302		70.72800		324.00000 
 43692.65567		 952.57479			42740.08088		229.54400		875.00000 
 43692.65567		 305.27265			43387.38302		70.72800		324.00000 
 43692.65567		 952.57479			42740.08088		229.54400		875.00000 
 43692.65567		 305.27265			43387.38302		70.72800		324.00000 
 43692.65567		 952.57479			42740.08088		228.94600		875.00000 
 43692.65567		 305.27265			43387.38302		70.72800		324.00000 
 43692.65567		 952.57479			42740.08088		228.94600		875.00000 
 43692.65567		 305.27265			43387.38302		70.72800		324.00000 
 43692.65567		 952.57479			42740.08088		228.94600		875.00000 
 43692.65567		 305.27265			43387.38302		70.72800		324.00000 
 43692.65567		 952.57479			42740.08088		228.94600		875.00000 
 43692.65567		 305.27265			43387.38302		70.72800		324.00000 
 43692.65567		 952.57479			42740.08088		228.94600		875.00000 
 43692.65567		 305.27265			43387.38302		70.72800		324.00000 
 43692.65567		 952.57479			42740.08088		228.94600		875.00000 
 43692.65567		 305.27265			43387.38302		70.72800		324.00000 
 43692.65567		 952.57479			42740.08088		228.94600		875.00000 
 43692.65567		 305.27265			43387.38302		70.72800		324.00000 
 43692.65567		 952.57479			42740.08088		228.94600		875.00000 
 43692.65567		 305.27265			43387.38302		70.72800		324.00000 
 43692.65567		 952.57479			42740.08088		228.94600		875.00000 
 43692.65567		 305.27265			43387.38302		70.72800		324.00000 
 43692.65567		 952.57479			42740.08088		228.94600		875.00000 
 43692.65567		 305.27265			43387.38302		70.72800		324.00000 
 43692.65567		 952.57479			42740.08088		228.94600		875.00000 
 43692.65567		 305.27265			43387.38302		70.72800		324.00000 
 43692.65567		 952.57479			42740.08088		228.94600		875.00000 
 43692.65567		 305.27265			43387.38302		70.72800		324.00000 
 43692.65567		 952.57479			42740.08088		228.94600		875.00000 
 43692.65567		 305.27265			43387.38302		70.72800		324.00000 
 43692.65567		 952.57479			42740.08088		228.94600		875.00000 
 43692.65567		 305.27265			43387.38302		70.72800		324.00000 
 43692.65567		 952.57479			42740.08088		228.94600		875.00000 
 43692.65567		 305.27265			43387.38302		70.72800		324.00000 
 43692.65567		 952.57479			42740.08088		228.94600		875.00000 
 43692.65567		 305.27265			43387.38302		70.72800		324.00000 
 43692.65567		 952.57479			42740.08088		228.94600		875.00000 
 43692.65567		 305.27265			43387.38302		70.72800		324.00000 
 43692.65567		 952.57479			42740.08088		228.94600		875.00000 
 43692.65567		 305.27265			43387.38302		70.72800		324.00000 
 43692.65567		 952.57479			42740.08088		228.94600		875.00000 
 43692.65567		 305.27265			43387.38302		70.72800		324.00000 
 43692.65567		 952.57479			42740.08088		228.94600		875.00000 
 43692.65567		 305.27265			43387.38302		70.72800		324.00000 
 43692.65567		 952.57479			42740.08088		228.94600		875.00000 
 43692.65567		 305.27265			43387.38302		70.72800		324.00000 
 43692.65567		 952.57479			42740.08088		228.94600		875.00000 
 43692.65567		 305.27265			43387.38302		70.72800		324.00000 
 43692.65567		 952.57479			42740.08088		228.94600		875.00000 
 43692.65567		 305.27265			43387.38302		70.72800		324.00000 
 43692.65567		 952.57479			42740.08088		228.94600		875.00000 
 43692.65567		 305.27265			43387.38302		70.72800		324.00000 
 43692.65567		 952.57479			42740.08088		228.94600		875.00000 
 43692.65567		 305.27265			43387.38302		70.72800		324.00000 
 43692.65567		 952.57479			42740.08088		228.94600		875.00000 
 43692.65567		 305.27265			43387.38302		70.72800		324.00000 
 43692.65567		 952.57479			42740.08088		228.94600		875.00000 
 43692.65567		 305.27265			43387.38302		70.72800		324.00000 
 43692.65567		 952.57479			42740.08088		228.94600		875.00000 
 43692.65567		 305.27265			43387.38302		70.72800		324.00000 
 43692.65567		 952.57479			42740.08088		228.94600		875.00000 
 43692.65567		 305.27265			43387.38302		70.72800		324.00000 
 43692.65567		 952.57479			42740.08088		228.94600		875.00000 
 43692.65567		 305.27265			43387.38302		70.72800		324.00000 
 43692.65567		 952.57479			42740.08088		228.94600		875.00000 
 43692.65567		 305.27265			43387.38302		70.72800		324.00000 
 43692.65567		 952.57479			42740.08088		228.94600		875.00000 
 43692.65567		 305.27265			43387.38302		70.72800		324.00000 
 43692.65567		 952.57479			42740.08088		228.94600		875.00000 
 43692.65567		 305.27265			43387.38302		70.72800		324.00000 
 43692.65567		 952.57479			42740.08088		228.94600		875.00000 
 43692.65567		 305.27265			43387.38302		70.72800		324.00000 
 43692.65567		 952.57479			42740.08088		228.94600		875.00000 
 43692.65567		 305.27265			43387.38302		70.72800		324.00000 
 43692.65567		 952.57479			42740.08088		228.94600		875.00000 
 43692.65567		 305.27265			43387.38302		70.72800		324.00000 
 43692.65567		 952.57479			42740.08088		228.94600		875.00000 
 43692.65567		 305.27265			43387.38302		70.72800		324.00000 
 43692.65567		 952.57479			42740.08088		228.94600		875.00000 
 43692.65567		 305.27265			43387.38302		70.72800		324.00000 
 43692.65567		 952.57479			42740.08088		228.94600		875.00000 
 43692.65567		 305.27265			43387.38302		70.72800		324.00000 
 43692.65567		 952.57479			42740.08088		228.94600		875.00000 
 43692.65567		 305.27265			43387.38302		70.72800		324.00000 
 43692.65567		 952.57479			42740.08088		228.94600		875.00000 
 43692.65567		 305.27265			43387.38302		70.72800		324.00000 
 43692.65567		 952.57479			42740.08088		228.94600		875.00000 
 43692.65567		 305.27265			43387.38302		70.72800		324.00000 
 43692.65567		 952.57479			42740.08088		228.94600		875.00000 
 43692.65567		 305.27265			43387.38302		70.72800		324.00000 
 43692.65567		 952.57479			42740.08088		228.94600		875.00000 
 43692.65567		 305.27265			43387.38302		70.72800		324.00000 
 43692.65567		 952.57479			42740.08088		228.94600		875.00000 
 43692.65567		 305.27265			43387.38302		70.72800		324.00000 
 43692.65567		 952.57479			42740.08088		228.94600		875.00000 
 43692.65567		 305.27265			43387.38302		70.72800		324.00000 
 43692.65567		 952.57479			42740.08088		228.94600		875.00000 
 43692.65567		 305.27265			43387.38302		70.72800		324.00000 
 43692.65567		 952.57479			42740.08088		228.94600		875.00000 
 43692.65567		 305.27265			43387.38302		70.72800		324.00000 
 43692.65567		 952.57479			42740.08088		228.94600		875.00000 
 43692.65567		 305.27265			43387.38302		70.72800		324.00000 
 43692.65567		 952.57479			42740.08088		228.94600		875.00000 
 43692.65567		 305.27265			43387.38302		70.72800		324.00000 
 43692.65567		 952.57479			42740.08088		228.94600		875.00000 
 43692.65567		 305.27265			43387.38302		70.72800		324.00000 
 43692.65567		 952.57479			42740.08088		228.94600		875.00000 
 43692.65567		 305.27265			43387.38302		70.72800		324.00000 
 43692.65567		 952.57479			42740.08088		228.94600		875.00000 
 43692.65567		 305.27265			43387.38302		70.72800		324.00000 
 43692.65567		 952.57479			42740.08088		228.94600		875.00000 
 43692.65567		 305.27265			43387.38302		70.72800		324.00000 
 43692.65567		 952.57479			42740.08088		228.94600		875.00000 
 43692.65567		 305.27265			43387.38302		70.72800		324.00000 
 43692.65567		 952.57479			42740.08088		228.94600		875.00000 
 43692.65567		 305.27265			43387.38302		70.72800		324.00000 
 43692.65567		 952.57479			42740.08088		228.94600		875.00000 
 43692.65567		 305.27265			43387.38302		70.72800		324.00000 
 43692.65567		 952.57479			42740.08088		228.94600		875.00000 
 43692.65567		 305.27265			43387.38302		70.72800		324.00000 
 43692.65567		 952.57479			42740.08088		228.94600		875.00000 
 43692.65567		 305.27265			43387.38302		70.72800		324.00000 
 43692.65567		 952.57479			42740.08088		228.94600		875.00000 
 43692.65567		 305.27265			43387.38302		70.72800		324.00000 
 43692.65567		 952.57479			42740.08088		228.94600		875.00000 
 43692.65567		 305.27265			43387.38302		70.72800		324.00000 
 43692.65567		 952.57479			42740.08088		228.94600		875.00000 
 43692.65567		 305.27265			43387.38302		70.72800		324.00000 
 43692.65567		 952.57479			42740.08088		228.94600		875.00000 
 43692.65567		 305.27265			43387.38302		70.72800		324.00000 
 43692.65567		 952.57479			42740.08088		228.94600		875.00000 
 43692.65567		 305.27265			43387.38302		70.72800		324.00000 
 43692.65567		 952.57479			42740.08088		228.94600		875.00000 
 43692.65567		 305.27265			43387.38302		70.72800		324.00000 
 43692.65567		 952.57479			42740.08088		228.94600		875.00000 
 43692.65567		 305.27265			43387.38302		70.72800		324.00000 
 43692.65567		 952.57479			42740.08088		228.94600		875.00000 
 43692.65567		 305.27265			43387.38302		70.72800		324.00000 
 43692.65567		 952.57479			42740.08088		228.94600		875.00000 
 43692.65567		 305.27265			43387.38302		70.72800		324.00000 
 43692.65567		 952.57479			42740.08088		228.94600		875.00000 
 43692.65567		 305.27265			43387.38302		70.72800		324.00000 
 43692.65567		 952.57479			42740.08088		228.94600		875.00000 
 43692.65567		 305.27265			43387.38302		70.72800		324.00000 
 43692.65567		 952.57479			42740.08088		228.94600		875.00000 
 43692.65567		 305.27265			43387.38302		70.72800		324.00000 
 43692.65567		 952.57479			42740.08088		228.94600		875.00000 
 43692.65567		 305.27265			43387.38302		70.72800		324.00000 
 43692.65567		 952.57479			42740.08088		228.94600		875.00000 
 43692.65567		 305.27265			43387.38302		70.72800		324.00000 
 43692.65567		 952.57479			42740.08088		228.94600		875.00000 
 43692.65567		 305.27265			43387.38302		70.72800		324.00000 
 43692.65567		 952.57479			42740.08088		228.94600		875.00000 
 43692.65567		 305.27265			43387.38302		70.72800		324.00000 
 43692.65567		 952.57479			42740.08088		228.94600		875.00000 
 43692.65567		 305.27265			43387.38302		70.72800		324.00000 
 43692.65567		 952.57479			42740.08088		228.94600		875.00000 
 43692.65567		 305.27265			43387.38302		70.72800		324.00000 
 43692.65567		 952.57479			42740.08088		228.94600		875.00000 
 43692.65567		 305.27265			43387.38302		70.72800		324.00000 
 43692.65567		 952.57479			42740.08088		228.94600		875.00000 
 43692.65567		 305.27265			43387.38302		70.72800		324.00000 
 43692.65567		 952.57479			42740.08088		228.94600		875.00000 
 43692.65567		 305.27265			43387.38302		70.72800		324.00000 
 43692.65567		 952.57479			42740.08088		228.94600		875.00000 
 43692.65567		 305.27265			43387.38302		70.72800		324.00000 
 43692.65567		 952.57479			42740.08088		228.94600		875.00000 
 43692.65567		 305.27265			43387.38302		70.72800		324.00000 
 43692.65567		 952.57479			42740.08088		228.94600		875.00000 
 43692.65567		 305.27265			43387.38302		70.72800		324.00000 
 43692.65567		 952.57479			42740.08088		228.94600		875.00000 
 43692.65567		 305.27265			43387.38302		70.72800		324.00000 
 43692.65567		 952.57479			42740.08088		228.94600		875.00000 
 43692.65567		 305.27265			43387.38302		70.72800		324.00000 
 43692.65567		 952.57479			42740.08088		228.94600		875.00000 
 43692.65567		 305.27265			43387.38302		70.72800		324.00000 
 43692.65567		 952.57479			42740.08088		228.94600		875.00000 
 43692.65567		 305.27265			43387.38302		70.72800		324.00000 
 43692.65567		 952.57479			42740.08088		228.94600		875.00000 
 43692.65567		 305.27265			43387.38302		70.72800		324.00000 
 43692.65567		 952.57479			42740.08088		228.94600		875.00000 
 43692.65567		 305.27265			43387.38302		70.72800		324.00000 
 43692.65567		 952.57479			42740.08088		228.94600		875.00000 
 43692.65567		 305.27265			43387.38302		70.72800		324.00000 
 43692.65567		 952.57479			42740.08088		228.94600		875.00000 
 43692.65567		 305.27265			43387.38302		70.72800		324.00000 
 43692.65567		 952.57479			42740.08088		228.94600		875.00000 
 43692.65567		 305.27265			43387.38302		70.72800		324.00000 
 43692.65567		 952.57479			42740.08088		228.94600		875.00000 
 43692.65567		 305.27265			43387.38302		70.72800		324.00000 
 43692.65567		 952.57479			42740.08088		228.94600		875.00000 
 43692.65567		 305.27265			43387.38302		70.72800		324.00000 
 43692.65567		 952.57479			42740.08088		228.94600		875.00000 
 43692.65567		 305.27265			43387.38302		70.72800		324.00000 
 43692.65567		 952.57479			42740.08088		228.94600		875.00000 
 43692.65567		 305.27265			43387.38302		70.72800		324.00000 
 43692.65567		 952.57479			42740.08088		228.94600		875.00000 
 43692.65567		 305.27265			43387.38302		70.72800		324.00000 
 43692.65567		 952.57479			42740.08088		228.94600		875.00000 
 43692.65567		 305.27265			43387.38302		70.72800		324.00000 
 43692.65567		 952.57479			42740.08088		228.94600		875.00000 
 43692.65567		 305.27265			43387.38302		70.72800		324.00000 
 43692.65567		 952.57479			42740.08088		228.94600		875.00000 
 43692.65567		 305.27265			43387.38302		70.72800		324.00000 
 43692.65567		 952.57479			42740.08088		228.94600		875.00000 
 43692.65567		 305.27265			43387.38302		70.72800		324.00000 
 43692.65567		 952.57479			42740.08088		228.94600		875.00000 
 43692.65567		 305.27265			43387.38302		70.72800		324.00000 
 43692.65567		 952.57479			42740.08088		228.94600		875.00000 
 43692.65567		 305.27265			43387.38302		70.72800		324.00000 
 43692.65567		 952.57479			42740.08088		228.94600		875.00000 
 43692.65567		 305.27265			43387.38302		70.72800		324.00000 
 43692.65567		 952.57479			42740.08088		228.94600		875.00000 
 43692.65567		 305.27265			43387.38302		70.72800		324.00000 
 43692.65567		 952.57479			42740.08088		228.94600		875.00000 
 43692.65567		 305.27265			43387.38302		70.72800		324.00000 
 43692.65567		 952.57479			42740.08088		228.94600		875.00000 
 43692.65567		 305.27265			43387.38302		70.72800		324.00000 
 43692.65567		 952.57479			42740.08088		228.94600		875.00000 
 43692.65567		 305.27265			43387.38302		70.72800		324.00000 
 43692.65567		 952.57479			42740.08088		228.94600		875.00000 
 43692.65567		 305.27265			43387.38302		70.72800		324.00000 
 43692.65567		 952.57479			42740.08088		228.94600		875.00000 
 43692.65567		 305.27265			43387.38302		70.72800		324.00000 
 43692.65567		 952.57479			42740.08088		228.94600		875.00000 
 43692.65567		 305.27265			43387.38302		70.72800		324.00000 
 43692.65567		 952.57479			42740.08088		228.94600		875.00000 
 43692.65567		 305.27265			43387.38302		70.72800		324.00000 
 43692.65567		 952.57479			42740.08088		228.94600		875.00000 
 43692.65567		 305.27265			43387.38302		70.72800		324.00000 
 43692.65567		 952.57479			42740.08088		228.94600		875.00000 
 43692.65567		 305.27265			43387.38302		70.72800		324.00000 
 43692.65567		 952.57479			42740.08088		228.94600		875.00000 
 43692.65567		 305.27265			43387.38302		70.72800		324.00000 
 43692.65567		 952.57479			42740.08088		228.94600		875.00000 
 43692.65567		 305.27265			43387.38302		70.72800		324.00000 
 43692.65567		 952.57479			42740.08088		228.94600		875.00000 
 43692.65567		 305.27265			43387.38302		70.72800		324.00000 
 43692.65567		 952.57479			42740.08088		228.94600		875.00000 
 43692.65567		 305.27265			43387.38302		70.72800		324.00000 
 43692.65567		 952.57479			42740.08088		228.94600		875.00000 
 43692.65567		 305.27265			43387.38302		70.72800		324.00000 
 43692.65567		 952.57479			42740.08088		228.94600		875.00000 
 43692.65567		 305.27265			43387.38302		70.72800		324.00000 
 43692.65567		 952.57479			42740.08088		228.94600		875.00000 
 43692.65567		 305.27265			43387.38302		70.72800		324.00000 
 43692.65567		 952.57479			42740.08088		228.94600		875.00000 
 43692.65567		 305.27265			43387.38302		70.72800		324.00000 
 43692.65567		 952.57479			42740.08088		228.94600		875.00000 
 43692.65567		 305.27265			43387.38302		70.72800		324.00000 
 43692.65567		 952.57479			42740.08088		228.94600		875.00000 
 43692.65567		 305.27265			43387.38302		70.72800		324.00000 
 43692.65567		 952.57479			42740.08088		228.94600		875.00000 
 43692.65567		 305.27265			43387.38302		70.72800		324.00000 
 43692.65567		 952.57479			42740.08088		228.94600		875.00000 
 43692.65567		 305.27265			43387.38302		70.72800		324.00000 
 43692.65567		 952.57479			42740.08088		228.94600		875.00000 
 43692.65567		 305.27265			43387.38302		70.72800		324.00000 
 43692.65567		 952.57479			42740.08088		228.94600		875.00000 
 43692.65567		 305.27265			43387.38302		70.72800		324.00000 
 43692.65567		 952.57479			42740.08088		228.94600		875.00000 
 43692.65567		 305.27265			43387.38302		70.72800		324.00000 
 43692.65567		 952.57479			42740.08088		228.94600		875.00000 
 43692.65567		 305.27265			43387.38302		70.72800		324.00000 
 43692.65567		 952.57479			42740.08088		228.94600		875.00000 
 43692.65567		 305.27265			43387.38302		70.72800		324.00000 
 43692.65567		 952.57479			42740.08088		228.94600		875.00000 
 43692.65567		 305.27265			43387.38302		70.72800		324.00000 
 43692.65567		 952.57479			42740.08088		228.94600		875.00000 
 43692.65567		 305.27265			43387.38302		70.72800		324.00000 
 43692.65567		 952.57479			42740.08088		228.94600		875.00000 
 43692.65567		 305.27265			43387.38302		70.72800		324.00000 
 43692.65567		 952.57479			42740.08088		228.94600		875.00000 
 43692.65567		 305.27265			43387.38302		70.72800		324.00000 
 43692.65567		 952.57479			42740.08088		228.94600		875.00000 
 43692.65567		 305.27265			43387.38302		70.72800		324.00000 
 43692.65567		 952.57479			42740.08088		228.94600		875.00000 
 43692.65567		 305.27265			43387.38302		70.72800		324.00000 
 43692.65567		 952.57479			42740.08088		228.94600		875.00000 
 43692.65567		 305.27265			43387.38302		70.72800		324.00000 
 43692.65567		 952.57479			42740.08088		228.94600		875.00000 
 43692.65567		 305.27265			43387.38302		70.72800		324.00000 
 43692.65567		 952.57479			42740.08088		228.94600		875.00000 
 43692.65567		 305.27265			43387.38302		70.72800		324.00000 
 43692.65567		 952.57479			42740.08088		228.94600		875.00000 
 43692.65567		 305.27265			43387.38302		70.72800		324.00000 
 43692.65567		 952.57479			42740.08088		228.94600		875.00000 
 43692.65567		 305.27265			43387.38302		70.72800		324.00000 
 43692.65567		 952.57479			42740.08088		228.94600		875.00000 
 43692.65567		 305.27265			43387.38302		70.72800		324.00000 
 43692.65567		 952.57479			42740.08088		228.94600		875.00000 
 43692.65567		 305.27265			43387.38302		70.72800		324.00000 
 43692.65567		 952.57479			42740.08088		228.94600		875.00000 
 43692.65567		 305.27265			43387.38302		70.72800		324.00000 
 43692.65567		 952.57479			42740.08088		228.94600		875.00000 
 43692.65567		 305.27265			43387.38302		70.72800		324.00000 
 43692.65567		 952.57479			42740.08088		228.94600		875.00000 
 43692.65567		 305.27265			43387.38302		70.72800		324.00000 
 43692.65567		 952.57479			42740.08088		228.94600		875.00000 
 43692.65567		 305.27265			43387.38302		70.72800		324.00000 
 43692.65567		 952.57479			42740.08088		228.94600		875.00000 
 43692.65567		 305.27265			43387.38302		70.72800		324.00000 
 43692.65567		 952.57479			42740.08088		228.94600		875.00000 
 43692.65567		 305.27265			43387.38302		70.72800		324.00000 
 43692.65567		 952.57479			42740.08088		228.94600		875.00000 
 43692.65567		 305.27265			43387.38302		70.72800		324.00000 
 43692.65567		 952.57479			42740.08088		228.94600		875.00000 
 43692.65567		 305.27265			43387.38302		70.72800		324.00000 
 43692.65567		 952.57479			42740.08088		228.94600		875.00000 
 43692.65567		 305.27265			43387.38302		70.72800		324.00000 
 43692.65567		 952.57479			42740.08088		228.94600		875.00000 
 43692.65567		 305.27265			43387.38302		70.72800		324.00000 
 43692.65567		 952.57479			42740.08088		228.94600		875.00000 
 43692.65567		 305.27265			43387.38302		70.72800		324.00000 
 43692.65567		 952.57479			42740.08088		228.94600		875.00000 
 43692.65567		 305.27265			43387.38302		70.72800		324.00000 
 43692.65567		 952.57479			42740.08088		228.94600		875.00000 
 43692.65567		 305.27265			43387.38302		70.72800		324.00000 
 43692.65567		 952.57479			42740.08088		228.94600		875.00000 
 43692.65567		 305.27265			43387.38302		70.72800		324.00000 
 43692.65567		 952.57479			42740.08088		228.94600		875.00000 
 43692.65567		 305.27265			43387.38302		70.72800		324.00000 
 43692.65567		 952.57479			42740.08088		228.94600		875.00000 
 43692.65567		 305.27265			43387.38302		70.72800		324.00000 
 43692.65567		 952.57479			42740.08088		228.94600		875.00000 
 43692.65567		 305.27265			43387.38302		70.72800		324.00000 
 43692.65567		 952.57479			42740.08088		228.94600		875.00000 
 43692.65567		 305.27265			43387.38302		70.72800		324.00000 
 43692.65567		 952.57479			42740.08088		228.94600		875.00000 
 43692.65567		 305.27265			43387.38302		70.72800		324.00000 
 43692.65567		 952.57479			42740.08088		228.94600		875.00000 
 43692.65567		 305.27265			43387.38302		70.72800		324.00000 
 43692.65567		 952.57479			42740.08088		228.94600		875.00000 
 43692.65567		 305.27265			43387.38302		70.72800		324.00000 
 43692.65567		 952.57479			42740.08088		228.94600		875.00000 
 43692.65567		 305.27265			43387.38302		70.72800		324.00000 
 43692.65567		 952.57479			42740.08088		228.94600		875.00000 
 43692.65567		 305.27265			43387.38302		70.72800		324.00000 
 43692.65567		 952.57479			42740.08088		228.94600		875.00000 
 43692.65567		 305.27265			43387.38302		70.72800		324.00000 
 43692.65567		 952.57479			42740.08088		228.94600		875.00000 
 43692.65567		 305.27265			43387.38302		70.72800		324.00000 
 43692.65567		 952.57479			42740.08088		228.94600		875.00000 
 43692.65567		 305.27265			43387.38302		70.72800		324.00000 
 43692.65567		 952.57479			42740.08088		228.94600		875.00000 
 43692.65567		 305.27265			43387.38302		70.72800		324.00000 
 43692.65567		 952.57479			42740.08088		228.94600		875.00000 
 43692.65567		 305.27265			43387.38302		70.72800		324.00000 
 43692.65567		 952.57479			42740.08088		228.94600		875.00000 
 43692.65567		 305.27265			43387.38302		70.72800		324.00000 
 43692.65567		 952.57479			42740.08088		228.94600		875.00000 
 43692.65567		 305.27265			43387.38302		70.72800		324.00000 
 43692.65567		 952.57479			42740.08088		228.94600		875.00000 
 43692.65567		 305.27265			43387.38302		70.72800		324.00000 
 43692.65567		 952.57479			42740.08088		228.94600		875.00000 
 43692.65567		 305.27265			43387.38302		70.72800		324.00000 
 43692.65567		 952.57479			42740.08088		228.94600		875.00000 
 43692.65567		 305.27265			43387.38302		70.72800		324.00000 
 43692.65567		 952.57479			42740.08088		228.94600		875.00000 
 43692.65567		 305.27265			43387.38302		70.72800		324.00000 
 43692.65567		 952.57479			42740.08088		228.94600		875.00000 
 43692.65567		 305.27265			43387.38302		70.72800		324.00000 
 43692.65567		 952.57479			42740.08088		228.94600		875.00000 
 43692.65567		 305.27265			43387.38302		70.72800		324.00000 
 43692.65567		 952.57479			42740.08088		228.94600		875.00000 
 43692.65567		 305.27265			43387.38302		70.72800		324.00000 
 43692.65567		 952.57479			42740.08088		228.94600		875.00000 
 43692.65567		 305.27265			43387.38302		70.72800		324.00000 
 43692.65567		 952.57479			42740.08088		228.94600		875.00000 
 43692.65567		 305.27265			43387.38302		70.72800		324.00000 
 43692.65567		 952.57479			42740.08088		228.94600		875.00000 
 43692.65567		 305.27265			43387.38302		70.72800		324.00000 
 43692.65567		 952.57479			42740.08088		228.94600		875.00000 
 43692.65567		 305.27265			43387.38302		70.72800		324.00000 
 43692.65567		 952.57479			42740.08088		228.94600		875.00000 
 43692.65567		 305.27265			43387.38302		70.72800		324.00000 
 43692.65567		 952.57479			42740.08088		228.94600		875.00000 
 43692.65567		 305.27265			43387.38302		70.72800		324.00000 
 43692.65567		 952.57479			42740.08088		228.94600		875.00000 
 43692.65567		 305.27265			43387.38302		70.72800		324.00000 
 43692.65567		 952.57479			42740.08088		228.94600		875.00000 
 43692.65567		 305.27265			43387.38302		70.72800		324.00000 
 43692.65567		 952.57479			42740.08088		228.94600		875.00000 
 43692.65567		 305.27265			43387.38302		70.72800		324.00000 
 43692.65567		 952.57479			42740.08088		228.94600		875.00000 
 43692.65567		 305.27265			43387.38302		70.72800		324.00000 
 43692.65567		 952.57479			42740.08088		228.94600		875.00000 
 43692.65567		 305.27265			43387.38302		70.72800		324.00000 
 43692.65567		 952.57479			42740.08088		228.94600		875.00000 
 43692.65567		 305.27265			43387.38302		70.72800		324.00000 
 43692.65567		 952.57479			42740.08088		228.94600		875.00000 
 43692.65567		 305.27265			43387.38302		70.72800		324.00000 
 43692.65567		 952.57479			42740.08088		228.94600		875.00000 
 43692.65567		 305.27265			43387.38302		70.72800		324.00000 
 43692.65567		 952.57479			42740.08088		228.94600		875.00000 
 43692.65567		 305.27265			43387.38302		70.72800		324.00000 
 43692.65567		 952.57479			42740.08088		228.94600		875.00000 
 43692.65567		 305.27265			43387.38302		70.72800		324.00000 
 43692.65567		 952.57479			42740.08088		228.94600		875.00000 
 43692.65567		 305.27265			43387.38302		70.72800		324.00000 
 43692.65567		 952.57479			42740.08088		228.94600		875.00000 
 43692.65567		 305.27265			43387.38302		70.72800		324.00000 
 43692.65567		 952.57479			42740.08088		228.94600		875.00000 
 43692.65567		 305.27265			43387.38302		70.72800		324.00000 
 43692.65567		 952.57479			42740.08088		228.94600		875.00000 
 43692.65567		 305.27265			43387.38302		70.72800		324.00000 
 43692.65567		 952.57479			42740.08088		228.94600		875.00000 
 43692.65567		 305.27265			43387.38302		70.72800		324.00000 
 43692.65567		 952.57479			42740.08088		228.94600		875.00000 
 43692.65567		 305.27265			43387.38302		70.72800		324.00000 
 43692.65567		 952.57479			42740.08088		228.94600		875.00000 
 43692.65567		 305.27265			43387.38302		70.72800		324.00000 
 43692.65567		 952.57479			42740.08088		228.94600		875.00000 
 43692.65567		 305.27265			43387.38302		70.72800		324.00000 
 43692.65567		 952.57479			42740.08088		228.94600		875.00000 
 43692.65567		 305.27265			43387.38302		70.72800		324.00000 
 43692.65567		 952.57479			42740.08088		228.94600		875.00000 
 43692.65567		 305.27265			43387.38302		70.72800		324.00000 
 43692.65567		 952.57479			42740.08088		228.94600		875.00000 
 43692.65567		 305.27265			43387.38302		70.72800		324.00000 
 43692.65567		 952.57479			42740.08088		228.94600		875.00000 
 43692.65567		 305.27265			43387.38302		70.72800		324.00000 
 43692.65567		 952.57479			42740.08088		228.94600		875.00000 
 43692.65567		 305.27265			43387.38302		70.72800		324.00000 
 43692.65567		 952.57479			42740.08088		228.94600		875.00000 
 43692.65567		 305.27265			43387.38302		70.72800		324.00000 
 43692.65567		 952.57479			42740.08088		228.94600		875.00000 
 43692.65567		 305.27265			43387.38302		70.72800		324.00000 
 43692.65567		 952.57479			42740.08088		228.94600		875.00000 
 43692.65567		 305.27265			43387.38302		70.72800		324.00000 
 43692.65567		 952.57479			42740.08088		228.94600		875.00000 
 43692.65567		 305.27265			43387.38302		70.72800		324.00000 
 43692.65567		 952.57479			42740.08088		228.94600		875.00000 
 43692.65567		 305.27265			43387.38302		70.72800		324.00000 
 43692.65567		 952.57479			42740.08088		228.94600		875.00000 
 43692.65567		 305.27265			43387.38302		70.72800		324.00000 
 43692.65567		 952.57479			42740.08088		228.94600		875.00000 
 43692.65567		 305.27265			43387.38302		70.72800		324.00000 
 43692.65567		 952.57479			42740.08088		228.94600		875.00000 
 43692.65567		 305.27265			43387.38302		70.72800		324.00000 
 43692.65567		 952.57479			42740.08088		228.94600		875.00000 
 43692.65567		 305.27265			43387.38302		70.72800		324.00000 
 43692.65567		 952.57479			42740.08088		228.94600		875.00000 
 43692.65567		 305.27265			43387.38302		70.72800		324.00000 
 43692.65567		 952.57479			42740.08088		228.94600		875.00000 
 43692.65567		 305.27265			43387.38302		70.72800		324.00000 
 43692.65567		 952.57479			42740.08088		228.94600		875.00000 
 43692.65567		 305.27265			43387.38302		70.72800		324.00000 
 43692.65567		 952.57479			42740.08088		228.94600		875.00000 
 43692.65567		 305.27265			43387.38302		70.72800		324.00000 
 43692.65567		 952.57479			42740.08088		228.94600		875.00000 
 43692.65567		 305.27265			43387.38302		70.72800		324.00000 
 43692.65567		 952.57479			42740.08088		228.94600		875.00000 
 43692.65567		 305.27265			43387.38302		70.72800		324.00000 
 43692.65567		 952.57479			42740.08088		228.94600		875.00000 
 43692.65567		 305.27265			43387.38302		70.72800		324.00000 
 43692.65567		 952.57479			42740.08088		228.94600		875.00000 
 43692.65567		 305.27265			43387.38302		70.72800		324.00000 
 43692.65567		 952.57479			42740.08088		228.94600		875.00000 
 43692.65567		 305.27265			43387.38302		70.72800		324.00000 
 43692.65567		 952.57479			42740.08088		228.94600		875.00000 
 43692.65567		 305.27265			43387.38302		70.72800		324.00000 
 43692.65567		 952.57479			42740.08088		228.94600		875.00000 
 43692.65567		 305.27265			43387.38302		70.72800		324.00000 
 43692.65567		 952.57479			42740.08088		228.94600		875.00000 
 43692.65567		 305.27265			43387.38302		70.72800		324.00000 
 43692.65567		 952.57479			42740.08088		228.94600		875.00000 
 43692.65567		 305.27265			43387.38302		70.72800		324.00000 
 43692.65567		 952.57479			42740.08088		228.94600		875.00000 
 43692.65567		 305.27265			43387.38302		70.72800		324.00000 
 43692.65567		 952.57479			42740.08088		228.94600		875.00000 
 43692.65567		 305.27265			43387.38302		70.72800		324.00000 
 43692.65567		 952.57479			42740.08088		228.94600		875.00000 
 43692.65567		 305.27265			43387.38302		70.72800		324.00000 
 43692.65567		 952.57479			42740.08088		228.94600		875.00000 
 43692.65567		 305.27265			43387.38302		70.72800		324.00000 
 43692.65567		 952.57479			42740.08088		228.94600		875.00000 
 43692.65567		 305.27265			43387.38302		70.72800		324.00000 
 43692.65567		 952.57479			42740.08088		228.94600		875.00000 
 43692.65567		 305.27265			43387.38302		70.72800		324.00000 
 43692.65567		 952.57479			42740.08088		228.94600		875.00000 
 43692.65567		 305.27265			43387.38302		70.72800		324.00000 
 43692.65567		 952.57479			42740.08088		228.94600		875.00000 
 43692.65567		 305.27265			43387.38302		70.72800		324.00000 
 43692.65567		 952.57479			42740.08088		228.94600		875.00000 
 43692.65567		 305.27265			43387.38302		70.72800		324.00000 
 43692.65567		 952.57479			42740.08088		228.94600		875.00000 
 43692.65567		 305.27265			43387.38302		70.72800		324.00000 
 43692.65567		 952.57479			42740.08088		228.94600		875.00000 
 43692.65567		 305.27265			43387.38302		70.72800		324.00000 
 43692.65567		 952.57479			42740.08088		228.94600		875.00000 
 43692.65567		 305.27265			43387.38302		70.72800		324.00000 
 43692.65567		 952.57479			42740.08088		228.94600		875.00000 
 43692.65567		 305.27265			43387.38302		70.72800		324.00000 
 43692.65567		 952.57479			42740.08088		228.94600		875.00000 
 43692.65567		 305.27265			43387.38302		70.72800		324.00000 
 43692.65567		 952.57479			42740.08088		228.94600		875.00000 
 43692.65567		 305.27265			43387.38302		70.72800		324.00000 
 43692.65567		 952.57479			42740.08088		228.94600		875.00000 
 43692.65567		 305.27265			43387.38302		70.72800		324.00000 
 43692.65567		 952.57479			42740.08088		228.94600		875.00000 
 43692.65567		 305.27265			43387.38302		70.72800		324.00000 
 43692.65567		 952.57479			42740.08088		228.94600		875.00000 
 43692.65567		 305.27265			43387.38302		70.72800		324.00000 
 43692.65567		 952.57479			42740.08088		228.94600		875.00000 
 43692.65567		 305.27265			43387.38302		70.72800		324.00000 
 43692.65567		 952.57479			42740.08088		228.94600		875.00000 
 43692.65567		 305.27265			43387.38302		70.72800		324.00000 
 43692.65567		 952.57479			42740.08088		228.94600		875.00000 
 43692.65567		 305.27265			43387.38302		70.72800		324.00000 
 43692.65567		 952.57479			42740.08088		228.94600		875.00000 
 43692.65567		 305.27265			43387.38302		70.72800		324.00000 
 43692.65567		 952.57479			42740.08088		228.94600		875.00000 
 43692.65567		 305.27265			43387.38302		70.72800		324.00000 
 43692.65567		 952.57479			42740.08088		228.94600		875.00000 
 43692.65567		 305.27265			43387.38302		70.72800		324.00000 
 43692.65567		 952.57479			42740.08088		228.94600		875.00000 
 43692.65567		 305.27265			43387.38302		70.72800		324.00000 
 43692.65567		 952.57479			42740.08088		228.94600		875.00000 
 43692.65567		 305.27265			43387.38302		70.72800		324.00000 
 43692.65567		 952.57479			42740.08088		228.94600		875.00000 
 43692.65567		 305.27265			43387.38302		70.72800		324.00000 
 43692.65567		 952.57479			42740.08088		228.94600		875.00000 
 43692.65567		 305.27265			43387.38302		70.72800		324.00000 
 43692.65567		 952.57479			42740.08088		228.94600		875.00000 
 43692.65567		 305.27265			43387.38302		70.72800		324.00000 
 43692.65567		 952.57479			42740.08088		228.94600		875.00000 
 43692.65567		 305.27265			43387.38302		70.72800		324.00000 
 43692.65567		 952.57479			42740.08088		228.94600		875.00000 
 43692.65567		 305.27265			43387.38302		70.72800		324.00000 
 43692.65567		 952.57479			42740.08088		228.94600		875.00000 
 43692.65567		 305.27265			43387.38302		70.72800		324.00000 
 43692.65567		 952.57479			42740.08088		228.94600		875.00000 
 43692.65567		 305.27265			43387.38302		70.72800		324.00000 
 43692.65567		 952.57479			42740.08088		228.94600		875.00000 
 43692.65567		 305.27265			43387.38302		70.72800		324.00000 
 43692.65567		 952.57479			42740.08088		228.94600		875.00000 
 43692.65567		 305.27265			43387.38302		70.72800		324.00000 
 43692.65567		 952.57479			42740.08088		228.94600		875.00000 
 43692.65567		 305.27265			43387.38302		70.72800		324.00000 
 43692.65567		 952.57479			42740.08088		228.94600		875.00000 
 43692.65567		 305.27265			43387.38302		70.72800		324.00000 
 43692.65567		 952.57479			42740.08088		228.94600		875.00000 
 43692.65567		 305.27265			43387.38302		70.72800		324.00000 
 43692.65567		 952.57479			42740.08088		228.94600		875.00000 
 43692.65567		 305.27265			43387.38302		70.72800		324.00000 
 43692.65567		 952.57479			42740.08088		228.94600		875.00000 
 43692.65567		 305.27265			43387.38302		70.72800		324.00000 
 43692.65567		 952.57479			42740.08088		228.94600		875.00000 
 43692.65567		 305.27265			43387.38302		70.72800		324.00000 
 43692.65567		 952.57479			42740.08088		228.94600		875.00000 
 43692.65567		 305.27265			43387.38302		70.72800		324.00000 
 43692.65567		 952.57479			42740.08088		228.94600		875.00000 
 43692.65567		 305.27265			43387.38302		70.72800		324.00000 
 43692.65567		 952.57479			42740.08088		228.94600		875.00000 
 43692.65567		 305.27265			43387.38302		70.72800		324.00000 
 43692.65567		 952.57479			42740.08088		228.94600		875.00000 
 43692.65567		 305.27265			43387.38302		70.72800		324.00000 
 43692.65567		 952.57479			42740.08088		228.94600		875.00000 
 43692.65567		 305.27265			43387.38302		70.72800		324.00000 
 43692.65567		 952.57479			42740.08088		228.94600		875.00000 
 43692.65567		 305.27265			43387.38302		70.72800		324.00000 
 43692.65567		 952.57479			42740.08088		228.94600		875.00000 
 43692.65567		 305.27265			43387.38302		70.72800		324.00000 
 43692.65567		 952.57479			42740.08088		228.94600		875.00000 
 43692.65567		 305.27265			43387.38302		70.72800		324.00000 
 43692.65567		 952.57479			42740.08088		228.94600		875.00000 
 43692.65567		 305.27265			43387.38302		70.72800		324.00000 
 43692.65567		 952.57479			42740.08088		228.94600		875.00000 
 43692.65567		 305.27265			43387.38302		70.72800		324.00000 
 43692.65567		 952.57479			42740.08088		228.94600		875.00000 
 43692.65567		 305.27265			43387.38302		70.72800		324.00000 
 43692.65567		 952.57479			42740.08088		228.94600		875.00000 
 43692.65567		 305.27265			43387.38302		70.72800		324.00000 
 43692.65567		 952.57479			42740.08088		228.94600		875.00000 
 43692.65567		 305.27265			43387.38302		70.72800		324.00000 
 43692.65567		 952.57479			42740.08088		228.94600		875.00000 
 43692.65567		 305.27265			43387.38302		70.72800		324.00000 
 43692.65567		 952.57479			42740.08088		228.94600		875.00000 
 43692.65567		 305.27265			43387.38302		70.72800		324.00000 
 43692.65567		 952.57479			42740.08088		228.94600		875.00000 
 43692.65567		 305.27265			43387.38302		70.72800		324.00000 
 43692.65567		 952.57479			42740.08088		228.94600		875.00000 
 43692.65567		 305.27265			43387.38302		70.72800		324.00000 
 43692.65567		 952.57479			42740.08088		228.94600		875.00000 
 43692.65567		 305.27265			43387.38302		70.72800		324.00000 
 43692.65567		 952.57479			42740.08088		228.94600		875.00000 
 43692.65567		 305.27265			43387.38302		70.72800		324.00000 
 43692.65567		 952.57479			42740.08088		228.94600		875.00000 
 43692.65567		 305.27265			43387.38302		70.72800		324.00000 
 43692.65567		 952.57479			42740.08088		228.94600		875.00000 
 43692.65567		 305.27265			43387.38302		70.72800		324.00000 
 43692.65567		 952.57479			42740.08088		228.94600		875.00000 
 43692.65567		 305.27265			43387.38302		70.72800		324.00000 
 43692.65567		 952.57479			42740.08088		228.94600		875.00000 
 43692.65567		 305.27265			43387.38302		70.72800		324.00000 
 43692.65567		 952.57479			42740.08088		228.94600		875.00000 
 43692.65567		 305.27265			43387.38302		70.72800		324.00000 
 43692.65567		 952.57479			42740.08088		228.94600		875.00000 
 43692.65567		 305.27265			43387.38302		70.72800		324.00000 
 43692.65567		 952.57479			42740.08088		228.94600		875.00000 
 43692.65567		 305.27265			43387.38302		70.72800		324.00000 
 43692.65567		 952.57479			42740.08088		228.94600		875.00000 
 43692.65567		 305.27265			43387.38302		70.72800		324.00000 
 43692.65567		 952.57479			42740.08088		228.94600		875.00000 
 43692.65567		 305.27265			43387.38302		70.72800		324.00000 
 43692.65567		 952.57479			42740.08088		228.94600		875.00000 
 43692.65567		 305.27265			43387.38302		70.72800		324.00000 
 43692.65567		 952.57479			42740.08088		228.94600		875.00000 
 43692.65567		 305.27265			43387.38302		70.72800		324.00000 
 43692.65567		 952.57479			42740.08088		228.94600		875.00000 
 43692.65567		 305.27265			43387.38302		70.72800		324.00000 
 43692.65567		 952.57479			42740.08088		228.94600		875.00000 
 43692.65567		 305.27265			43387.38302		70.72800		324.00000 
 43692.65567		 952.57479			42740.08088		228.94600		875.00000 
 43692.65567		 305.27265			43387.38302		70.72800		324.00000 
 43692.65567		 952.57479			42740.08088		228.94600		875.00000 
 43692.65567		 305.27265			43387.38302		70.72800		324.00000 
 43692.65567		 952.57479			42740.08088		228.94600		875.00000 
 43692.65567		 305.27265			43387.38302		70.72800		324.00000 
 43692.65567		 952.57479			42740.08088		228.94600		875.00000 
 43692.65567		 305.27265			43387.38302		70.72800		324.00000 
 43692.65567		 952.57479			42740.08088		228.94600		875.00000 
 43692.65567		 305.27265			43387.38302		70.72800		324.00000 
 43692.65567		 952.57479			42740.08088		228.94600		875.00000 
 43692.65567		 305.27265			43387.38302		70.72800		324.00000 
 43692.65567		 952.57479			42740.08088		228.94600		875.00000 
 43692.65567		 305.27265			43387.38302		70.72800		324.00000 
 43692.65567		 952.57479			42740.08088		228.94600		875.00000 
 43692.65567		 305.27265			43387.38302		70.72800		324.00000 
 43692.65567		 952.57479			42740.08088		228.94600		875.00000 
 43692.65567		 305.27265			43387.38302		70.72800		324.00000 
 43692.65567		 952.57479			42740.08088		228.94600		875.00000 
 43692.65567		 305.27265			43387.38302		70.72800		324.00000 
 43692.65567		 952.57479			42740.08088		228.94600		875.00000 
 43692.65567		 305.27265			43387.38302		70.72800		324.00000 
 43692.65567		 952.57479			42740.08088		228.94600		875.00000 
 43692.65567		 305.27265			43387.38302		70.72800		324.00000 
 43692.65567		 952.57479			42740.08088		228.94600		875.00000 
 43692.65567		 305.27265			43387.38302		70.72800		324.00000 
 43692.65567		 952.57479			42740.08088		228.94600		875.00000 
 43692.65567		 305.27265			43387.38302		70.72800		324.00000 
 43692.65567		 952.57479			42740.08088		228.94600		875.00000 
 43692.65567		 305.27265			43387.38302		70.72800		324.00000 
 43692.65567		 952.57479			42740.08088		228.94600		875.00000 
 43692.65567		 305.27265			43387.38302		70.72800		324.00000 
 43692.65567		 952.57479			42740.08088		228.94600		875.00000 
 43692.65567		 305.27265			43387.38302		70.12000		324.00000 
 43692.65567		 952.57479			42740.08088		228.94600		875.00000 
 43692.65567		 305.27265			43387.38302		70.12000		324.00000 
 43692.65567		 952.57479			42740.08088		228.94600		875.00000 
 43692.65567		 305.27265			43387.38302		70.12000		324.00000 
 43692.65567		 952.57479			42740.08088		228.94600		875.00000 
 43692.65567		 305.27265			43387.38302		70.12000		324.00000 
 43692.65567		 952.57479			42740.08088		228.94600		875.00000 
 43692.65567		 305.27265			43387.38302		70.12000		324.00000 
 43692.65567		 952.57479			42740.08088		228.94600		875.00000 
 43692.65567		 305.27265			43387.38302		70.12000		324.00000 
 43692.65567		 952.57479			42740.08088		228.94600		875.00000 
 43692.65567		 305.27265			43387.38302		70.12000		324.00000 
 43692.65567		 952.57479			42740.08088		228.94600		875.00000 
 43692.65567		 305.27265			43387.38302		70.12000		324.00000 
 43692.65567		 952.57479			42740.08088		228.94600		875.00000 
 43692.65567		 305.27265			43387.38302		70.12000		324.00000 
 43692.65567		 952.57479			42740.08088		228.94600		875.00000 
 43692.65567		 305.27265			43387.38302		70.12000		324.00000 
 43692.65567		 952.57479			42740.08088		228.94600		875.00000 
 43692.65567		 305.27265			43387.38302		70.12000		324.00000 
 43692.65567		 952.57479			42740.08088		228.94600		875.00000 
 43692.65567		 305.27265			43387.38302		70.12000		324.00000 
 43692.65567		 952.57479			42740.08088		228.94600		875.00000 
 43692.65567		 305.27265			43387.38302		70.12000		324.00000 
 43692.65567		 952.57479			42740.08088		228.94600		875.00000 
 43692.65567		 305.27265			43387.38302		70.12000		324.00000 
 43692.65567		 952.57479			42740.08088		228.94600		875.00000 
 43692.65567		 305.27265			43387.38302		70.12000		324.00000 
 43692.65567		 952.57479			42740.08088		228.94600		875.00000 
 43692.65567		 305.27265			43387.38302		70.12000		324.00000 
 43692.65567		 952.57479			42740.08088		228.94600		875.00000 
 43692.65567		 305.27265			43387.38302		70.12000		324.00000 
 43692.65567		 952.57479			42740.08088		228.94600		875.00000 
 43692.65567		 305.27265			43387.38302		70.12000		324.00000 
 43692.65567		 952.57479			42740.08088		228.94600		875.00000 
 43692.65567		 305.27265			43387.38302		70.12000		324.00000 
 43692.65567		 952.57479			42740.08088		228.94600		875.00000 
 43692.65567		 305.27265			43387.38302		70.12000		324.00000 
 43692.65567		 952.57479			42740.08088		228.94600		875.00000 
 43692.65567		 305.27265			43387.38302		70.12000		324.00000 
 43692.65567		 952.57479			42740.08088		228.94600		875.00000 
 43692.65567		 305.27265			43387.38302		70.12000		324.00000 
 43692.65567		 952.57479			42740.08088		228.94600		875.00000 
 43692.65567		 305.27265			43387.38302		70.12000		324.00000 
 43692.65567		 952.57479			42740.08088		228.94600		875.00000 
 43692.65567		 305.27265			43387.38302		70.12000		324.00000 
 43692.65567		 952.57479			42740.08088		228.94600		875.00000 
 43692.65567		 305.27265			43387.38302		70.12000		324.00000 
 43692.65567		 952.57479			42740.08088		228.94600		875.00000 
 43692.65567		 305.27265			43387.38302		70.12000		324.00000 
 43692.65567		 952.57479			42740.08088		228.94600		875.00000 
 43692.65567		 305.27265			43387.38302		70.12000		324.00000 
 43692.65567		 952.57479			42740.08088		228.94600		875.00000 
 43692.65567		 305.27265			43387.38302		70.12000		324.00000 
 43692.65567		 952.57479			42740.08088		228.94600		875.00000 
 43692.65567		 305.27265			43387.38302		70.12000		324.00000 
 43692.65567		 952.57479			42740.08088		228.94600		875.00000 
 43692.65567		 305.27265			43387.38302		70.12000		324.00000 
 43692.65567		 952.57479			42740.08088		228.94600		875.00000 
 43692.65567		 305.27265			43387.38302		70.12000		324.00000 
 43692.65567		 952.57479			42740.08088		228.94600		875.00000 
 43692.65567		 305.27265			43387.38302		70.12000		324.00000 
 43692.65567		 952.57479			42740.08088		228.94600		875.00000 
 43692.65567		 305.27265			43387.38302		70.12000		324.00000 
 43692.65567		 952.57479			42740.08088		228.94600		875.00000 
 43692.65567		 305.27265			43387.38302		70.12000		324.00000 
 43692.65567		 952.57479			42740.08088		228.94600		875.00000 
 43692.65567		 305.27265			43387.38302		70.12000		324.00000 
 43692.65567		 952.57479			42740.08088		228.94600		875.00000 
 43692.65567		 305.27265			43387.38302		70.12000		324.00000 
 43692.65567		 952.57479			42740.08088		228.94600		875.00000 
 43692.65567		 305.27265			43387.38302		70.12000		324.00000 
 43692.65567		 952.57479			42740.08088		228.94600		875.00000 
 43692.65567		 305.27265			43387.38302		70.12000		324.00000 
 43692.65567		 952.57479			42740.08088		228.94600		875.00000 
 43692.65567		 305.27265			43387.38302		70.12000		324.00000 
 43692.65567		 952.57479			42740.08088		228.94600		875.00000 
 43692.65567		 305.27265			43387.38302		70.12000		324.00000 
 43692.65567		 952.57479			42740.08088		228.94600		875.00000 
 43692.65567		 305.27265			43387.38302		70.12000		324.00000 
 43692.65567		 952.57479			42740.08088		228.94600		875.00000 
 43692.65567		 305.27265			43387.38302		70.12000		324.00000 
 43692.65567		 952.57479			42740.08088		228.94600		875.00000 
 43692.65567		 305.27265			43387.38302		70.12000		324.00000 
 43692.65567		 952.57479			42740.08088		228.94600		875.00000 
 43692.65567		 305.27265			43387.38302		70.12000		324.00000 
 43692.65567		 952.57479			42740.08088		228.94600		875.00000 
 43692.65567		 305.27265			43387.38302		70.12000		324.00000 
 43692.65567		 952.57479			42740.08088		228.94600		875.00000 
 43692.65567		 305.27265			43387.38302		70.12000		324.00000 
 43692.65567		 952.57479			42740.08088		228.94600		875.00000 
 43692.65567		 305.27265			43387.38302		70.12000		324.00000 
 43692.65567		 952.57479			42740.08088		228.94600		875.00000 
 43692.65567		 305.27265			43387.38302		70.12000		324.00000 
 43692.65567		 952.57479			42740.08088		228.94600		875.00000 
 43692.65567		 305.27265			43387.38302		70.12000		324.00000 
 43692.65567		 952.57479			42740.08088		228.94600		875.00000 
 43692.65567		 305.27265			43387.38302		70.12000		324.00000 
 43692.65567		 952.57479			42740.08088		228.94600		875.00000 
 43692.65567		 305.27265			43387.38302		70.12000		324.00000 
 43692.65567		 952.57479			42740.08088		228.94600		875.00000 
 43692.65567		 305.27265			43387.38302		70.12000		324.00000 
 43692.65567		 952.57479			42740.08088		228.94600		875.00000 
 43692.65567		 305.27265			43387.38302		70.12000		324.00000 
 43692.65567		 952.57479			42740.08088		228.94600		875.00000 
 43692.65567		 305.27265			43387.38302		70.12000		324.00000 
 43692.65567		 952.57479			42740.08088		228.94600		875.00000 
 43692.65567		 305.27265			43387.38302		70.12000		324.00000 
 43692.65567		 952.57479			42740.08088		228.94600		875.00000 
 43692.65567		 305.27265			43387.38302		70.12000		324.00000 
 43692.65567		 952.57479			42740.08088		228.94600		875.00000 
 43692.65567		 305.27265			43387.38302		70.12000		324.00000 
 43692.65567		 952.57479			42740.08088		228.94600		875.00000 
 43692.65567		 305.27265			43387.38302		70.12000		324.00000 
 43692.65567		 952.57479			42740.08088		228.94600		875.00000 
 43692.65567		 305.27265			43387.38302		70.12000		324.00000 
 43692.65567		 952.57479			42740.08088		228.94600		875.00000 
 43692.65567		 305.27265			43387.38302		70.12000		324.00000 
 43692.65567		 952.57479			42740.08088		228.94600		875.00000 
 43692.65567		 305.27265			43387.38302		70.12000		324.00000 
 43692.65567		 952.57479			42740.08088		228.94600		875.00000 
 43692.65567		 305.27265			43387.38302		70.12000		324.00000 
 43692.65567		 952.57479			42740.08088		228.94600		875.00000 
 43692.65567		 305.27265			43387.38302		70.12000		324.00000 
 43692.65567		 952.57479			42740.08088		228.94600		875.00000 
 43692.65567		 305.27265			43387.38302		70.12000		324.00000 
 43692.65567		 952.57479			42740.08088		228.94600		875.00000 
 43692.65567		 305.27265			43387.38302		70.12000		324.00000 
 43692.65567		 952.57479			42740.08088		228.94600		875.00000 
 43692.65567		 305.27265			43387.38302		70.12000		324.00000 
 43692.65567		 952.57479			42740.08088		228.94600		875.00000 
 43692.65567		 305.27265			43387.38302		70.12000		324.00000 
 43692.65567		 952.57479			42740.08088		228.94600		875.00000 
 43692.65567		 305.27265			43387.38302		70.12000		324.00000 
 43692.65567		 952.57479			42740.08088		228.94600		875.00000 
 43692.65567		 305.27265			43387.38302		70.12000		324.00000 
 43692.65567		 952.57479			42740.08088		228.94600		875.00000 
 43692.65567		 305.27265			43387.38302		70.12000		324.00000 
 43692.65567		 952.57479			42740.08088		228.94600		875.00000 
 43692.65567		 305.27265			43387.38302		70.12000		324.00000 
 43692.65567		 952.57479			42740.08088		228.94600		875.00000 
 43692.65567		 305.27265			43387.38302		70.12000		324.00000 
 43692.65567		 952.57479			42740.08088		228.94600		875.00000 
 43692.65567		 305.27265			43387.38302		70.12000		324.00000 
 43692.65567		 952.57479			42740.08088		228.94600		875.00000 
 43692.65567		 305.27265			43387.38302		70.12000		324.00000 
 43692.65567		 952.57479			42740.08088		228.94600		875.00000 
 43692.65567		 305.27265			43387.38302		70.12000		324.00000 
 43692.65567		 952.57479			42740.08088		228.94600		875.00000 
 43692.65567		 305.27265			43387.38302		70.12000		324.00000 
 43692.65567		 952.57479			42740.08088		228.94600		875.00000 
 43692.65567		 305.27265			43387.38302		70.12000		324.00000 
 43692.65567		 952.57479			42740.08088		228.94600		875.00000 
 43692.65567		 305.27265			43387.38302		70.12000		324.00000 
 43692.65567		 952.57479			42740.08088		228.94600		875.00000 
 43692.65567		 305.27265			43387.38302		70.12000		324.00000 
 43692.65567		 952.57479			42740.08088		228.94600		875.00000 
 43692.65567		 305.27265			43387.38302		70.12000		324.00000 
 43692.65567		 952.57479			42740.08088		228.94600		875.00000 
 43692.65567		 305.27265			43387.38302		70.12000		324.00000 
 43692.65567		 952.57479			42740.08088		228.94600		875.00000 
 43692.65567		 305.27265			43387.38302		70.12000		324.00000 
 43692.65567		 952.57479			42740.08088		228.94600		875.00000 
 43692.65567		 305.27265			43387.38302		70.12000		324.00000 
 43692.65567		 952.57479			42740.08088		228.94600		875.00000 
 43692.65567		 305.27265			43387.38302		70.12000		324.00000 
 43692.65567		 952.57479			42740.08088		228.94600		875.00000 
 43692.65567		 305.27265			43387.38302		70.12000		324.00000 
 43692.65567		 952.57479			42740.08088		228.94600		875.00000 
 43692.65567		 305.27265			43387.38302		70.12000		324.00000 
 43692.65567		 952.57479			42740.08088		228.94600		875.00000 
 43692.65567		 305.27265			43387.38302		70.12000		324.00000 
 43692.65567		 952.57479			42740.08088		228.94600		875.00000 
 43692.65567		 305.27265			43387.38302		70.12000		324.00000 
 43692.65567		 952.57479			42740.08088		228.94600		875.00000 
 43692.65567		 305.27265			43387.38302		70.12000		324.00000 
 43692.65567		 952.57479			42740.08088		228.94600		875.00000 
 43692.65567		 305.27265			43387.38302		70.12000		324.00000 
 43692.65567		 952.57479			42740.08088		228.94600		875.00000 
 43692.65567		 305.27265			43387.38302		70.12000		324.00000 
 43692.65567		 952.57479			42740.08088		228.94600		875.00000 
 43692.65567		 305.27265			43387.38302		70.12000		324.00000 
 43692.65567		 952.57479			42740.08088		228.94600		875.00000 
 43692.65567		 305.27265			43387.38302		70.12000		324.00000 
 43692.65567		 952.57479			42740.08088		228.94600		875.00000 
 43692.65567		 305.27265			43387.38302		70.12000		324.00000 
 43692.65567		 952.57479			42740.08088		228.94600		875.00000 
 43692.65567		 305.27265			43387.38302		70.12000		324.00000 
 43692.65567		 952.57479			42740.08088		228.94600		875.00000 
 43692.65567		 305.27265			43387.38302		70.12000		324.00000 
 43692.65567		 952.57479			42740.08088		228.94600		875.00000 
 43692.65567		 305.27265			43387.38302		70.12000		324.00000 
 43692.65567		 952.57479			42740.08088		228.94600		875.00000 
 43692.65567		 305.27265			43387.38302		70.12000		324.00000 
 43692.65567		 952.57479			42740.08088		228.94600		875.00000 
 43692.65567		 305.27265			43387.38302		70.12000		324.00000 
 43692.65567		 952.57479			42740.08088		228.94600		875.00000 
 43692.65567		 305.27265			43387.38302		70.12000		324.00000 
 43692.65567		 952.57479			42740.08088		228.94600		875.00000 
 43692.65567		 305.27265			43387.38302		70.12000		324.00000 
 43692.65567		 952.57479			42740.08088		228.94600		875.00000 
 43692.65567		 305.27265			43387.38302		70.12000		324.00000 
 43692.65567		 952.57479			42740.08088		228.94600		875.00000 
 43692.65567		 305.27265			43387.38302		70.12000		324.00000 
 43692.65567		 952.57479			42740.08088		228.94600		875.00000 
 43692.65567		 305.27265			43387.38302		70.12000		324.00000 
 43692.65567		 952.57479			42740.08088		228.94600		875.00000 
 43692.65567		 305.27265			43387.38302		70.12000		324.00000 
 43692.65567		 952.57479			42740.08088		228.94600		875.00000 
 43692.65567		 305.27265			43387.38302		70.12000		324.00000 
 43692.65567		 952.57479			42740.08088		228.94600		875.00000 
 43692.65567		 305.27265			43387.38302		70.12000		324.00000 
 43692.65567		 952.57479			42740.08088		228.94600		875.00000 
 43692.65567		 305.27265			43387.38302		70.12000		324.00000 
 43692.65567		 952.57479			42740.08088		228.94600		875.00000 
 43692.65567		 305.27265			43387.38302		70.12000		324.00000 
 43692.65567		 952.57479			42740.08088		228.94600		875.00000 
 43692.65567		 305.27265			43387.38302		70.12000		324.00000 
 43692.65567		 952.57479			42740.08088		228.94600		875.00000 
 43692.65567		 305.27265			43387.38302		70.12000		324.00000 
 43692.65567		 814.13997			42878.51570		228.94600		875.00000 
 43692.65567		 305.27265			43387.38302		70.12000		324.00000 
 43692.65567		 814.13997			42878.51570		228.94600		875.00000 
 43692.65567		 305.27265			43387.38302		70.12000		324.00000 
 43692.65567		 675.70515			43016.95053		228.94600		875.00000 
 43692.65567		 305.27265			43387.38302		70.12000		324.00000 
 43692.65567		 675.70515			43016.95053		228.94600		875.00000 
 43692.65567		 305.27265			43387.38302		70.12000		324.00000 
 43692.65567		 537.27032			43155.38535		228.94600		875.00000 
 43692.65567		 305.27265			43387.38302		70.12000		324.00000 
 43692.65567		 537.27032			43155.38535		228.94600		875.00000 
 43692.65567		 305.27265			43387.38302		70.12000		324.00000 
 43692.65567		 537.27032			43155.38535		228.94600		875.00000 
 43692.65567		 305.27265			43387.38302		70.12000		324.00000 
 43692.65567		 537.27032			43155.38535		228.94600		875.00000 
 43692.65567		 305.27265			43387.38302		70.12000		324.00000 
 43692.65567		 537.27032			43155.38535		228.94600		875.00000 
 43692.65567		 305.27265			43387.38302		70.12000		324.00000 
 43692.65567		 537.27032			43155.38535		228.94600		875.00000 
 43692.65567		 305.27265			43387.38302		70.12000		324.00000 
 43692.65567		 537.27032			43155.38535		228.94600		875.00000 
 43692.65567		 305.27265			43387.38302		70.12000		324.00000 
 43692.65567		 537.27032			43155.38535		228.94600		875.00000 
 43692.65567		 305.27265			43387.38302		70.12000		324.00000 
 43692.65567		 537.27032			43155.38535		228.94600		875.00000 
 43692.65567		 305.27265			43387.38302		70.12000		324.00000 
 43692.65567		 537.27032			43155.38535		228.94600		875.00000 
 43692.65567		 305.27265			43387.38302		70.12000		324.00000 
 43692.65567		 537.27032			43155.38535		228.94600		875.00000 
 43692.65567		 305.27265			43387.38302		70.12000		324.00000 
 43692.65567		 537.27032			43155.38535		228.94600		875.00000 
 43692.65567		 305.27265			43387.38302		70.12000		324.00000 
 43692.65567		 537.27032			43155.38535		228.94600		875.00000 
 43692.65567		 305.27265			43387.38302		70.12000		324.00000 
 43692.65567		 537.27032			43155.38535		203.25600		875.00000 
 43692.65567		 305.27265			43387.38302		70.12000		324.00000 
 43692.65567		 537.27032			43155.38535		203.25600		875.00000 
 43692.65567		 305.27265			43387.38302		70.12000		324.00000 
 43692.65567		 537.27032			43155.38535		203.25600		875.00000 
 43692.65567		 305.27265			43387.38302		70.12000		324.00000 
 43692.65567		 537.27032			43155.38535		203.25600		875.00000 
 43692.65567		 305.27265			43387.38302		70.12000		324.00000 
 43692.65567		 537.27032			43155.38535		203.25600		875.00000 
 43692.65567		 305.27265			43387.38302		70.12000		324.00000 
 43692.65567		 537.27032			43155.38535		203.25600		875.00000 
 43692.65567		 305.27265			43387.38302		70.12000		324.00000 
 43692.65567		 537.27032			43155.38535		203.25600		875.00000 
 43692.65567		 305.27265			43387.38302		70.12000		324.00000 
 43692.65567		 537.27032			43155.38535		203.25600		875.00000 
 43692.65567		 305.27265			43387.38302		70.12000		324.00000 
 43692.65567		 529.63254			43163.02313		203.25600		875.00000 
 43692.65567		 305.27265			43387.38302		70.12000		324.00000 
 43692.65567		 525.81365			43166.84203		203.25600		875.00000 
 43692.65567		 305.27265			43387.38302		70.12000		324.00000 
 43692.65567		 525.81365			43166.84203		203.25600		875.00000 
 43692.65567		 261.35540			43431.30027		70.12000		324.00000 
