Memory Total (MiB) 	 Memory Used (MiB) 	    Memory Free (MiB) 	 Power Drawed (W) 	 Clocks (Mhz) 	 
 43692.65567		 261.35540			43431.30027		184.23800		875.00000 
 43692.65567		 261.35540			43431.30027		65.71400		324.00000 
 43692.65567		 261.35540			43431.30027		184.23800		875.00000 
 43692.65567		 261.35540			43431.30027		65.71400		324.00000 
 43692.65567		 261.35540			43431.30027		184.23800		875.00000 
 43692.65567		 261.35540			43431.30027		65.71400		324.00000 
 43692.65567		 261.35540			43431.30027		184.23800		875.00000 
 43692.65567		 261.35540			43431.30027		65.71400		324.00000 
 43692.65567		 261.35540			43431.30027		184.23800		875.00000 
 43692.65567		 261.35540			43431.30027		65.71400		324.00000 
 43692.65567		 261.35540			43431.30027		184.23800		875.00000 
 43692.65567		 261.35540			43431.30027		65.71400		324.00000 
 43692.65567		 261.35540			43431.30027		184.23800		875.00000 
 43692.65567		 261.35540			43431.30027		65.71400		324.00000 
 43692.65567		 261.35540			43431.30027		184.23800		875.00000 
 43692.65567		 261.35540			43431.30027		65.71400		324.00000 
 43692.65567		 261.35540			43431.30027		184.23800		875.00000 
 43692.65567		 261.35540			43431.30027		65.71400		324.00000 
 43692.65567		 261.35540			43431.30027		184.23800		875.00000 
 43692.65567		 261.35540			43431.30027		65.71400		324.00000 
 43692.65567		 261.35540			43431.30027		184.23800		875.00000 
 43692.65567		 261.35540			43431.30027		65.71400		324.00000 
 43692.65567		 261.35540			43431.30027		184.23800		875.00000 
 43692.65567		 261.35540			43431.30027		65.71400		324.00000 
 43692.65567		 261.35540			43431.30027		184.23800		875.00000 
 43692.65567		 261.35540			43431.30027		65.71400		324.00000 
 43692.65567		 261.35540			43431.30027		184.23800		875.00000 
 43692.65567		 261.35540			43431.30027		65.71400		324.00000 
 43692.65567		 261.35540			43431.30027		184.23800		875.00000 
 43692.65567		 261.35540			43431.30027		65.71400		324.00000 
 43692.65567		 261.35540			43431.30027		184.23800		875.00000 
 43692.65567		 261.35540			43431.30027		65.71400		324.00000 
 43692.65567		 261.35540			43431.30027		152.38600		875.00000 
 43692.65567		 261.35540			43431.30027		65.71400		324.00000 
 43692.65567		 261.35540			43431.30027		152.38600		875.00000 
 43692.65567		 261.35540			43431.30027		65.71400		324.00000 
 43692.65567		 261.35540			43431.30027		152.38600		875.00000 
 43692.65567		 261.35540			43431.30027		65.71400		324.00000 
 43692.65567		 265.17429			43427.48138		152.38600		875.00000 
 43692.65567		 261.35540			43431.30027		65.71400		324.00000 
 43692.65567		 265.17429			43427.48138		152.38600		875.00000 
 43692.65567		 261.35540			43431.30027		65.71400		324.00000 
 43692.65567		 272.81207			43419.84360		152.38600		875.00000 
 43692.65567		 261.35540			43431.30027		65.71400		324.00000 
 43692.65567		 272.81207			43419.84360		152.38600		875.00000 
 43692.65567		 261.35540			43431.30027		65.71400		324.00000 
 43692.65567		 272.81207			43419.84360		152.38600		875.00000 
 43692.65567		 265.17429			43427.48138		65.71400		324.00000 
 43692.65567		 272.81207			43419.84360		152.38600		875.00000 
 43692.65567		 265.17429			43427.48138		65.71400		324.00000 
 43692.65567		 272.81207			43419.84360		152.38600		875.00000 
 43692.65567		 272.81207			43419.84360		65.71400		324.00000 
 43692.65567		 272.81207			43419.84360		152.38600		875.00000 
 43692.65567		 272.81207			43419.84360		65.71400		324.00000 
 43692.65567		 272.81207			43419.84360		152.38600		875.00000 
 43692.65567		 272.81207			43419.84360		65.71400		324.00000 
 43692.65567		 272.81207			43419.84360		152.38600		875.00000 
 43692.65567		 272.81207			43419.84360		65.71400		324.00000 
 43692.65567		 305.27265			43387.38302		152.38600		875.00000 
 43692.65567		 305.27265			43387.38302		65.71400		324.00000 
 43692.65567		 305.27265			43387.38302		152.38600		875.00000 
 43692.65567		 305.27265			43387.38302		65.71400		324.00000 
 43692.65567		 305.27265			43387.38302		152.38600		875.00000 
 43692.65567		 305.27265			43387.38302		65.71400		324.00000 
 43692.65567		 305.27265			43387.38302		152.38600		875.00000 
 43692.65567		 305.27265			43387.38302		65.71400		324.00000 
 43692.65567		 305.27265			43387.38302		152.38600		875.00000 
 43692.65567		 305.27265			43387.38302		65.71400		324.00000 
 43692.65567		 309.56891			43383.08677		152.38600		875.00000 
 43692.65567		 305.27265			43387.38302		65.71400		324.00000 
 43692.65567		 311.00099			43381.65468		152.38600		875.00000 
 43692.65567		 305.27265			43387.38302		65.71400		324.00000 
 43692.65567		 311.00099			43381.65468		152.38600		875.00000 
 43692.65567		 305.27265			43387.38302		65.71400		324.00000 
 43692.65567		 311.00099			43381.65468		152.38600		875.00000 
 43692.65567		 305.27265			43387.38302		65.71400		324.00000 
 43692.65567		 311.00099			43381.65468		152.38600		875.00000 
 43692.65567		 305.27265			43387.38302		65.71400		324.00000 
 43692.65567		 311.00099			43381.65468		152.38600		875.00000 
 43692.65567		 305.27265			43387.38302		65.71400		324.00000 
 43692.65567		 311.00099			43381.65468		152.38600		875.00000 
 43692.65567		 305.27265			43387.38302		65.71400		324.00000 
 43692.65567		 311.00099			43381.65468		152.38600		875.00000 
 43692.65567		 305.27265			43387.38302		65.71400		324.00000 
 43692.65567		 311.00099			43381.65468		152.38600		875.00000 
 43692.65567		 305.27265			43387.38302		65.71400		324.00000 
 43692.65567		 311.00099			43381.65468		152.38600		875.00000 
 43692.65567		 305.27265			43387.38302		65.71400		324.00000 
 43692.65567		 311.00099			43381.65468		152.38600		875.00000 
 43692.65567		 305.27265			43387.38302		65.71400		324.00000 
 43692.65567		 311.00099			43381.65468		152.38600		875.00000 
 43692.65567		 305.27265			43387.38302		65.71400		324.00000 
 43692.65567		 311.00099			43381.65468		139.84200		875.00000 
 43692.65567		 305.27265			43387.38302		65.71400		324.00000 
 43692.65567		 311.00099			43381.65468		139.84200		875.00000 
 43692.65567		 305.27265			43387.38302		65.71400		324.00000 
 43692.65567		 311.00099			43381.65468		139.84200		875.00000 
 43692.65567		 305.27265			43387.38302		65.71400		324.00000 
 43692.65567		 311.00099			43381.65468		139.84200		875.00000 
 43692.65567		 305.27265			43387.38302		65.71400		324.00000 
 43692.65567		 311.00099			43381.65468		139.84200		875.00000 
 43692.65567		 305.27265			43387.38302		65.71400		324.00000 
 43692.65567		 311.00099			43381.65468		139.84200		875.00000 
 43692.65567		 305.27265			43387.38302		65.71400		324.00000 
 43692.65567		 311.00099			43381.65468		139.84200		875.00000 
 43692.65567		 305.27265			43387.38302		65.71400		324.00000 
 43692.65567		 311.00099			43381.65468		139.84200		875.00000 
 43692.65567		 305.27265			43387.38302		65.71400		324.00000 
 43692.65567		 311.00099			43381.65468		139.84200		875.00000 
 43692.65567		 305.27265			43387.38302		65.71400		324.00000 
 43692.65567		 311.00099			43381.65468		139.84200		875.00000 
 43692.65567		 305.27265			43387.38302		65.71400		324.00000 
 43692.65567		 311.00099			43381.65468		139.84200		875.00000 
 43692.65567		 305.27265			43387.38302		65.71400		324.00000 
 43692.65567		 311.00099			43381.65468		139.84200		875.00000 
 43692.65567		 305.27265			43387.38302		65.71400		324.00000 
 43692.65567		 311.00099			43381.65468		139.84200		875.00000 
 43692.65567		 305.27265			43387.38302		65.71400		324.00000 
 43692.65567		 311.00099			43381.65468		139.84200		875.00000 
 43692.65567		 305.27265			43387.38302		65.71400		324.00000 
 43692.65567		 311.00099			43381.65468		139.84200		875.00000 
 43692.65567		 305.27265			43387.38302		65.71400		324.00000 
 43692.65567		 311.00099			43381.65468		139.84200		875.00000 
 43692.65567		 305.27265			43387.38302		65.71400		324.00000 
 43692.65567		 311.00099			43381.65468		139.84200		875.00000 
 43692.65567		 305.27265			43387.38302		65.71400		324.00000 
 43692.65567		 311.00099			43381.65468		139.84200		875.00000 
 43692.65567		 305.27265			43387.38302		65.71400		324.00000 
 43692.65567		 311.00099			43381.65468		139.84200		875.00000 
 43692.65567		 305.27265			43387.38302		65.71400		324.00000 
 43692.65567		 311.00099			43381.65468		139.84200		875.00000 
 43692.65567		 305.27265			43387.38302		65.71400		324.00000 
 43692.65567		 311.00099			43381.65468		139.84200		875.00000 
 43692.65567		 305.27265			43387.38302		65.71400		324.00000 
 43692.65567		 311.00099			43381.65468		139.84200		875.00000 
 43692.65567		 305.27265			43387.38302		65.71400		324.00000 
 43692.65567		 311.00099			43381.65468		139.84200		875.00000 
 43692.65567		 305.27265			43387.38302		65.71400		324.00000 
 43692.65567		 311.00099			43381.65468		139.84200		875.00000 
 43692.65567		 305.27265			43387.38302		65.71400		324.00000 
 43692.65567		 311.00099			43381.65468		139.84200		875.00000 
 43692.65567		 305.27265			43387.38302		65.71400		324.00000 
 43692.65567		 311.00099			43381.65468		139.84200		875.00000 
 43692.65567		 305.27265			43387.38302		65.71400		324.00000 
 43692.65567		 311.00099			43381.65468		139.84200		875.00000 
 43692.65567		 305.27265			43387.38302		65.71400		324.00000 
 43692.65567		 311.00099			43381.65468		139.84200		875.00000 
 43692.65567		 305.27265			43387.38302		65.71400		324.00000 
 43692.65567		 311.00099			43381.65468		139.84200		875.00000 
 43692.65567		 305.27265			43387.38302		65.71400		324.00000 
 43692.65567		 311.00099			43381.65468		139.84200		875.00000 
 43692.65567		 305.27265			43387.38302		65.71400		324.00000 
 43692.65567		 311.00099			43381.65468		139.84200		875.00000 
 43692.65567		 305.27265			43387.38302		65.71400		324.00000 
 43692.65567		 311.00099			43381.65468		135.03600		875.00000 
 43692.65567		 305.27265			43387.38302		65.71400		324.00000 
 43692.65567		 311.00099			43381.65468		135.03600		875.00000 
 43692.65567		 305.27265			43387.38302		65.71400		324.00000 
 43692.65567		 311.00099			43381.65468		135.03600		875.00000 
 43692.65567		 305.27265			43387.38302		65.71400		324.00000 
 43692.65567		 311.00099			43381.65468		135.03600		875.00000 
 43692.65567		 305.27265			43387.38302		65.71400		324.00000 
 43692.65567		 311.00099			43381.65468		135.03600		875.00000 
 43692.65567		 305.27265			43387.38302		65.71400		324.00000 
 43692.65567		 311.00099			43381.65468		135.03600		875.00000 
 43692.65567		 305.27265			43387.38302		65.71400		324.00000 
 43692.65567		 311.00099			43381.65468		135.03600		875.00000 
 43692.65567		 305.27265			43387.38302		65.71400		324.00000 
 43692.65567		 311.00099			43381.65468		135.03600		875.00000 
 43692.65567		 305.27265			43387.38302		65.71400		324.00000 
 43692.65567		 311.00099			43381.65468		135.03600		875.00000 
 43692.65567		 305.27265			43387.38302		65.71400		324.00000 
 43692.65567		 311.00099			43381.65468		135.03600		875.00000 
 43692.65567		 305.27265			43387.38302		65.71400		324.00000 
 43692.65567		 314.81988			43377.83579		135.03600		875.00000 
 43692.65567		 305.27265			43387.38302		65.71400		324.00000 
 43692.65567		 314.81988			43377.83579		135.03600		875.00000 
 43692.65567		 305.27265			43387.38302		65.71400		324.00000 
 43692.65567		 314.81988			43377.83579		135.03600		875.00000 
 43692.65567		 305.27265			43387.38302		65.71400		324.00000 
 43692.65567		 318.63877			43374.01690		135.03600		875.00000 
 43692.65567		 305.27265			43387.38302		65.71400		324.00000 
 43692.65567		 322.45767			43370.19801		135.03600		875.00000 
 43692.65567		 305.27265			43387.38302		65.71400		324.00000 
 43692.65567		 326.27656			43366.37912		135.03600		875.00000 
 43692.65567		 305.27265			43387.38302		65.71400		324.00000 
 43692.65567		 326.27656			43366.37912		135.03600		875.00000 
 43692.65567		 305.27265			43387.38302		65.71400		324.00000 
 43692.65567		 326.27656			43366.37912		135.03600		875.00000 
 43692.65567		 305.27265			43387.38302		65.71400		324.00000 
 43692.65567		 537.27032			43155.38535		135.03600		875.00000 
 43692.65567		 305.27265			43387.38302		65.71400		324.00000 
 43692.65567		 772.13216			42920.52351		135.03600		875.00000 
 43692.65567		 305.27265			43387.38302		65.71400		324.00000 
 43692.65567		 889.56308			42803.09259		135.03600		875.00000 
 43692.65567		 305.27265			43387.38302		65.71400		324.00000 
 43692.65567		 889.56308			42803.09259		135.03600		875.00000 
 43692.65567		 305.27265			43387.38302		65.71400		324.00000 
 43692.65567		 889.56308			42803.09259		135.03600		875.00000 
 43692.65567		 305.27265			43387.38302		65.71400		324.00000 
 43692.65567		 889.56308			42803.09259		135.03600		875.00000 
 43692.65567		 305.27265			43387.38302		65.71400		324.00000 
 43692.65567		 889.56308			42803.09259		135.03600		875.00000 
 43692.65567		 305.27265			43387.38302		65.71400		324.00000 
 43692.65567		 889.56308			42803.09259		135.03600		875.00000 
 43692.65567		 305.27265			43387.38302		65.71400		324.00000 
 43692.65567		 889.56308			42803.09259		135.03600		875.00000 
 43692.65567		 305.27265			43387.38302		65.71400		324.00000 
 43692.65567		 889.56308			42803.09259		135.03600		875.00000 
 43692.65567		 305.27265			43387.38302		65.71400		324.00000 
 43692.65567		 889.56308			42803.09259		135.03600		875.00000 
 43692.65567		 305.27265			43387.38302		65.71400		324.00000 
 43692.65567		 889.56308			42803.09259		135.03600		875.00000 
 43692.65567		 305.27265			43387.38302		65.71400		324.00000 
 43692.65567		 889.56308			42803.09259		135.03600		875.00000 
 43692.65567		 305.27265			43387.38302		65.71400		324.00000 
 43692.65567		 889.56308			42803.09259		135.03600		875.00000 
 43692.65567		 305.27265			43387.38302		65.71400		324.00000 
 43692.65567		 889.56308			42803.09259		135.03600		875.00000 
 43692.65567		 305.27265			43387.38302		65.71400		324.00000 
 43692.65567		 889.56308			42803.09259		135.03600		875.00000 
 43692.65567		 305.27265			43387.38302		65.71400		324.00000 
 43692.65567		 889.56308			42803.09259		135.03600		875.00000 
 43692.65567		 305.27265			43387.38302		65.71400		324.00000 
 43692.65567		 889.56308			42803.09259		135.03600		875.00000 
 43692.65567		 305.27265			43387.38302		65.71400		324.00000 
 43692.65567		 889.56308			42803.09259		135.03600		875.00000 
 43692.65567		 305.27265			43387.38302		65.71400		324.00000 
 43692.65567		 889.56308			42803.09259		135.03600		875.00000 
 43692.65567		 305.27265			43387.38302		65.71400		324.00000 
 43692.65567		 889.56308			42803.09259		135.03600		875.00000 
 43692.65567		 305.27265			43387.38302		65.71400		324.00000 
 43692.65567		 889.56308			42803.09259		135.03600		875.00000 
 43692.65567		 305.27265			43387.38302		65.71400		324.00000 
 43692.65567		 889.56308			42803.09259		135.03600		875.00000 
 43692.65567		 305.27265			43387.38302		65.71400		324.00000 
 43692.65567		 889.56308			42803.09259		135.03600		875.00000 
 43692.65567		 305.27265			43387.38302		65.71400		324.00000 
 43692.65567		 889.56308			42803.09259		135.03600		875.00000 
 43692.65567		 305.27265			43387.38302		65.71400		324.00000 
 43692.65567		 889.56308			42803.09259		135.03600		875.00000 
 43692.65567		 305.27265			43387.38302		65.71400		324.00000 
 43692.65567		 889.56308			42803.09259		135.03600		875.00000 
 43692.65567		 305.27265			43387.38302		65.71400		324.00000 
 43692.65567		 889.56308			42803.09259		135.03600		875.00000 
 43692.65567		 305.27265			43387.38302		65.71400		324.00000 
 43692.65567		 889.56308			42803.09259		135.03600		875.00000 
 43692.65567		 305.27265			43387.38302		65.71400		324.00000 
 43692.65567		 889.56308			42803.09259		135.03600		875.00000 
 43692.65567		 305.27265			43387.38302		65.71400		324.00000 
 43692.65567		 889.56308			42803.09259		135.03600		875.00000 
 43692.65567		 305.27265			43387.38302		65.71400		324.00000 
 43692.65567		 889.56308			42803.09259		164.47600		875.00000 
 43692.65567		 305.27265			43387.38302		65.71400		324.00000 
 43692.65567		 889.56308			42803.09259		164.47600		875.00000 
 43692.65567		 305.27265			43387.38302		65.71400		324.00000 
 43692.65567		 889.56308			42803.09259		164.47600		875.00000 
 43692.65567		 305.27265			43387.38302		65.71400		324.00000 
 43692.65567		 889.56308			42803.09259		164.47600		875.00000 
 43692.65567		 305.27265			43387.38302		65.71400		324.00000 
 43692.65567		 889.56308			42803.09259		164.47600		875.00000 
 43692.65567		 305.27265			43387.38302		65.71400		324.00000 
 43692.65567		 889.56308			42803.09259		164.47600		875.00000 
 43692.65567		 305.27265			43387.38302		65.71400		324.00000 
 43692.65567		 889.56308			42803.09259		164.47600		875.00000 
 43692.65567		 305.27265			43387.38302		65.71400		324.00000 
 43692.65567		 889.56308			42803.09259		164.47600		875.00000 
 43692.65567		 305.27265			43387.38302		65.71400		324.00000 
 43692.65567		 889.56308			42803.09259		164.47600		875.00000 
 43692.65567		 305.27265			43387.38302		65.71400		324.00000 
 43692.65567		 889.56308			42803.09259		164.47600		875.00000 
 43692.65567		 305.27265			43387.38302		65.71400		324.00000 
 43692.65567		 889.56308			42803.09259		164.47600		875.00000 
 43692.65567		 305.27265			43387.38302		65.71400		324.00000 
 43692.65567		 889.56308			42803.09259		164.47600		875.00000 
 43692.65567		 305.27265			43387.38302		65.71400		324.00000 
 43692.65567		 889.56308			42803.09259		164.47600		875.00000 
 43692.65567		 305.27265			43387.38302		65.71400		324.00000 
 43692.65567		 889.56308			42803.09259		164.47600		875.00000 
 43692.65567		 305.27265			43387.38302		65.71400		324.00000 
 43692.65567		 889.56308			42803.09259		164.47600		875.00000 
 43692.65567		 305.27265			43387.38302		65.71400		324.00000 
 43692.65567		 889.56308			42803.09259		164.47600		875.00000 
 43692.65567		 305.27265			43387.38302		65.71400		324.00000 
 43692.65567		 889.56308			42803.09259		164.47600		875.00000 
 43692.65567		 305.27265			43387.38302		65.71400		324.00000 
 43692.65567		 889.56308			42803.09259		164.47600		875.00000 
 43692.65567		 305.27265			43387.38302		65.71400		324.00000 
 43692.65567		 889.56308			42803.09259		164.47600		875.00000 
 43692.65567		 305.27265			43387.38302		65.71400		324.00000 
 43692.65567		 889.56308			42803.09259		164.47600		875.00000 
 43692.65567		 305.27265			43387.38302		65.71400		324.00000 
 43692.65567		 889.56308			42803.09259		164.47600		875.00000 
 43692.65567		 305.27265			43387.38302		65.71400		324.00000 
 43692.65567		 889.56308			42803.09259		164.47600		875.00000 
 43692.65567		 305.27265			43387.38302		65.71400		324.00000 
 43692.65567		 889.56308			42803.09259		164.47600		875.00000 
 43692.65567		 305.27265			43387.38302		65.71400		324.00000 
 43692.65567		 889.56308			42803.09259		164.47600		875.00000 
 43692.65567		 305.27265			43387.38302		65.71400		324.00000 
 43692.65567		 889.56308			42803.09259		164.47600		875.00000 
 43692.65567		 305.27265			43387.38302		65.71400		324.00000 
 43692.65567		 889.56308			42803.09259		164.47600		875.00000 
 43692.65567		 305.27265			43387.38302		65.71400		324.00000 
 43692.65567		 889.56308			42803.09259		164.47600		875.00000 
 43692.65567		 305.27265			43387.38302		65.71400		324.00000 
 43692.65567		 889.56308			42803.09259		164.47600		875.00000 
 43692.65567		 305.27265			43387.38302		65.71400		324.00000 
 43692.65567		 889.56308			42803.09259		164.47600		875.00000 
 43692.65567		 305.27265			43387.38302		65.71400		324.00000 
 43692.65567		 889.56308			42803.09259		164.47600		875.00000 
 43692.65567		 305.27265			43387.38302		65.71400		324.00000 
 43692.65567		 889.56308			42803.09259		164.47600		875.00000 
 43692.65567		 305.27265			43387.38302		65.71400		324.00000 
 43692.65567		 889.56308			42803.09259		164.47600		875.00000 
 43692.65567		 305.27265			43387.38302		65.71400		324.00000 
 43692.65567		 889.56308			42803.09259		164.47600		875.00000 
 43692.65567		 305.27265			43387.38302		65.71400		324.00000 
 43692.65567		 889.56308			42803.09259		164.47600		875.00000 
 43692.65567		 305.27265			43387.38302		65.71400		324.00000 
 43692.65567		 889.56308			42803.09259		164.47600		875.00000 
 43692.65567		 305.27265			43387.38302		65.71400		324.00000 
 43692.65567		 889.56308			42803.09259		164.47600		875.00000 
 43692.65567		 305.27265			43387.38302		65.71400		324.00000 
 43692.65567		 889.56308			42803.09259		164.47600		875.00000 
 43692.65567		 305.27265			43387.38302		65.71400		324.00000 
 43692.65567		 889.56308			42803.09259		164.47600		875.00000 
 43692.65567		 305.27265			43387.38302		65.71400		324.00000 
 43692.65567		 889.56308			42803.09259		164.47600		875.00000 
 43692.65567		 305.27265			43387.38302		65.71400		324.00000 
 43692.65567		 889.56308			42803.09259		164.47600		875.00000 
 43692.65567		 305.27265			43387.38302		65.71400		324.00000 
 43692.65567		 889.56308			42803.09259		164.47600		875.00000 
 43692.65567		 305.27265			43387.38302		65.71400		324.00000 
 43692.65567		 889.56308			42803.09259		164.47600		875.00000 
 43692.65567		 305.27265			43387.38302		65.71400		324.00000 
 43692.65567		 889.56308			42803.09259		164.47600		875.00000 
 43692.65567		 305.27265			43387.38302		65.71400		324.00000 
 43692.65567		 889.56308			42803.09259		164.47600		875.00000 
 43692.65567		 305.27265			43387.38302		65.71400		324.00000 
 43692.65567		 889.56308			42803.09259		164.47600		875.00000 
 43692.65567		 305.27265			43387.38302		65.71400		324.00000 
 43692.65567		 889.56308			42803.09259		164.47600		875.00000 
 43692.65567		 305.27265			43387.38302		65.71400		324.00000 
 43692.65567		 889.56308			42803.09259		164.47600		875.00000 
 43692.65567		 305.27265			43387.38302		65.71400		324.00000 
 43692.65567		 889.56308			42803.09259		164.47600		875.00000 
 43692.65567		 305.27265			43387.38302		65.71400		324.00000 
 43692.65567		 889.56308			42803.09259		164.47600		875.00000 
 43692.65567		 305.27265			43387.38302		65.71400		324.00000 
 43692.65567		 889.56308			42803.09259		164.47600		875.00000 
 43692.65567		 305.27265			43387.38302		65.71400		324.00000 
 43692.65567		 889.56308			42803.09259		164.47600		875.00000 
 43692.65567		 305.27265			43387.38302		65.71400		324.00000 
 43692.65567		 889.56308			42803.09259		164.47600		875.00000 
 43692.65567		 305.27265			43387.38302		65.71400		324.00000 
 43692.65567		 889.56308			42803.09259		164.47600		875.00000 
 43692.65567		 305.27265			43387.38302		65.71400		324.00000 
 43692.65567		 889.56308			42803.09259		164.47600		875.00000 
 43692.65567		 305.27265			43387.38302		65.71400		324.00000 
 43692.65567		 889.56308			42803.09259		164.47600		875.00000 
 43692.65567		 305.27265			43387.38302		65.71400		324.00000 
 43692.65567		 889.56308			42803.09259		164.47600		875.00000 
 43692.65567		 305.27265			43387.38302		65.71400		324.00000 
 43692.65567		 889.56308			42803.09259		164.47600		875.00000 
 43692.65567		 305.27265			43387.38302		65.71400		324.00000 
 43692.65567		 889.56308			42803.09259		164.47600		875.00000 
 43692.65567		 305.27265			43387.38302		65.71400		324.00000 
 43692.65567		 889.56308			42803.09259		164.47600		875.00000 
 43692.65567		 305.27265			43387.38302		65.71400		324.00000 
 43692.65567		 889.56308			42803.09259		164.47600		875.00000 
 43692.65567		 305.27265			43387.38302		65.71400		324.00000 
 43692.65567		 889.56308			42803.09259		164.47600		875.00000 
 43692.65567		 305.27265			43387.38302		65.71400		324.00000 
 43692.65567		 889.56308			42803.09259		164.47600		875.00000 
 43692.65567		 305.27265			43387.38302		65.71400		324.00000 
 43692.65567		 889.56308			42803.09259		164.47600		875.00000 
 43692.65567		 305.27265			43387.38302		65.71400		324.00000 
 43692.65567		 889.56308			42803.09259		164.47600		875.00000 
 43692.65567		 305.27265			43387.38302		65.71400		324.00000 
 43692.65567		 889.56308			42803.09259		202.01600		875.00000 
 43692.65567		 305.27265			43387.38302		65.71400		324.00000 
 43692.65567		 889.56308			42803.09259		202.01600		875.00000 
 43692.65567		 305.27265			43387.38302		65.71400		324.00000 
 43692.65567		 889.56308			42803.09259		202.01600		875.00000 
 43692.65567		 305.27265			43387.38302		65.71400		324.00000 
 43692.65567		 889.56308			42803.09259		202.01600		875.00000 
 43692.65567		 305.27265			43387.38302		65.71400		324.00000 
 43692.65567		 889.56308			42803.09259		202.01600		875.00000 
 43692.65567		 305.27265			43387.38302		65.71400		324.00000 
 43692.65567		 889.56308			42803.09259		202.01600		875.00000 
 43692.65567		 305.27265			43387.38302		65.71400		324.00000 
 43692.65567		 889.56308			42803.09259		202.01600		875.00000 
 43692.65567		 305.27265			43387.38302		65.71400		324.00000 
 43692.65567		 889.56308			42803.09259		202.01600		875.00000 
 43692.65567		 305.27265			43387.38302		65.71400		324.00000 
 43692.65567		 889.56308			42803.09259		202.01600		875.00000 
 43692.65567		 305.27265			43387.38302		65.71400		324.00000 
 43692.65567		 889.56308			42803.09259		202.01600		875.00000 
 43692.65567		 305.27265			43387.38302		65.71400		324.00000 
 43692.65567		 889.56308			42803.09259		202.01600		875.00000 
 43692.65567		 305.27265			43387.38302		65.71400		324.00000 
 43692.65567		 889.56308			42803.09259		202.01600		875.00000 
 43692.65567		 305.27265			43387.38302		65.71400		324.00000 
 43692.65567		 889.56308			42803.09259		202.01600		875.00000 
 43692.65567		 305.27265			43387.38302		65.71400		324.00000 
 43692.65567		 889.56308			42803.09259		202.01600		875.00000 
 43692.65567		 305.27265			43387.38302		65.71400		324.00000 
 43692.65567		 889.56308			42803.09259		202.01600		875.00000 
 43692.65567		 305.27265			43387.38302		65.71400		324.00000 
 43692.65567		 889.56308			42803.09259		202.01600		875.00000 
 43692.65567		 305.27265			43387.38302		65.71400		324.00000 
 43692.65567		 889.56308			42803.09259		202.01600		875.00000 
 43692.65567		 305.27265			43387.38302		65.71400		324.00000 
 43692.65567		 889.56308			42803.09259		202.01600		875.00000 
 43692.65567		 305.27265			43387.38302		65.71400		324.00000 
 43692.65567		 889.56308			42803.09259		202.01600		875.00000 
 43692.65567		 305.27265			43387.38302		65.71400		324.00000 
 43692.65567		 889.56308			42803.09259		202.01600		875.00000 
 43692.65567		 305.27265			43387.38302		65.71400		324.00000 
 43692.65567		 889.56308			42803.09259		202.01600		875.00000 
 43692.65567		 305.27265			43387.38302		65.71400		324.00000 
 43692.65567		 889.56308			42803.09259		202.01600		875.00000 
 43692.65567		 305.27265			43387.38302		65.71400		324.00000 
 43692.65567		 889.56308			42803.09259		202.01600		875.00000 
 43692.65567		 305.27265			43387.38302		65.71400		324.00000 
 43692.65567		 889.56308			42803.09259		202.01600		875.00000 
 43692.65567		 305.27265			43387.38302		65.71400		324.00000 
 43692.65567		 889.56308			42803.09259		202.01600		875.00000 
 43692.65567		 305.27265			43387.38302		65.71400		324.00000 
 43692.65567		 889.56308			42803.09259		202.01600		875.00000 
 43692.65567		 305.27265			43387.38302		65.71400		324.00000 
 43692.65567		 889.56308			42803.09259		202.01600		875.00000 
 43692.65567		 305.27265			43387.38302		65.71400		324.00000 
 43692.65567		 889.56308			42803.09259		202.01600		875.00000 
 43692.65567		 305.27265			43387.38302		65.71400		324.00000 
 43692.65567		 889.56308			42803.09259		202.01600		875.00000 
 43692.65567		 305.27265			43387.38302		65.71400		324.00000 
 43692.65567		 889.56308			42803.09259		202.01600		875.00000 
 43692.65567		 305.27265			43387.38302		65.71400		324.00000 
 43692.65567		 889.56308			42803.09259		202.01600		875.00000 
 43692.65567		 305.27265			43387.38302		65.71400		324.00000 
 43692.65567		 889.56308			42803.09259		202.01600		875.00000 
 43692.65567		 305.27265			43387.38302		65.71400		324.00000 
 43692.65567		 889.56308			42803.09259		202.01600		875.00000 
 43692.65567		 305.27265			43387.38302		65.71400		324.00000 
 43692.65567		 889.56308			42803.09259		202.01600		875.00000 
 43692.65567		 305.27265			43387.38302		65.71400		324.00000 
 43692.65567		 889.56308			42803.09259		202.01600		875.00000 
 43692.65567		 305.27265			43387.38302		65.71400		324.00000 
 43692.65567		 889.56308			42803.09259		202.01600		875.00000 
 43692.65567		 305.27265			43387.38302		65.71400		324.00000 
 43692.65567		 889.56308			42803.09259		202.01600		875.00000 
 43692.65567		 305.27265			43387.38302		65.71400		324.00000 
 43692.65567		 889.56308			42803.09259		202.01600		875.00000 
 43692.65567		 305.27265			43387.38302		65.71400		324.00000 
 43692.65567		 889.56308			42803.09259		202.01600		875.00000 
 43692.65567		 305.27265			43387.38302		65.71400		324.00000 
 43692.65567		 889.56308			42803.09259		202.01600		875.00000 
 43692.65567		 305.27265			43387.38302		65.71400		324.00000 
 43692.65567		 889.56308			42803.09259		202.01600		875.00000 
 43692.65567		 305.27265			43387.38302		65.71400		324.00000 
 43692.65567		 889.56308			42803.09259		202.01600		875.00000 
 43692.65567		 305.27265			43387.38302		65.71400		324.00000 
 43692.65567		 889.56308			42803.09259		202.01600		875.00000 
 43692.65567		 305.27265			43387.38302		65.71400		324.00000 
 43692.65567		 889.56308			42803.09259		202.01600		875.00000 
 43692.65567		 305.27265			43387.38302		65.71400		324.00000 
 43692.65567		 889.56308			42803.09259		202.01600		875.00000 
 43692.65567		 305.27265			43387.38302		65.71400		324.00000 
 43692.65567		 889.56308			42803.09259		202.01600		875.00000 
 43692.65567		 305.27265			43387.38302		65.71400		324.00000 
 43692.65567		 889.56308			42803.09259		202.01600		875.00000 
 43692.65567		 305.27265			43387.38302		65.71400		324.00000 
 43692.65567		 889.56308			42803.09259		202.01600		875.00000 
 43692.65567		 305.27265			43387.38302		65.71400		324.00000 
 43692.65567		 889.56308			42803.09259		202.01600		875.00000 
 43692.65567		 305.27265			43387.38302		65.71400		324.00000 
 43692.65567		 889.56308			42803.09259		202.01600		875.00000 
 43692.65567		 305.27265			43387.38302		65.71400		324.00000 
 43692.65567		 889.56308			42803.09259		202.01600		875.00000 
 43692.65567		 305.27265			43387.38302		65.71400		324.00000 
 43692.65567		 889.56308			42803.09259		202.01600		875.00000 
 43692.65567		 305.27265			43387.38302		65.71400		324.00000 
 43692.65567		 889.56308			42803.09259		202.01600		875.00000 
 43692.65567		 305.27265			43387.38302		65.71400		324.00000 
 43692.65567		 889.56308			42803.09259		202.01600		875.00000 
 43692.65567		 305.27265			43387.38302		65.71400		324.00000 
 43692.65567		 889.56308			42803.09259		202.01600		875.00000 
 43692.65567		 305.27265			43387.38302		65.71400		324.00000 
 43692.65567		 889.56308			42803.09259		202.01600		875.00000 
 43692.65567		 305.27265			43387.38302		65.71400		324.00000 
 43692.65567		 889.56308			42803.09259		202.01600		875.00000 
 43692.65567		 305.27265			43387.38302		65.71400		324.00000 
 43692.65567		 889.56308			42803.09259		202.01600		875.00000 
 43692.65567		 305.27265			43387.38302		65.71400		324.00000 
 43692.65567		 889.56308			42803.09259		202.01600		875.00000 
 43692.65567		 305.27265			43387.38302		65.71400		324.00000 
 43692.65567		 889.56308			42803.09259		202.01600		875.00000 
 43692.65567		 305.27265			43387.38302		65.71400		324.00000 
 43692.65567		 889.56308			42803.09259		202.01600		875.00000 
 43692.65567		 305.27265			43387.38302		65.71400		324.00000 
 43692.65567		 889.56308			42803.09259		202.01600		875.00000 
 43692.65567		 305.27265			43387.38302		65.71400		324.00000 
 43692.65567		 889.56308			42803.09259		202.01600		875.00000 
 43692.65567		 305.27265			43387.38302		65.71400		324.00000 
 43692.65567		 889.56308			42803.09259		202.01600		875.00000 
 43692.65567		 305.27265			43387.38302		65.71400		324.00000 
 43692.65567		 889.56308			42803.09259		214.13600		875.00000 
 43692.65567		 305.27265			43387.38302		65.71400		324.00000 
 43692.65567		 889.56308			42803.09259		214.13600		875.00000 
 43692.65567		 305.27265			43387.38302		65.71400		324.00000 
 43692.65567		 889.56308			42803.09259		214.13600		875.00000 
 43692.65567		 305.27265			43387.38302		65.71400		324.00000 
 43692.65567		 889.56308			42803.09259		214.13600		875.00000 
 43692.65567		 305.27265			43387.38302		65.71400		324.00000 
 43692.65567		 889.56308			42803.09259		214.13600		875.00000 
 43692.65567		 305.27265			43387.38302		65.71400		324.00000 
 43692.65567		 889.56308			42803.09259		214.13600		875.00000 
 43692.65567		 305.27265			43387.38302		65.71400		324.00000 
 43692.65567		 889.56308			42803.09259		214.13600		875.00000 
 43692.65567		 305.27265			43387.38302		65.71400		324.00000 
 43692.65567		 889.56308			42803.09259		214.13600		875.00000 
 43692.65567		 305.27265			43387.38302		65.71400		324.00000 
 43692.65567		 889.56308			42803.09259		214.13600		875.00000 
 43692.65567		 305.27265			43387.38302		65.71400		324.00000 
 43692.65567		 889.56308			42803.09259		214.13600		875.00000 
 43692.65567		 305.27265			43387.38302		65.71400		324.00000 
 43692.65567		 889.56308			42803.09259		214.13600		875.00000 
 43692.65567		 305.27265			43387.38302		65.71400		324.00000 
 43692.65567		 889.56308			42803.09259		214.13600		875.00000 
 43692.65567		 305.27265			43387.38302		65.71400		324.00000 
 43692.65567		 889.56308			42803.09259		214.13600		875.00000 
 43692.65567		 305.27265			43387.38302		65.71400		324.00000 
 43692.65567		 889.56308			42803.09259		214.13600		875.00000 
 43692.65567		 305.27265			43387.38302		65.71400		324.00000 
 43692.65567		 889.56308			42803.09259		214.13600		875.00000 
 43692.65567		 305.27265			43387.38302		65.71400		324.00000 
 43692.65567		 889.56308			42803.09259		214.13600		875.00000 
 43692.65567		 305.27265			43387.38302		65.71400		324.00000 
 43692.65567		 889.56308			42803.09259		214.13600		875.00000 
 43692.65567		 305.27265			43387.38302		65.71400		324.00000 
 43692.65567		 889.56308			42803.09259		214.13600		875.00000 
 43692.65567		 305.27265			43387.38302		65.71400		324.00000 
 43692.65567		 889.56308			42803.09259		214.13600		875.00000 
 43692.65567		 305.27265			43387.38302		65.71400		324.00000 
 43692.65567		 889.56308			42803.09259		214.13600		875.00000 
 43692.65567		 305.27265			43387.38302		65.71400		324.00000 
 43692.65567		 889.56308			42803.09259		214.13600		875.00000 
 43692.65567		 305.27265			43387.38302		65.71400		324.00000 
 43692.65567		 889.56308			42803.09259		214.13600		875.00000 
 43692.65567		 305.27265			43387.38302		65.71400		324.00000 
 43692.65567		 889.56308			42803.09259		214.13600		875.00000 
 43692.65567		 305.27265			43387.38302		65.71400		324.00000 
 43692.65567		 889.56308			42803.09259		214.13600		875.00000 
 43692.65567		 305.27265			43387.38302		65.71400		324.00000 
 43692.65567		 889.56308			42803.09259		214.13600		875.00000 
 43692.65567		 305.27265			43387.38302		65.71400		324.00000 
 43692.65567		 889.56308			42803.09259		214.13600		875.00000 
 43692.65567		 305.27265			43387.38302		65.71400		324.00000 
 43692.65567		 889.56308			42803.09259		214.13600		875.00000 
 43692.65567		 305.27265			43387.38302		65.71400		324.00000 
 43692.65567		 889.56308			42803.09259		214.13600		875.00000 
 43692.65567		 305.27265			43387.38302		65.71400		324.00000 
 43692.65567		 889.56308			42803.09259		214.13600		875.00000 
 43692.65567		 305.27265			43387.38302		65.71400		324.00000 
 43692.65567		 889.56308			42803.09259		214.13600		875.00000 
 43692.65567		 305.27265			43387.38302		65.71400		324.00000 
 43692.65567		 889.56308			42803.09259		214.13600		875.00000 
 43692.65567		 305.27265			43387.38302		65.71400		324.00000 
 43692.65567		 889.56308			42803.09259		214.13600		875.00000 
 43692.65567		 305.27265			43387.38302		65.71400		324.00000 
 43692.65567		 889.56308			42803.09259		214.13600		875.00000 
 43692.65567		 305.27265			43387.38302		65.71400		324.00000 
 43692.65567		 889.56308			42803.09259		214.13600		875.00000 
 43692.65567		 305.27265			43387.38302		65.71400		324.00000 
 43692.65567		 889.56308			42803.09259		214.13600		875.00000 
 43692.65567		 305.27265			43387.38302		65.71400		324.00000 
 43692.65567		 889.56308			42803.09259		214.13600		875.00000 
 43692.65567		 305.27265			43387.38302		65.71400		324.00000 
 43692.65567		 889.56308			42803.09259		214.13600		875.00000 
 43692.65567		 305.27265			43387.38302		65.71400		324.00000 
 43692.65567		 889.56308			42803.09259		214.13600		875.00000 
 43692.65567		 305.27265			43387.38302		65.71400		324.00000 
 43692.65567		 889.56308			42803.09259		214.13600		875.00000 
 43692.65567		 305.27265			43387.38302		65.71400		324.00000 
 43692.65567		 889.56308			42803.09259		214.13600		875.00000 
 43692.65567		 305.27265			43387.38302		65.71400		324.00000 
 43692.65567		 889.56308			42803.09259		214.13600		875.00000 
 43692.65567		 305.27265			43387.38302		65.71400		324.00000 
 43692.65567		 889.56308			42803.09259		214.13600		875.00000 
 43692.65567		 305.27265			43387.38302		65.71400		324.00000 
 43692.65567		 889.56308			42803.09259		214.13600		875.00000 
 43692.65567		 305.27265			43387.38302		65.71400		324.00000 
 43692.65567		 889.56308			42803.09259		214.13600		875.00000 
 43692.65567		 305.27265			43387.38302		65.71400		324.00000 
 43692.65567		 889.56308			42803.09259		214.13600		875.00000 
 43692.65567		 305.27265			43387.38302		65.71400		324.00000 
 43692.65567		 889.56308			42803.09259		214.13600		875.00000 
 43692.65567		 305.27265			43387.38302		65.71400		324.00000 
 43692.65567		 889.56308			42803.09259		214.13600		875.00000 
 43692.65567		 305.27265			43387.38302		65.71400		324.00000 
 43692.65567		 889.56308			42803.09259		214.13600		875.00000 
 43692.65567		 305.27265			43387.38302		65.71400		324.00000 
 43692.65567		 889.56308			42803.09259		214.13600		875.00000 
 43692.65567		 305.27265			43387.38302		65.71400		324.00000 
 43692.65567		 889.56308			42803.09259		214.13600		875.00000 
 43692.65567		 305.27265			43387.38302		65.71400		324.00000 
 43692.65567		 889.56308			42803.09259		214.13600		875.00000 
 43692.65567		 305.27265			43387.38302		65.71400		324.00000 
 43692.65567		 889.56308			42803.09259		214.13600		875.00000 
 43692.65567		 305.27265			43387.38302		65.71400		324.00000 
 43692.65567		 889.56308			42803.09259		214.13600		875.00000 
 43692.65567		 305.27265			43387.38302		65.71400		324.00000 
 43692.65567		 889.56308			42803.09259		214.13600		875.00000 
 43692.65567		 305.27265			43387.38302		65.71400		324.00000 
 43692.65567		 889.56308			42803.09259		214.13600		875.00000 
 43692.65567		 305.27265			43387.38302		65.71400		324.00000 
 43692.65567		 889.56308			42803.09259		214.13600		875.00000 
 43692.65567		 305.27265			43387.38302		65.71400		324.00000 
 43692.65567		 889.56308			42803.09259		214.13600		875.00000 
 43692.65567		 305.27265			43387.38302		65.71400		324.00000 
 43692.65567		 889.56308			42803.09259		214.13600		875.00000 
 43692.65567		 305.27265			43387.38302		65.71400		324.00000 
 43692.65567		 889.56308			42803.09259		214.13600		875.00000 
 43692.65567		 305.27265			43387.38302		65.71400		324.00000 
 43692.65567		 889.56308			42803.09259		214.13600		875.00000 
 43692.65567		 305.27265			43387.38302		65.71400		324.00000 
 43692.65567		 889.56308			42803.09259		214.13600		875.00000 
 43692.65567		 305.27265			43387.38302		65.71400		324.00000 
 43692.65567		 889.56308			42803.09259		214.13600		875.00000 
 43692.65567		 305.27265			43387.38302		65.71400		324.00000 
 43692.65567		 889.56308			42803.09259		214.13600		875.00000 
 43692.65567		 305.27265			43387.38302		65.71400		324.00000 
 43692.65567		 889.56308			42803.09259		214.13600		875.00000 
 43692.65567		 305.27265			43387.38302		65.71400		324.00000 
 43692.65567		 889.56308			42803.09259		219.71800		875.00000 
 43692.65567		 305.27265			43387.38302		65.71400		324.00000 
 43692.65567		 889.56308			42803.09259		219.71800		875.00000 
 43692.65567		 305.27265			43387.38302		65.71400		324.00000 
 43692.65567		 889.56308			42803.09259		219.71800		875.00000 
 43692.65567		 305.27265			43387.38302		65.71400		324.00000 
 43692.65567		 889.56308			42803.09259		219.71800		875.00000 
 43692.65567		 305.27265			43387.38302		65.71400		324.00000 
 43692.65567		 889.56308			42803.09259		219.71800		875.00000 
 43692.65567		 305.27265			43387.38302		65.71400		324.00000 
 43692.65567		 889.56308			42803.09259		219.71800		875.00000 
 43692.65567		 305.27265			43387.38302		65.71400		324.00000 
 43692.65567		 889.56308			42803.09259		219.71800		875.00000 
 43692.65567		 305.27265			43387.38302		65.71400		324.00000 
 43692.65567		 889.56308			42803.09259		219.71800		875.00000 
 43692.65567		 305.27265			43387.38302		65.71400		324.00000 
 43692.65567		 889.56308			42803.09259		219.71800		875.00000 
 43692.65567		 305.27265			43387.38302		65.71400		324.00000 
 43692.65567		 889.56308			42803.09259		219.71800		875.00000 
 43692.65567		 305.27265			43387.38302		65.71400		324.00000 
 43692.65567		 889.56308			42803.09259		219.71800		875.00000 
 43692.65567		 305.27265			43387.38302		65.71400		324.00000 
 43692.65567		 889.56308			42803.09259		219.71800		875.00000 
 43692.65567		 305.27265			43387.38302		65.71400		324.00000 
 43692.65567		 889.56308			42803.09259		219.71800		875.00000 
 43692.65567		 305.27265			43387.38302		65.71400		324.00000 
 43692.65567		 889.56308			42803.09259		219.71800		875.00000 
 43692.65567		 305.27265			43387.38302		65.71400		324.00000 
 43692.65567		 889.56308			42803.09259		219.71800		875.00000 
 43692.65567		 305.27265			43387.38302		65.71400		324.00000 
 43692.65567		 889.56308			42803.09259		219.71800		875.00000 
 43692.65567		 305.27265			43387.38302		65.71400		324.00000 
 43692.65567		 889.56308			42803.09259		219.71800		875.00000 
 43692.65567		 305.27265			43387.38302		65.71400		324.00000 
 43692.65567		 889.56308			42803.09259		219.71800		875.00000 
 43692.65567		 305.27265			43387.38302		65.71400		324.00000 
 43692.65567		 889.56308			42803.09259		219.71800		875.00000 
 43692.65567		 305.27265			43387.38302		65.71400		324.00000 
 43692.65567		 889.56308			42803.09259		219.71800		875.00000 
 43692.65567		 305.27265			43387.38302		65.71400		324.00000 
 43692.65567		 889.56308			42803.09259		219.71800		875.00000 
 43692.65567		 305.27265			43387.38302		65.71400		324.00000 
 43692.65567		 889.56308			42803.09259		219.71800		875.00000 
 43692.65567		 305.27265			43387.38302		65.71400		324.00000 
 43692.65567		 889.56308			42803.09259		219.71800		875.00000 
 43692.65567		 305.27265			43387.38302		65.71400		324.00000 
 43692.65567		 889.56308			42803.09259		219.71800		875.00000 
 43692.65567		 305.27265			43387.38302		65.71400		324.00000 
 43692.65567		 889.56308			42803.09259		219.71800		875.00000 
 43692.65567		 305.27265			43387.38302		65.71400		324.00000 
 43692.65567		 889.56308			42803.09259		219.71800		875.00000 
 43692.65567		 305.27265			43387.38302		65.71400		324.00000 
 43692.65567		 889.56308			42803.09259		219.71800		875.00000 
 43692.65567		 305.27265			43387.38302		65.71400		324.00000 
 43692.65567		 889.56308			42803.09259		219.71800		875.00000 
 43692.65567		 305.27265			43387.38302		65.71400		324.00000 
 43692.65567		 889.56308			42803.09259		219.71800		875.00000 
 43692.65567		 305.27265			43387.38302		65.71400		324.00000 
 43692.65567		 889.56308			42803.09259		219.71800		875.00000 
 43692.65567		 305.27265			43387.38302		65.71400		324.00000 
 43692.65567		 889.56308			42803.09259		219.71800		875.00000 
 43692.65567		 305.27265			43387.38302		65.71400		324.00000 
 43692.65567		 889.56308			42803.09259		219.71800		875.00000 
 43692.65567		 305.27265			43387.38302		65.71400		324.00000 
 43692.65567		 889.56308			42803.09259		219.71800		875.00000 
 43692.65567		 305.27265			43387.38302		65.71400		324.00000 
 43692.65567		 889.56308			42803.09259		219.71800		875.00000 
 43692.65567		 305.27265			43387.38302		65.71400		324.00000 
 43692.65567		 889.56308			42803.09259		219.71800		875.00000 
 43692.65567		 305.27265			43387.38302		65.71400		324.00000 
 43692.65567		 889.56308			42803.09259		219.71800		875.00000 
 43692.65567		 305.27265			43387.38302		65.71400		324.00000 
 43692.65567		 889.56308			42803.09259		219.71800		875.00000 
 43692.65567		 305.27265			43387.38302		65.71400		324.00000 
 43692.65567		 889.56308			42803.09259		219.71800		875.00000 
 43692.65567		 305.27265			43387.38302		65.71400		324.00000 
 43692.65567		 889.56308			42803.09259		219.71800		875.00000 
 43692.65567		 305.27265			43387.38302		65.71400		324.00000 
 43692.65567		 889.56308			42803.09259		219.71800		875.00000 
 43692.65567		 305.27265			43387.38302		65.71400		324.00000 
 43692.65567		 889.56308			42803.09259		219.71800		875.00000 
 43692.65567		 305.27265			43387.38302		65.71400		324.00000 
 43692.65567		 889.56308			42803.09259		219.71800		875.00000 
 43692.65567		 305.27265			43387.38302		65.71400		324.00000 
 43692.65567		 889.56308			42803.09259		219.71800		875.00000 
 43692.65567		 305.27265			43387.38302		65.71400		324.00000 
 43692.65567		 889.56308			42803.09259		219.71800		875.00000 
 43692.65567		 305.27265			43387.38302		65.71400		324.00000 
 43692.65567		 889.56308			42803.09259		219.71800		875.00000 
 43692.65567		 305.27265			43387.38302		65.71400		324.00000 
 43692.65567		 889.56308			42803.09259		219.71800		875.00000 
 43692.65567		 305.27265			43387.38302		65.71400		324.00000 
 43692.65567		 889.56308			42803.09259		219.71800		875.00000 
 43692.65567		 305.27265			43387.38302		65.71400		324.00000 
 43692.65567		 889.56308			42803.09259		219.71800		875.00000 
 43692.65567		 305.27265			43387.38302		65.71400		324.00000 
 43692.65567		 889.56308			42803.09259		219.71800		875.00000 
 43692.65567		 305.27265			43387.38302		65.71400		324.00000 
 43692.65567		 889.56308			42803.09259		219.71800		875.00000 
 43692.65567		 305.27265			43387.38302		65.71400		324.00000 
 43692.65567		 889.56308			42803.09259		219.71800		875.00000 
 43692.65567		 305.27265			43387.38302		65.71400		324.00000 
 43692.65567		 889.56308			42803.09259		219.71800		875.00000 
 43692.65567		 305.27265			43387.38302		65.71400		324.00000 
 43692.65567		 889.56308			42803.09259		219.71800		875.00000 
 43692.65567		 305.27265			43387.38302		65.71400		324.00000 
 43692.65567		 889.56308			42803.09259		219.71800		875.00000 
 43692.65567		 305.27265			43387.38302		65.71400		324.00000 
 43692.65567		 889.56308			42803.09259		219.71800		875.00000 
 43692.65567		 305.27265			43387.38302		65.71400		324.00000 
 43692.65567		 889.56308			42803.09259		219.71800		875.00000 
 43692.65567		 305.27265			43387.38302		65.71400		324.00000 
 43692.65567		 889.56308			42803.09259		219.71800		875.00000 
 43692.65567		 305.27265			43387.38302		65.71400		324.00000 
 43692.65567		 889.56308			42803.09259		219.71800		875.00000 
 43692.65567		 305.27265			43387.38302		65.71400		324.00000 
 43692.65567		 889.56308			42803.09259		219.71800		875.00000 
 43692.65567		 305.27265			43387.38302		65.71400		324.00000 
 43692.65567		 889.56308			42803.09259		219.71800		875.00000 
 43692.65567		 305.27265			43387.38302		65.71400		324.00000 
 43692.65567		 889.56308			42803.09259		219.71800		875.00000 
 43692.65567		 305.27265			43387.38302		65.71400		324.00000 
 43692.65567		 889.56308			42803.09259		219.71800		875.00000 
 43692.65567		 305.27265			43387.38302		65.71400		324.00000 
 43692.65567		 889.56308			42803.09259		219.71800		875.00000 
 43692.65567		 305.27265			43387.38302		65.71400		324.00000 
 43692.65567		 889.56308			42803.09259		219.71800		875.00000 
 43692.65567		 305.27265			43387.38302		65.71400		324.00000 
 43692.65567		 889.56308			42803.09259		221.07600		875.00000 
 43692.65567		 305.27265			43387.38302		65.71400		324.00000 
 43692.65567		 889.56308			42803.09259		221.07600		875.00000 
 43692.65567		 305.27265			43387.38302		65.71400		324.00000 
 43692.65567		 889.56308			42803.09259		221.07600		875.00000 
 43692.65567		 305.27265			43387.38302		65.71400		324.00000 
 43692.65567		 889.56308			42803.09259		221.07600		875.00000 
 43692.65567		 305.27265			43387.38302		65.71400		324.00000 
 43692.65567		 889.56308			42803.09259		221.07600		875.00000 
 43692.65567		 305.27265			43387.38302		65.71400		324.00000 
 43692.65567		 889.56308			42803.09259		221.07600		875.00000 
 43692.65567		 305.27265			43387.38302		65.71400		324.00000 
 43692.65567		 889.56308			42803.09259		221.07600		875.00000 
 43692.65567		 305.27265			43387.38302		65.71400		324.00000 
 43692.65567		 889.56308			42803.09259		221.07600		875.00000 
 43692.65567		 305.27265			43387.38302		65.71400		324.00000 
 43692.65567		 889.56308			42803.09259		221.07600		875.00000 
 43692.65567		 305.27265			43387.38302		65.71400		324.00000 
 43692.65567		 889.56308			42803.09259		221.07600		875.00000 
 43692.65567		 305.27265			43387.38302		65.71400		324.00000 
 43692.65567		 889.56308			42803.09259		221.07600		875.00000 
 43692.65567		 305.27265			43387.38302		65.71400		324.00000 
 43692.65567		 889.56308			42803.09259		221.07600		875.00000 
 43692.65567		 305.27265			43387.38302		65.71400		324.00000 
 43692.65567		 889.56308			42803.09259		221.07600		875.00000 
 43692.65567		 305.27265			43387.38302		65.71400		324.00000 
 43692.65567		 889.56308			42803.09259		221.07600		875.00000 
 43692.65567		 305.27265			43387.38302		65.71400		324.00000 
 43692.65567		 889.56308			42803.09259		221.07600		875.00000 
 43692.65567		 305.27265			43387.38302		65.71400		324.00000 
 43692.65567		 889.56308			42803.09259		221.07600		875.00000 
 43692.65567		 305.27265			43387.38302		65.71400		324.00000 
 43692.65567		 889.56308			42803.09259		221.07600		875.00000 
 43692.65567		 305.27265			43387.38302		65.71400		324.00000 
 43692.65567		 889.56308			42803.09259		221.07600		875.00000 
 43692.65567		 305.27265			43387.38302		65.71400		324.00000 
 43692.65567		 889.56308			42803.09259		221.07600		875.00000 
 43692.65567		 305.27265			43387.38302		65.71400		324.00000 
 43692.65567		 889.56308			42803.09259		221.07600		875.00000 
 43692.65567		 305.27265			43387.38302		65.71400		324.00000 
 43692.65567		 889.56308			42803.09259		221.07600		875.00000 
 43692.65567		 305.27265			43387.38302		65.71400		324.00000 
 43692.65567		 889.56308			42803.09259		221.07600		875.00000 
 43692.65567		 305.27265			43387.38302		65.71400		324.00000 
 43692.65567		 889.56308			42803.09259		221.07600		875.00000 
 43692.65567		 305.27265			43387.38302		65.71400		324.00000 
 43692.65567		 889.56308			42803.09259		221.07600		875.00000 
 43692.65567		 305.27265			43387.38302		65.71400		324.00000 
 43692.65567		 889.56308			42803.09259		221.07600		875.00000 
 43692.65567		 305.27265			43387.38302		65.71400		324.00000 
 43692.65567		 889.56308			42803.09259		221.07600		875.00000 
 43692.65567		 305.27265			43387.38302		65.71400		324.00000 
 43692.65567		 889.56308			42803.09259		221.07600		875.00000 
 43692.65567		 305.27265			43387.38302		65.71400		324.00000 
 43692.65567		 889.56308			42803.09259		221.07600		875.00000 
 43692.65567		 305.27265			43387.38302		65.71400		324.00000 
 43692.65567		 889.56308			42803.09259		221.07600		875.00000 
 43692.65567		 305.27265			43387.38302		65.71400		324.00000 
 43692.65567		 889.56308			42803.09259		221.07600		875.00000 
 43692.65567		 305.27265			43387.38302		65.71400		324.00000 
 43692.65567		 889.56308			42803.09259		221.07600		875.00000 
 43692.65567		 305.27265			43387.38302		65.71400		324.00000 
 43692.65567		 889.56308			42803.09259		221.07600		875.00000 
 43692.65567		 305.27265			43387.38302		65.71400		324.00000 
 43692.65567		 889.56308			42803.09259		221.07600		875.00000 
 43692.65567		 305.27265			43387.38302		65.71400		324.00000 
 43692.65567		 889.56308			42803.09259		221.07600		875.00000 
 43692.65567		 305.27265			43387.38302		65.71400		324.00000 
 43692.65567		 889.56308			42803.09259		221.07600		875.00000 
 43692.65567		 305.27265			43387.38302		65.71400		324.00000 
 43692.65567		 889.56308			42803.09259		221.07600		875.00000 
 43692.65567		 305.27265			43387.38302		65.71400		324.00000 
 43692.65567		 889.56308			42803.09259		221.07600		875.00000 
 43692.65567		 305.27265			43387.38302		65.71400		324.00000 
 43692.65567		 889.56308			42803.09259		221.07600		875.00000 
 43692.65567		 305.27265			43387.38302		65.71400		324.00000 
 43692.65567		 889.56308			42803.09259		221.07600		875.00000 
 43692.65567		 305.27265			43387.38302		65.71400		324.00000 
 43692.65567		 889.56308			42803.09259		221.07600		875.00000 
 43692.65567		 305.27265			43387.38302		65.71400		324.00000 
 43692.65567		 889.56308			42803.09259		221.07600		875.00000 
 43692.65567		 305.27265			43387.38302		65.71400		324.00000 
 43692.65567		 889.56308			42803.09259		221.07600		875.00000 
 43692.65567		 305.27265			43387.38302		65.71400		324.00000 
 43692.65567		 889.56308			42803.09259		221.07600		875.00000 
 43692.65567		 305.27265			43387.38302		65.71400		324.00000 
 43692.65567		 889.56308			42803.09259		221.07600		875.00000 
 43692.65567		 305.27265			43387.38302		65.71400		324.00000 
 43692.65567		 889.56308			42803.09259		221.07600		875.00000 
 43692.65567		 305.27265			43387.38302		65.71400		324.00000 
 43692.65567		 889.56308			42803.09259		221.07600		875.00000 
 43692.65567		 305.27265			43387.38302		65.71400		324.00000 
 43692.65567		 889.56308			42803.09259		221.07600		875.00000 
 43692.65567		 305.27265			43387.38302		65.71400		324.00000 
 43692.65567		 889.56308			42803.09259		221.07600		875.00000 
 43692.65567		 305.27265			43387.38302		65.71400		324.00000 
 43692.65567		 889.56308			42803.09259		221.07600		875.00000 
 43692.65567		 305.27265			43387.38302		65.71400		324.00000 
 43692.65567		 889.56308			42803.09259		221.07600		875.00000 
 43692.65567		 305.27265			43387.38302		65.71400		324.00000 
 43692.65567		 889.56308			42803.09259		221.07600		875.00000 
 43692.65567		 305.27265			43387.38302		65.71400		324.00000 
 43692.65567		 889.56308			42803.09259		221.07600		875.00000 
 43692.65567		 305.27265			43387.38302		65.71400		324.00000 
 43692.65567		 889.56308			42803.09259		221.07600		875.00000 
 43692.65567		 305.27265			43387.38302		65.71400		324.00000 
 43692.65567		 889.56308			42803.09259		221.07600		875.00000 
 43692.65567		 305.27265			43387.38302		65.71400		324.00000 
 43692.65567		 889.56308			42803.09259		221.07600		875.00000 
 43692.65567		 305.27265			43387.38302		65.71400		324.00000 
 43692.65567		 889.56308			42803.09259		221.07600		875.00000 
 43692.65567		 305.27265			43387.38302		65.71400		324.00000 
 43692.65567		 889.56308			42803.09259		221.07600		875.00000 
 43692.65567		 305.27265			43387.38302		65.71400		324.00000 
 43692.65567		 889.56308			42803.09259		221.07600		875.00000 
 43692.65567		 305.27265			43387.38302		65.71400		324.00000 
 43692.65567		 889.56308			42803.09259		221.07600		875.00000 
 43692.65567		 305.27265			43387.38302		65.71400		324.00000 
 43692.65567		 889.56308			42803.09259		221.07600		875.00000 
 43692.65567		 305.27265			43387.38302		65.71400		324.00000 
 43692.65567		 889.56308			42803.09259		221.07600		875.00000 
 43692.65567		 305.27265			43387.38302		65.71400		324.00000 
 43692.65567		 889.56308			42803.09259		221.07600		875.00000 
 43692.65567		 305.27265			43387.38302		65.71400		324.00000 
 43692.65567		 889.56308			42803.09259		221.07600		875.00000 
 43692.65567		 305.27265			43387.38302		65.71400		324.00000 
 43692.65567		 889.56308			42803.09259		221.07600		875.00000 
 43692.65567		 305.27265			43387.38302		65.71400		324.00000 
 43692.65567		 889.56308			42803.09259		221.27200		875.00000 
 43692.65567		 305.27265			43387.38302		65.71400		324.00000 
 43692.65567		 889.56308			42803.09259		221.27200		875.00000 
 43692.65567		 305.27265			43387.38302		65.71400		324.00000 
 43692.65567		 889.56308			42803.09259		221.27200		875.00000 
 43692.65567		 305.27265			43387.38302		65.71400		324.00000 
 43692.65567		 889.56308			42803.09259		221.27200		875.00000 
 43692.65567		 305.27265			43387.38302		65.71400		324.00000 
 43692.65567		 889.56308			42803.09259		221.27200		875.00000 
 43692.65567		 305.27265			43387.38302		65.71400		324.00000 
 43692.65567		 889.56308			42803.09259		221.27200		875.00000 
 43692.65567		 305.27265			43387.38302		65.71400		324.00000 
 43692.65567		 889.56308			42803.09259		221.27200		875.00000 
 43692.65567		 305.27265			43387.38302		65.71400		324.00000 
 43692.65567		 889.56308			42803.09259		221.27200		875.00000 
 43692.65567		 305.27265			43387.38302		65.71400		324.00000 
 43692.65567		 889.56308			42803.09259		221.27200		875.00000 
 43692.65567		 305.27265			43387.38302		65.71400		324.00000 
 43692.65567		 889.56308			42803.09259		221.27200		875.00000 
 43692.65567		 305.27265			43387.38302		65.71400		324.00000 
 43692.65567		 889.56308			42803.09259		221.27200		875.00000 
 43692.65567		 305.27265			43387.38302		65.71400		324.00000 
 43692.65567		 889.56308			42803.09259		221.27200		875.00000 
 43692.65567		 305.27265			43387.38302		65.71400		324.00000 
 43692.65567		 889.56308			42803.09259		221.27200		875.00000 
 43692.65567		 305.27265			43387.38302		65.71400		324.00000 
 43692.65567		 889.56308			42803.09259		221.27200		875.00000 
 43692.65567		 305.27265			43387.38302		65.71400		324.00000 
 43692.65567		 889.56308			42803.09259		221.27200		875.00000 
 43692.65567		 305.27265			43387.38302		65.71400		324.00000 
 43692.65567		 889.56308			42803.09259		221.27200		875.00000 
 43692.65567		 305.27265			43387.38302		65.71400		324.00000 
 43692.65567		 889.56308			42803.09259		221.27200		875.00000 
 43692.65567		 305.27265			43387.38302		65.71400		324.00000 
 43692.65567		 889.56308			42803.09259		221.27200		875.00000 
 43692.65567		 305.27265			43387.38302		65.71400		324.00000 
 43692.65567		 889.56308			42803.09259		221.27200		875.00000 
 43692.65567		 305.27265			43387.38302		65.71400		324.00000 
 43692.65567		 889.56308			42803.09259		221.27200		875.00000 
 43692.65567		 305.27265			43387.38302		65.71400		324.00000 
 43692.65567		 889.56308			42803.09259		221.27200		875.00000 
 43692.65567		 305.27265			43387.38302		65.71400		324.00000 
 43692.65567		 889.56308			42803.09259		221.27200		875.00000 
 43692.65567		 305.27265			43387.38302		65.71400		324.00000 
 43692.65567		 889.56308			42803.09259		221.27200		875.00000 
 43692.65567		 305.27265			43387.38302		65.71400		324.00000 
 43692.65567		 889.56308			42803.09259		221.27200		875.00000 
 43692.65567		 305.27265			43387.38302		65.71400		324.00000 
 43692.65567		 889.56308			42803.09259		221.27200		875.00000 
 43692.65567		 305.27265			43387.38302		65.71400		324.00000 
 43692.65567		 889.56308			42803.09259		221.27200		875.00000 
 43692.65567		 305.27265			43387.38302		65.71400		324.00000 
 43692.65567		 889.56308			42803.09259		221.27200		875.00000 
 43692.65567		 305.27265			43387.38302		65.71400		324.00000 
 43692.65567		 889.56308			42803.09259		221.27200		875.00000 
 43692.65567		 305.27265			43387.38302		65.71400		324.00000 
 43692.65567		 889.56308			42803.09259		221.27200		875.00000 
 43692.65567		 305.27265			43387.38302		65.71400		324.00000 
 43692.65567		 889.56308			42803.09259		221.27200		875.00000 
 43692.65567		 305.27265			43387.38302		65.71400		324.00000 
 43692.65567		 889.56308			42803.09259		221.27200		875.00000 
 43692.65567		 305.27265			43387.38302		65.71400		324.00000 
 43692.65567		 889.56308			42803.09259		221.27200		875.00000 
 43692.65567		 305.27265			43387.38302		65.71400		324.00000 
 43692.65567		 889.56308			42803.09259		221.27200		875.00000 
 43692.65567		 305.27265			43387.38302		65.71400		324.00000 
 43692.65567		 889.56308			42803.09259		221.27200		875.00000 
 43692.65567		 305.27265			43387.38302		65.71400		324.00000 
 43692.65567		 889.56308			42803.09259		221.27200		875.00000 
 43692.65567		 305.27265			43387.38302		65.71400		324.00000 
 43692.65567		 889.56308			42803.09259		221.27200		875.00000 
 43692.65567		 305.27265			43387.38302		65.71400		324.00000 
 43692.65567		 889.56308			42803.09259		221.27200		875.00000 
 43692.65567		 305.27265			43387.38302		65.71400		324.00000 
 43692.65567		 889.56308			42803.09259		221.27200		875.00000 
 43692.65567		 305.27265			43387.38302		65.71400		324.00000 
 43692.65567		 889.56308			42803.09259		221.27200		875.00000 
 43692.65567		 305.27265			43387.38302		65.71400		324.00000 
 43692.65567		 889.56308			42803.09259		221.27200		875.00000 
 43692.65567		 305.27265			43387.38302		65.71400		324.00000 
 43692.65567		 889.56308			42803.09259		221.27200		875.00000 
 43692.65567		 305.27265			43387.38302		65.71400		324.00000 
 43692.65567		 889.56308			42803.09259		221.27200		875.00000 
 43692.65567		 305.27265			43387.38302		65.71400		324.00000 
 43692.65567		 889.56308			42803.09259		221.27200		875.00000 
 43692.65567		 305.27265			43387.38302		65.71400		324.00000 
 43692.65567		 889.56308			42803.09259		221.27200		875.00000 
 43692.65567		 305.27265			43387.38302		65.71400		324.00000 
 43692.65567		 889.56308			42803.09259		221.27200		875.00000 
 43692.65567		 305.27265			43387.38302		65.71400		324.00000 
 43692.65567		 889.56308			42803.09259		221.27200		875.00000 
 43692.65567		 305.27265			43387.38302		65.71400		324.00000 
 43692.65567		 889.56308			42803.09259		221.27200		875.00000 
 43692.65567		 305.27265			43387.38302		65.71400		324.00000 
 43692.65567		 889.56308			42803.09259		221.27200		875.00000 
 43692.65567		 305.27265			43387.38302		65.71400		324.00000 
 43692.65567		 889.56308			42803.09259		221.27200		875.00000 
 43692.65567		 305.27265			43387.38302		65.71400		324.00000 
 43692.65567		 889.56308			42803.09259		221.27200		875.00000 
 43692.65567		 305.27265			43387.38302		65.71400		324.00000 
 43692.65567		 889.56308			42803.09259		221.27200		875.00000 
 43692.65567		 305.27265			43387.38302		65.71400		324.00000 
 43692.65567		 889.56308			42803.09259		221.27200		875.00000 
 43692.65567		 305.27265			43387.38302		65.71400		324.00000 
 43692.65567		 889.56308			42803.09259		221.27200		875.00000 
 43692.65567		 305.27265			43387.38302		65.71400		324.00000 
 43692.65567		 889.56308			42803.09259		221.27200		875.00000 
 43692.65567		 305.27265			43387.38302		65.71400		324.00000 
 43692.65567		 889.56308			42803.09259		221.27200		875.00000 
 43692.65567		 305.27265			43387.38302		65.71400		324.00000 
 43692.65567		 889.56308			42803.09259		221.27200		875.00000 
 43692.65567		 305.27265			43387.38302		65.71400		324.00000 
 43692.65567		 889.56308			42803.09259		221.27200		875.00000 
 43692.65567		 305.27265			43387.38302		65.71400		324.00000 
 43692.65567		 889.56308			42803.09259		221.27200		875.00000 
 43692.65567		 305.27265			43387.38302		65.71400		324.00000 
 43692.65567		 889.56308			42803.09259		221.27200		875.00000 
 43692.65567		 305.27265			43387.38302		65.71400		324.00000 
 43692.65567		 889.56308			42803.09259		221.27200		875.00000 
 43692.65567		 305.27265			43387.38302		65.71400		324.00000 
 43692.65567		 889.56308			42803.09259		221.27200		875.00000 
 43692.65567		 305.27265			43387.38302		65.71400		324.00000 
 43692.65567		 889.56308			42803.09259		221.27200		875.00000 
 43692.65567		 305.27265			43387.38302		65.71400		324.00000 
 43692.65567		 889.56308			42803.09259		221.27200		875.00000 
 43692.65567		 305.27265			43387.38302		65.71400		324.00000 
 43692.65567		 889.56308			42803.09259		221.27200		875.00000 
 43692.65567		 305.27265			43387.38302		65.71400		324.00000 
 43692.65567		 889.56308			42803.09259		221.27200		875.00000 
 43692.65567		 305.27265			43387.38302		65.71400		324.00000 
 43692.65567		 889.56308			42803.09259		221.27200		875.00000 
 43692.65567		 305.27265			43387.38302		65.71400		324.00000 
 43692.65567		 889.56308			42803.09259		221.27200		875.00000 
 43692.65567		 305.27265			43387.38302		65.71400		324.00000 
 43692.65567		 889.56308			42803.09259		221.27200		875.00000 
 43692.65567		 305.27265			43387.38302		65.71400		324.00000 
 43692.65567		 889.56308			42803.09259		220.86200		875.00000 
 43692.65567		 305.27265			43387.38302		65.71400		324.00000 
 43692.65567		 889.56308			42803.09259		220.86200		875.00000 
 43692.65567		 305.27265			43387.38302		65.71400		324.00000 
 43692.65567		 889.56308			42803.09259		220.86200		875.00000 
 43692.65567		 305.27265			43387.38302		65.71400		324.00000 
 43692.65567		 889.56308			42803.09259		220.86200		875.00000 
 43692.65567		 305.27265			43387.38302		65.71400		324.00000 
 43692.65567		 889.56308			42803.09259		220.86200		875.00000 
 43692.65567		 305.27265			43387.38302		65.71400		324.00000 
 43692.65567		 889.56308			42803.09259		220.86200		875.00000 
 43692.65567		 305.27265			43387.38302		65.71400		324.00000 
 43692.65567		 889.56308			42803.09259		220.86200		875.00000 
 43692.65567		 305.27265			43387.38302		65.71400		324.00000 
 43692.65567		 889.56308			42803.09259		220.86200		875.00000 
 43692.65567		 305.27265			43387.38302		65.71400		324.00000 
 43692.65567		 889.56308			42803.09259		220.86200		875.00000 
 43692.65567		 305.27265			43387.38302		65.71400		324.00000 
 43692.65567		 889.56308			42803.09259		220.86200		875.00000 
 43692.65567		 305.27265			43387.38302		65.71400		324.00000 
 43692.65567		 889.56308			42803.09259		220.86200		875.00000 
 43692.65567		 305.27265			43387.38302		65.71400		324.00000 
 43692.65567		 889.56308			42803.09259		220.86200		875.00000 
 43692.65567		 305.27265			43387.38302		65.71400		324.00000 
 43692.65567		 889.56308			42803.09259		220.86200		875.00000 
 43692.65567		 305.27265			43387.38302		65.71400		324.00000 
 43692.65567		 889.56308			42803.09259		220.86200		875.00000 
 43692.65567		 305.27265			43387.38302		65.71400		324.00000 
 43692.65567		 889.56308			42803.09259		220.86200		875.00000 
 43692.65567		 305.27265			43387.38302		65.71400		324.00000 
 43692.65567		 889.56308			42803.09259		220.86200		875.00000 
 43692.65567		 305.27265			43387.38302		65.71400		324.00000 
 43692.65567		 889.56308			42803.09259		220.86200		875.00000 
 43692.65567		 305.27265			43387.38302		65.71400		324.00000 
 43692.65567		 889.56308			42803.09259		220.86200		875.00000 
 43692.65567		 305.27265			43387.38302		65.71400		324.00000 
 43692.65567		 889.56308			42803.09259		220.86200		875.00000 
 43692.65567		 305.27265			43387.38302		65.71400		324.00000 
 43692.65567		 889.56308			42803.09259		220.86200		875.00000 
 43692.65567		 305.27265			43387.38302		65.71400		324.00000 
 43692.65567		 889.56308			42803.09259		220.86200		875.00000 
 43692.65567		 305.27265			43387.38302		65.71400		324.00000 
 43692.65567		 889.56308			42803.09259		220.86200		875.00000 
 43692.65567		 305.27265			43387.38302		65.71400		324.00000 
 43692.65567		 889.56308			42803.09259		220.86200		875.00000 
 43692.65567		 305.27265			43387.38302		65.71400		324.00000 
 43692.65567		 889.56308			42803.09259		220.86200		875.00000 
 43692.65567		 305.27265			43387.38302		65.71400		324.00000 
 43692.65567		 889.56308			42803.09259		220.86200		875.00000 
 43692.65567		 305.27265			43387.38302		65.71400		324.00000 
 43692.65567		 889.56308			42803.09259		220.86200		875.00000 
 43692.65567		 305.27265			43387.38302		65.71400		324.00000 
 43692.65567		 889.56308			42803.09259		220.86200		875.00000 
 43692.65567		 305.27265			43387.38302		65.71400		324.00000 
 43692.65567		 889.56308			42803.09259		220.86200		875.00000 
 43692.65567		 305.27265			43387.38302		65.71400		324.00000 
 43692.65567		 889.56308			42803.09259		220.86200		875.00000 
 43692.65567		 305.27265			43387.38302		65.71400		324.00000 
 43692.65567		 889.56308			42803.09259		220.86200		875.00000 
 43692.65567		 305.27265			43387.38302		65.71400		324.00000 
 43692.65567		 889.56308			42803.09259		220.86200		875.00000 
 43692.65567		 305.27265			43387.38302		65.71400		324.00000 
 43692.65567		 889.56308			42803.09259		220.86200		875.00000 
 43692.65567		 305.27265			43387.38302		65.71400		324.00000 
 43692.65567		 889.56308			42803.09259		220.86200		875.00000 
 43692.65567		 305.27265			43387.38302		65.71400		324.00000 
 43692.65567		 889.56308			42803.09259		220.86200		875.00000 
 43692.65567		 305.27265			43387.38302		65.71400		324.00000 
 43692.65567		 889.56308			42803.09259		220.86200		875.00000 
 43692.65567		 305.27265			43387.38302		65.71400		324.00000 
 43692.65567		 889.56308			42803.09259		220.86200		875.00000 
 43692.65567		 305.27265			43387.38302		65.71400		324.00000 
 43692.65567		 889.56308			42803.09259		220.86200		875.00000 
 43692.65567		 305.27265			43387.38302		65.71400		324.00000 
 43692.65567		 889.56308			42803.09259		220.86200		875.00000 
 43692.65567		 305.27265			43387.38302		65.71400		324.00000 
 43692.65567		 889.56308			42803.09259		220.86200		875.00000 
 43692.65567		 305.27265			43387.38302		65.71400		324.00000 
 43692.65567		 889.56308			42803.09259		220.86200		875.00000 
 43692.65567		 305.27265			43387.38302		65.71400		324.00000 
 43692.65567		 889.56308			42803.09259		220.86200		875.00000 
 43692.65567		 305.27265			43387.38302		65.71400		324.00000 
 43692.65567		 889.56308			42803.09259		220.86200		875.00000 
 43692.65567		 305.27265			43387.38302		65.71400		324.00000 
 43692.65567		 889.56308			42803.09259		220.86200		875.00000 
 43692.65567		 305.27265			43387.38302		65.71400		324.00000 
 43692.65567		 889.56308			42803.09259		220.86200		875.00000 
 43692.65567		 305.27265			43387.38302		65.71400		324.00000 
 43692.65567		 889.56308			42803.09259		220.86200		875.00000 
 43692.65567		 305.27265			43387.38302		65.71400		324.00000 
 43692.65567		 889.56308			42803.09259		220.86200		875.00000 
 43692.65567		 305.27265			43387.38302		65.71400		324.00000 
 43692.65567		 889.56308			42803.09259		220.86200		875.00000 
 43692.65567		 305.27265			43387.38302		65.71400		324.00000 
 43692.65567		 889.56308			42803.09259		220.86200		875.00000 
 43692.65567		 305.27265			43387.38302		65.71400		324.00000 
 43692.65567		 889.56308			42803.09259		220.86200		875.00000 
 43692.65567		 305.27265			43387.38302		65.71400		324.00000 
 43692.65567		 889.56308			42803.09259		220.86200		875.00000 
 43692.65567		 305.27265			43387.38302		65.71400		324.00000 
 43692.65567		 889.56308			42803.09259		220.86200		875.00000 
 43692.65567		 305.27265			43387.38302		65.71400		324.00000 
 43692.65567		 889.56308			42803.09259		220.86200		875.00000 
 43692.65567		 305.27265			43387.38302		65.71400		324.00000 
 43692.65567		 889.56308			42803.09259		220.86200		875.00000 
 43692.65567		 305.27265			43387.38302		65.71400		324.00000 
 43692.65567		 889.56308			42803.09259		220.86200		875.00000 
 43692.65567		 305.27265			43387.38302		65.71400		324.00000 
 43692.65567		 889.56308			42803.09259		220.86200		875.00000 
 43692.65567		 305.27265			43387.38302		65.71400		324.00000 
 43692.65567		 889.56308			42803.09259		220.86200		875.00000 
 43692.65567		 305.27265			43387.38302		70.72800		324.00000 
 43692.65567		 889.56308			42803.09259		220.86200		875.00000 
 43692.65567		 305.27265			43387.38302		70.72800		324.00000 
 43692.65567		 889.56308			42803.09259		220.86200		875.00000 
 43692.65567		 305.27265			43387.38302		70.72800		324.00000 
 43692.65567		 889.56308			42803.09259		220.86200		875.00000 
 43692.65567		 305.27265			43387.38302		70.72800		324.00000 
 43692.65567		 889.56308			42803.09259		220.86200		875.00000 
 43692.65567		 305.27265			43387.38302		70.72800		324.00000 
 43692.65567		 889.56308			42803.09259		220.86200		875.00000 
 43692.65567		 305.27265			43387.38302		70.72800		324.00000 
 43692.65567		 889.56308			42803.09259		220.86200		875.00000 
 43692.65567		 305.27265			43387.38302		70.72800		324.00000 
 43692.65567		 889.56308			42803.09259		220.86200		875.00000 
 43692.65567		 305.27265			43387.38302		70.72800		324.00000 
 43692.65567		 889.56308			42803.09259		220.86200		875.00000 
 43692.65567		 305.27265			43387.38302		70.72800		324.00000 
 43692.65567		 889.56308			42803.09259		220.86200		875.00000 
 43692.65567		 305.27265			43387.38302		70.72800		324.00000 
 43692.65567		 889.56308			42803.09259		220.86200		875.00000 
 43692.65567		 305.27265			43387.38302		70.72800		324.00000 
 43692.65567		 889.56308			42803.09259		220.86200		875.00000 
 43692.65567		 305.27265			43387.38302		70.72800		324.00000 
 43692.65567		 889.56308			42803.09259		220.86200		875.00000 
 43692.65567		 305.27265			43387.38302		70.72800		324.00000 
 43692.65567		 889.56308			42803.09259		220.86200		875.00000 
 43692.65567		 305.27265			43387.38302		70.72800		324.00000 
 43692.65567		 889.56308			42803.09259		220.86200		875.00000 
 43692.65567		 305.27265			43387.38302		70.72800		324.00000 
 43692.65567		 889.56308			42803.09259		220.86200		875.00000 
 43692.65567		 305.27265			43387.38302		70.72800		324.00000 
 43692.65567		 889.56308			42803.09259		220.86200		875.00000 
 43692.65567		 305.27265			43387.38302		70.72800		324.00000 
 43692.65567		 889.56308			42803.09259		220.86200		875.00000 
 43692.65567		 305.27265			43387.38302		70.72800		324.00000 
 43692.65567		 889.56308			42803.09259		220.86200		875.00000 
 43692.65567		 305.27265			43387.38302		70.72800		324.00000 
 43692.65567		 889.56308			42803.09259		220.86200		875.00000 
 43692.65567		 305.27265			43387.38302		70.72800		324.00000 
 43692.65567		 889.56308			42803.09259		220.86200		875.00000 
 43692.65567		 305.27265			43387.38302		70.72800		324.00000 
 43692.65567		 889.56308			42803.09259		220.86200		875.00000 
 43692.65567		 305.27265			43387.38302		70.72800		324.00000 
 43692.65567		 889.56308			42803.09259		220.86200		875.00000 
 43692.65567		 305.27265			43387.38302		70.72800		324.00000 
 43692.65567		 889.56308			42803.09259		220.86200		875.00000 
 43692.65567		 305.27265			43387.38302		70.72800		324.00000 
 43692.65567		 889.56308			42803.09259		220.86200		875.00000 
 43692.65567		 305.27265			43387.38302		70.72800		324.00000 
 43692.65567		 889.56308			42803.09259		220.86200		875.00000 
 43692.65567		 305.27265			43387.38302		70.72800		324.00000 
 43692.65567		 889.56308			42803.09259		220.86200		875.00000 
 43692.65567		 305.27265			43387.38302		70.72800		324.00000 
 43692.65567		 889.56308			42803.09259		220.86200		875.00000 
 43692.65567		 305.27265			43387.38302		70.72800		324.00000 
 43692.65567		 889.56308			42803.09259		220.86200		875.00000 
 43692.65567		 305.27265			43387.38302		70.72800		324.00000 
 43692.65567		 889.56308			42803.09259		220.86200		875.00000 
 43692.65567		 305.27265			43387.38302		70.72800		324.00000 
 43692.65567		 889.56308			42803.09259		220.86200		875.00000 
 43692.65567		 305.27265			43387.38302		70.72800		324.00000 
 43692.65567		 889.56308			42803.09259		220.86200		875.00000 
 43692.65567		 305.27265			43387.38302		70.72800		324.00000 
 43692.65567		 889.56308			42803.09259		220.86200		875.00000 
 43692.65567		 305.27265			43387.38302		70.72800		324.00000 
 43692.65567		 889.56308			42803.09259		220.86200		875.00000 
 43692.65567		 305.27265			43387.38302		70.72800		324.00000 
 43692.65567		 889.56308			42803.09259		220.86200		875.00000 
 43692.65567		 305.27265			43387.38302		70.72800		324.00000 
 43692.65567		 889.56308			42803.09259		220.86200		875.00000 
 43692.65567		 305.27265			43387.38302		70.72800		324.00000 
 43692.65567		 889.56308			42803.09259		220.86200		875.00000 
 43692.65567		 305.27265			43387.38302		70.72800		324.00000 
 43692.65567		 889.56308			42803.09259		220.86200		875.00000 
 43692.65567		 305.27265			43387.38302		70.72800		324.00000 
 43692.65567		 889.56308			42803.09259		220.86200		875.00000 
 43692.65567		 305.27265			43387.38302		70.72800		324.00000 
 43692.65567		 889.56308			42803.09259		220.86200		875.00000 
 43692.65567		 305.27265			43387.38302		70.72800		324.00000 
 43692.65567		 889.56308			42803.09259		220.86200		875.00000 
 43692.65567		 305.27265			43387.38302		70.72800		324.00000 
 43692.65567		 889.56308			42803.09259		220.86200		875.00000 
 43692.65567		 305.27265			43387.38302		70.72800		324.00000 
 43692.65567		 889.56308			42803.09259		220.86200		875.00000 
 43692.65567		 305.27265			43387.38302		70.72800		324.00000 
 43692.65567		 889.56308			42803.09259		220.86200		875.00000 
 43692.65567		 305.27265			43387.38302		70.72800		324.00000 
 43692.65567		 889.56308			42803.09259		220.86200		875.00000 
 43692.65567		 305.27265			43387.38302		70.72800		324.00000 
 43692.65567		 889.56308			42803.09259		220.86200		875.00000 
 43692.65567		 305.27265			43387.38302		70.72800		324.00000 
 43692.65567		 889.56308			42803.09259		220.86200		875.00000 
 43692.65567		 305.27265			43387.38302		70.72800		324.00000 
 43692.65567		 889.56308			42803.09259		220.86200		875.00000 
 43692.65567		 305.27265			43387.38302		70.72800		324.00000 
 43692.65567		 889.56308			42803.09259		220.86200		875.00000 
 43692.65567		 305.27265			43387.38302		70.72800		324.00000 
 43692.65567		 889.56308			42803.09259		220.86200		875.00000 
 43692.65567		 305.27265			43387.38302		70.72800		324.00000 
 43692.65567		 889.56308			42803.09259		220.86200		875.00000 
 43692.65567		 305.27265			43387.38302		70.72800		324.00000 
 43692.65567		 889.56308			42803.09259		220.86200		875.00000 
 43692.65567		 305.27265			43387.38302		70.72800		324.00000 
 43692.65567		 889.56308			42803.09259		220.86200		875.00000 
 43692.65567		 305.27265			43387.38302		70.72800		324.00000 
 43692.65567		 889.56308			42803.09259		220.86200		875.00000 
 43692.65567		 305.27265			43387.38302		70.72800		324.00000 
 43692.65567		 889.56308			42803.09259		220.86200		875.00000 
 43692.65567		 305.27265			43387.38302		70.72800		324.00000 
 43692.65567		 889.56308			42803.09259		220.86200		875.00000 
 43692.65567		 305.27265			43387.38302		70.72800		324.00000 
 43692.65567		 889.56308			42803.09259		220.86200		875.00000 
 43692.65567		 305.27265			43387.38302		70.72800		324.00000 
 43692.65567		 889.56308			42803.09259		220.86200		875.00000 
 43692.65567		 305.27265			43387.38302		70.72800		324.00000 
 43692.65567		 889.56308			42803.09259		220.86200		875.00000 
 43692.65567		 305.27265			43387.38302		70.72800		324.00000 
 43692.65567		 889.56308			42803.09259		220.86200		875.00000 
 43692.65567		 305.27265			43387.38302		70.72800		324.00000 
 43692.65567		 889.56308			42803.09259		220.86200		875.00000 
 43692.65567		 305.27265			43387.38302		70.72800		324.00000 
 43692.65567		 889.56308			42803.09259		220.86200		875.00000 
 43692.65567		 305.27265			43387.38302		70.72800		324.00000 
 43692.65567		 889.56308			42803.09259		220.86200		875.00000 
 43692.65567		 305.27265			43387.38302		70.72800		324.00000 
 43692.65567		 889.56308			42803.09259		220.86200		875.00000 
 43692.65567		 305.27265			43387.38302		70.72800		324.00000 
 43692.65567		 889.56308			42803.09259		220.86200		875.00000 
 43692.65567		 305.27265			43387.38302		70.72800		324.00000 
 43692.65567		 889.56308			42803.09259		220.86200		875.00000 
 43692.65567		 305.27265			43387.38302		70.72800		324.00000 
 43692.65567		 889.56308			42803.09259		220.86200		875.00000 
 43692.65567		 305.27265			43387.38302		70.72800		324.00000 
 43692.65567		 889.56308			42803.09259		220.86200		875.00000 
 43692.65567		 305.27265			43387.38302		70.72800		324.00000 
 43692.65567		 889.56308			42803.09259		220.86200		875.00000 
 43692.65567		 305.27265			43387.38302		70.72800		324.00000 
 43692.65567		 889.56308			42803.09259		220.86200		875.00000 
 43692.65567		 305.27265			43387.38302		70.72800		324.00000 
 43692.65567		 889.56308			42803.09259		220.86200		875.00000 
 43692.65567		 305.27265			43387.38302		70.72800		324.00000 
 43692.65567		 889.56308			42803.09259		220.86200		875.00000 
 43692.65567		 305.27265			43387.38302		70.72800		324.00000 
 43692.65567		 889.56308			42803.09259		220.86200		875.00000 
 43692.65567		 305.27265			43387.38302		70.72800		324.00000 
 43692.65567		 889.56308			42803.09259		220.26200		875.00000 
 43692.65567		 305.27265			43387.38302		70.72800		324.00000 
 43692.65567		 889.56308			42803.09259		220.26200		875.00000 
 43692.65567		 305.27265			43387.38302		70.72800		324.00000 
 43692.65567		 889.56308			42803.09259		220.26200		875.00000 
 43692.65567		 305.27265			43387.38302		70.72800		324.00000 
 43692.65567		 889.56308			42803.09259		220.26200		875.00000 
 43692.65567		 305.27265			43387.38302		70.72800		324.00000 
 43692.65567		 889.56308			42803.09259		220.26200		875.00000 
 43692.65567		 305.27265			43387.38302		70.72800		324.00000 
 43692.65567		 889.56308			42803.09259		220.26200		875.00000 
 43692.65567		 305.27265			43387.38302		70.72800		324.00000 
 43692.65567		 889.56308			42803.09259		220.26200		875.00000 
 43692.65567		 305.27265			43387.38302		70.72800		324.00000 
 43692.65567		 889.56308			42803.09259		220.26200		875.00000 
 43692.65567		 305.27265			43387.38302		70.72800		324.00000 
 43692.65567		 889.56308			42803.09259		220.26200		875.00000 
 43692.65567		 305.27265			43387.38302		70.72800		324.00000 
 43692.65567		 889.56308			42803.09259		220.26200		875.00000 
 43692.65567		 305.27265			43387.38302		70.72800		324.00000 
 43692.65567		 889.56308			42803.09259		220.26200		875.00000 
 43692.65567		 305.27265			43387.38302		70.72800		324.00000 
 43692.65567		 889.56308			42803.09259		220.26200		875.00000 
 43692.65567		 305.27265			43387.38302		70.72800		324.00000 
 43692.65567		 889.56308			42803.09259		220.26200		875.00000 
 43692.65567		 305.27265			43387.38302		70.72800		324.00000 
 43692.65567		 889.56308			42803.09259		220.26200		875.00000 
 43692.65567		 305.27265			43387.38302		70.72800		324.00000 
 43692.65567		 889.56308			42803.09259		220.26200		875.00000 
 43692.65567		 305.27265			43387.38302		70.72800		324.00000 
 43692.65567		 889.56308			42803.09259		220.26200		875.00000 
 43692.65567		 305.27265			43387.38302		70.72800		324.00000 
 43692.65567		 889.56308			42803.09259		220.26200		875.00000 
 43692.65567		 305.27265			43387.38302		70.72800		324.00000 
 43692.65567		 889.56308			42803.09259		220.26200		875.00000 
 43692.65567		 305.27265			43387.38302		70.72800		324.00000 
 43692.65567		 889.56308			42803.09259		220.26200		875.00000 
 43692.65567		 305.27265			43387.38302		70.72800		324.00000 
 43692.65567		 889.56308			42803.09259		220.26200		875.00000 
 43692.65567		 305.27265			43387.38302		70.72800		324.00000 
 43692.65567		 889.56308			42803.09259		220.26200		875.00000 
 43692.65567		 305.27265			43387.38302		70.72800		324.00000 
 43692.65567		 889.56308			42803.09259		220.26200		875.00000 
 43692.65567		 305.27265			43387.38302		70.72800		324.00000 
 43692.65567		 889.56308			42803.09259		220.26200		875.00000 
 43692.65567		 305.27265			43387.38302		70.72800		324.00000 
 43692.65567		 889.56308			42803.09259		220.26200		875.00000 
 43692.65567		 305.27265			43387.38302		70.72800		324.00000 
 43692.65567		 889.56308			42803.09259		220.26200		875.00000 
 43692.65567		 305.27265			43387.38302		70.72800		324.00000 
 43692.65567		 889.56308			42803.09259		220.26200		875.00000 
 43692.65567		 305.27265			43387.38302		70.72800		324.00000 
 43692.65567		 889.56308			42803.09259		220.26200		875.00000 
 43692.65567		 305.27265			43387.38302		70.72800		324.00000 
 43692.65567		 889.56308			42803.09259		220.26200		875.00000 
 43692.65567		 305.27265			43387.38302		70.72800		324.00000 
 43692.65567		 889.56308			42803.09259		220.26200		875.00000 
 43692.65567		 305.27265			43387.38302		70.72800		324.00000 
 43692.65567		 889.56308			42803.09259		220.26200		875.00000 
 43692.65567		 305.27265			43387.38302		70.72800		324.00000 
 43692.65567		 889.56308			42803.09259		220.26200		875.00000 
 43692.65567		 305.27265			43387.38302		70.72800		324.00000 
 43692.65567		 889.56308			42803.09259		220.26200		875.00000 
 43692.65567		 305.27265			43387.38302		70.72800		324.00000 
 43692.65567		 889.56308			42803.09259		220.26200		875.00000 
 43692.65567		 305.27265			43387.38302		70.72800		324.00000 
 43692.65567		 889.56308			42803.09259		220.26200		875.00000 
 43692.65567		 305.27265			43387.38302		70.72800		324.00000 
 43692.65567		 889.56308			42803.09259		220.26200		875.00000 
 43692.65567		 305.27265			43387.38302		70.72800		324.00000 
 43692.65567		 889.56308			42803.09259		220.26200		875.00000 
 43692.65567		 305.27265			43387.38302		70.72800		324.00000 
 43692.65567		 889.56308			42803.09259		220.26200		875.00000 
 43692.65567		 305.27265			43387.38302		70.72800		324.00000 
 43692.65567		 889.56308			42803.09259		220.26200		875.00000 
 43692.65567		 305.27265			43387.38302		70.72800		324.00000 
 43692.65567		 889.56308			42803.09259		220.26200		875.00000 
 43692.65567		 305.27265			43387.38302		70.72800		324.00000 
 43692.65567		 889.56308			42803.09259		220.26200		875.00000 
 43692.65567		 305.27265			43387.38302		70.72800		324.00000 
 43692.65567		 889.56308			42803.09259		220.26200		875.00000 
 43692.65567		 305.27265			43387.38302		70.72800		324.00000 
 43692.65567		 889.56308			42803.09259		220.26200		875.00000 
 43692.65567		 305.27265			43387.38302		70.72800		324.00000 
 43692.65567		 889.56308			42803.09259		220.26200		875.00000 
 43692.65567		 305.27265			43387.38302		70.72800		324.00000 
 43692.65567		 889.56308			42803.09259		220.26200		875.00000 
 43692.65567		 305.27265			43387.38302		70.72800		324.00000 
 43692.65567		 889.56308			42803.09259		220.26200		875.00000 
 43692.65567		 305.27265			43387.38302		70.72800		324.00000 
 43692.65567		 889.56308			42803.09259		220.26200		875.00000 
 43692.65567		 305.27265			43387.38302		70.72800		324.00000 
 43692.65567		 889.56308			42803.09259		220.26200		875.00000 
 43692.65567		 305.27265			43387.38302		70.72800		324.00000 
 43692.65567		 889.56308			42803.09259		220.26200		875.00000 
 43692.65567		 305.27265			43387.38302		70.72800		324.00000 
 43692.65567		 889.56308			42803.09259		220.26200		875.00000 
 43692.65567		 305.27265			43387.38302		70.72800		324.00000 
 43692.65567		 889.56308			42803.09259		220.26200		875.00000 
 43692.65567		 305.27265			43387.38302		70.72800		324.00000 
 43692.65567		 889.56308			42803.09259		220.26200		875.00000 
 43692.65567		 305.27265			43387.38302		70.72800		324.00000 
 43692.65567		 889.56308			42803.09259		220.26200		875.00000 
 43692.65567		 305.27265			43387.38302		70.72800		324.00000 
 43692.65567		 889.56308			42803.09259		220.26200		875.00000 
 43692.65567		 305.27265			43387.38302		70.72800		324.00000 
 43692.65567		 889.56308			42803.09259		220.26200		875.00000 
 43692.65567		 305.27265			43387.38302		70.72800		324.00000 
 43692.65567		 889.56308			42803.09259		220.26200		875.00000 
 43692.65567		 305.27265			43387.38302		70.72800		324.00000 
 43692.65567		 889.56308			42803.09259		220.26200		875.00000 
 43692.65567		 305.27265			43387.38302		70.72800		324.00000 
 43692.65567		 889.56308			42803.09259		220.26200		875.00000 
 43692.65567		 305.27265			43387.38302		70.72800		324.00000 
 43692.65567		 889.56308			42803.09259		220.26200		875.00000 
 43692.65567		 305.27265			43387.38302		70.72800		324.00000 
 43692.65567		 889.56308			42803.09259		220.26200		875.00000 
 43692.65567		 305.27265			43387.38302		70.72800		324.00000 
 43692.65567		 889.56308			42803.09259		220.26200		875.00000 
 43692.65567		 305.27265			43387.38302		70.72800		324.00000 
 43692.65567		 889.56308			42803.09259		220.26200		875.00000 
 43692.65567		 305.27265			43387.38302		70.72800		324.00000 
 43692.65567		 889.56308			42803.09259		220.26200		875.00000 
 43692.65567		 305.27265			43387.38302		70.72800		324.00000 
 43692.65567		 889.56308			42803.09259		220.26200		875.00000 
 43692.65567		 305.27265			43387.38302		70.72800		324.00000 
 43692.65567		 889.56308			42803.09259		220.26200		875.00000 
 43692.65567		 305.27265			43387.38302		70.72800		324.00000 
 43692.65567		 889.56308			42803.09259		220.26200		875.00000 
 43692.65567		 305.27265			43387.38302		70.72800		324.00000 
 43692.65567		 889.56308			42803.09259		220.26200		875.00000 
 43692.65567		 305.27265			43387.38302		70.72800		324.00000 
 43692.65567		 889.56308			42803.09259		220.26200		875.00000 
 43692.65567		 305.27265			43387.38302		70.72800		324.00000 
 43692.65567		 889.56308			42803.09259		220.26200		875.00000 
 43692.65567		 305.27265			43387.38302		70.72800		324.00000 
 43692.65567		 889.56308			42803.09259		220.26200		875.00000 
 43692.65567		 305.27265			43387.38302		70.72800		324.00000 
 43692.65567		 889.56308			42803.09259		220.26200		875.00000 
 43692.65567		 305.27265			43387.38302		70.72800		324.00000 
 43692.65567		 889.56308			42803.09259		220.26200		875.00000 
 43692.65567		 305.27265			43387.38302		70.72800		324.00000 
 43692.65567		 889.56308			42803.09259		220.26200		875.00000 
 43692.65567		 305.27265			43387.38302		70.72800		324.00000 
 43692.65567		 889.56308			42803.09259		220.26200		875.00000 
 43692.65567		 305.27265			43387.38302		70.72800		324.00000 
 43692.65567		 889.56308			42803.09259		220.26200		875.00000 
 43692.65567		 305.27265			43387.38302		70.72800		324.00000 
 43692.65567		 889.56308			42803.09259		220.26200		875.00000 
 43692.65567		 305.27265			43387.38302		70.72800		324.00000 
 43692.65567		 889.56308			42803.09259		220.26200		875.00000 
 43692.65567		 305.27265			43387.38302		70.72800		324.00000 
 43692.65567		 889.56308			42803.09259		220.26200		875.00000 
 43692.65567		 305.27265			43387.38302		70.72800		324.00000 
 43692.65567		 889.56308			42803.09259		220.26200		875.00000 
 43692.65567		 305.27265			43387.38302		70.72800		324.00000 
 43692.65567		 889.56308			42803.09259		220.26200		875.00000 
 43692.65567		 305.27265			43387.38302		70.72800		324.00000 
 43692.65567		 889.56308			42803.09259		220.26200		875.00000 
 43692.65567		 305.27265			43387.38302		70.72800		324.00000 
 43692.65567		 889.56308			42803.09259		220.26200		875.00000 
 43692.65567		 305.27265			43387.38302		70.72800		324.00000 
 43692.65567		 889.56308			42803.09259		220.26200		875.00000 
 43692.65567		 305.27265			43387.38302		70.72800		324.00000 
 43692.65567		 889.56308			42803.09259		220.26200		875.00000 
 43692.65567		 305.27265			43387.38302		70.72800		324.00000 
 43692.65567		 889.56308			42803.09259		220.26200		875.00000 
 43692.65567		 305.27265			43387.38302		70.72800		324.00000 
 43692.65567		 889.56308			42803.09259		220.26200		875.00000 
 43692.65567		 305.27265			43387.38302		70.72800		324.00000 
 43692.65567		 889.56308			42803.09259		220.26200		875.00000 
 43692.65567		 305.27265			43387.38302		70.72800		324.00000 
 43692.65567		 889.56308			42803.09259		220.26200		875.00000 
 43692.65567		 305.27265			43387.38302		70.72800		324.00000 
 43692.65567		 889.56308			42803.09259		220.26200		875.00000 
 43692.65567		 305.27265			43387.38302		70.72800		324.00000 
 43692.65567		 889.56308			42803.09259		220.26200		875.00000 
 43692.65567		 305.27265			43387.38302		70.72800		324.00000 
 43692.65567		 889.56308			42803.09259		220.26200		875.00000 
 43692.65567		 305.27265			43387.38302		70.72800		324.00000 
 43692.65567		 889.56308			42803.09259		220.26200		875.00000 
 43692.65567		 305.27265			43387.38302		70.72800		324.00000 
 43692.65567		 889.56308			42803.09259		220.26200		875.00000 
 43692.65567		 305.27265			43387.38302		70.72800		324.00000 
 43692.65567		 889.56308			42803.09259		220.26200		875.00000 
 43692.65567		 305.27265			43387.38302		70.72800		324.00000 
 43692.65567		 889.56308			42803.09259		220.26200		875.00000 
 43692.65567		 305.27265			43387.38302		70.72800		324.00000 
 43692.65567		 889.56308			42803.09259		220.26200		875.00000 
 43692.65567		 305.27265			43387.38302		70.72800		324.00000 
 43692.65567		 889.56308			42803.09259		220.26200		875.00000 
 43692.65567		 305.27265			43387.38302		70.72800		324.00000 
 43692.65567		 889.56308			42803.09259		220.26200		875.00000 
 43692.65567		 305.27265			43387.38302		70.72800		324.00000 
 43692.65567		 889.56308			42803.09259		220.26200		875.00000 
 43692.65567		 305.27265			43387.38302		70.72800		324.00000 
 43692.65567		 889.56308			42803.09259		220.26200		875.00000 
 43692.65567		 305.27265			43387.38302		70.72800		324.00000 
 43692.65567		 889.56308			42803.09259		220.26200		875.00000 
 43692.65567		 305.27265			43387.38302		70.72800		324.00000 
 43692.65567		 889.56308			42803.09259		220.26200		875.00000 
 43692.65567		 305.27265			43387.38302		70.72800		324.00000 
 43692.65567		 889.56308			42803.09259		220.26200		875.00000 
 43692.65567		 305.27265			43387.38302		70.72800		324.00000 
 43692.65567		 889.56308			42803.09259		220.26200		875.00000 
 43692.65567		 305.27265			43387.38302		70.72800		324.00000 
 43692.65567		 889.56308			42803.09259		220.26200		875.00000 
 43692.65567		 305.27265			43387.38302		70.72800		324.00000 
 43692.65567		 889.56308			42803.09259		220.26200		875.00000 
 43692.65567		 305.27265			43387.38302		70.72800		324.00000 
 43692.65567		 889.56308			42803.09259		220.26200		875.00000 
 43692.65567		 305.27265			43387.38302		70.72800		324.00000 
 43692.65567		 889.56308			42803.09259		220.26200		875.00000 
 43692.65567		 305.27265			43387.38302		70.72800		324.00000 
 43692.65567		 889.56308			42803.09259		220.26200		875.00000 
 43692.65567		 305.27265			43387.38302		70.72800		324.00000 
 43692.65567		 889.56308			42803.09259		220.26200		875.00000 
 43692.65567		 305.27265			43387.38302		70.72800		324.00000 
 43692.65567		 889.56308			42803.09259		220.26200		875.00000 
 43692.65567		 305.27265			43387.38302		70.72800		324.00000 
 43692.65567		 889.56308			42803.09259		220.26200		875.00000 
 43692.65567		 305.27265			43387.38302		70.72800		324.00000 
 43692.65567		 889.56308			42803.09259		220.26200		875.00000 
 43692.65567		 305.27265			43387.38302		70.72800		324.00000 
 43692.65567		 889.56308			42803.09259		220.26200		875.00000 
 43692.65567		 305.27265			43387.38302		70.72800		324.00000 
 43692.65567		 889.56308			42803.09259		220.26200		875.00000 
 43692.65567		 305.27265			43387.38302		70.72800		324.00000 
 43692.65567		 889.56308			42803.09259		220.26200		875.00000 
 43692.65567		 305.27265			43387.38302		70.72800		324.00000 
 43692.65567		 889.56308			42803.09259		220.26200		875.00000 
 43692.65567		 305.27265			43387.38302		70.72800		324.00000 
 43692.65567		 889.56308			42803.09259		220.26200		875.00000 
 43692.65567		 305.27265			43387.38302		70.72800		324.00000 
 43692.65567		 889.56308			42803.09259		220.26200		875.00000 
 43692.65567		 305.27265			43387.38302		70.72800		324.00000 
 43692.65567		 889.56308			42803.09259		220.26200		875.00000 
 43692.65567		 305.27265			43387.38302		70.72800		324.00000 
 43692.65567		 889.56308			42803.09259		220.26200		875.00000 
 43692.65567		 305.27265			43387.38302		70.72800		324.00000 
 43692.65567		 889.56308			42803.09259		220.26200		875.00000 
 43692.65567		 305.27265			43387.38302		70.72800		324.00000 
 43692.65567		 889.56308			42803.09259		220.26200		875.00000 
 43692.65567		 305.27265			43387.38302		70.72800		324.00000 
 43692.65567		 889.56308			42803.09259		220.26200		875.00000 
 43692.65567		 305.27265			43387.38302		70.72800		324.00000 
 43692.65567		 889.56308			42803.09259		220.26200		875.00000 
 43692.65567		 305.27265			43387.38302		70.72800		324.00000 
 43692.65567		 889.56308			42803.09259		220.26200		875.00000 
 43692.65567		 305.27265			43387.38302		70.72800		324.00000 
 43692.65567		 889.56308			42803.09259		220.26200		875.00000 
 43692.65567		 305.27265			43387.38302		70.72800		324.00000 
 43692.65567		 889.56308			42803.09259		220.26200		875.00000 
 43692.65567		 305.27265			43387.38302		70.72800		324.00000 
 43692.65567		 889.56308			42803.09259		220.26200		875.00000 
 43692.65567		 305.27265			43387.38302		70.72800		324.00000 
 43692.65567		 889.56308			42803.09259		220.26200		875.00000 
 43692.65567		 305.27265			43387.38302		70.72800		324.00000 
 43692.65567		 889.56308			42803.09259		220.26200		875.00000 
 43692.65567		 305.27265			43387.38302		70.72800		324.00000 
 43692.65567		 889.56308			42803.09259		221.22600		875.00000 
 43692.65567		 305.27265			43387.38302		70.72800		324.00000 
 43692.65567		 889.56308			42803.09259		221.22600		875.00000 
 43692.65567		 305.27265			43387.38302		70.72800		324.00000 
 43692.65567		 889.56308			42803.09259		221.22600		875.00000 
 43692.65567		 305.27265			43387.38302		70.72800		324.00000 
 43692.65567		 889.56308			42803.09259		221.22600		875.00000 
 43692.65567		 305.27265			43387.38302		70.72800		324.00000 
 43692.65567		 889.56308			42803.09259		221.22600		875.00000 
 43692.65567		 305.27265			43387.38302		70.72800		324.00000 
 43692.65567		 889.56308			42803.09259		221.22600		875.00000 
 43692.65567		 305.27265			43387.38302		70.72800		324.00000 
 43692.65567		 889.56308			42803.09259		221.22600		875.00000 
 43692.65567		 305.27265			43387.38302		70.72800		324.00000 
 43692.65567		 889.56308			42803.09259		221.22600		875.00000 
 43692.65567		 305.27265			43387.38302		70.72800		324.00000 
 43692.65567		 889.56308			42803.09259		221.22600		875.00000 
 43692.65567		 305.27265			43387.38302		70.72800		324.00000 
 43692.65567		 889.56308			42803.09259		221.22600		875.00000 
 43692.65567		 305.27265			43387.38302		70.72800		324.00000 
 43692.65567		 889.56308			42803.09259		221.22600		875.00000 
 43692.65567		 305.27265			43387.38302		70.72800		324.00000 
 43692.65567		 889.56308			42803.09259		221.22600		875.00000 
 43692.65567		 305.27265			43387.38302		70.72800		324.00000 
 43692.65567		 889.56308			42803.09259		221.22600		875.00000 
 43692.65567		 305.27265			43387.38302		70.72800		324.00000 
 43692.65567		 889.56308			42803.09259		221.22600		875.00000 
 43692.65567		 305.27265			43387.38302		70.72800		324.00000 
 43692.65567		 889.56308			42803.09259		221.22600		875.00000 
 43692.65567		 305.27265			43387.38302		70.72800		324.00000 
 43692.65567		 889.56308			42803.09259		221.22600		875.00000 
 43692.65567		 305.27265			43387.38302		70.72800		324.00000 
 43692.65567		 889.56308			42803.09259		221.22600		875.00000 
 43692.65567		 305.27265			43387.38302		70.72800		324.00000 
 43692.65567		 889.56308			42803.09259		221.22600		875.00000 
 43692.65567		 305.27265			43387.38302		70.72800		324.00000 
 43692.65567		 889.56308			42803.09259		221.22600		875.00000 
 43692.65567		 305.27265			43387.38302		70.72800		324.00000 
 43692.65567		 889.56308			42803.09259		221.22600		875.00000 
 43692.65567		 305.27265			43387.38302		70.72800		324.00000 
 43692.65567		 889.56308			42803.09259		221.22600		875.00000 
 43692.65567		 305.27265			43387.38302		70.72800		324.00000 
 43692.65567		 889.56308			42803.09259		221.22600		875.00000 
 43692.65567		 305.27265			43387.38302		70.72800		324.00000 
 43692.65567		 889.56308			42803.09259		221.22600		875.00000 
 43692.65567		 305.27265			43387.38302		70.72800		324.00000 
 43692.65567		 889.56308			42803.09259		221.22600		875.00000 
 43692.65567		 305.27265			43387.38302		70.72800		324.00000 
 43692.65567		 889.56308			42803.09259		221.22600		875.00000 
 43692.65567		 305.27265			43387.38302		70.72800		324.00000 
 43692.65567		 889.56308			42803.09259		221.22600		875.00000 
 43692.65567		 305.27265			43387.38302		70.72800		324.00000 
 43692.65567		 889.56308			42803.09259		221.22600		875.00000 
 43692.65567		 305.27265			43387.38302		70.72800		324.00000 
 43692.65567		 889.56308			42803.09259		221.22600		875.00000 
 43692.65567		 305.27265			43387.38302		70.72800		324.00000 
 43692.65567		 889.56308			42803.09259		221.22600		875.00000 
 43692.65567		 305.27265			43387.38302		70.72800		324.00000 
 43692.65567		 889.56308			42803.09259		221.22600		875.00000 
 43692.65567		 305.27265			43387.38302		70.72800		324.00000 
 43692.65567		 889.56308			42803.09259		221.22600		875.00000 
 43692.65567		 305.27265			43387.38302		70.72800		324.00000 
 43692.65567		 889.56308			42803.09259		221.22600		875.00000 
 43692.65567		 305.27265			43387.38302		70.72800		324.00000 
 43692.65567		 889.56308			42803.09259		221.22600		875.00000 
 43692.65567		 305.27265			43387.38302		70.72800		324.00000 
 43692.65567		 889.56308			42803.09259		221.22600		875.00000 
 43692.65567		 305.27265			43387.38302		70.72800		324.00000 
 43692.65567		 889.56308			42803.09259		221.22600		875.00000 
 43692.65567		 305.27265			43387.38302		70.72800		324.00000 
 43692.65567		 889.56308			42803.09259		221.22600		875.00000 
 43692.65567		 305.27265			43387.38302		70.72800		324.00000 
 43692.65567		 889.56308			42803.09259		221.22600		875.00000 
 43692.65567		 305.27265			43387.38302		70.72800		324.00000 
 43692.65567		 889.56308			42803.09259		221.22600		875.00000 
 43692.65567		 305.27265			43387.38302		70.72800		324.00000 
 43692.65567		 889.56308			42803.09259		221.22600		875.00000 
 43692.65567		 305.27265			43387.38302		70.72800		324.00000 
 43692.65567		 889.56308			42803.09259		221.22600		875.00000 
 43692.65567		 305.27265			43387.38302		70.72800		324.00000 
 43692.65567		 889.56308			42803.09259		221.22600		875.00000 
 43692.65567		 305.27265			43387.38302		70.72800		324.00000 
 43692.65567		 889.56308			42803.09259		221.22600		875.00000 
 43692.65567		 305.27265			43387.38302		70.72800		324.00000 
 43692.65567		 889.56308			42803.09259		221.22600		875.00000 
 43692.65567		 305.27265			43387.38302		70.72800		324.00000 
 43692.65567		 889.56308			42803.09259		221.22600		875.00000 
 43692.65567		 305.27265			43387.38302		70.72800		324.00000 
 43692.65567		 889.56308			42803.09259		221.22600		875.00000 
 43692.65567		 305.27265			43387.38302		70.72800		324.00000 
 43692.65567		 889.56308			42803.09259		221.22600		875.00000 
 43692.65567		 305.27265			43387.38302		70.72800		324.00000 
 43692.65567		 889.56308			42803.09259		221.22600		875.00000 
 43692.65567		 305.27265			43387.38302		70.72800		324.00000 
 43692.65567		 889.56308			42803.09259		221.22600		875.00000 
 43692.65567		 305.27265			43387.38302		70.72800		324.00000 
 43692.65567		 889.56308			42803.09259		221.22600		875.00000 
 43692.65567		 305.27265			43387.38302		70.72800		324.00000 
 43692.65567		 889.56308			42803.09259		221.22600		875.00000 
 43692.65567		 305.27265			43387.38302		70.72800		324.00000 
 43692.65567		 889.56308			42803.09259		221.22600		875.00000 
 43692.65567		 305.27265			43387.38302		70.72800		324.00000 
 43692.65567		 889.56308			42803.09259		221.22600		875.00000 
 43692.65567		 305.27265			43387.38302		70.72800		324.00000 
 43692.65567		 889.56308			42803.09259		221.22600		875.00000 
 43692.65567		 305.27265			43387.38302		70.72800		324.00000 
 43692.65567		 889.56308			42803.09259		221.22600		875.00000 
 43692.65567		 305.27265			43387.38302		70.72800		324.00000 
 43692.65567		 889.56308			42803.09259		221.22600		875.00000 
 43692.65567		 305.27265			43387.38302		70.72800		324.00000 
 43692.65567		 889.56308			42803.09259		221.22600		875.00000 
 43692.65567		 305.27265			43387.38302		70.72800		324.00000 
 43692.65567		 889.56308			42803.09259		221.22600		875.00000 
 43692.65567		 305.27265			43387.38302		70.72800		324.00000 
 43692.65567		 889.56308			42803.09259		221.22600		875.00000 
 43692.65567		 305.27265			43387.38302		70.72800		324.00000 
 43692.65567		 889.56308			42803.09259		221.22600		875.00000 
 43692.65567		 305.27265			43387.38302		70.72800		324.00000 
 43692.65567		 889.56308			42803.09259		221.22600		875.00000 
 43692.65567		 305.27265			43387.38302		70.72800		324.00000 
 43692.65567		 889.56308			42803.09259		221.22600		875.00000 
 43692.65567		 305.27265			43387.38302		70.72800		324.00000 
 43692.65567		 889.56308			42803.09259		221.22600		875.00000 
 43692.65567		 305.27265			43387.38302		70.72800		324.00000 
 43692.65567		 889.56308			42803.09259		221.22600		875.00000 
 43692.65567		 305.27265			43387.38302		70.72800		324.00000 
 43692.65567		 889.56308			42803.09259		221.22600		875.00000 
 43692.65567		 305.27265			43387.38302		70.72800		324.00000 
 43692.65567		 889.56308			42803.09259		220.86200		875.00000 
 43692.65567		 305.27265			43387.38302		70.72800		324.00000 
 43692.65567		 889.56308			42803.09259		220.86200		875.00000 
 43692.65567		 305.27265			43387.38302		70.72800		324.00000 
 43692.65567		 889.56308			42803.09259		220.86200		875.00000 
 43692.65567		 305.27265			43387.38302		70.72800		324.00000 
 43692.65567		 889.56308			42803.09259		220.86200		875.00000 
 43692.65567		 305.27265			43387.38302		70.72800		324.00000 
 43692.65567		 889.56308			42803.09259		220.86200		875.00000 
 43692.65567		 305.27265			43387.38302		70.72800		324.00000 
 43692.65567		 889.56308			42803.09259		220.86200		875.00000 
 43692.65567		 305.27265			43387.38302		70.72800		324.00000 
 43692.65567		 889.56308			42803.09259		220.86200		875.00000 
 43692.65567		 305.27265			43387.38302		70.72800		324.00000 
 43692.65567		 889.56308			42803.09259		220.86200		875.00000 
 43692.65567		 305.27265			43387.38302		70.72800		324.00000 
 43692.65567		 889.56308			42803.09259		220.86200		875.00000 
 43692.65567		 305.27265			43387.38302		70.72800		324.00000 
 43692.65567		 889.56308			42803.09259		220.86200		875.00000 
 43692.65567		 305.27265			43387.38302		70.72800		324.00000 
 43692.65567		 889.56308			42803.09259		220.86200		875.00000 
 43692.65567		 305.27265			43387.38302		70.72800		324.00000 
 43692.65567		 889.56308			42803.09259		220.86200		875.00000 
 43692.65567		 305.27265			43387.38302		70.72800		324.00000 
 43692.65567		 889.56308			42803.09259		220.86200		875.00000 
 43692.65567		 305.27265			43387.38302		70.72800		324.00000 
 43692.65567		 889.56308			42803.09259		220.86200		875.00000 
 43692.65567		 305.27265			43387.38302		70.72800		324.00000 
 43692.65567		 889.56308			42803.09259		220.86200		875.00000 
 43692.65567		 305.27265			43387.38302		70.72800		324.00000 
 43692.65567		 889.56308			42803.09259		220.86200		875.00000 
 43692.65567		 305.27265			43387.38302		70.72800		324.00000 
 43692.65567		 889.56308			42803.09259		220.86200		875.00000 
 43692.65567		 305.27265			43387.38302		70.72800		324.00000 
 43692.65567		 889.56308			42803.09259		220.86200		875.00000 
 43692.65567		 305.27265			43387.38302		70.72800		324.00000 
 43692.65567		 889.56308			42803.09259		220.86200		875.00000 
 43692.65567		 305.27265			43387.38302		70.72800		324.00000 
 43692.65567		 889.56308			42803.09259		220.86200		875.00000 
 43692.65567		 305.27265			43387.38302		70.72800		324.00000 
 43692.65567		 889.56308			42803.09259		220.86200		875.00000 
 43692.65567		 305.27265			43387.38302		70.72800		324.00000 
 43692.65567		 889.56308			42803.09259		220.86200		875.00000 
 43692.65567		 305.27265			43387.38302		70.72800		324.00000 
 43692.65567		 889.56308			42803.09259		220.86200		875.00000 
 43692.65567		 305.27265			43387.38302		70.72800		324.00000 
 43692.65567		 889.56308			42803.09259		220.86200		875.00000 
 43692.65567		 305.27265			43387.38302		70.72800		324.00000 
 43692.65567		 889.56308			42803.09259		220.86200		875.00000 
 43692.65567		 305.27265			43387.38302		70.72800		324.00000 
 43692.65567		 889.56308			42803.09259		220.86200		875.00000 
 43692.65567		 305.27265			43387.38302		70.72800		324.00000 
 43692.65567		 889.56308			42803.09259		220.86200		875.00000 
 43692.65567		 305.27265			43387.38302		70.72800		324.00000 
 43692.65567		 889.56308			42803.09259		220.86200		875.00000 
 43692.65567		 305.27265			43387.38302		70.72800		324.00000 
 43692.65567		 889.56308			42803.09259		220.86200		875.00000 
 43692.65567		 305.27265			43387.38302		70.72800		324.00000 
 43692.65567		 889.56308			42803.09259		220.86200		875.00000 
 43692.65567		 305.27265			43387.38302		70.72800		324.00000 
 43692.65567		 889.56308			42803.09259		220.86200		875.00000 
 43692.65567		 305.27265			43387.38302		70.72800		324.00000 
 43692.65567		 889.56308			42803.09259		220.86200		875.00000 
 43692.65567		 305.27265			43387.38302		70.72800		324.00000 
 43692.65567		 889.56308			42803.09259		220.86200		875.00000 
 43692.65567		 305.27265			43387.38302		70.72800		324.00000 
 43692.65567		 889.56308			42803.09259		220.86200		875.00000 
 43692.65567		 305.27265			43387.38302		70.72800		324.00000 
 43692.65567		 889.56308			42803.09259		220.86200		875.00000 
 43692.65567		 305.27265			43387.38302		70.72800		324.00000 
 43692.65567		 889.56308			42803.09259		220.86200		875.00000 
 43692.65567		 305.27265			43387.38302		70.72800		324.00000 
 43692.65567		 889.56308			42803.09259		220.86200		875.00000 
 43692.65567		 305.27265			43387.38302		70.72800		324.00000 
 43692.65567		 889.56308			42803.09259		220.86200		875.00000 
 43692.65567		 305.27265			43387.38302		70.72800		324.00000 
 43692.65567		 889.56308			42803.09259		220.86200		875.00000 
 43692.65567		 305.27265			43387.38302		70.72800		324.00000 
 43692.65567		 889.56308			42803.09259		220.86200		875.00000 
 43692.65567		 305.27265			43387.38302		70.72800		324.00000 
 43692.65567		 889.56308			42803.09259		220.86200		875.00000 
 43692.65567		 305.27265			43387.38302		70.72800		324.00000 
 43692.65567		 889.56308			42803.09259		220.86200		875.00000 
 43692.65567		 305.27265			43387.38302		70.72800		324.00000 
 43692.65567		 889.56308			42803.09259		220.86200		875.00000 
 43692.65567		 305.27265			43387.38302		70.72800		324.00000 
 43692.65567		 889.56308			42803.09259		220.86200		875.00000 
 43692.65567		 305.27265			43387.38302		70.72800		324.00000 
 43692.65567		 889.56308			42803.09259		220.86200		875.00000 
 43692.65567		 305.27265			43387.38302		70.72800		324.00000 
 43692.65567		 889.56308			42803.09259		220.86200		875.00000 
 43692.65567		 305.27265			43387.38302		70.72800		324.00000 
 43692.65567		 889.56308			42803.09259		220.86200		875.00000 
 43692.65567		 305.27265			43387.38302		70.72800		324.00000 
 43692.65567		 889.56308			42803.09259		220.86200		875.00000 
 43692.65567		 305.27265			43387.38302		70.72800		324.00000 
 43692.65567		 889.56308			42803.09259		220.86200		875.00000 
 43692.65567		 305.27265			43387.38302		70.72800		324.00000 
 43692.65567		 889.56308			42803.09259		220.86200		875.00000 
 43692.65567		 305.27265			43387.38302		70.72800		324.00000 
 43692.65567		 889.56308			42803.09259		220.86200		875.00000 
 43692.65567		 305.27265			43387.38302		70.72800		324.00000 
 43692.65567		 889.56308			42803.09259		220.86200		875.00000 
 43692.65567		 305.27265			43387.38302		70.72800		324.00000 
 43692.65567		 889.56308			42803.09259		220.86200		875.00000 
 43692.65567		 305.27265			43387.38302		70.72800		324.00000 
 43692.65567		 889.56308			42803.09259		220.86200		875.00000 
 43692.65567		 305.27265			43387.38302		70.72800		324.00000 
 43692.65567		 889.56308			42803.09259		220.86200		875.00000 
 43692.65567		 305.27265			43387.38302		70.72800		324.00000 
 43692.65567		 889.56308			42803.09259		220.86200		875.00000 
 43692.65567		 305.27265			43387.38302		70.72800		324.00000 
 43692.65567		 889.56308			42803.09259		220.86200		875.00000 
 43692.65567		 305.27265			43387.38302		70.72800		324.00000 
 43692.65567		 889.56308			42803.09259		220.86200		875.00000 
 43692.65567		 305.27265			43387.38302		70.72800		324.00000 
 43692.65567		 889.56308			42803.09259		220.86200		875.00000 
 43692.65567		 305.27265			43387.38302		70.72800		324.00000 
 43692.65567		 889.56308			42803.09259		220.86200		875.00000 
 43692.65567		 305.27265			43387.38302		70.72800		324.00000 
 43692.65567		 889.56308			42803.09259		220.86200		875.00000 
 43692.65567		 305.27265			43387.38302		70.72800		324.00000 
 43692.65567		 889.56308			42803.09259		220.86200		875.00000 
 43692.65567		 305.27265			43387.38302		70.72800		324.00000 
 43692.65567		 889.56308			42803.09259		220.86200		875.00000 
 43692.65567		 305.27265			43387.38302		70.72800		324.00000 
 43692.65567		 889.56308			42803.09259		220.86200		875.00000 
 43692.65567		 305.27265			43387.38302		70.72800		324.00000 
 43692.65567		 889.56308			42803.09259		220.86200		875.00000 
 43692.65567		 305.27265			43387.38302		70.72800		324.00000 
 43692.65567		 889.56308			42803.09259		221.82600		875.00000 
 43692.65567		 305.27265			43387.38302		70.72800		324.00000 
 43692.65567		 889.56308			42803.09259		221.82600		875.00000 
 43692.65567		 305.27265			43387.38302		70.72800		324.00000 
 43692.65567		 889.56308			42803.09259		221.82600		875.00000 
 43692.65567		 305.27265			43387.38302		70.72800		324.00000 
 43692.65567		 889.56308			42803.09259		221.82600		875.00000 
 43692.65567		 305.27265			43387.38302		70.72800		324.00000 
 43692.65567		 889.56308			42803.09259		221.82600		875.00000 
 43692.65567		 305.27265			43387.38302		70.72800		324.00000 
 43692.65567		 889.56308			42803.09259		221.82600		875.00000 
 43692.65567		 305.27265			43387.38302		70.72800		324.00000 
 43692.65567		 889.56308			42803.09259		221.82600		875.00000 
 43692.65567		 305.27265			43387.38302		70.72800		324.00000 
 43692.65567		 889.56308			42803.09259		221.82600		875.00000 
 43692.65567		 305.27265			43387.38302		70.72800		324.00000 
 43692.65567		 889.56308			42803.09259		221.82600		875.00000 
 43692.65567		 305.27265			43387.38302		70.72800		324.00000 
 43692.65567		 889.56308			42803.09259		221.82600		875.00000 
 43692.65567		 305.27265			43387.38302		70.72800		324.00000 
 43692.65567		 889.56308			42803.09259		221.82600		875.00000 
 43692.65567		 305.27265			43387.38302		70.72800		324.00000 
 43692.65567		 889.56308			42803.09259		221.82600		875.00000 
 43692.65567		 305.27265			43387.38302		70.72800		324.00000 
 43692.65567		 889.56308			42803.09259		221.82600		875.00000 
 43692.65567		 305.27265			43387.38302		70.72800		324.00000 
 43692.65567		 889.56308			42803.09259		221.82600		875.00000 
 43692.65567		 305.27265			43387.38302		70.72800		324.00000 
 43692.65567		 889.56308			42803.09259		221.82600		875.00000 
 43692.65567		 305.27265			43387.38302		70.72800		324.00000 
 43692.65567		 889.56308			42803.09259		221.82600		875.00000 
 43692.65567		 305.27265			43387.38302		70.72800		324.00000 
 43692.65567		 889.56308			42803.09259		221.82600		875.00000 
 43692.65567		 305.27265			43387.38302		70.72800		324.00000 
 43692.65567		 889.56308			42803.09259		221.82600		875.00000 
 43692.65567		 305.27265			43387.38302		70.72800		324.00000 
 43692.65567		 889.56308			42803.09259		221.82600		875.00000 
 43692.65567		 305.27265			43387.38302		70.72800		324.00000 
 43692.65567		 889.56308			42803.09259		221.82600		875.00000 
 43692.65567		 305.27265			43387.38302		70.72800		324.00000 
 43692.65567		 889.56308			42803.09259		221.82600		875.00000 
 43692.65567		 305.27265			43387.38302		70.72800		324.00000 
 43692.65567		 889.56308			42803.09259		221.82600		875.00000 
 43692.65567		 305.27265			43387.38302		70.72800		324.00000 
 43692.65567		 889.56308			42803.09259		221.82600		875.00000 
 43692.65567		 305.27265			43387.38302		70.72800		324.00000 
 43692.65567		 889.56308			42803.09259		221.82600		875.00000 
 43692.65567		 305.27265			43387.38302		70.72800		324.00000 
 43692.65567		 889.56308			42803.09259		221.82600		875.00000 
 43692.65567		 305.27265			43387.38302		70.72800		324.00000 
 43692.65567		 889.56308			42803.09259		221.82600		875.00000 
 43692.65567		 305.27265			43387.38302		70.72800		324.00000 
 43692.65567		 889.56308			42803.09259		221.82600		875.00000 
 43692.65567		 305.27265			43387.38302		70.72800		324.00000 
 43692.65567		 889.56308			42803.09259		221.82600		875.00000 
 43692.65567		 305.27265			43387.38302		70.72800		324.00000 
 43692.65567		 889.56308			42803.09259		221.82600		875.00000 
 43692.65567		 305.27265			43387.38302		70.72800		324.00000 
 43692.65567		 889.56308			42803.09259		221.82600		875.00000 
 43692.65567		 305.27265			43387.38302		70.72800		324.00000 
 43692.65567		 889.56308			42803.09259		221.82600		875.00000 
 43692.65567		 305.27265			43387.38302		70.72800		324.00000 
 43692.65567		 889.56308			42803.09259		221.82600		875.00000 
 43692.65567		 305.27265			43387.38302		70.72800		324.00000 
 43692.65567		 889.56308			42803.09259		221.82600		875.00000 
 43692.65567		 305.27265			43387.38302		70.72800		324.00000 
 43692.65567		 889.56308			42803.09259		221.82600		875.00000 
 43692.65567		 305.27265			43387.38302		70.72800		324.00000 
 43692.65567		 889.56308			42803.09259		221.82600		875.00000 
 43692.65567		 305.27265			43387.38302		70.72800		324.00000 
 43692.65567		 889.56308			42803.09259		221.82600		875.00000 
 43692.65567		 305.27265			43387.38302		70.72800		324.00000 
 43692.65567		 889.56308			42803.09259		221.82600		875.00000 
 43692.65567		 305.27265			43387.38302		70.72800		324.00000 
 43692.65567		 889.56308			42803.09259		221.82600		875.00000 
 43692.65567		 305.27265			43387.38302		70.72800		324.00000 
 43692.65567		 889.56308			42803.09259		221.82600		875.00000 
 43692.65567		 305.27265			43387.38302		70.72800		324.00000 
 43692.65567		 889.56308			42803.09259		221.82600		875.00000 
 43692.65567		 305.27265			43387.38302		70.72800		324.00000 
 43692.65567		 889.56308			42803.09259		221.82600		875.00000 
 43692.65567		 305.27265			43387.38302		70.72800		324.00000 
 43692.65567		 889.56308			42803.09259		221.82600		875.00000 
 43692.65567		 305.27265			43387.38302		70.72800		324.00000 
 43692.65567		 889.56308			42803.09259		221.82600		875.00000 
 43692.65567		 305.27265			43387.38302		70.72800		324.00000 
 43692.65567		 889.56308			42803.09259		221.82600		875.00000 
 43692.65567		 305.27265			43387.38302		70.72800		324.00000 
 43692.65567		 889.56308			42803.09259		221.82600		875.00000 
 43692.65567		 305.27265			43387.38302		70.72800		324.00000 
 43692.65567		 889.56308			42803.09259		221.82600		875.00000 
 43692.65567		 305.27265			43387.38302		70.72800		324.00000 
 43692.65567		 889.56308			42803.09259		221.82600		875.00000 
 43692.65567		 305.27265			43387.38302		70.72800		324.00000 
 43692.65567		 889.56308			42803.09259		221.82600		875.00000 
 43692.65567		 305.27265			43387.38302		70.72800		324.00000 
 43692.65567		 889.56308			42803.09259		221.82600		875.00000 
 43692.65567		 305.27265			43387.38302		70.72800		324.00000 
 43692.65567		 889.56308			42803.09259		221.82600		875.00000 
 43692.65567		 305.27265			43387.38302		70.72800		324.00000 
 43692.65567		 889.56308			42803.09259		221.82600		875.00000 
 43692.65567		 305.27265			43387.38302		70.72800		324.00000 
 43692.65567		 889.56308			42803.09259		221.82600		875.00000 
 43692.65567		 305.27265			43387.38302		70.72800		324.00000 
 43692.65567		 889.56308			42803.09259		221.82600		875.00000 
 43692.65567		 305.27265			43387.38302		70.72800		324.00000 
 43692.65567		 889.56308			42803.09259		221.82600		875.00000 
 43692.65567		 305.27265			43387.38302		70.72800		324.00000 
 43692.65567		 889.56308			42803.09259		221.82600		875.00000 
 43692.65567		 305.27265			43387.38302		70.72800		324.00000 
 43692.65567		 889.56308			42803.09259		221.82600		875.00000 
 43692.65567		 305.27265			43387.38302		70.72800		324.00000 
 43692.65567		 889.56308			42803.09259		221.82600		875.00000 
 43692.65567		 305.27265			43387.38302		70.72800		324.00000 
 43692.65567		 889.56308			42803.09259		221.82600		875.00000 
 43692.65567		 305.27265			43387.38302		70.72800		324.00000 
 43692.65567		 889.56308			42803.09259		221.82600		875.00000 
 43692.65567		 305.27265			43387.38302		70.72800		324.00000 
 43692.65567		 889.56308			42803.09259		221.82600		875.00000 
 43692.65567		 305.27265			43387.38302		70.72800		324.00000 
 43692.65567		 889.56308			42803.09259		221.82600		875.00000 
 43692.65567		 305.27265			43387.38302		70.72800		324.00000 
 43692.65567		 889.56308			42803.09259		221.82600		875.00000 
 43692.65567		 305.27265			43387.38302		70.72800		324.00000 
 43692.65567		 889.56308			42803.09259		221.82600		875.00000 
 43692.65567		 305.27265			43387.38302		70.72800		324.00000 
 43692.65567		 889.56308			42803.09259		221.82600		875.00000 
 43692.65567		 305.27265			43387.38302		70.72800		324.00000 
 43692.65567		 889.56308			42803.09259		221.82600		875.00000 
 43692.65567		 305.27265			43387.38302		70.72800		324.00000 
 43692.65567		 889.56308			42803.09259		220.26200		875.00000 
 43692.65567		 305.27265			43387.38302		70.72800		324.00000 
 43692.65567		 889.56308			42803.09259		220.26200		875.00000 
 43692.65567		 305.27265			43387.38302		70.72800		324.00000 
 43692.65567		 889.56308			42803.09259		220.26200		875.00000 
 43692.65567		 305.27265			43387.38302		70.72800		324.00000 
 43692.65567		 889.56308			42803.09259		220.26200		875.00000 
 43692.65567		 305.27265			43387.38302		70.72800		324.00000 
 43692.65567		 889.56308			42803.09259		220.26200		875.00000 
 43692.65567		 305.27265			43387.38302		70.72800		324.00000 
 43692.65567		 889.56308			42803.09259		220.26200		875.00000 
 43692.65567		 305.27265			43387.38302		70.72800		324.00000 
 43692.65567		 889.56308			42803.09259		220.26200		875.00000 
 43692.65567		 305.27265			43387.38302		70.72800		324.00000 
 43692.65567		 889.56308			42803.09259		220.26200		875.00000 
 43692.65567		 305.27265			43387.38302		70.72800		324.00000 
 43692.65567		 889.56308			42803.09259		220.26200		875.00000 
 43692.65567		 305.27265			43387.38302		70.72800		324.00000 
 43692.65567		 889.56308			42803.09259		220.26200		875.00000 
 43692.65567		 305.27265			43387.38302		70.72800		324.00000 
 43692.65567		 889.56308			42803.09259		220.26200		875.00000 
 43692.65567		 305.27265			43387.38302		70.72800		324.00000 
 43692.65567		 889.56308			42803.09259		220.26200		875.00000 
 43692.65567		 305.27265			43387.38302		70.72800		324.00000 
 43692.65567		 889.56308			42803.09259		220.26200		875.00000 
 43692.65567		 305.27265			43387.38302		70.72800		324.00000 
 43692.65567		 889.56308			42803.09259		220.26200		875.00000 
 43692.65567		 305.27265			43387.38302		70.72800		324.00000 
 43692.65567		 889.56308			42803.09259		220.26200		875.00000 
 43692.65567		 305.27265			43387.38302		70.72800		324.00000 
 43692.65567		 889.56308			42803.09259		220.26200		875.00000 
 43692.65567		 305.27265			43387.38302		70.72800		324.00000 
 43692.65567		 889.56308			42803.09259		220.26200		875.00000 
 43692.65567		 305.27265			43387.38302		70.72800		324.00000 
 43692.65567		 889.56308			42803.09259		220.26200		875.00000 
 43692.65567		 305.27265			43387.38302		70.72800		324.00000 
 43692.65567		 889.56308			42803.09259		220.26200		875.00000 
 43692.65567		 305.27265			43387.38302		70.72800		324.00000 
 43692.65567		 889.56308			42803.09259		220.26200		875.00000 
 43692.65567		 305.27265			43387.38302		70.72800		324.00000 
 43692.65567		 889.56308			42803.09259		220.26200		875.00000 
 43692.65567		 305.27265			43387.38302		70.72800		324.00000 
 43692.65567		 889.56308			42803.09259		220.26200		875.00000 
 43692.65567		 305.27265			43387.38302		70.72800		324.00000 
 43692.65567		 889.56308			42803.09259		220.26200		875.00000 
 43692.65567		 305.27265			43387.38302		70.72800		324.00000 
 43692.65567		 889.56308			42803.09259		220.26200		875.00000 
 43692.65567		 305.27265			43387.38302		70.72800		324.00000 
 43692.65567		 889.56308			42803.09259		220.26200		875.00000 
 43692.65567		 305.27265			43387.38302		70.72800		324.00000 
 43692.65567		 889.56308			42803.09259		220.26200		875.00000 
 43692.65567		 305.27265			43387.38302		70.72800		324.00000 
 43692.65567		 889.56308			42803.09259		220.26200		875.00000 
 43692.65567		 305.27265			43387.38302		70.72800		324.00000 
 43692.65567		 889.56308			42803.09259		220.26200		875.00000 
 43692.65567		 305.27265			43387.38302		70.72800		324.00000 
 43692.65567		 889.56308			42803.09259		220.26200		875.00000 
 43692.65567		 305.27265			43387.38302		70.72800		324.00000 
 43692.65567		 889.56308			42803.09259		220.26200		875.00000 
 43692.65567		 305.27265			43387.38302		70.72800		324.00000 
 43692.65567		 889.56308			42803.09259		220.26200		875.00000 
 43692.65567		 305.27265			43387.38302		70.72800		324.00000 
 43692.65567		 889.56308			42803.09259		220.26200		875.00000 
 43692.65567		 305.27265			43387.38302		70.72800		324.00000 
 43692.65567		 889.56308			42803.09259		220.26200		875.00000 
 43692.65567		 305.27265			43387.38302		70.72800		324.00000 
 43692.65567		 889.56308			42803.09259		220.26200		875.00000 
 43692.65567		 305.27265			43387.38302		70.72800		324.00000 
 43692.65567		 889.56308			42803.09259		220.26200		875.00000 
 43692.65567		 305.27265			43387.38302		70.72800		324.00000 
 43692.65567		 889.56308			42803.09259		220.26200		875.00000 
 43692.65567		 305.27265			43387.38302		70.72800		324.00000 
 43692.65567		 889.56308			42803.09259		220.26200		875.00000 
 43692.65567		 305.27265			43387.38302		70.72800		324.00000 
 43692.65567		 889.56308			42803.09259		220.26200		875.00000 
 43692.65567		 305.27265			43387.38302		70.72800		324.00000 
 43692.65567		 889.56308			42803.09259		220.26200		875.00000 
 43692.65567		 305.27265			43387.38302		70.72800		324.00000 
 43692.65567		 889.56308			42803.09259		220.26200		875.00000 
 43692.65567		 305.27265			43387.38302		70.72800		324.00000 
 43692.65567		 889.56308			42803.09259		220.26200		875.00000 
 43692.65567		 305.27265			43387.38302		70.72800		324.00000 
 43692.65567		 889.56308			42803.09259		220.26200		875.00000 
 43692.65567		 305.27265			43387.38302		70.72800		324.00000 
 43692.65567		 889.56308			42803.09259		220.26200		875.00000 
 43692.65567		 305.27265			43387.38302		70.72800		324.00000 
 43692.65567		 889.56308			42803.09259		220.26200		875.00000 
 43692.65567		 305.27265			43387.38302		70.72800		324.00000 
 43692.65567		 889.56308			42803.09259		220.26200		875.00000 
 43692.65567		 305.27265			43387.38302		70.72800		324.00000 
 43692.65567		 889.56308			42803.09259		220.26200		875.00000 
 43692.65567		 305.27265			43387.38302		70.72800		324.00000 
 43692.65567		 889.56308			42803.09259		220.26200		875.00000 
 43692.65567		 305.27265			43387.38302		70.72800		324.00000 
 43692.65567		 889.56308			42803.09259		220.26200		875.00000 
 43692.65567		 305.27265			43387.38302		70.72800		324.00000 
 43692.65567		 889.56308			42803.09259		220.26200		875.00000 
 43692.65567		 305.27265			43387.38302		70.72800		324.00000 
 43692.65567		 889.56308			42803.09259		220.26200		875.00000 
 43692.65567		 305.27265			43387.38302		70.72800		324.00000 
 43692.65567		 889.56308			42803.09259		220.26200		875.00000 
 43692.65567		 305.27265			43387.38302		70.72800		324.00000 
 43692.65567		 889.56308			42803.09259		220.26200		875.00000 
 43692.65567		 305.27265			43387.38302		70.72800		324.00000 
 43692.65567		 889.56308			42803.09259		220.26200		875.00000 
 43692.65567		 305.27265			43387.38302		70.72800		324.00000 
 43692.65567		 889.56308			42803.09259		220.26200		875.00000 
 43692.65567		 305.27265			43387.38302		70.72800		324.00000 
 43692.65567		 889.56308			42803.09259		220.26200		875.00000 
 43692.65567		 305.27265			43387.38302		70.72800		324.00000 
 43692.65567		 889.56308			42803.09259		220.26200		875.00000 
 43692.65567		 305.27265			43387.38302		70.72800		324.00000 
 43692.65567		 889.56308			42803.09259		220.26200		875.00000 
 43692.65567		 305.27265			43387.38302		70.72800		324.00000 
 43692.65567		 889.56308			42803.09259		220.26200		875.00000 
 43692.65567		 305.27265			43387.38302		70.72800		324.00000 
 43692.65567		 889.56308			42803.09259		220.26200		875.00000 
 43692.65567		 305.27265			43387.38302		70.72800		324.00000 
 43692.65567		 889.56308			42803.09259		220.26200		875.00000 
 43692.65567		 305.27265			43387.38302		70.72800		324.00000 
 43692.65567		 889.56308			42803.09259		220.26200		875.00000 
 43692.65567		 305.27265			43387.38302		70.72800		324.00000 
 43692.65567		 889.56308			42803.09259		220.26200		875.00000 
 43692.65567		 305.27265			43387.38302		70.72800		324.00000 
 43692.65567		 889.56308			42803.09259		220.26200		875.00000 
 43692.65567		 305.27265			43387.38302		70.72800		324.00000 
 43692.65567		 889.56308			42803.09259		220.26200		875.00000 
 43692.65567		 305.27265			43387.38302		70.72800		324.00000 
 43692.65567		 889.56308			42803.09259		220.86200		875.00000 
 43692.65567		 305.27265			43387.38302		70.72800		324.00000 
 43692.65567		 889.56308			42803.09259		220.86200		875.00000 
 43692.65567		 305.27265			43387.38302		70.72800		324.00000 
 43692.65567		 889.56308			42803.09259		220.86200		875.00000 
 43692.65567		 305.27265			43387.38302		70.72800		324.00000 
 43692.65567		 889.56308			42803.09259		220.86200		875.00000 
 43692.65567		 305.27265			43387.38302		70.72800		324.00000 
 43692.65567		 889.56308			42803.09259		220.86200		875.00000 
 43692.65567		 305.27265			43387.38302		70.72800		324.00000 
 43692.65567		 889.56308			42803.09259		220.86200		875.00000 
 43692.65567		 305.27265			43387.38302		70.72800		324.00000 
 43692.65567		 889.56308			42803.09259		220.86200		875.00000 
 43692.65567		 305.27265			43387.38302		70.72800		324.00000 
 43692.65567		 889.56308			42803.09259		220.86200		875.00000 
 43692.65567		 305.27265			43387.38302		70.72800		324.00000 
 43692.65567		 889.56308			42803.09259		220.86200		875.00000 
 43692.65567		 305.27265			43387.38302		70.72800		324.00000 
 43692.65567		 889.56308			42803.09259		220.86200		875.00000 
 43692.65567		 305.27265			43387.38302		70.72800		324.00000 
 43692.65567		 889.56308			42803.09259		220.86200		875.00000 
 43692.65567		 305.27265			43387.38302		70.72800		324.00000 
 43692.65567		 889.56308			42803.09259		220.86200		875.00000 
 43692.65567		 305.27265			43387.38302		70.72800		324.00000 
 43692.65567		 889.56308			42803.09259		220.86200		875.00000 
 43692.65567		 305.27265			43387.38302		70.72800		324.00000 
 43692.65567		 889.56308			42803.09259		220.86200		875.00000 
 43692.65567		 305.27265			43387.38302		70.72800		324.00000 
 43692.65567		 889.56308			42803.09259		220.86200		875.00000 
 43692.65567		 305.27265			43387.38302		70.72800		324.00000 
 43692.65567		 889.56308			42803.09259		220.86200		875.00000 
 43692.65567		 305.27265			43387.38302		70.72800		324.00000 
 43692.65567		 889.56308			42803.09259		220.86200		875.00000 
 43692.65567		 305.27265			43387.38302		70.72800		324.00000 
 43692.65567		 889.56308			42803.09259		220.86200		875.00000 
 43692.65567		 305.27265			43387.38302		70.72800		324.00000 
 43692.65567		 889.56308			42803.09259		220.86200		875.00000 
 43692.65567		 305.27265			43387.38302		70.72800		324.00000 
 43692.65567		 889.56308			42803.09259		220.86200		875.00000 
 43692.65567		 305.27265			43387.38302		70.72800		324.00000 
 43692.65567		 889.56308			42803.09259		220.86200		875.00000 
 43692.65567		 305.27265			43387.38302		70.72800		324.00000 
 43692.65567		 889.56308			42803.09259		220.86200		875.00000 
 43692.65567		 305.27265			43387.38302		70.72800		324.00000 
 43692.65567		 889.56308			42803.09259		220.86200		875.00000 
 43692.65567		 305.27265			43387.38302		70.72800		324.00000 
 43692.65567		 889.56308			42803.09259		220.86200		875.00000 
 43692.65567		 305.27265			43387.38302		70.72800		324.00000 
 43692.65567		 889.56308			42803.09259		220.86200		875.00000 
 43692.65567		 305.27265			43387.38302		70.72800		324.00000 
 43692.65567		 889.56308			42803.09259		220.86200		875.00000 
 43692.65567		 305.27265			43387.38302		70.72800		324.00000 
 43692.65567		 889.56308			42803.09259		220.86200		875.00000 
 43692.65567		 305.27265			43387.38302		70.72800		324.00000 
 43692.65567		 889.56308			42803.09259		220.86200		875.00000 
 43692.65567		 305.27265			43387.38302		70.72800		324.00000 
 43692.65567		 889.56308			42803.09259		220.86200		875.00000 
 43692.65567		 305.27265			43387.38302		70.72800		324.00000 
 43692.65567		 889.56308			42803.09259		220.86200		875.00000 
 43692.65567		 305.27265			43387.38302		70.72800		324.00000 
 43692.65567		 889.56308			42803.09259		220.86200		875.00000 
 43692.65567		 305.27265			43387.38302		70.72800		324.00000 
 43692.65567		 889.56308			42803.09259		220.86200		875.00000 
 43692.65567		 305.27265			43387.38302		70.72800		324.00000 
 43692.65567		 889.56308			42803.09259		220.86200		875.00000 
 43692.65567		 305.27265			43387.38302		70.72800		324.00000 
 43692.65567		 889.56308			42803.09259		220.86200		875.00000 
 43692.65567		 305.27265			43387.38302		70.72800		324.00000 
 43692.65567		 889.56308			42803.09259		220.86200		875.00000 
 43692.65567		 305.27265			43387.38302		70.72800		324.00000 
 43692.65567		 889.56308			42803.09259		220.86200		875.00000 
 43692.65567		 305.27265			43387.38302		70.72800		324.00000 
 43692.65567		 889.56308			42803.09259		220.86200		875.00000 
 43692.65567		 305.27265			43387.38302		70.72800		324.00000 
 43692.65567		 889.56308			42803.09259		220.86200		875.00000 
 43692.65567		 305.27265			43387.38302		70.72800		324.00000 
 43692.65567		 889.56308			42803.09259		220.86200		875.00000 
 43692.65567		 305.27265			43387.38302		70.72800		324.00000 
 43692.65567		 889.56308			42803.09259		220.86200		875.00000 
 43692.65567		 305.27265			43387.38302		70.72800		324.00000 
 43692.65567		 889.56308			42803.09259		220.86200		875.00000 
 43692.65567		 305.27265			43387.38302		70.72800		324.00000 
 43692.65567		 889.56308			42803.09259		220.86200		875.00000 
 43692.65567		 305.27265			43387.38302		70.72800		324.00000 
 43692.65567		 889.56308			42803.09259		220.86200		875.00000 
 43692.65567		 305.27265			43387.38302		70.72800		324.00000 
 43692.65567		 889.56308			42803.09259		220.86200		875.00000 
 43692.65567		 305.27265			43387.38302		70.72800		324.00000 
 43692.65567		 889.56308			42803.09259		220.86200		875.00000 
 43692.65567		 305.27265			43387.38302		70.72800		324.00000 
 43692.65567		 889.56308			42803.09259		220.86200		875.00000 
 43692.65567		 305.27265			43387.38302		70.72800		324.00000 
 43692.65567		 889.56308			42803.09259		220.86200		875.00000 
 43692.65567		 305.27265			43387.38302		70.72800		324.00000 
 43692.65567		 889.56308			42803.09259		220.86200		875.00000 
 43692.65567		 305.27265			43387.38302		70.72800		324.00000 
 43692.65567		 889.56308			42803.09259		220.86200		875.00000 
 43692.65567		 305.27265			43387.38302		70.72800		324.00000 
 43692.65567		 889.56308			42803.09259		220.86200		875.00000 
 43692.65567		 305.27265			43387.38302		70.72800		324.00000 
 43692.65567		 889.56308			42803.09259		220.86200		875.00000 
 43692.65567		 305.27265			43387.38302		70.72800		324.00000 
 43692.65567		 889.56308			42803.09259		220.86200		875.00000 
 43692.65567		 305.27265			43387.38302		70.72800		324.00000 
 43692.65567		 889.56308			42803.09259		220.86200		875.00000 
 43692.65567		 305.27265			43387.38302		70.72800		324.00000 
 43692.65567		 889.56308			42803.09259		220.86200		875.00000 
 43692.65567		 305.27265			43387.38302		70.72800		324.00000 
 43692.65567		 889.56308			42803.09259		220.86200		875.00000 
 43692.65567		 305.27265			43387.38302		70.72800		324.00000 
 43692.65567		 889.56308			42803.09259		220.86200		875.00000 
 43692.65567		 305.27265			43387.38302		70.72800		324.00000 
 43692.65567		 889.56308			42803.09259		220.86200		875.00000 
 43692.65567		 305.27265			43387.38302		70.72800		324.00000 
 43692.65567		 889.56308			42803.09259		220.86200		875.00000 
 43692.65567		 305.27265			43387.38302		70.72800		324.00000 
 43692.65567		 889.56308			42803.09259		220.86200		875.00000 
 43692.65567		 305.27265			43387.38302		70.72800		324.00000 
 43692.65567		 889.56308			42803.09259		220.86200		875.00000 
 43692.65567		 305.27265			43387.38302		70.72800		324.00000 
 43692.65567		 889.56308			42803.09259		220.86200		875.00000 
 43692.65567		 305.27265			43387.38302		70.72800		324.00000 
 43692.65567		 889.56308			42803.09259		220.86200		875.00000 
 43692.65567		 305.27265			43387.38302		70.72800		324.00000 
 43692.65567		 889.56308			42803.09259		220.86200		875.00000 
 43692.65567		 305.27265			43387.38302		70.72800		324.00000 
 43692.65567		 889.56308			42803.09259		220.86200		875.00000 
 43692.65567		 305.27265			43387.38302		70.72800		324.00000 
 43692.65567		 889.56308			42803.09259		220.86200		875.00000 
 43692.65567		 305.27265			43387.38302		70.72800		324.00000 
 43692.65567		 889.56308			42803.09259		220.26200		875.00000 
 43692.65567		 305.27265			43387.38302		70.72800		324.00000 
 43692.65567		 889.56308			42803.09259		220.26200		875.00000 
 43692.65567		 305.27265			43387.38302		70.72800		324.00000 
 43692.65567		 889.56308			42803.09259		220.26200		875.00000 
 43692.65567		 305.27265			43387.38302		70.72800		324.00000 
 43692.65567		 889.56308			42803.09259		220.26200		875.00000 
 43692.65567		 305.27265			43387.38302		70.72800		324.00000 
 43692.65567		 889.56308			42803.09259		220.26200		875.00000 
 43692.65567		 305.27265			43387.38302		70.72800		324.00000 
 43692.65567		 889.56308			42803.09259		220.26200		875.00000 
 43692.65567		 305.27265			43387.38302		70.72800		324.00000 
 43692.65567		 889.56308			42803.09259		220.26200		875.00000 
 43692.65567		 305.27265			43387.38302		70.72800		324.00000 
 43692.65567		 889.56308			42803.09259		220.26200		875.00000 
 43692.65567		 305.27265			43387.38302		70.72800		324.00000 
 43692.65567		 889.56308			42803.09259		220.26200		875.00000 
 43692.65567		 305.27265			43387.38302		70.72800		324.00000 
 43692.65567		 889.56308			42803.09259		220.26200		875.00000 
 43692.65567		 305.27265			43387.38302		70.72800		324.00000 
 43692.65567		 889.56308			42803.09259		220.26200		875.00000 
 43692.65567		 305.27265			43387.38302		70.72800		324.00000 
 43692.65567		 889.56308			42803.09259		220.26200		875.00000 
 43692.65567		 305.27265			43387.38302		70.72800		324.00000 
 43692.65567		 889.56308			42803.09259		220.26200		875.00000 
 43692.65567		 305.27265			43387.38302		70.72800		324.00000 
 43692.65567		 889.56308			42803.09259		220.26200		875.00000 
 43692.65567		 305.27265			43387.38302		70.72800		324.00000 
 43692.65567		 889.56308			42803.09259		220.26200		875.00000 
 43692.65567		 305.27265			43387.38302		70.72800		324.00000 
 43692.65567		 889.56308			42803.09259		220.26200		875.00000 
 43692.65567		 305.27265			43387.38302		70.72800		324.00000 
 43692.65567		 889.56308			42803.09259		220.26200		875.00000 
 43692.65567		 305.27265			43387.38302		70.72800		324.00000 
 43692.65567		 889.56308			42803.09259		220.26200		875.00000 
 43692.65567		 305.27265			43387.38302		70.72800		324.00000 
 43692.65567		 889.56308			42803.09259		220.26200		875.00000 
 43692.65567		 305.27265			43387.38302		70.72800		324.00000 
 43692.65567		 889.56308			42803.09259		220.26200		875.00000 
 43692.65567		 305.27265			43387.38302		70.72800		324.00000 
 43692.65567		 889.56308			42803.09259		220.26200		875.00000 
 43692.65567		 305.27265			43387.38302		70.72800		324.00000 
 43692.65567		 889.56308			42803.09259		220.26200		875.00000 
 43692.65567		 305.27265			43387.38302		70.72800		324.00000 
 43692.65567		 889.56308			42803.09259		220.26200		875.00000 
 43692.65567		 305.27265			43387.38302		70.72800		324.00000 
 43692.65567		 889.56308			42803.09259		220.26200		875.00000 
 43692.65567		 305.27265			43387.38302		70.72800		324.00000 
 43692.65567		 889.56308			42803.09259		220.26200		875.00000 
 43692.65567		 305.27265			43387.38302		70.72800		324.00000 
 43692.65567		 889.56308			42803.09259		220.26200		875.00000 
 43692.65567		 305.27265			43387.38302		70.72800		324.00000 
 43692.65567		 889.56308			42803.09259		220.26200		875.00000 
 43692.65567		 305.27265			43387.38302		70.72800		324.00000 
 43692.65567		 889.56308			42803.09259		220.26200		875.00000 
 43692.65567		 305.27265			43387.38302		70.72800		324.00000 
 43692.65567		 889.56308			42803.09259		220.26200		875.00000 
 43692.65567		 305.27265			43387.38302		70.72800		324.00000 
 43692.65567		 889.56308			42803.09259		220.26200		875.00000 
 43692.65567		 305.27265			43387.38302		70.72800		324.00000 
 43692.65567		 889.56308			42803.09259		220.26200		875.00000 
 43692.65567		 305.27265			43387.38302		70.72800		324.00000 
 43692.65567		 889.56308			42803.09259		220.26200		875.00000 
 43692.65567		 305.27265			43387.38302		70.72800		324.00000 
 43692.65567		 889.56308			42803.09259		220.26200		875.00000 
 43692.65567		 305.27265			43387.38302		70.72800		324.00000 
 43692.65567		 889.56308			42803.09259		220.26200		875.00000 
 43692.65567		 305.27265			43387.38302		70.72800		324.00000 
 43692.65567		 889.56308			42803.09259		220.26200		875.00000 
 43692.65567		 305.27265			43387.38302		70.72800		324.00000 
 43692.65567		 889.56308			42803.09259		220.26200		875.00000 
 43692.65567		 305.27265			43387.38302		70.72800		324.00000 
 43692.65567		 889.56308			42803.09259		220.26200		875.00000 
 43692.65567		 305.27265			43387.38302		70.72800		324.00000 
 43692.65567		 889.56308			42803.09259		220.26200		875.00000 
 43692.65567		 305.27265			43387.38302		70.72800		324.00000 
 43692.65567		 889.56308			42803.09259		220.26200		875.00000 
 43692.65567		 305.27265			43387.38302		70.72800		324.00000 
 43692.65567		 889.56308			42803.09259		220.26200		875.00000 
 43692.65567		 305.27265			43387.38302		70.72800		324.00000 
 43692.65567		 889.56308			42803.09259		220.26200		875.00000 
 43692.65567		 305.27265			43387.38302		70.72800		324.00000 
 43692.65567		 889.56308			42803.09259		220.26200		875.00000 
 43692.65567		 305.27265			43387.38302		70.72800		324.00000 
 43692.65567		 889.56308			42803.09259		220.26200		875.00000 
 43692.65567		 305.27265			43387.38302		70.72800		324.00000 
 43692.65567		 889.56308			42803.09259		220.26200		875.00000 
 43692.65567		 305.27265			43387.38302		70.72800		324.00000 
 43692.65567		 889.56308			42803.09259		220.26200		875.00000 
 43692.65567		 305.27265			43387.38302		70.72800		324.00000 
 43692.65567		 889.56308			42803.09259		220.26200		875.00000 
 43692.65567		 305.27265			43387.38302		70.72800		324.00000 
 43692.65567		 889.56308			42803.09259		220.26200		875.00000 
 43692.65567		 305.27265			43387.38302		70.72800		324.00000 
 43692.65567		 889.56308			42803.09259		220.26200		875.00000 
 43692.65567		 305.27265			43387.38302		70.72800		324.00000 
 43692.65567		 889.56308			42803.09259		220.26200		875.00000 
 43692.65567		 305.27265			43387.38302		70.72800		324.00000 
 43692.65567		 889.56308			42803.09259		220.26200		875.00000 
 43692.65567		 305.27265			43387.38302		70.72800		324.00000 
 43692.65567		 889.56308			42803.09259		220.26200		875.00000 
 43692.65567		 305.27265			43387.38302		70.72800		324.00000 
 43692.65567		 889.56308			42803.09259		220.26200		875.00000 
 43692.65567		 305.27265			43387.38302		70.72800		324.00000 
 43692.65567		 889.56308			42803.09259		220.26200		875.00000 
 43692.65567		 305.27265			43387.38302		70.72800		324.00000 
 43692.65567		 889.56308			42803.09259		220.26200		875.00000 
 43692.65567		 305.27265			43387.38302		70.72800		324.00000 
 43692.65567		 889.56308			42803.09259		220.26200		875.00000 
 43692.65567		 305.27265			43387.38302		70.72800		324.00000 
 43692.65567		 889.56308			42803.09259		220.26200		875.00000 
 43692.65567		 305.27265			43387.38302		70.72800		324.00000 
 43692.65567		 889.56308			42803.09259		220.26200		875.00000 
 43692.65567		 305.27265			43387.38302		70.72800		324.00000 
 43692.65567		 889.56308			42803.09259		220.26200		875.00000 
 43692.65567		 305.27265			43387.38302		70.72800		324.00000 
 43692.65567		 889.56308			42803.09259		220.26200		875.00000 
 43692.65567		 305.27265			43387.38302		70.72800		324.00000 
 43692.65567		 889.56308			42803.09259		220.26200		875.00000 
 43692.65567		 305.27265			43387.38302		70.72800		324.00000 
 43692.65567		 889.56308			42803.09259		220.26200		875.00000 
 43692.65567		 305.27265			43387.38302		70.72800		324.00000 
 43692.65567		 889.56308			42803.09259		220.26200		875.00000 
 43692.65567		 305.27265			43387.38302		70.72800		324.00000 
 43692.65567		 889.56308			42803.09259		220.26200		875.00000 
 43692.65567		 305.27265			43387.38302		70.72800		324.00000 
 43692.65567		 889.56308			42803.09259		220.26200		875.00000 
 43692.65567		 305.27265			43387.38302		70.72800		324.00000 
 43692.65567		 889.56308			42803.09259		220.26200		875.00000 
 43692.65567		 305.27265			43387.38302		70.72800		324.00000 
 43692.65567		 889.56308			42803.09259		220.26200		875.00000 
 43692.65567		 305.27265			43387.38302		70.72800		324.00000 
 43692.65567		 889.56308			42803.09259		220.26200		875.00000 
 43692.65567		 305.27265			43387.38302		70.72800		324.00000 
 43692.65567		 889.56308			42803.09259		220.26200		875.00000 
 43692.65567		 305.27265			43387.38302		70.72800		324.00000 
 43692.65567		 889.56308			42803.09259		220.26200		875.00000 
 43692.65567		 305.27265			43387.38302		70.72800		324.00000 
 43692.65567		 889.56308			42803.09259		220.26200		875.00000 
 43692.65567		 305.27265			43387.38302		70.72800		324.00000 
 43692.65567		 889.56308			42803.09259		220.26200		875.00000 
 43692.65567		 305.27265			43387.38302		70.72800		324.00000 
 43692.65567		 889.56308			42803.09259		220.26200		875.00000 
 43692.65567		 305.27265			43387.38302		70.72800		324.00000 
 43692.65567		 889.56308			42803.09259		220.26200		875.00000 
 43692.65567		 305.27265			43387.38302		70.72800		324.00000 
 43692.65567		 889.56308			42803.09259		220.26200		875.00000 
 43692.65567		 305.27265			43387.38302		70.72800		324.00000 
 43692.65567		 889.56308			42803.09259		220.26200		875.00000 
 43692.65567		 305.27265			43387.38302		70.72800		324.00000 
 43692.65567		 889.56308			42803.09259		220.26200		875.00000 
 43692.65567		 305.27265			43387.38302		70.72800		324.00000 
 43692.65567		 889.56308			42803.09259		220.26200		875.00000 
 43692.65567		 305.27265			43387.38302		70.72800		324.00000 
 43692.65567		 889.56308			42803.09259		220.26200		875.00000 
 43692.65567		 305.27265			43387.38302		70.72800		324.00000 
 43692.65567		 889.56308			42803.09259		220.26200		875.00000 
 43692.65567		 305.27265			43387.38302		70.72800		324.00000 
 43692.65567		 889.56308			42803.09259		220.26200		875.00000 
 43692.65567		 305.27265			43387.38302		70.72800		324.00000 
 43692.65567		 889.56308			42803.09259		220.26200		875.00000 
 43692.65567		 305.27265			43387.38302		70.72800		324.00000 
 43692.65567		 889.56308			42803.09259		220.26200		875.00000 
 43692.65567		 305.27265			43387.38302		70.72800		324.00000 
 43692.65567		 889.56308			42803.09259		220.26200		875.00000 
 43692.65567		 305.27265			43387.38302		70.72800		324.00000 
 43692.65567		 889.56308			42803.09259		220.26200		875.00000 
 43692.65567		 305.27265			43387.38302		70.72800		324.00000 
 43692.65567		 889.56308			42803.09259		220.26200		875.00000 
 43692.65567		 305.27265			43387.38302		70.72800		324.00000 
 43692.65567		 889.56308			42803.09259		220.26200		875.00000 
 43692.65567		 305.27265			43387.38302		70.72800		324.00000 
 43692.65567		 889.56308			42803.09259		220.26200		875.00000 
 43692.65567		 305.27265			43387.38302		70.72800		324.00000 
 43692.65567		 889.56308			42803.09259		220.26200		875.00000 
 43692.65567		 305.27265			43387.38302		70.72800		324.00000 
 43692.65567		 889.56308			42803.09259		220.26200		875.00000 
 43692.65567		 305.27265			43387.38302		70.72800		324.00000 
 43692.65567		 889.56308			42803.09259		220.26200		875.00000 
 43692.65567		 305.27265			43387.38302		70.72800		324.00000 
 43692.65567		 889.56308			42803.09259		220.26200		875.00000 
 43692.65567		 305.27265			43387.38302		70.72800		324.00000 
 43692.65567		 889.56308			42803.09259		220.26200		875.00000 
 43692.65567		 305.27265			43387.38302		70.72800		324.00000 
 43692.65567		 889.56308			42803.09259		220.26200		875.00000 
 43692.65567		 305.27265			43387.38302		70.72800		324.00000 
 43692.65567		 889.56308			42803.09259		220.26200		875.00000 
 43692.65567		 305.27265			43387.38302		70.72800		324.00000 
 43692.65567		 889.56308			42803.09259		220.26200		875.00000 
 43692.65567		 305.27265			43387.38302		70.72800		324.00000 
 43692.65567		 889.56308			42803.09259		220.26200		875.00000 
 43692.65567		 305.27265			43387.38302		70.72800		324.00000 
 43692.65567		 889.56308			42803.09259		220.26200		875.00000 
 43692.65567		 305.27265			43387.38302		70.72800		324.00000 
 43692.65567		 889.56308			42803.09259		220.26200		875.00000 
 43692.65567		 305.27265			43387.38302		70.72800		324.00000 
 43692.65567		 889.56308			42803.09259		220.26200		875.00000 
 43692.65567		 305.27265			43387.38302		70.72800		324.00000 
 43692.65567		 889.56308			42803.09259		220.26200		875.00000 
 43692.65567		 305.27265			43387.38302		70.72800		324.00000 
 43692.65567		 889.56308			42803.09259		220.26200		875.00000 
 43692.65567		 305.27265			43387.38302		70.72800		324.00000 
 43692.65567		 889.56308			42803.09259		220.26200		875.00000 
 43692.65567		 305.27265			43387.38302		70.72800		324.00000 
 43692.65567		 889.56308			42803.09259		220.26200		875.00000 
 43692.65567		 305.27265			43387.38302		70.72800		324.00000 
 43692.65567		 889.56308			42803.09259		220.26200		875.00000 
 43692.65567		 305.27265			43387.38302		70.72800		324.00000 
 43692.65567		 889.56308			42803.09259		220.26200		875.00000 
 43692.65567		 305.27265			43387.38302		70.72800		324.00000 
 43692.65567		 889.56308			42803.09259		220.26200		875.00000 
 43692.65567		 305.27265			43387.38302		70.72800		324.00000 
 43692.65567		 889.56308			42803.09259		220.26200		875.00000 
 43692.65567		 305.27265			43387.38302		70.72800		324.00000 
 43692.65567		 889.56308			42803.09259		220.26200		875.00000 
 43692.65567		 305.27265			43387.38302		70.72800		324.00000 
 43692.65567		 889.56308			42803.09259		220.26200		875.00000 
 43692.65567		 305.27265			43387.38302		70.72800		324.00000 
 43692.65567		 889.56308			42803.09259		220.26200		875.00000 
 43692.65567		 305.27265			43387.38302		70.72800		324.00000 
 43692.65567		 889.56308			42803.09259		220.26200		875.00000 
 43692.65567		 305.27265			43387.38302		70.72800		324.00000 
 43692.65567		 889.56308			42803.09259		220.26200		875.00000 
 43692.65567		 305.27265			43387.38302		70.72800		324.00000 
 43692.65567		 889.56308			42803.09259		220.26200		875.00000 
 43692.65567		 305.27265			43387.38302		70.72800		324.00000 
 43692.65567		 889.56308			42803.09259		220.26200		875.00000 
 43692.65567		 305.27265			43387.38302		70.72800		324.00000 
 43692.65567		 889.56308			42803.09259		220.26200		875.00000 
 43692.65567		 305.27265			43387.38302		70.72800		324.00000 
 43692.65567		 889.56308			42803.09259		220.26200		875.00000 
 43692.65567		 305.27265			43387.38302		70.72800		324.00000 
 43692.65567		 889.56308			42803.09259		220.26200		875.00000 
 43692.65567		 305.27265			43387.38302		70.72800		324.00000 
 43692.65567		 889.56308			42803.09259		220.26200		875.00000 
 43692.65567		 305.27265			43387.38302		70.72800		324.00000 
 43692.65567		 889.56308			42803.09259		220.26200		875.00000 
 43692.65567		 305.27265			43387.38302		70.72800		324.00000 
 43692.65567		 889.56308			42803.09259		220.26200		875.00000 
 43692.65567		 305.27265			43387.38302		70.72800		324.00000 
 43692.65567		 889.56308			42803.09259		220.26200		875.00000 
 43692.65567		 305.27265			43387.38302		70.72800		324.00000 
 43692.65567		 889.56308			42803.09259		220.26200		875.00000 
 43692.65567		 305.27265			43387.38302		70.72800		324.00000 
 43692.65567		 889.56308			42803.09259		220.26200		875.00000 
 43692.65567		 305.27265			43387.38302		70.72800		324.00000 
 43692.65567		 889.56308			42803.09259		220.26200		875.00000 
 43692.65567		 305.27265			43387.38302		70.72800		324.00000 
 43692.65567		 889.56308			42803.09259		220.26200		875.00000 
 43692.65567		 305.27265			43387.38302		70.72800		324.00000 
 43692.65567		 889.56308			42803.09259		220.26200		875.00000 
 43692.65567		 305.27265			43387.38302		70.72800		324.00000 
 43692.65567		 889.56308			42803.09259		220.26200		875.00000 
 43692.65567		 305.27265			43387.38302		70.72800		324.00000 
 43692.65567		 889.56308			42803.09259		221.82600		875.00000 
 43692.65567		 305.27265			43387.38302		70.72800		324.00000 
 43692.65567		 889.56308			42803.09259		221.82600		875.00000 
 43692.65567		 305.27265			43387.38302		70.72800		324.00000 
 43692.65567		 889.56308			42803.09259		221.82600		875.00000 
 43692.65567		 305.27265			43387.38302		70.72800		324.00000 
 43692.65567		 889.56308			42803.09259		221.82600		875.00000 
 43692.65567		 305.27265			43387.38302		70.72800		324.00000 
 43692.65567		 889.56308			42803.09259		221.82600		875.00000 
 43692.65567		 305.27265			43387.38302		70.72800		324.00000 
 43692.65567		 889.56308			42803.09259		221.82600		875.00000 
 43692.65567		 305.27265			43387.38302		69.65600		324.00000 
 43692.65567		 889.56308			42803.09259		221.82600		875.00000 
 43692.65567		 305.27265			43387.38302		69.65600		324.00000 
 43692.65567		 889.56308			42803.09259		221.82600		875.00000 
 43692.65567		 305.27265			43387.38302		69.65600		324.00000 
 43692.65567		 889.56308			42803.09259		221.82600		875.00000 
 43692.65567		 305.27265			43387.38302		69.65600		324.00000 
 43692.65567		 889.56308			42803.09259		221.82600		875.00000 
 43692.65567		 305.27265			43387.38302		69.65600		324.00000 
 43692.65567		 889.56308			42803.09259		221.82600		875.00000 
 43692.65567		 305.27265			43387.38302		69.65600		324.00000 
 43692.65567		 889.56308			42803.09259		221.82600		875.00000 
 43692.65567		 305.27265			43387.38302		69.65600		324.00000 
 43692.65567		 889.56308			42803.09259		221.82600		875.00000 
 43692.65567		 305.27265			43387.38302		69.65600		324.00000 
 43692.65567		 889.56308			42803.09259		221.82600		875.00000 
 43692.65567		 305.27265			43387.38302		69.65600		324.00000 
 43692.65567		 889.56308			42803.09259		221.82600		875.00000 
 43692.65567		 305.27265			43387.38302		69.65600		324.00000 
 43692.65567		 889.56308			42803.09259		221.82600		875.00000 
 43692.65567		 305.27265			43387.38302		69.65600		324.00000 
 43692.65567		 889.56308			42803.09259		221.82600		875.00000 
 43692.65567		 305.27265			43387.38302		69.65600		324.00000 
 43692.65567		 889.56308			42803.09259		221.82600		875.00000 
 43692.65567		 305.27265			43387.38302		69.65600		324.00000 
 43692.65567		 889.56308			42803.09259		221.82600		875.00000 
 43692.65567		 305.27265			43387.38302		69.65600		324.00000 
 43692.65567		 889.56308			42803.09259		221.82600		875.00000 
 43692.65567		 305.27265			43387.38302		69.65600		324.00000 
 43692.65567		 889.56308			42803.09259		221.82600		875.00000 
 43692.65567		 305.27265			43387.38302		69.65600		324.00000 
 43692.65567		 889.56308			42803.09259		221.82600		875.00000 
 43692.65567		 305.27265			43387.38302		69.65600		324.00000 
 43692.65567		 889.56308			42803.09259		221.82600		875.00000 
 43692.65567		 305.27265			43387.38302		69.65600		324.00000 
 43692.65567		 889.56308			42803.09259		221.82600		875.00000 
 43692.65567		 305.27265			43387.38302		69.65600		324.00000 
 43692.65567		 889.56308			42803.09259		221.82600		875.00000 
 43692.65567		 305.27265			43387.38302		69.65600		324.00000 
 43692.65567		 889.56308			42803.09259		221.82600		875.00000 
 43692.65567		 305.27265			43387.38302		69.65600		324.00000 
 43692.65567		 889.56308			42803.09259		221.82600		875.00000 
 43692.65567		 305.27265			43387.38302		69.65600		324.00000 
 43692.65567		 889.56308			42803.09259		221.82600		875.00000 
 43692.65567		 305.27265			43387.38302		69.65600		324.00000 
 43692.65567		 889.56308			42803.09259		221.82600		875.00000 
 43692.65567		 305.27265			43387.38302		69.65600		324.00000 
 43692.65567		 889.56308			42803.09259		221.82600		875.00000 
 43692.65567		 305.27265			43387.38302		69.65600		324.00000 
 43692.65567		 889.56308			42803.09259		221.82600		875.00000 
 43692.65567		 305.27265			43387.38302		69.65600		324.00000 
 43692.65567		 889.56308			42803.09259		221.82600		875.00000 
 43692.65567		 305.27265			43387.38302		69.65600		324.00000 
 43692.65567		 889.56308			42803.09259		221.82600		875.00000 
 43692.65567		 305.27265			43387.38302		69.65600		324.00000 
 43692.65567		 889.56308			42803.09259		221.82600		875.00000 
 43692.65567		 305.27265			43387.38302		69.65600		324.00000 
 43692.65567		 889.56308			42803.09259		221.82600		875.00000 
 43692.65567		 305.27265			43387.38302		69.65600		324.00000 
 43692.65567		 889.56308			42803.09259		221.82600		875.00000 
 43692.65567		 305.27265			43387.38302		69.65600		324.00000 
 43692.65567		 889.56308			42803.09259		221.82600		875.00000 
 43692.65567		 305.27265			43387.38302		69.65600		324.00000 
 43692.65567		 889.56308			42803.09259		221.82600		875.00000 
 43692.65567		 305.27265			43387.38302		69.65600		324.00000 
 43692.65567		 889.56308			42803.09259		221.82600		875.00000 
 43692.65567		 305.27265			43387.38302		69.65600		324.00000 
 43692.65567		 889.56308			42803.09259		221.82600		875.00000 
 43692.65567		 305.27265			43387.38302		69.65600		324.00000 
 43692.65567		 889.56308			42803.09259		221.82600		875.00000 
 43692.65567		 305.27265			43387.38302		69.65600		324.00000 
 43692.65567		 889.56308			42803.09259		221.82600		875.00000 
 43692.65567		 305.27265			43387.38302		69.65600		324.00000 
 43692.65567		 889.56308			42803.09259		221.82600		875.00000 
 43692.65567		 305.27265			43387.38302		69.65600		324.00000 
 43692.65567		 889.56308			42803.09259		221.82600		875.00000 
 43692.65567		 305.27265			43387.38302		69.65600		324.00000 
 43692.65567		 889.56308			42803.09259		221.82600		875.00000 
 43692.65567		 305.27265			43387.38302		69.65600		324.00000 
 43692.65567		 889.56308			42803.09259		221.82600		875.00000 
 43692.65567		 305.27265			43387.38302		69.65600		324.00000 
 43692.65567		 889.56308			42803.09259		221.82600		875.00000 
 43692.65567		 305.27265			43387.38302		69.65600		324.00000 
 43692.65567		 889.56308			42803.09259		221.82600		875.00000 
 43692.65567		 305.27265			43387.38302		69.65600		324.00000 
 43692.65567		 889.56308			42803.09259		221.82600		875.00000 
 43692.65567		 305.27265			43387.38302		69.65600		324.00000 
 43692.65567		 889.56308			42803.09259		221.82600		875.00000 
 43692.65567		 305.27265			43387.38302		69.65600		324.00000 
 43692.65567		 889.56308			42803.09259		221.82600		875.00000 
 43692.65567		 305.27265			43387.38302		69.65600		324.00000 
 43692.65567		 889.56308			42803.09259		221.82600		875.00000 
 43692.65567		 305.27265			43387.38302		69.65600		324.00000 
 43692.65567		 889.56308			42803.09259		221.82600		875.00000 
 43692.65567		 305.27265			43387.38302		69.65600		324.00000 
 43692.65567		 889.56308			42803.09259		221.82600		875.00000 
 43692.65567		 305.27265			43387.38302		69.65600		324.00000 
 43692.65567		 889.56308			42803.09259		221.82600		875.00000 
 43692.65567		 305.27265			43387.38302		69.65600		324.00000 
 43692.65567		 889.56308			42803.09259		221.82600		875.00000 
 43692.65567		 305.27265			43387.38302		69.65600		324.00000 
 43692.65567		 889.56308			42803.09259		221.82600		875.00000 
 43692.65567		 305.27265			43387.38302		69.65600		324.00000 
 43692.65567		 889.56308			42803.09259		221.82600		875.00000 
 43692.65567		 305.27265			43387.38302		69.65600		324.00000 
 43692.65567		 889.56308			42803.09259		221.82600		875.00000 
 43692.65567		 305.27265			43387.38302		69.65600		324.00000 
 43692.65567		 889.56308			42803.09259		221.82600		875.00000 
 43692.65567		 305.27265			43387.38302		69.65600		324.00000 
 43692.65567		 889.56308			42803.09259		221.82600		875.00000 
 43692.65567		 305.27265			43387.38302		69.65600		324.00000 
 43692.65567		 889.56308			42803.09259		220.86200		875.00000 
 43692.65567		 305.27265			43387.38302		69.65600		324.00000 
 43692.65567		 889.56308			42803.09259		220.86200		875.00000 
 43692.65567		 305.27265			43387.38302		69.65600		324.00000 
 43692.65567		 889.56308			42803.09259		220.86200		875.00000 
 43692.65567		 305.27265			43387.38302		69.65600		324.00000 
 43692.65567		 889.56308			42803.09259		220.86200		875.00000 
 43692.65567		 305.27265			43387.38302		69.65600		324.00000 
 43692.65567		 889.56308			42803.09259		220.86200		875.00000 
 43692.65567		 305.27265			43387.38302		69.65600		324.00000 
 43692.65567		 889.56308			42803.09259		220.86200		875.00000 
 43692.65567		 305.27265			43387.38302		69.65600		324.00000 
 43692.65567		 889.56308			42803.09259		220.86200		875.00000 
 43692.65567		 305.27265			43387.38302		69.65600		324.00000 
 43692.65567		 889.56308			42803.09259		220.86200		875.00000 
 43692.65567		 305.27265			43387.38302		69.65600		324.00000 
 43692.65567		 889.56308			42803.09259		220.86200		875.00000 
 43692.65567		 305.27265			43387.38302		69.65600		324.00000 
 43692.65567		 889.56308			42803.09259		220.86200		875.00000 
 43692.65567		 305.27265			43387.38302		69.65600		324.00000 
 43692.65567		 889.56308			42803.09259		220.86200		875.00000 
 43692.65567		 305.27265			43387.38302		69.65600		324.00000 
 43692.65567		 889.56308			42803.09259		220.86200		875.00000 
 43692.65567		 305.27265			43387.38302		69.65600		324.00000 
 43692.65567		 889.56308			42803.09259		220.86200		875.00000 
 43692.65567		 305.27265			43387.38302		69.65600		324.00000 
 43692.65567		 889.56308			42803.09259		220.86200		875.00000 
 43692.65567		 305.27265			43387.38302		69.65600		324.00000 
 43692.65567		 889.56308			42803.09259		220.86200		875.00000 
 43692.65567		 305.27265			43387.38302		69.65600		324.00000 
 43692.65567		 889.56308			42803.09259		220.86200		875.00000 
 43692.65567		 305.27265			43387.38302		69.65600		324.00000 
 43692.65567		 889.56308			42803.09259		220.86200		875.00000 
 43692.65567		 305.27265			43387.38302		69.65600		324.00000 
 43692.65567		 889.56308			42803.09259		220.86200		875.00000 
 43692.65567		 305.27265			43387.38302		69.65600		324.00000 
 43692.65567		 889.56308			42803.09259		220.86200		875.00000 
 43692.65567		 305.27265			43387.38302		69.65600		324.00000 
 43692.65567		 889.56308			42803.09259		220.86200		875.00000 
 43692.65567		 305.27265			43387.38302		69.65600		324.00000 
 43692.65567		 889.56308			42803.09259		220.86200		875.00000 
 43692.65567		 305.27265			43387.38302		69.65600		324.00000 
 43692.65567		 889.56308			42803.09259		220.86200		875.00000 
 43692.65567		 305.27265			43387.38302		69.65600		324.00000 
 43692.65567		 889.56308			42803.09259		220.86200		875.00000 
 43692.65567		 305.27265			43387.38302		69.65600		324.00000 
 43692.65567		 889.56308			42803.09259		220.86200		875.00000 
 43692.65567		 305.27265			43387.38302		69.65600		324.00000 
 43692.65567		 889.56308			42803.09259		220.86200		875.00000 
 43692.65567		 305.27265			43387.38302		69.65600		324.00000 
 43692.65567		 889.56308			42803.09259		220.86200		875.00000 
 43692.65567		 305.27265			43387.38302		69.65600		324.00000 
 43692.65567		 889.56308			42803.09259		220.86200		875.00000 
 43692.65567		 305.27265			43387.38302		69.65600		324.00000 
 43692.65567		 889.56308			42803.09259		220.86200		875.00000 
 43692.65567		 305.27265			43387.38302		69.65600		324.00000 
 43692.65567		 889.56308			42803.09259		220.86200		875.00000 
 43692.65567		 305.27265			43387.38302		69.65600		324.00000 
 43692.65567		 889.56308			42803.09259		220.86200		875.00000 
 43692.65567		 305.27265			43387.38302		69.65600		324.00000 
 43692.65567		 889.56308			42803.09259		220.86200		875.00000 
 43692.65567		 305.27265			43387.38302		69.65600		324.00000 
 43692.65567		 889.56308			42803.09259		220.86200		875.00000 
 43692.65567		 305.27265			43387.38302		69.65600		324.00000 
 43692.65567		 889.56308			42803.09259		220.86200		875.00000 
 43692.65567		 305.27265			43387.38302		69.65600		324.00000 
 43692.65567		 889.56308			42803.09259		220.86200		875.00000 
 43692.65567		 305.27265			43387.38302		69.65600		324.00000 
 43692.65567		 889.56308			42803.09259		220.86200		875.00000 
 43692.65567		 305.27265			43387.38302		69.65600		324.00000 
 43692.65567		 889.56308			42803.09259		220.86200		875.00000 
 43692.65567		 305.27265			43387.38302		69.65600		324.00000 
 43692.65567		 889.56308			42803.09259		220.86200		875.00000 
 43692.65567		 305.27265			43387.38302		69.65600		324.00000 
 43692.65567		 889.56308			42803.09259		220.86200		875.00000 
 43692.65567		 305.27265			43387.38302		69.65600		324.00000 
 43692.65567		 889.56308			42803.09259		220.86200		875.00000 
 43692.65567		 305.27265			43387.38302		69.65600		324.00000 
 43692.65567		 889.56308			42803.09259		220.86200		875.00000 
 43692.65567		 305.27265			43387.38302		69.65600		324.00000 
 43692.65567		 889.56308			42803.09259		220.86200		875.00000 
 43692.65567		 305.27265			43387.38302		69.65600		324.00000 
 43692.65567		 889.56308			42803.09259		220.86200		875.00000 
 43692.65567		 305.27265			43387.38302		69.65600		324.00000 
 43692.65567		 889.56308			42803.09259		220.86200		875.00000 
 43692.65567		 305.27265			43387.38302		69.65600		324.00000 
 43692.65567		 889.56308			42803.09259		220.86200		875.00000 
 43692.65567		 305.27265			43387.38302		69.65600		324.00000 
 43692.65567		 889.56308			42803.09259		220.86200		875.00000 
 43692.65567		 305.27265			43387.38302		69.65600		324.00000 
 43692.65567		 889.56308			42803.09259		220.86200		875.00000 
 43692.65567		 305.27265			43387.38302		69.65600		324.00000 
 43692.65567		 889.56308			42803.09259		220.86200		875.00000 
 43692.65567		 305.27265			43387.38302		69.65600		324.00000 
 43692.65567		 889.56308			42803.09259		220.86200		875.00000 
 43692.65567		 305.27265			43387.38302		69.65600		324.00000 
 43692.65567		 889.56308			42803.09259		220.86200		875.00000 
 43692.65567		 305.27265			43387.38302		69.65600		324.00000 
 43692.65567		 889.56308			42803.09259		220.86200		875.00000 
 43692.65567		 305.27265			43387.38302		69.65600		324.00000 
 43692.65567		 889.56308			42803.09259		220.86200		875.00000 
 43692.65567		 305.27265			43387.38302		69.65600		324.00000 
 43692.65567		 889.56308			42803.09259		220.86200		875.00000 
 43692.65567		 305.27265			43387.38302		69.65600		324.00000 
 43692.65567		 889.56308			42803.09259		220.86200		875.00000 
 43692.65567		 305.27265			43387.38302		69.65600		324.00000 
 43692.65567		 889.56308			42803.09259		220.86200		875.00000 
 43692.65567		 305.27265			43387.38302		69.65600		324.00000 
 43692.65567		 889.56308			42803.09259		220.86200		875.00000 
 43692.65567		 305.27265			43387.38302		69.65600		324.00000 
 43692.65567		 889.56308			42803.09259		220.86200		875.00000 
 43692.65567		 305.27265			43387.38302		69.65600		324.00000 
 43692.65567		 889.56308			42803.09259		220.86200		875.00000 
 43692.65567		 305.27265			43387.38302		69.65600		324.00000 
 43692.65567		 889.56308			42803.09259		220.86200		875.00000 
 43692.65567		 305.27265			43387.38302		69.65600		324.00000 
 43692.65567		 889.56308			42803.09259		220.86200		875.00000 
 43692.65567		 305.27265			43387.38302		69.65600		324.00000 
 43692.65567		 889.56308			42803.09259		220.86200		875.00000 
 43692.65567		 305.27265			43387.38302		69.65600		324.00000 
 43692.65567		 889.56308			42803.09259		220.86200		875.00000 
 43692.65567		 305.27265			43387.38302		69.65600		324.00000 
 43692.65567		 889.56308			42803.09259		220.86200		875.00000 
 43692.65567		 305.27265			43387.38302		69.65600		324.00000 
 43692.65567		 889.56308			42803.09259		220.86200		875.00000 
 43692.65567		 305.27265			43387.38302		69.65600		324.00000 
 43692.65567		 889.56308			42803.09259		220.86200		875.00000 
 43692.65567		 305.27265			43387.38302		69.65600		324.00000 
 43692.65567		 889.56308			42803.09259		220.86200		875.00000 
 43692.65567		 305.27265			43387.38302		69.65600		324.00000 
 43692.65567		 889.56308			42803.09259		220.26200		875.00000 
 43692.65567		 305.27265			43387.38302		69.65600		324.00000 
 43692.65567		 889.56308			42803.09259		220.26200		875.00000 
 43692.65567		 305.27265			43387.38302		69.65600		324.00000 
 43692.65567		 889.56308			42803.09259		220.26200		875.00000 
 43692.65567		 305.27265			43387.38302		69.65600		324.00000 
 43692.65567		 889.56308			42803.09259		220.26200		875.00000 
 43692.65567		 305.27265			43387.38302		69.65600		324.00000 
 43692.65567		 889.56308			42803.09259		220.26200		875.00000 
 43692.65567		 305.27265			43387.38302		69.65600		324.00000 
 43692.65567		 889.56308			42803.09259		220.26200		875.00000 
 43692.65567		 305.27265			43387.38302		69.65600		324.00000 
 43692.65567		 889.56308			42803.09259		220.26200		875.00000 
 43692.65567		 305.27265			43387.38302		69.65600		324.00000 
 43692.65567		 889.56308			42803.09259		220.26200		875.00000 
 43692.65567		 305.27265			43387.38302		69.65600		324.00000 
 43692.65567		 889.56308			42803.09259		220.26200		875.00000 
 43692.65567		 305.27265			43387.38302		69.65600		324.00000 
 43692.65567		 889.56308			42803.09259		220.26200		875.00000 
 43692.65567		 305.27265			43387.38302		69.65600		324.00000 
 43692.65567		 889.56308			42803.09259		220.26200		875.00000 
 43692.65567		 305.27265			43387.38302		69.65600		324.00000 
 43692.65567		 889.56308			42803.09259		220.26200		875.00000 
 43692.65567		 305.27265			43387.38302		69.65600		324.00000 
 43692.65567		 889.56308			42803.09259		220.26200		875.00000 
 43692.65567		 305.27265			43387.38302		69.65600		324.00000 
 43692.65567		 889.56308			42803.09259		220.26200		875.00000 
 43692.65567		 305.27265			43387.38302		69.65600		324.00000 
 43692.65567		 889.56308			42803.09259		220.26200		875.00000 
 43692.65567		 305.27265			43387.38302		69.65600		324.00000 
 43692.65567		 889.56308			42803.09259		220.26200		875.00000 
 43692.65567		 305.27265			43387.38302		69.65600		324.00000 
 43692.65567		 889.56308			42803.09259		220.26200		875.00000 
 43692.65567		 305.27265			43387.38302		69.65600		324.00000 
 43692.65567		 889.56308			42803.09259		220.26200		875.00000 
 43692.65567		 305.27265			43387.38302		69.65600		324.00000 
 43692.65567		 889.56308			42803.09259		220.26200		875.00000 
 43692.65567		 305.27265			43387.38302		69.65600		324.00000 
 43692.65567		 889.56308			42803.09259		220.26200		875.00000 
 43692.65567		 305.27265			43387.38302		69.65600		324.00000 
 43692.65567		 889.56308			42803.09259		220.26200		875.00000 
 43692.65567		 305.27265			43387.38302		69.65600		324.00000 
 43692.65567		 889.56308			42803.09259		220.26200		875.00000 
 43692.65567		 305.27265			43387.38302		69.65600		324.00000 
 43692.65567		 889.56308			42803.09259		220.26200		875.00000 
 43692.65567		 305.27265			43387.38302		69.65600		324.00000 
 43692.65567		 889.56308			42803.09259		220.26200		875.00000 
 43692.65567		 305.27265			43387.38302		69.65600		324.00000 
 43692.65567		 889.56308			42803.09259		220.26200		875.00000 
 43692.65567		 305.27265			43387.38302		69.65600		324.00000 
 43692.65567		 889.56308			42803.09259		220.26200		875.00000 
 43692.65567		 305.27265			43387.38302		69.65600		324.00000 
 43692.65567		 889.56308			42803.09259		220.26200		875.00000 
 43692.65567		 305.27265			43387.38302		69.65600		324.00000 
 43692.65567		 889.56308			42803.09259		220.26200		875.00000 
 43692.65567		 305.27265			43387.38302		69.65600		324.00000 
 43692.65567		 889.56308			42803.09259		220.26200		875.00000 
 43692.65567		 305.27265			43387.38302		69.65600		324.00000 
 43692.65567		 889.56308			42803.09259		220.26200		875.00000 
 43692.65567		 305.27265			43387.38302		69.65600		324.00000 
 43692.65567		 889.56308			42803.09259		220.26200		875.00000 
 43692.65567		 305.27265			43387.38302		69.65600		324.00000 
 43692.65567		 889.56308			42803.09259		220.26200		875.00000 
 43692.65567		 305.27265			43387.38302		69.65600		324.00000 
 43692.65567		 889.56308			42803.09259		220.26200		875.00000 
 43692.65567		 305.27265			43387.38302		69.65600		324.00000 
 43692.65567		 889.56308			42803.09259		220.26200		875.00000 
 43692.65567		 305.27265			43387.38302		69.65600		324.00000 
 43692.65567		 889.56308			42803.09259		220.26200		875.00000 
 43692.65567		 305.27265			43387.38302		69.65600		324.00000 
 43692.65567		 889.56308			42803.09259		220.26200		875.00000 
 43692.65567		 305.27265			43387.38302		69.65600		324.00000 
 43692.65567		 889.56308			42803.09259		220.26200		875.00000 
 43692.65567		 305.27265			43387.38302		69.65600		324.00000 
 43692.65567		 889.56308			42803.09259		220.26200		875.00000 
 43692.65567		 305.27265			43387.38302		69.65600		324.00000 
 43692.65567		 889.56308			42803.09259		220.26200		875.00000 
 43692.65567		 305.27265			43387.38302		69.65600		324.00000 
 43692.65567		 772.13216			42920.52351		220.26200		875.00000 
 43692.65567		 305.27265			43387.38302		69.65600		324.00000 
 43692.65567		 772.13216			42920.52351		220.26200		875.00000 
 43692.65567		 305.27265			43387.38302		69.65600		324.00000 
 43692.65567		 654.70124			43037.95443		220.26200		875.00000 
 43692.65567		 305.27265			43387.38302		69.65600		324.00000 
 43692.65567		 654.70124			43037.95443		220.26200		875.00000 
 43692.65567		 305.27265			43387.38302		69.65600		324.00000 
 43692.65567		 537.27032			43155.38535		220.26200		875.00000 
 43692.65567		 305.27265			43387.38302		69.65600		324.00000 
 43692.65567		 537.27032			43155.38535		220.26200		875.00000 
 43692.65567		 305.27265			43387.38302		69.65600		324.00000 
 43692.65567		 537.27032			43155.38535		220.26200		875.00000 
 43692.65567		 305.27265			43387.38302		69.65600		324.00000 
 43692.65567		 537.27032			43155.38535		220.26200		875.00000 
 43692.65567		 305.27265			43387.38302		69.65600		324.00000 
 43692.65567		 537.27032			43155.38535		220.26200		875.00000 
 43692.65567		 305.27265			43387.38302		69.65600		324.00000 
 43692.65567		 537.27032			43155.38535		220.26200		875.00000 
 43692.65567		 305.27265			43387.38302		69.65600		324.00000 
 43692.65567		 537.27032			43155.38535		220.26200		875.00000 
 43692.65567		 305.27265			43387.38302		69.65600		324.00000 
 43692.65567		 537.27032			43155.38535		220.26200		875.00000 
 43692.65567		 305.27265			43387.38302		69.65600		324.00000 
 43692.65567		 537.27032			43155.38535		220.26200		875.00000 
 43692.65567		 305.27265			43387.38302		69.65600		324.00000 
 43692.65567		 537.27032			43155.38535		220.26200		875.00000 
 43692.65567		 305.27265			43387.38302		69.65600		324.00000 
 43692.65567		 537.27032			43155.38535		220.26200		875.00000 
 43692.65567		 305.27265			43387.38302		69.65600		324.00000 
 43692.65567		 537.27032			43155.38535		220.26200		875.00000 
 43692.65567		 305.27265			43387.38302		69.65600		324.00000 
 43692.65567		 537.27032			43155.38535		220.26200		875.00000 
 43692.65567		 305.27265			43387.38302		69.65600		324.00000 
 43692.65567		 537.27032			43155.38535		220.26200		875.00000 
 43692.65567		 305.27265			43387.38302		69.65600		324.00000 
 43692.65567		 537.27032			43155.38535		220.26200		875.00000 
 43692.65567		 305.27265			43387.38302		69.65600		324.00000 
 43692.65567		 537.27032			43155.38535		220.26200		875.00000 
 43692.65567		 305.27265			43387.38302		69.65600		324.00000 
 43692.65567		 537.27032			43155.38535		192.98800		875.00000 
 43692.65567		 305.27265			43387.38302		69.65600		324.00000 
 43692.65567		 537.27032			43155.38535		192.98800		875.00000 
 43692.65567		 305.27265			43387.38302		69.65600		324.00000 
 43692.65567		 537.27032			43155.38535		192.98800		875.00000 
 43692.65567		 305.27265			43387.38302		69.65600		324.00000 
 43692.65567		 537.27032			43155.38535		192.98800		875.00000 
 43692.65567		 305.27265			43387.38302		69.65600		324.00000 
 43692.65567		 537.27032			43155.38535		192.98800		875.00000 
 43692.65567		 305.27265			43387.38302		69.65600		324.00000 
 43692.65567		 529.63254			43163.02313		192.98800		875.00000 
 43692.65567		 305.27265			43387.38302		69.65600		324.00000 
 43692.65567		 525.81365			43166.84203		192.98800		875.00000 
 43692.65567		 305.27265			43387.38302		69.65600		324.00000 
 43692.65567		 525.81365			43166.84203		192.98800		875.00000 
 43692.65567		 261.35540			43431.30027		69.65600		324.00000 
 43692.65567		 261.35540			43431.30027		192.98800		875.00000 
 43692.65567		 261.35540			43431.30027		69.65600		324.00000 
