Memory Total (MiB) 	 Memory Used (MiB) 	    Memory Free (MiB) 	 Power Drawed (W) 	 Clocks (Mhz) 	 
 43692.65567		 261.35540			43431.30027		204.35400		875.00000 
 43692.65567		 261.35540			43431.30027		65.48200		324.00000 
 43692.65567		 261.35540			43431.30027		204.35400		875.00000 
 43692.65567		 261.35540			43431.30027		65.48200		324.00000 
 43692.65567		 261.35540			43431.30027		204.35400		875.00000 
 43692.65567		 261.35540			43431.30027		65.48200		324.00000 
 43692.65567		 261.35540			43431.30027		204.35400		875.00000 
 43692.65567		 261.35540			43431.30027		65.48200		324.00000 
 43692.65567		 261.35540			43431.30027		204.35400		875.00000 
 43692.65567		 261.35540			43431.30027		65.48200		324.00000 
 43692.65567		 261.35540			43431.30027		204.35400		875.00000 
 43692.65567		 261.35540			43431.30027		65.48200		324.00000 
 43692.65567		 261.35540			43431.30027		204.35400		875.00000 
 43692.65567		 261.35540			43431.30027		65.48200		324.00000 
 43692.65567		 261.35540			43431.30027		160.57200		875.00000 
 43692.65567		 261.35540			43431.30027		65.48200		324.00000 
 43692.65567		 261.35540			43431.30027		160.57200		875.00000 
 43692.65567		 261.35540			43431.30027		65.48200		324.00000 
 43692.65567		 261.35540			43431.30027		160.57200		875.00000 
 43692.65567		 261.35540			43431.30027		65.48200		324.00000 
 43692.65567		 261.35540			43431.30027		160.57200		875.00000 
 43692.65567		 261.35540			43431.30027		66.56000		324.00000 
 43692.65567		 261.35540			43431.30027		160.57200		875.00000 
 43692.65567		 261.35540			43431.30027		66.56000		324.00000 
 43692.65567		 261.35540			43431.30027		160.57200		875.00000 
 43692.65567		 261.35540			43431.30027		66.56000		324.00000 
 43692.65567		 261.35540			43431.30027		160.57200		875.00000 
 43692.65567		 261.35540			43431.30027		66.56000		324.00000 
 43692.65567		 261.35540			43431.30027		160.57200		875.00000 
 43692.65567		 261.35540			43431.30027		66.56000		324.00000 
 43692.65567		 261.35540			43431.30027		160.57200		875.00000 
 43692.65567		 261.35540			43431.30027		66.56000		324.00000 
 43692.65567		 261.35540			43431.30027		160.57200		875.00000 
 43692.65567		 261.35540			43431.30027		66.56000		324.00000 
 43692.65567		 265.17429			43427.48138		160.57200		875.00000 
 43692.65567		 261.35540			43431.30027		66.56000		324.00000 
 43692.65567		 265.17429			43427.48138		160.57200		875.00000 
 43692.65567		 261.35540			43431.30027		66.56000		324.00000 
 43692.65567		 272.81207			43419.84360		160.57200		875.00000 
 43692.65567		 261.35540			43431.30027		66.56000		324.00000 
 43692.65567		 272.81207			43419.84360		160.57200		875.00000 
 43692.65567		 261.35540			43431.30027		66.56000		324.00000 
 43692.65567		 272.81207			43419.84360		160.57200		875.00000 
 43692.65567		 265.17429			43427.48138		66.56000		324.00000 
 43692.65567		 272.81207			43419.84360		160.57200		875.00000 
 43692.65567		 265.17429			43427.48138		66.56000		324.00000 
 43692.65567		 272.81207			43419.84360		160.57200		875.00000 
 43692.65567		 265.17429			43427.48138		66.56000		324.00000 
 43692.65567		 272.81207			43419.84360		160.57200		875.00000 
 43692.65567		 272.81207			43419.84360		66.56000		324.00000 
 43692.65567		 272.81207			43419.84360		160.57200		875.00000 
 43692.65567		 272.81207			43419.84360		66.56000		324.00000 
 43692.65567		 272.81207			43419.84360		160.57200		875.00000 
 43692.65567		 272.81207			43419.84360		66.56000		324.00000 
 43692.65567		 305.27265			43387.38302		160.57200		875.00000 
 43692.65567		 305.27265			43387.38302		66.56000		324.00000 
 43692.65567		 305.27265			43387.38302		160.57200		875.00000 
 43692.65567		 305.27265			43387.38302		66.56000		324.00000 
 43692.65567		 305.27265			43387.38302		160.57200		875.00000 
 43692.65567		 305.27265			43387.38302		66.56000		324.00000 
 43692.65567		 305.27265			43387.38302		160.57200		875.00000 
 43692.65567		 305.27265			43387.38302		66.56000		324.00000 
 43692.65567		 305.27265			43387.38302		160.57200		875.00000 
 43692.65567		 305.27265			43387.38302		66.56000		324.00000 
 43692.65567		 310.04627			43382.60941		160.57200		875.00000 
 43692.65567		 305.27265			43387.38302		66.56000		324.00000 
 43692.65567		 311.00099			43381.65468		160.57200		875.00000 
 43692.65567		 305.27265			43387.38302		66.56000		324.00000 
 43692.65567		 311.00099			43381.65468		160.57200		875.00000 
 43692.65567		 305.27265			43387.38302		66.56000		324.00000 
 43692.65567		 311.00099			43381.65468		160.57200		875.00000 
 43692.65567		 305.27265			43387.38302		66.56000		324.00000 
 43692.65567		 311.00099			43381.65468		160.57200		875.00000 
 43692.65567		 305.27265			43387.38302		66.56000		324.00000 
 43692.65567		 311.00099			43381.65468		160.57200		875.00000 
 43692.65567		 305.27265			43387.38302		66.56000		324.00000 
 43692.65567		 311.00099			43381.65468		160.57200		875.00000 
 43692.65567		 305.27265			43387.38302		66.56000		324.00000 
 43692.65567		 311.00099			43381.65468		141.38600		875.00000 
 43692.65567		 305.27265			43387.38302		66.56000		324.00000 
 43692.65567		 311.00099			43381.65468		141.38600		875.00000 
 43692.65567		 305.27265			43387.38302		66.56000		324.00000 
 43692.65567		 311.00099			43381.65468		141.38600		875.00000 
 43692.65567		 305.27265			43387.38302		66.56000		324.00000 
 43692.65567		 311.00099			43381.65468		141.38600		875.00000 
 43692.65567		 305.27265			43387.38302		66.56000		324.00000 
 43692.65567		 311.00099			43381.65468		141.38600		875.00000 
 43692.65567		 305.27265			43387.38302		66.56000		324.00000 
 43692.65567		 311.00099			43381.65468		141.38600		875.00000 
 43692.65567		 305.27265			43387.38302		66.56000		324.00000 
 43692.65567		 311.00099			43381.65468		141.38600		875.00000 
 43692.65567		 305.27265			43387.38302		66.56000		324.00000 
 43692.65567		 311.00099			43381.65468		141.38600		875.00000 
 43692.65567		 305.27265			43387.38302		66.56000		324.00000 
 43692.65567		 311.00099			43381.65468		141.38600		875.00000 
 43692.65567		 305.27265			43387.38302		66.56000		324.00000 
 43692.65567		 311.00099			43381.65468		141.38600		875.00000 
 43692.65567		 305.27265			43387.38302		66.56000		324.00000 
 43692.65567		 311.00099			43381.65468		141.38600		875.00000 
 43692.65567		 305.27265			43387.38302		66.56000		324.00000 
 43692.65567		 311.00099			43381.65468		141.38600		875.00000 
 43692.65567		 305.27265			43387.38302		66.56000		324.00000 
 43692.65567		 311.00099			43381.65468		141.38600		875.00000 
 43692.65567		 305.27265			43387.38302		66.56000		324.00000 
 43692.65567		 311.00099			43381.65468		141.38600		875.00000 
 43692.65567		 305.27265			43387.38302		66.56000		324.00000 
 43692.65567		 311.00099			43381.65468		141.38600		875.00000 
 43692.65567		 305.27265			43387.38302		66.56000		324.00000 
 43692.65567		 311.00099			43381.65468		141.38600		875.00000 
 43692.65567		 305.27265			43387.38302		66.56000		324.00000 
 43692.65567		 311.00099			43381.65468		141.38600		875.00000 
 43692.65567		 305.27265			43387.38302		66.56000		324.00000 
 43692.65567		 311.00099			43381.65468		141.38600		875.00000 
 43692.65567		 305.27265			43387.38302		66.56000		324.00000 
 43692.65567		 311.00099			43381.65468		141.38600		875.00000 
 43692.65567		 305.27265			43387.38302		66.56000		324.00000 
 43692.65567		 311.00099			43381.65468		141.38600		875.00000 
 43692.65567		 305.27265			43387.38302		66.56000		324.00000 
 43692.65567		 311.00099			43381.65468		141.38600		875.00000 
 43692.65567		 305.27265			43387.38302		66.56000		324.00000 
 43692.65567		 311.00099			43381.65468		141.38600		875.00000 
 43692.65567		 305.27265			43387.38302		66.56000		324.00000 
 43692.65567		 311.00099			43381.65468		141.38600		875.00000 
 43692.65567		 305.27265			43387.38302		66.56000		324.00000 
 43692.65567		 311.00099			43381.65468		141.38600		875.00000 
 43692.65567		 305.27265			43387.38302		66.56000		324.00000 
 43692.65567		 311.00099			43381.65468		141.38600		875.00000 
 43692.65567		 305.27265			43387.38302		66.56000		324.00000 
 43692.65567		 311.00099			43381.65468		141.38600		875.00000 
 43692.65567		 305.27265			43387.38302		66.56000		324.00000 
 43692.65567		 311.00099			43381.65468		141.38600		875.00000 
 43692.65567		 305.27265			43387.38302		66.56000		324.00000 
 43692.65567		 311.00099			43381.65468		141.38600		875.00000 
 43692.65567		 305.27265			43387.38302		66.56000		324.00000 
 43692.65567		 311.00099			43381.65468		141.38600		875.00000 
 43692.65567		 305.27265			43387.38302		66.56000		324.00000 
 43692.65567		 311.00099			43381.65468		141.38600		875.00000 
 43692.65567		 305.27265			43387.38302		66.56000		324.00000 
 43692.65567		 311.00099			43381.65468		141.38600		875.00000 
 43692.65567		 305.27265			43387.38302		66.56000		324.00000 
 43692.65567		 311.00099			43381.65468		134.11800		875.00000 
 43692.65567		 305.27265			43387.38302		66.56000		324.00000 
 43692.65567		 311.00099			43381.65468		134.11800		875.00000 
 43692.65567		 305.27265			43387.38302		66.56000		324.00000 
 43692.65567		 311.00099			43381.65468		134.11800		875.00000 
 43692.65567		 305.27265			43387.38302		66.56000		324.00000 
 43692.65567		 311.00099			43381.65468		134.11800		875.00000 
 43692.65567		 305.27265			43387.38302		66.56000		324.00000 
 43692.65567		 311.00099			43381.65468		134.11800		875.00000 
 43692.65567		 305.27265			43387.38302		66.56000		324.00000 
 43692.65567		 311.00099			43381.65468		134.11800		875.00000 
 43692.65567		 305.27265			43387.38302		66.56000		324.00000 
 43692.65567		 311.00099			43381.65468		134.11800		875.00000 
 43692.65567		 305.27265			43387.38302		66.56000		324.00000 
 43692.65567		 311.00099			43381.65468		134.11800		875.00000 
 43692.65567		 305.27265			43387.38302		66.56000		324.00000 
 43692.65567		 311.00099			43381.65468		134.11800		875.00000 
 43692.65567		 305.27265			43387.38302		66.56000		324.00000 
 43692.65567		 311.00099			43381.65468		134.11800		875.00000 
 43692.65567		 305.27265			43387.38302		66.56000		324.00000 
 43692.65567		 311.00099			43381.65468		134.11800		875.00000 
 43692.65567		 305.27265			43387.38302		66.56000		324.00000 
 43692.65567		 311.00099			43381.65468		134.11800		875.00000 
 43692.65567		 305.27265			43387.38302		66.56000		324.00000 
 43692.65567		 311.00099			43381.65468		134.11800		875.00000 
 43692.65567		 305.27265			43387.38302		66.56000		324.00000 
 43692.65567		 311.00099			43381.65468		134.11800		875.00000 
 43692.65567		 305.27265			43387.38302		66.56000		324.00000 
 43692.65567		 314.81988			43377.83579		134.11800		875.00000 
 43692.65567		 305.27265			43387.38302		66.56000		324.00000 
 43692.65567		 314.81988			43377.83579		134.11800		875.00000 
 43692.65567		 305.27265			43387.38302		66.56000		324.00000 
 43692.65567		 314.81988			43377.83579		134.11800		875.00000 
 43692.65567		 305.27265			43387.38302		66.56000		324.00000 
 43692.65567		 322.45767			43370.19801		134.11800		875.00000 
 43692.65567		 305.27265			43387.38302		66.56000		324.00000 
 43692.65567		 326.27656			43366.37912		134.11800		875.00000 
 43692.65567		 305.27265			43387.38302		66.56000		324.00000 
 43692.65567		 326.27656			43366.37912		134.11800		875.00000 
 43692.65567		 305.27265			43387.38302		66.56000		324.00000 
 43692.65567		 326.27656			43366.37912		134.11800		875.00000 
 43692.65567		 305.27265			43387.38302		66.56000		324.00000 
 43692.65567		 326.27656			43366.37912		134.11800		875.00000 
 43692.65567		 305.27265			43387.38302		66.56000		324.00000 
 43692.65567		 537.27032			43155.38535		134.11800		875.00000 
 43692.65567		 305.27265			43387.38302		66.56000		324.00000 
 43692.65567		 552.54589			43140.10978		134.11800		875.00000 
 43692.65567		 305.27265			43387.38302		66.56000		324.00000 
 43692.65567		 583.09702			43109.55865		134.11800		875.00000 
 43692.65567		 305.27265			43387.38302		66.56000		324.00000 
 43692.65567		 583.09702			43109.55865		134.11800		875.00000 
 43692.65567		 305.27265			43387.38302		66.56000		324.00000 
 43692.65567		 583.09702			43109.55865		134.11800		875.00000 
 43692.65567		 305.27265			43387.38302		66.56000		324.00000 
 43692.65567		 583.09702			43109.55865		134.11800		875.00000 
 43692.65567		 305.27265			43387.38302		66.56000		324.00000 
 43692.65567		 583.09702			43109.55865		134.11800		875.00000 
 43692.65567		 305.27265			43387.38302		66.56000		324.00000 
 43692.65567		 583.09702			43109.55865		134.11800		875.00000 
 43692.65567		 305.27265			43387.38302		66.56000		324.00000 
 43692.65567		 583.09702			43109.55865		134.11800		875.00000 
 43692.65567		 305.27265			43387.38302		66.56000		324.00000 
 43692.65567		 583.09702			43109.55865		134.11800		875.00000 
 43692.65567		 305.27265			43387.38302		66.56000		324.00000 
 43692.65567		 583.09702			43109.55865		134.11800		875.00000 
 43692.65567		 305.27265			43387.38302		66.56000		324.00000 
 43692.65567		 583.09702			43109.55865		134.11800		875.00000 
 43692.65567		 305.27265			43387.38302		66.56000		324.00000 
 43692.65567		 583.09702			43109.55865		134.11800		875.00000 
 43692.65567		 305.27265			43387.38302		66.56000		324.00000 
 43692.65567		 583.09702			43109.55865		134.11800		875.00000 
 43692.65567		 305.27265			43387.38302		66.56000		324.00000 
 43692.65567		 583.09702			43109.55865		134.11800		875.00000 
 43692.65567		 305.27265			43387.38302		66.56000		324.00000 
 43692.65567		 583.09702			43109.55865		134.11800		875.00000 
 43692.65567		 305.27265			43387.38302		66.56000		324.00000 
 43692.65567		 583.09702			43109.55865		134.11800		875.00000 
 43692.65567		 305.27265			43387.38302		66.56000		324.00000 
 43692.65567		 583.09702			43109.55865		134.11800		875.00000 
 43692.65567		 305.27265			43387.38302		66.56000		324.00000 
 43692.65567		 583.09702			43109.55865		134.11800		875.00000 
 43692.65567		 305.27265			43387.38302		66.56000		324.00000 
 43692.65567		 583.09702			43109.55865		134.11800		875.00000 
 43692.65567		 305.27265			43387.38302		66.56000		324.00000 
 43692.65567		 583.09702			43109.55865		134.11800		875.00000 
 43692.65567		 305.27265			43387.38302		66.56000		324.00000 
 43692.65567		 583.09702			43109.55865		134.11800		875.00000 
 43692.65567		 305.27265			43387.38302		66.56000		324.00000 
 43692.65567		 583.09702			43109.55865		151.86400		875.00000 
 43692.65567		 305.27265			43387.38302		66.56000		324.00000 
 43692.65567		 583.09702			43109.55865		151.86400		875.00000 
 43692.65567		 305.27265			43387.38302		66.56000		324.00000 
 43692.65567		 583.09702			43109.55865		151.86400		875.00000 
 43692.65567		 305.27265			43387.38302		66.56000		324.00000 
 43692.65567		 583.09702			43109.55865		151.86400		875.00000 
 43692.65567		 305.27265			43387.38302		66.56000		324.00000 
 43692.65567		 583.09702			43109.55865		151.86400		875.00000 
 43692.65567		 305.27265			43387.38302		66.56000		324.00000 
 43692.65567		 583.09702			43109.55865		151.86400		875.00000 
 43692.65567		 305.27265			43387.38302		66.56000		324.00000 
 43692.65567		 583.09702			43109.55865		151.86400		875.00000 
 43692.65567		 305.27265			43387.38302		66.56000		324.00000 
 43692.65567		 583.09702			43109.55865		151.86400		875.00000 
 43692.65567		 305.27265			43387.38302		66.56000		324.00000 
 43692.65567		 583.09702			43109.55865		151.86400		875.00000 
 43692.65567		 305.27265			43387.38302		66.56000		324.00000 
 43692.65567		 583.09702			43109.55865		151.86400		875.00000 
 43692.65567		 305.27265			43387.38302		66.56000		324.00000 
 43692.65567		 583.09702			43109.55865		151.86400		875.00000 
 43692.65567		 305.27265			43387.38302		66.56000		324.00000 
 43692.65567		 583.09702			43109.55865		151.86400		875.00000 
 43692.65567		 305.27265			43387.38302		66.56000		324.00000 
 43692.65567		 583.09702			43109.55865		151.86400		875.00000 
 43692.65567		 305.27265			43387.38302		66.56000		324.00000 
 43692.65567		 583.09702			43109.55865		151.86400		875.00000 
 43692.65567		 305.27265			43387.38302		66.56000		324.00000 
 43692.65567		 583.09702			43109.55865		151.86400		875.00000 
 43692.65567		 305.27265			43387.38302		66.56000		324.00000 
 43692.65567		 583.09702			43109.55865		151.86400		875.00000 
 43692.65567		 305.27265			43387.38302		66.56000		324.00000 
 43692.65567		 583.09702			43109.55865		151.86400		875.00000 
 43692.65567		 305.27265			43387.38302		66.56000		324.00000 
 43692.65567		 583.09702			43109.55865		151.86400		875.00000 
 43692.65567		 305.27265			43387.38302		66.56000		324.00000 
 43692.65567		 583.09702			43109.55865		151.86400		875.00000 
 43692.65567		 305.27265			43387.38302		66.56000		324.00000 
 43692.65567		 583.09702			43109.55865		151.86400		875.00000 
 43692.65567		 305.27265			43387.38302		66.56000		324.00000 
 43692.65567		 583.09702			43109.55865		151.86400		875.00000 
 43692.65567		 305.27265			43387.38302		66.56000		324.00000 
 43692.65567		 583.09702			43109.55865		151.86400		875.00000 
 43692.65567		 305.27265			43387.38302		66.56000		324.00000 
 43692.65567		 583.09702			43109.55865		151.86400		875.00000 
 43692.65567		 305.27265			43387.38302		66.56000		324.00000 
 43692.65567		 583.09702			43109.55865		151.86400		875.00000 
 43692.65567		 305.27265			43387.38302		66.56000		324.00000 
 43692.65567		 583.09702			43109.55865		151.86400		875.00000 
 43692.65567		 305.27265			43387.38302		66.56000		324.00000 
 43692.65567		 583.09702			43109.55865		151.86400		875.00000 
 43692.65567		 305.27265			43387.38302		66.56000		324.00000 
 43692.65567		 583.09702			43109.55865		151.86400		875.00000 
 43692.65567		 305.27265			43387.38302		66.56000		324.00000 
 43692.65567		 583.09702			43109.55865		151.86400		875.00000 
 43692.65567		 305.27265			43387.38302		66.56000		324.00000 
 43692.65567		 583.09702			43109.55865		151.86400		875.00000 
 43692.65567		 305.27265			43387.38302		66.56000		324.00000 
 43692.65567		 583.09702			43109.55865		151.86400		875.00000 
 43692.65567		 305.27265			43387.38302		66.56000		324.00000 
 43692.65567		 583.09702			43109.55865		151.86400		875.00000 
 43692.65567		 305.27265			43387.38302		66.56000		324.00000 
 43692.65567		 583.09702			43109.55865		151.86400		875.00000 
 43692.65567		 305.27265			43387.38302		66.56000		324.00000 
 43692.65567		 583.09702			43109.55865		151.86400		875.00000 
 43692.65567		 305.27265			43387.38302		66.56000		324.00000 
 43692.65567		 583.09702			43109.55865		151.86400		875.00000 
 43692.65567		 305.27265			43387.38302		66.56000		324.00000 
 43692.65567		 583.09702			43109.55865		151.86400		875.00000 
 43692.65567		 305.27265			43387.38302		66.56000		324.00000 
 43692.65567		 583.09702			43109.55865		151.86400		875.00000 
 43692.65567		 305.27265			43387.38302		66.56000		324.00000 
 43692.65567		 583.09702			43109.55865		151.86400		875.00000 
 43692.65567		 305.27265			43387.38302		66.56000		324.00000 
 43692.65567		 583.09702			43109.55865		151.86400		875.00000 
 43692.65567		 305.27265			43387.38302		66.56000		324.00000 
 43692.65567		 583.09702			43109.55865		151.86400		875.00000 
 43692.65567		 305.27265			43387.38302		66.56000		324.00000 
 43692.65567		 583.09702			43109.55865		151.86400		875.00000 
 43692.65567		 305.27265			43387.38302		66.56000		324.00000 
 43692.65567		 583.09702			43109.55865		151.86400		875.00000 
 43692.65567		 305.27265			43387.38302		66.56000		324.00000 
 43692.65567		 583.09702			43109.55865		151.86400		875.00000 
 43692.65567		 305.27265			43387.38302		66.56000		324.00000 
 43692.65567		 583.09702			43109.55865		151.86400		875.00000 
 43692.65567		 305.27265			43387.38302		66.56000		324.00000 
 43692.65567		 583.09702			43109.55865		151.86400		875.00000 
 43692.65567		 305.27265			43387.38302		66.56000		324.00000 
 43692.65567		 583.09702			43109.55865		151.86400		875.00000 
 43692.65567		 305.27265			43387.38302		66.56000		324.00000 
 43692.65567		 583.09702			43109.55865		151.86400		875.00000 
 43692.65567		 305.27265			43387.38302		66.56000		324.00000 
 43692.65567		 583.09702			43109.55865		151.86400		875.00000 
 43692.65567		 305.27265			43387.38302		66.56000		324.00000 
 43692.65567		 583.09702			43109.55865		151.86400		875.00000 
 43692.65567		 305.27265			43387.38302		66.56000		324.00000 
 43692.65567		 583.09702			43109.55865		151.86400		875.00000 
 43692.65567		 305.27265			43387.38302		66.56000		324.00000 
 43692.65567		 583.09702			43109.55865		151.86400		875.00000 
 43692.65567		 305.27265			43387.38302		66.56000		324.00000 
 43692.65567		 583.09702			43109.55865		151.86400		875.00000 
 43692.65567		 305.27265			43387.38302		66.56000		324.00000 
 43692.65567		 583.09702			43109.55865		151.86400		875.00000 
 43692.65567		 305.27265			43387.38302		66.56000		324.00000 
 43692.65567		 583.09702			43109.55865		151.86400		875.00000 
 43692.65567		 305.27265			43387.38302		66.56000		324.00000 
 43692.65567		 583.09702			43109.55865		151.86400		875.00000 
 43692.65567		 305.27265			43387.38302		66.56000		324.00000 
 43692.65567		 583.09702			43109.55865		151.86400		875.00000 
 43692.65567		 305.27265			43387.38302		66.56000		324.00000 
 43692.65567		 583.09702			43109.55865		151.86400		875.00000 
 43692.65567		 305.27265			43387.38302		66.56000		324.00000 
 43692.65567		 583.09702			43109.55865		151.86400		875.00000 
 43692.65567		 305.27265			43387.38302		66.56000		324.00000 
 43692.65567		 583.09702			43109.55865		151.86400		875.00000 
 43692.65567		 305.27265			43387.38302		66.56000		324.00000 
 43692.65567		 583.09702			43109.55865		151.86400		875.00000 
 43692.65567		 305.27265			43387.38302		66.56000		324.00000 
 43692.65567		 583.09702			43109.55865		151.86400		875.00000 
 43692.65567		 305.27265			43387.38302		66.56000		324.00000 
 43692.65567		 583.09702			43109.55865		151.86400		875.00000 
 43692.65567		 305.27265			43387.38302		66.56000		324.00000 
 43692.65567		 583.09702			43109.55865		186.68200		875.00000 
 43692.65567		 305.27265			43387.38302		66.56000		324.00000 
 43692.65567		 583.09702			43109.55865		186.68200		875.00000 
 43692.65567		 305.27265			43387.38302		66.56000		324.00000 
 43692.65567		 583.09702			43109.55865		186.68200		875.00000 
 43692.65567		 305.27265			43387.38302		66.56000		324.00000 
 43692.65567		 583.09702			43109.55865		186.68200		875.00000 
 43692.65567		 305.27265			43387.38302		66.56000		324.00000 
 43692.65567		 583.09702			43109.55865		186.68200		875.00000 
 43692.65567		 305.27265			43387.38302		66.56000		324.00000 
 43692.65567		 583.09702			43109.55865		186.68200		875.00000 
 43692.65567		 305.27265			43387.38302		66.56000		324.00000 
 43692.65567		 583.09702			43109.55865		186.68200		875.00000 
 43692.65567		 305.27265			43387.38302		66.56000		324.00000 
 43692.65567		 583.09702			43109.55865		186.68200		875.00000 
 43692.65567		 305.27265			43387.38302		66.56000		324.00000 
 43692.65567		 583.09702			43109.55865		186.68200		875.00000 
 43692.65567		 305.27265			43387.38302		66.56000		324.00000 
 43692.65567		 583.09702			43109.55865		186.68200		875.00000 
 43692.65567		 305.27265			43387.38302		66.56000		324.00000 
 43692.65567		 583.09702			43109.55865		186.68200		875.00000 
 43692.65567		 305.27265			43387.38302		66.56000		324.00000 
 43692.65567		 583.09702			43109.55865		186.68200		875.00000 
 43692.65567		 305.27265			43387.38302		66.56000		324.00000 
 43692.65567		 583.09702			43109.55865		186.68200		875.00000 
 43692.65567		 305.27265			43387.38302		66.56000		324.00000 
 43692.65567		 583.09702			43109.55865		186.68200		875.00000 
 43692.65567		 305.27265			43387.38302		66.56000		324.00000 
 43692.65567		 583.09702			43109.55865		186.68200		875.00000 
 43692.65567		 305.27265			43387.38302		66.56000		324.00000 
 43692.65567		 583.09702			43109.55865		186.68200		875.00000 
 43692.65567		 305.27265			43387.38302		66.56000		324.00000 
 43692.65567		 583.09702			43109.55865		186.68200		875.00000 
 43692.65567		 305.27265			43387.38302		66.56000		324.00000 
 43692.65567		 583.09702			43109.55865		186.68200		875.00000 
 43692.65567		 305.27265			43387.38302		66.56000		324.00000 
 43692.65567		 583.09702			43109.55865		186.68200		875.00000 
 43692.65567		 305.27265			43387.38302		66.56000		324.00000 
 43692.65567		 583.09702			43109.55865		186.68200		875.00000 
 43692.65567		 305.27265			43387.38302		66.56000		324.00000 
 43692.65567		 583.09702			43109.55865		186.68200		875.00000 
 43692.65567		 305.27265			43387.38302		66.56000		324.00000 
 43692.65567		 583.09702			43109.55865		186.68200		875.00000 
 43692.65567		 305.27265			43387.38302		66.56000		324.00000 
 43692.65567		 583.09702			43109.55865		186.68200		875.00000 
 43692.65567		 305.27265			43387.38302		66.56000		324.00000 
 43692.65567		 583.09702			43109.55865		186.68200		875.00000 
 43692.65567		 305.27265			43387.38302		66.56000		324.00000 
 43692.65567		 583.09702			43109.55865		186.68200		875.00000 
 43692.65567		 305.27265			43387.38302		66.56000		324.00000 
 43692.65567		 583.09702			43109.55865		186.68200		875.00000 
 43692.65567		 305.27265			43387.38302		66.56000		324.00000 
 43692.65567		 583.09702			43109.55865		186.68200		875.00000 
 43692.65567		 305.27265			43387.38302		66.56000		324.00000 
 43692.65567		 583.09702			43109.55865		186.68200		875.00000 
 43692.65567		 305.27265			43387.38302		66.56000		324.00000 
 43692.65567		 583.09702			43109.55865		186.68200		875.00000 
 43692.65567		 305.27265			43387.38302		66.56000		324.00000 
 43692.65567		 583.09702			43109.55865		186.68200		875.00000 
 43692.65567		 305.27265			43387.38302		66.56000		324.00000 
 43692.65567		 583.09702			43109.55865		186.68200		875.00000 
 43692.65567		 305.27265			43387.38302		66.56000		324.00000 
 43692.65567		 583.09702			43109.55865		186.68200		875.00000 
 43692.65567		 305.27265			43387.38302		66.56000		324.00000 
 43692.65567		 583.09702			43109.55865		186.68200		875.00000 
 43692.65567		 305.27265			43387.38302		66.56000		324.00000 
 43692.65567		 583.09702			43109.55865		186.68200		875.00000 
 43692.65567		 305.27265			43387.38302		66.56000		324.00000 
 43692.65567		 583.09702			43109.55865		186.68200		875.00000 
 43692.65567		 305.27265			43387.38302		66.56000		324.00000 
 43692.65567		 583.09702			43109.55865		186.68200		875.00000 
 43692.65567		 305.27265			43387.38302		66.56000		324.00000 
 43692.65567		 583.09702			43109.55865		186.68200		875.00000 
 43692.65567		 305.27265			43387.38302		66.56000		324.00000 
 43692.65567		 583.09702			43109.55865		186.68200		875.00000 
 43692.65567		 305.27265			43387.38302		66.56000		324.00000 
 43692.65567		 583.09702			43109.55865		186.68200		875.00000 
 43692.65567		 305.27265			43387.38302		66.56000		324.00000 
 43692.65567		 583.09702			43109.55865		186.68200		875.00000 
 43692.65567		 305.27265			43387.38302		66.56000		324.00000 
 43692.65567		 583.09702			43109.55865		186.68200		875.00000 
 43692.65567		 305.27265			43387.38302		66.56000		324.00000 
 43692.65567		 583.09702			43109.55865		186.68200		875.00000 
 43692.65567		 305.27265			43387.38302		66.56000		324.00000 
 43692.65567		 583.09702			43109.55865		186.68200		875.00000 
 43692.65567		 305.27265			43387.38302		66.56000		324.00000 
 43692.65567		 583.09702			43109.55865		186.68200		875.00000 
 43692.65567		 305.27265			43387.38302		66.56000		324.00000 
 43692.65567		 583.09702			43109.55865		186.68200		875.00000 
 43692.65567		 305.27265			43387.38302		66.56000		324.00000 
 43692.65567		 583.09702			43109.55865		186.68200		875.00000 
 43692.65567		 305.27265			43387.38302		66.56000		324.00000 
 43692.65567		 583.09702			43109.55865		186.68200		875.00000 
 43692.65567		 305.27265			43387.38302		66.56000		324.00000 
 43692.65567		 583.09702			43109.55865		186.68200		875.00000 
 43692.65567		 305.27265			43387.38302		66.56000		324.00000 
 43692.65567		 583.09702			43109.55865		186.68200		875.00000 
 43692.65567		 305.27265			43387.38302		66.56000		324.00000 
 43692.65567		 583.09702			43109.55865		186.68200		875.00000 
 43692.65567		 305.27265			43387.38302		66.56000		324.00000 
 43692.65567		 583.09702			43109.55865		186.68200		875.00000 
 43692.65567		 305.27265			43387.38302		66.56000		324.00000 
 43692.65567		 583.09702			43109.55865		186.68200		875.00000 
 43692.65567		 305.27265			43387.38302		66.56000		324.00000 
 43692.65567		 583.09702			43109.55865		186.68200		875.00000 
 43692.65567		 305.27265			43387.38302		66.56000		324.00000 
 43692.65567		 583.09702			43109.55865		186.68200		875.00000 
 43692.65567		 305.27265			43387.38302		66.56000		324.00000 
 43692.65567		 583.09702			43109.55865		186.68200		875.00000 
 43692.65567		 305.27265			43387.38302		66.56000		324.00000 
 43692.65567		 583.09702			43109.55865		186.68200		875.00000 
 43692.65567		 305.27265			43387.38302		66.56000		324.00000 
 43692.65567		 583.09702			43109.55865		199.49800		875.00000 
 43692.65567		 305.27265			43387.38302		66.56000		324.00000 
 43692.65567		 583.09702			43109.55865		199.49800		875.00000 
 43692.65567		 305.27265			43387.38302		66.56000		324.00000 
 43692.65567		 583.09702			43109.55865		199.49800		875.00000 
 43692.65567		 305.27265			43387.38302		66.56000		324.00000 
 43692.65567		 583.09702			43109.55865		199.49800		875.00000 
 43692.65567		 305.27265			43387.38302		66.56000		324.00000 
 43692.65567		 583.09702			43109.55865		199.49800		875.00000 
 43692.65567		 305.27265			43387.38302		66.56000		324.00000 
 43692.65567		 583.09702			43109.55865		199.49800		875.00000 
 43692.65567		 305.27265			43387.38302		66.56000		324.00000 
 43692.65567		 583.09702			43109.55865		199.49800		875.00000 
 43692.65567		 305.27265			43387.38302		66.56000		324.00000 
 43692.65567		 583.09702			43109.55865		199.49800		875.00000 
 43692.65567		 305.27265			43387.38302		66.56000		324.00000 
 43692.65567		 583.09702			43109.55865		199.49800		875.00000 
 43692.65567		 305.27265			43387.38302		66.56000		324.00000 
 43692.65567		 583.09702			43109.55865		199.49800		875.00000 
 43692.65567		 305.27265			43387.38302		66.56000		324.00000 
 43692.65567		 583.09702			43109.55865		199.49800		875.00000 
 43692.65567		 305.27265			43387.38302		66.56000		324.00000 
 43692.65567		 583.09702			43109.55865		199.49800		875.00000 
 43692.65567		 305.27265			43387.38302		66.56000		324.00000 
 43692.65567		 583.09702			43109.55865		199.49800		875.00000 
 43692.65567		 305.27265			43387.38302		66.56000		324.00000 
 43692.65567		 583.09702			43109.55865		199.49800		875.00000 
 43692.65567		 305.27265			43387.38302		66.56000		324.00000 
 43692.65567		 583.09702			43109.55865		199.49800		875.00000 
 43692.65567		 305.27265			43387.38302		66.56000		324.00000 
 43692.65567		 583.09702			43109.55865		199.49800		875.00000 
 43692.65567		 305.27265			43387.38302		66.56000		324.00000 
 43692.65567		 583.09702			43109.55865		199.49800		875.00000 
 43692.65567		 305.27265			43387.38302		66.56000		324.00000 
 43692.65567		 583.09702			43109.55865		199.49800		875.00000 
 43692.65567		 305.27265			43387.38302		66.56000		324.00000 
 43692.65567		 583.09702			43109.55865		199.49800		875.00000 
 43692.65567		 305.27265			43387.38302		66.56000		324.00000 
 43692.65567		 583.09702			43109.55865		199.49800		875.00000 
 43692.65567		 305.27265			43387.38302		66.56000		324.00000 
 43692.65567		 583.09702			43109.55865		199.49800		875.00000 
 43692.65567		 305.27265			43387.38302		66.56000		324.00000 
 43692.65567		 583.09702			43109.55865		199.49800		875.00000 
 43692.65567		 305.27265			43387.38302		66.56000		324.00000 
 43692.65567		 583.09702			43109.55865		199.49800		875.00000 
 43692.65567		 305.27265			43387.38302		66.56000		324.00000 
 43692.65567		 583.09702			43109.55865		199.49800		875.00000 
 43692.65567		 305.27265			43387.38302		66.56000		324.00000 
 43692.65567		 583.09702			43109.55865		199.49800		875.00000 
 43692.65567		 305.27265			43387.38302		66.56000		324.00000 
 43692.65567		 583.09702			43109.55865		199.49800		875.00000 
 43692.65567		 305.27265			43387.38302		66.56000		324.00000 
 43692.65567		 583.09702			43109.55865		199.49800		875.00000 
 43692.65567		 305.27265			43387.38302		66.56000		324.00000 
 43692.65567		 583.09702			43109.55865		199.49800		875.00000 
 43692.65567		 305.27265			43387.38302		66.56000		324.00000 
 43692.65567		 583.09702			43109.55865		199.49800		875.00000 
 43692.65567		 305.27265			43387.38302		66.56000		324.00000 
 43692.65567		 583.09702			43109.55865		199.49800		875.00000 
 43692.65567		 305.27265			43387.38302		66.56000		324.00000 
 43692.65567		 583.09702			43109.55865		199.49800		875.00000 
 43692.65567		 305.27265			43387.38302		66.56000		324.00000 
 43692.65567		 583.09702			43109.55865		199.49800		875.00000 
 43692.65567		 305.27265			43387.38302		66.56000		324.00000 
 43692.65567		 583.09702			43109.55865		199.49800		875.00000 
 43692.65567		 305.27265			43387.38302		66.56000		324.00000 
 43692.65567		 583.09702			43109.55865		199.49800		875.00000 
 43692.65567		 305.27265			43387.38302		66.56000		324.00000 
 43692.65567		 583.09702			43109.55865		199.49800		875.00000 
 43692.65567		 305.27265			43387.38302		66.56000		324.00000 
 43692.65567		 583.09702			43109.55865		199.49800		875.00000 
 43692.65567		 305.27265			43387.38302		66.56000		324.00000 
 43692.65567		 537.27032			43155.38535		199.49800		875.00000 
 43692.65567		 305.27265			43387.38302		66.56000		324.00000 
 43692.65567		 537.27032			43155.38535		199.49800		875.00000 
 43692.65567		 305.27265			43387.38302		66.56000		324.00000 
 43692.65567		 537.27032			43155.38535		199.49800		875.00000 
 43692.65567		 305.27265			43387.38302		66.56000		324.00000 
 43692.65567		 537.27032			43155.38535		199.49800		875.00000 
 43692.65567		 305.27265			43387.38302		66.56000		324.00000 
 43692.65567		 537.27032			43155.38535		199.49800		875.00000 
 43692.65567		 305.27265			43387.38302		66.56000		324.00000 
 43692.65567		 537.27032			43155.38535		199.49800		875.00000 
 43692.65567		 305.27265			43387.38302		66.56000		324.00000 
 43692.65567		 537.27032			43155.38535		199.49800		875.00000 
 43692.65567		 305.27265			43387.38302		66.56000		324.00000 
 43692.65567		 537.27032			43155.38535		199.49800		875.00000 
 43692.65567		 305.27265			43387.38302		66.56000		324.00000 
 43692.65567		 537.27032			43155.38535		199.49800		875.00000 
 43692.65567		 305.27265			43387.38302		66.56000		324.00000 
 43692.65567		 537.27032			43155.38535		199.49800		875.00000 
 43692.65567		 305.27265			43387.38302		66.56000		324.00000 
 43692.65567		 537.27032			43155.38535		199.49800		875.00000 
 43692.65567		 305.27265			43387.38302		66.56000		324.00000 
 43692.65567		 537.27032			43155.38535		199.49800		875.00000 
 43692.65567		 305.27265			43387.38302		66.56000		324.00000 
 43692.65567		 537.27032			43155.38535		199.49800		875.00000 
 43692.65567		 305.27265			43387.38302		66.56000		324.00000 
 43692.65567		 537.27032			43155.38535		199.49800		875.00000 
 43692.65567		 305.27265			43387.38302		66.56000		324.00000 
 43692.65567		 537.27032			43155.38535		199.49800		875.00000 
 43692.65567		 305.27265			43387.38302		66.56000		324.00000 
 43692.65567		 537.27032			43155.38535		199.49800		875.00000 
 43692.65567		 305.27265			43387.38302		66.56000		324.00000 
 43692.65567		 537.27032			43155.38535		199.49800		875.00000 
 43692.65567		 305.27265			43387.38302		66.56000		324.00000 
 43692.65567		 537.27032			43155.38535		199.49800		875.00000 
 43692.65567		 305.27265			43387.38302		66.56000		324.00000 
 43692.65567		 537.27032			43155.38535		180.98800		875.00000 
 43692.65567		 305.27265			43387.38302		66.56000		324.00000 
 43692.65567		 529.63254			43163.02313		180.98800		875.00000 
 43692.65567		 305.27265			43387.38302		66.56000		324.00000 
 43692.65567		 525.81365			43166.84203		180.98800		875.00000 
 43692.65567		 293.81598			43398.83969		66.56000		324.00000 
 43692.65567		 261.35540			43431.30027		180.98800		875.00000 
 43692.65567		 261.35540			43431.30027		66.56000		324.00000 
