Memory Total (MiB) 	 Memory Used (MiB) 	    Memory Free (MiB) 	 Power Drawed (W) 	 Clocks (Mhz) 	 
 43692.65567		 261.35540			43431.30027		159.60200		875.00000 
 43692.65567		 261.35540			43431.30027		69.65600		324.00000 
 43692.65567		 261.35540			43431.30027		159.60200		875.00000 
 43692.65567		 261.35540			43431.30027		69.65600		324.00000 
 43692.65567		 261.35540			43431.30027		159.60200		875.00000 
 43692.65567		 261.35540			43431.30027		69.65600		324.00000 
 43692.65567		 261.35540			43431.30027		159.60200		875.00000 
 43692.65567		 261.35540			43431.30027		69.65600		324.00000 
 43692.65567		 261.35540			43431.30027		159.60200		875.00000 
 43692.65567		 261.35540			43431.30027		69.65600		324.00000 
 43692.65567		 261.35540			43431.30027		159.60200		875.00000 
 43692.65567		 261.35540			43431.30027		69.65600		324.00000 
 43692.65567		 261.35540			43431.30027		159.60200		875.00000 
 43692.65567		 261.35540			43431.30027		69.65600		324.00000 
 43692.65567		 261.35540			43431.30027		159.60200		875.00000 
 43692.65567		 261.35540			43431.30027		69.65600		324.00000 
 43692.65567		 261.35540			43431.30027		159.60200		875.00000 
 43692.65567		 261.35540			43431.30027		69.65600		324.00000 
 43692.65567		 261.35540			43431.30027		159.60200		875.00000 
 43692.65567		 261.35540			43431.30027		69.65600		324.00000 
 43692.65567		 261.35540			43431.30027		159.60200		875.00000 
 43692.65567		 261.35540			43431.30027		69.65600		324.00000 
 43692.65567		 261.35540			43431.30027		159.60200		875.00000 
 43692.65567		 261.35540			43431.30027		69.65600		324.00000 
 43692.65567		 261.35540			43431.30027		159.60200		875.00000 
 43692.65567		 261.35540			43431.30027		69.65600		324.00000 
 43692.65567		 261.35540			43431.30027		159.60200		875.00000 
 43692.65567		 261.35540			43431.30027		69.65600		324.00000 
 43692.65567		 261.35540			43431.30027		159.60200		875.00000 
 43692.65567		 261.35540			43431.30027		69.65600		324.00000 
 43692.65567		 261.35540			43431.30027		159.60200		875.00000 
 43692.65567		 261.35540			43431.30027		69.65600		324.00000 
 43692.65567		 261.35540			43431.30027		159.60200		875.00000 
 43692.65567		 261.35540			43431.30027		69.65600		324.00000 
 43692.65567		 265.17429			43427.48138		159.60200		875.00000 
 43692.65567		 261.35540			43431.30027		69.65600		324.00000 
 43692.65567		 265.17429			43427.48138		159.60200		875.00000 
 43692.65567		 261.35540			43431.30027		69.65600		324.00000 
 43692.65567		 272.81207			43419.84360		159.60200		875.00000 
 43692.65567		 261.35540			43431.30027		69.65600		324.00000 
 43692.65567		 272.81207			43419.84360		159.60200		875.00000 
 43692.65567		 261.35540			43431.30027		69.65600		324.00000 
 43692.65567		 272.81207			43419.84360		159.60200		875.00000 
 43692.65567		 265.17429			43427.48138		69.65600		324.00000 
 43692.65567		 272.81207			43419.84360		159.60200		875.00000 
 43692.65567		 265.17429			43427.48138		69.65600		324.00000 
 43692.65567		 272.81207			43419.84360		159.60200		875.00000 
 43692.65567		 272.81207			43419.84360		69.65600		324.00000 
 43692.65567		 272.81207			43419.84360		159.60200		875.00000 
 43692.65567		 272.81207			43419.84360		69.65600		324.00000 
 43692.65567		 272.81207			43419.84360		159.60200		875.00000 
 43692.65567		 272.81207			43419.84360		69.65600		324.00000 
 43692.65567		 305.27265			43387.38302		159.60200		875.00000 
 43692.65567		 305.27265			43387.38302		69.65600		324.00000 
 43692.65567		 305.27265			43387.38302		159.60200		875.00000 
 43692.65567		 305.27265			43387.38302		69.65600		324.00000 
 43692.65567		 305.27265			43387.38302		159.60200		875.00000 
 43692.65567		 305.27265			43387.38302		69.65600		324.00000 
 43692.65567		 305.27265			43387.38302		159.60200		875.00000 
 43692.65567		 305.27265			43387.38302		69.65600		324.00000 
 43692.65567		 305.27265			43387.38302		159.60200		875.00000 
 43692.65567		 305.27265			43387.38302		69.65600		324.00000 
 43692.65567		 309.09154			43383.56413		142.59000		875.00000 
 43692.65567		 305.27265			43387.38302		69.65600		324.00000 
 43692.65567		 310.52363			43382.13204		142.59000		875.00000 
 43692.65567		 305.27265			43387.38302		69.65600		324.00000 
 43692.65567		 311.00099			43381.65468		142.59000		875.00000 
 43692.65567		 305.27265			43387.38302		69.65600		324.00000 
 43692.65567		 311.00099			43381.65468		142.59000		875.00000 
 43692.65567		 305.27265			43387.38302		69.65600		324.00000 
 43692.65567		 311.00099			43381.65468		142.59000		875.00000 
 43692.65567		 305.27265			43387.38302		69.65600		324.00000 
 43692.65567		 311.00099			43381.65468		142.59000		875.00000 
 43692.65567		 305.27265			43387.38302		69.65600		324.00000 
 43692.65567		 311.00099			43381.65468		142.59000		875.00000 
 43692.65567		 305.27265			43387.38302		69.65600		324.00000 
 43692.65567		 311.00099			43381.65468		142.59000		875.00000 
 43692.65567		 305.27265			43387.38302		69.65600		324.00000 
 43692.65567		 311.00099			43381.65468		142.59000		875.00000 
 43692.65567		 305.27265			43387.38302		69.65600		324.00000 
 43692.65567		 311.00099			43381.65468		142.59000		875.00000 
 43692.65567		 305.27265			43387.38302		69.65600		324.00000 
 43692.65567		 311.00099			43381.65468		142.59000		875.00000 
 43692.65567		 305.27265			43387.38302		69.65600		324.00000 
 43692.65567		 311.00099			43381.65468		142.59000		875.00000 
 43692.65567		 305.27265			43387.38302		69.65600		324.00000 
 43692.65567		 311.00099			43381.65468		142.59000		875.00000 
 43692.65567		 305.27265			43387.38302		69.65600		324.00000 
 43692.65567		 311.00099			43381.65468		142.59000		875.00000 
 43692.65567		 305.27265			43387.38302		69.65600		324.00000 
 43692.65567		 311.00099			43381.65468		142.59000		875.00000 
 43692.65567		 305.27265			43387.38302		69.65600		324.00000 
 43692.65567		 311.00099			43381.65468		142.59000		875.00000 
 43692.65567		 305.27265			43387.38302		69.65600		324.00000 
 43692.65567		 311.00099			43381.65468		142.59000		875.00000 
 43692.65567		 305.27265			43387.38302		69.65600		324.00000 
 43692.65567		 311.00099			43381.65468		142.59000		875.00000 
 43692.65567		 305.27265			43387.38302		69.65600		324.00000 
 43692.65567		 311.00099			43381.65468		142.59000		875.00000 
 43692.65567		 305.27265			43387.38302		69.65600		324.00000 
 43692.65567		 311.00099			43381.65468		142.59000		875.00000 
 43692.65567		 305.27265			43387.38302		69.65600		324.00000 
 43692.65567		 311.00099			43381.65468		142.59000		875.00000 
 43692.65567		 305.27265			43387.38302		69.65600		324.00000 
 43692.65567		 311.00099			43381.65468		142.59000		875.00000 
 43692.65567		 305.27265			43387.38302		69.65600		324.00000 
 43692.65567		 311.00099			43381.65468		142.59000		875.00000 
 43692.65567		 305.27265			43387.38302		69.65600		324.00000 
 43692.65567		 311.00099			43381.65468		142.59000		875.00000 
 43692.65567		 305.27265			43387.38302		69.65600		324.00000 
 43692.65567		 311.00099			43381.65468		142.59000		875.00000 
 43692.65567		 305.27265			43387.38302		69.65600		324.00000 
 43692.65567		 311.00099			43381.65468		142.59000		875.00000 
 43692.65567		 305.27265			43387.38302		69.65600		324.00000 
 43692.65567		 311.00099			43381.65468		142.59000		875.00000 
 43692.65567		 305.27265			43387.38302		69.65600		324.00000 
 43692.65567		 311.00099			43381.65468		142.59000		875.00000 
 43692.65567		 305.27265			43387.38302		69.65600		324.00000 
 43692.65567		 311.00099			43381.65468		142.59000		875.00000 
 43692.65567		 305.27265			43387.38302		69.65600		324.00000 
 43692.65567		 311.00099			43381.65468		142.59000		875.00000 
 43692.65567		 305.27265			43387.38302		69.65600		324.00000 
 43692.65567		 311.00099			43381.65468		142.59000		875.00000 
 43692.65567		 305.27265			43387.38302		69.65600		324.00000 
 43692.65567		 311.00099			43381.65468		142.59000		875.00000 
 43692.65567		 305.27265			43387.38302		69.65600		324.00000 
 43692.65567		 311.00099			43381.65468		136.21600		875.00000 
 43692.65567		 305.27265			43387.38302		69.65600		324.00000 
 43692.65567		 311.00099			43381.65468		136.21600		875.00000 
 43692.65567		 305.27265			43387.38302		69.65600		324.00000 
 43692.65567		 311.00099			43381.65468		136.21600		875.00000 
 43692.65567		 305.27265			43387.38302		69.65600		324.00000 
 43692.65567		 311.00099			43381.65468		136.21600		875.00000 
 43692.65567		 305.27265			43387.38302		69.65600		324.00000 
 43692.65567		 311.00099			43381.65468		136.21600		875.00000 
 43692.65567		 305.27265			43387.38302		69.65600		324.00000 
 43692.65567		 311.00099			43381.65468		136.21600		875.00000 
 43692.65567		 305.27265			43387.38302		69.65600		324.00000 
 43692.65567		 311.00099			43381.65468		136.21600		875.00000 
 43692.65567		 305.27265			43387.38302		69.65600		324.00000 
 43692.65567		 311.00099			43381.65468		136.21600		875.00000 
 43692.65567		 305.27265			43387.38302		69.65600		324.00000 
 43692.65567		 311.00099			43381.65468		136.21600		875.00000 
 43692.65567		 305.27265			43387.38302		69.65600		324.00000 
 43692.65567		 311.00099			43381.65468		136.21600		875.00000 
 43692.65567		 305.27265			43387.38302		69.65600		324.00000 
 43692.65567		 311.00099			43381.65468		136.21600		875.00000 
 43692.65567		 305.27265			43387.38302		69.65600		324.00000 
 43692.65567		 311.00099			43381.65468		136.21600		875.00000 
 43692.65567		 305.27265			43387.38302		69.65600		324.00000 
 43692.65567		 311.00099			43381.65468		136.21600		875.00000 
 43692.65567		 305.27265			43387.38302		69.65600		324.00000 
 43692.65567		 311.00099			43381.65468		136.21600		875.00000 
 43692.65567		 305.27265			43387.38302		69.65600		324.00000 
 43692.65567		 311.00099			43381.65468		136.21600		875.00000 
 43692.65567		 305.27265			43387.38302		69.65600		324.00000 
 43692.65567		 311.00099			43381.65468		136.21600		875.00000 
 43692.65567		 305.27265			43387.38302		69.65600		324.00000 
 43692.65567		 311.00099			43381.65468		136.21600		875.00000 
 43692.65567		 305.27265			43387.38302		69.65600		324.00000 
 43692.65567		 311.00099			43381.65468		136.21600		875.00000 
 43692.65567		 305.27265			43387.38302		69.65600		324.00000 
 43692.65567		 311.00099			43381.65468		136.21600		875.00000 
 43692.65567		 305.27265			43387.38302		69.65600		324.00000 
 43692.65567		 311.00099			43381.65468		136.21600		875.00000 
 43692.65567		 305.27265			43387.38302		69.65600		324.00000 
 43692.65567		 314.81988			43377.83579		136.21600		875.00000 
 43692.65567		 305.27265			43387.38302		69.65600		324.00000 
 43692.65567		 314.81988			43377.83579		136.21600		875.00000 
 43692.65567		 305.27265			43387.38302		69.65600		324.00000 
 43692.65567		 318.63877			43374.01690		136.21600		875.00000 
 43692.65567		 305.27265			43387.38302		69.65600		324.00000 
 43692.65567		 322.45767			43370.19801		136.21600		875.00000 
 43692.65567		 305.27265			43387.38302		69.65600		324.00000 
 43692.65567		 326.27656			43366.37912		136.21600		875.00000 
 43692.65567		 305.27265			43387.38302		69.65600		324.00000 
 43692.65567		 326.27656			43366.37912		136.21600		875.00000 
 43692.65567		 305.27265			43387.38302		69.65600		324.00000 
 43692.65567		 326.27656			43366.37912		136.21600		875.00000 
 43692.65567		 305.27265			43387.38302		69.65600		324.00000 
 43692.65567		 537.27032			43155.38535		136.21600		875.00000 
 43692.65567		 305.27265			43387.38302		69.65600		324.00000 
 43692.65567		 814.13997			42878.51570		136.21600		875.00000 
 43692.65567		 305.27265			43387.38302		69.65600		324.00000 
 43692.65567		 952.57479			42740.08088		136.21600		875.00000 
 43692.65567		 305.27265			43387.38302		69.65600		324.00000 
 43692.65567		 952.57479			42740.08088		136.21600		875.00000 
 43692.65567		 305.27265			43387.38302		69.65600		324.00000 
 43692.65567		 952.57479			42740.08088		136.21600		875.00000 
 43692.65567		 305.27265			43387.38302		69.65600		324.00000 
 43692.65567		 952.57479			42740.08088		136.21600		875.00000 
 43692.65567		 305.27265			43387.38302		69.65600		324.00000 
 43692.65567		 952.57479			42740.08088		136.21600		875.00000 
 43692.65567		 305.27265			43387.38302		69.65600		324.00000 
 43692.65567		 952.57479			42740.08088		136.21600		875.00000 
 43692.65567		 305.27265			43387.38302		69.65600		324.00000 
 43692.65567		 952.57479			42740.08088		136.21600		875.00000 
 43692.65567		 305.27265			43387.38302		69.65600		324.00000 
 43692.65567		 952.57479			42740.08088		136.21600		875.00000 
 43692.65567		 305.27265			43387.38302		69.65600		324.00000 
 43692.65567		 952.57479			42740.08088		146.37800		875.00000 
 43692.65567		 305.27265			43387.38302		69.65600		324.00000 
 43692.65567		 952.57479			42740.08088		146.37800		875.00000 
 43692.65567		 305.27265			43387.38302		69.65600		324.00000 
 43692.65567		 952.57479			42740.08088		146.37800		875.00000 
 43692.65567		 305.27265			43387.38302		69.65600		324.00000 
 43692.65567		 952.57479			42740.08088		146.37800		875.00000 
 43692.65567		 305.27265			43387.38302		69.65600		324.00000 
 43692.65567		 952.57479			42740.08088		146.37800		875.00000 
 43692.65567		 305.27265			43387.38302		69.65600		324.00000 
 43692.65567		 952.57479			42740.08088		146.37800		875.00000 
 43692.65567		 305.27265			43387.38302		69.65600		324.00000 
 43692.65567		 952.57479			42740.08088		146.37800		875.00000 
 43692.65567		 305.27265			43387.38302		69.65600		324.00000 
 43692.65567		 952.57479			42740.08088		146.37800		875.00000 
 43692.65567		 305.27265			43387.38302		69.65600		324.00000 
 43692.65567		 952.57479			42740.08088		146.37800		875.00000 
 43692.65567		 305.27265			43387.38302		69.65600		324.00000 
 43692.65567		 952.57479			42740.08088		146.37800		875.00000 
 43692.65567		 305.27265			43387.38302		69.65600		324.00000 
 43692.65567		 952.57479			42740.08088		146.37800		875.00000 
 43692.65567		 305.27265			43387.38302		69.65600		324.00000 
 43692.65567		 952.57479			42740.08088		146.37800		875.00000 
 43692.65567		 305.27265			43387.38302		69.65600		324.00000 
 43692.65567		 952.57479			42740.08088		146.37800		875.00000 
 43692.65567		 305.27265			43387.38302		69.65600		324.00000 
 43692.65567		 952.57479			42740.08088		146.37800		875.00000 
 43692.65567		 305.27265			43387.38302		69.65600		324.00000 
 43692.65567		 952.57479			42740.08088		146.37800		875.00000 
 43692.65567		 305.27265			43387.38302		69.65600		324.00000 
 43692.65567		 952.57479			42740.08088		146.37800		875.00000 
 43692.65567		 305.27265			43387.38302		69.65600		324.00000 
 43692.65567		 952.57479			42740.08088		146.37800		875.00000 
 43692.65567		 305.27265			43387.38302		69.65600		324.00000 
 43692.65567		 952.57479			42740.08088		146.37800		875.00000 
 43692.65567		 305.27265			43387.38302		69.65600		324.00000 
 43692.65567		 952.57479			42740.08088		146.37800		875.00000 
 43692.65567		 305.27265			43387.38302		69.65600		324.00000 
 43692.65567		 952.57479			42740.08088		146.37800		875.00000 
 43692.65567		 305.27265			43387.38302		69.65600		324.00000 
 43692.65567		 952.57479			42740.08088		146.37800		875.00000 
 43692.65567		 305.27265			43387.38302		69.65600		324.00000 
 43692.65567		 952.57479			42740.08088		146.37800		875.00000 
 43692.65567		 305.27265			43387.38302		69.65600		324.00000 
 43692.65567		 952.57479			42740.08088		146.37800		875.00000 
 43692.65567		 305.27265			43387.38302		69.65600		324.00000 
 43692.65567		 952.57479			42740.08088		146.37800		875.00000 
 43692.65567		 305.27265			43387.38302		69.65600		324.00000 
 43692.65567		 952.57479			42740.08088		146.37800		875.00000 
 43692.65567		 305.27265			43387.38302		69.65600		324.00000 
 43692.65567		 952.57479			42740.08088		146.37800		875.00000 
 43692.65567		 305.27265			43387.38302		69.65600		324.00000 
 43692.65567		 952.57479			42740.08088		146.37800		875.00000 
 43692.65567		 305.27265			43387.38302		69.65600		324.00000 
 43692.65567		 952.57479			42740.08088		146.37800		875.00000 
 43692.65567		 305.27265			43387.38302		69.65600		324.00000 
 43692.65567		 952.57479			42740.08088		146.37800		875.00000 
 43692.65567		 305.27265			43387.38302		69.65600		324.00000 
 43692.65567		 952.57479			42740.08088		146.37800		875.00000 
 43692.65567		 305.27265			43387.38302		69.65600		324.00000 
 43692.65567		 952.57479			42740.08088		146.37800		875.00000 
 43692.65567		 305.27265			43387.38302		69.65600		324.00000 
 43692.65567		 952.57479			42740.08088		146.37800		875.00000 
 43692.65567		 305.27265			43387.38302		69.65600		324.00000 
 43692.65567		 952.57479			42740.08088		146.37800		875.00000 
 43692.65567		 305.27265			43387.38302		69.65600		324.00000 
 43692.65567		 952.57479			42740.08088		146.37800		875.00000 
 43692.65567		 305.27265			43387.38302		69.65600		324.00000 
 43692.65567		 952.57479			42740.08088		146.37800		875.00000 
 43692.65567		 305.27265			43387.38302		69.65600		324.00000 
 43692.65567		 952.57479			42740.08088		146.37800		875.00000 
 43692.65567		 305.27265			43387.38302		69.65600		324.00000 
 43692.65567		 952.57479			42740.08088		146.37800		875.00000 
 43692.65567		 305.27265			43387.38302		69.65600		324.00000 
 43692.65567		 952.57479			42740.08088		146.37800		875.00000 
 43692.65567		 305.27265			43387.38302		69.65600		324.00000 
 43692.65567		 952.57479			42740.08088		146.37800		875.00000 
 43692.65567		 305.27265			43387.38302		69.65600		324.00000 
 43692.65567		 952.57479			42740.08088		146.37800		875.00000 
 43692.65567		 305.27265			43387.38302		69.65600		324.00000 
 43692.65567		 952.57479			42740.08088		146.37800		875.00000 
 43692.65567		 305.27265			43387.38302		69.65600		324.00000 
 43692.65567		 952.57479			42740.08088		146.37800		875.00000 
 43692.65567		 305.27265			43387.38302		69.65600		324.00000 
 43692.65567		 952.57479			42740.08088		146.37800		875.00000 
 43692.65567		 305.27265			43387.38302		69.65600		324.00000 
 43692.65567		 952.57479			42740.08088		146.37800		875.00000 
 43692.65567		 305.27265			43387.38302		69.65600		324.00000 
 43692.65567		 952.57479			42740.08088		146.37800		875.00000 
 43692.65567		 305.27265			43387.38302		69.65600		324.00000 
 43692.65567		 952.57479			42740.08088		146.37800		875.00000 
 43692.65567		 305.27265			43387.38302		69.65600		324.00000 
 43692.65567		 952.57479			42740.08088		146.37800		875.00000 
 43692.65567		 305.27265			43387.38302		69.65600		324.00000 
 43692.65567		 952.57479			42740.08088		146.37800		875.00000 
 43692.65567		 305.27265			43387.38302		69.65600		324.00000 
 43692.65567		 952.57479			42740.08088		146.37800		875.00000 
 43692.65567		 305.27265			43387.38302		69.65600		324.00000 
 43692.65567		 952.57479			42740.08088		146.37800		875.00000 
 43692.65567		 305.27265			43387.38302		69.65600		324.00000 
 43692.65567		 952.57479			42740.08088		146.37800		875.00000 
 43692.65567		 305.27265			43387.38302		69.65600		324.00000 
 43692.65567		 952.57479			42740.08088		146.37800		875.00000 
 43692.65567		 305.27265			43387.38302		69.65600		324.00000 
 43692.65567		 952.57479			42740.08088		146.37800		875.00000 
 43692.65567		 305.27265			43387.38302		69.65600		324.00000 
 43692.65567		 952.57479			42740.08088		146.37800		875.00000 
 43692.65567		 305.27265			43387.38302		69.65600		324.00000 
 43692.65567		 952.57479			42740.08088		146.37800		875.00000 
 43692.65567		 305.27265			43387.38302		69.65600		324.00000 
 43692.65567		 952.57479			42740.08088		146.37800		875.00000 
 43692.65567		 305.27265			43387.38302		69.65600		324.00000 
 43692.65567		 952.57479			42740.08088		146.37800		875.00000 
 43692.65567		 305.27265			43387.38302		69.65600		324.00000 
 43692.65567		 952.57479			42740.08088		146.37800		875.00000 
 43692.65567		 305.27265			43387.38302		69.65600		324.00000 
 43692.65567		 952.57479			42740.08088		146.37800		875.00000 
 43692.65567		 305.27265			43387.38302		69.65600		324.00000 
 43692.65567		 952.57479			42740.08088		146.37800		875.00000 
 43692.65567		 305.27265			43387.38302		69.65600		324.00000 
 43692.65567		 952.57479			42740.08088		146.37800		875.00000 
 43692.65567		 305.27265			43387.38302		69.65600		324.00000 
 43692.65567		 952.57479			42740.08088		146.37800		875.00000 
 43692.65567		 305.27265			43387.38302		69.65600		324.00000 
 43692.65567		 952.57479			42740.08088		146.37800		875.00000 
 43692.65567		 305.27265			43387.38302		69.65600		324.00000 
 43692.65567		 952.57479			42740.08088		146.37800		875.00000 
 43692.65567		 305.27265			43387.38302		69.65600		324.00000 
 43692.65567		 952.57479			42740.08088		199.51400		875.00000 
 43692.65567		 305.27265			43387.38302		69.65600		324.00000 
 43692.65567		 952.57479			42740.08088		199.51400		875.00000 
 43692.65567		 305.27265			43387.38302		69.65600		324.00000 
 43692.65567		 952.57479			42740.08088		199.51400		875.00000 
 43692.65567		 305.27265			43387.38302		69.65600		324.00000 
 43692.65567		 952.57479			42740.08088		199.51400		875.00000 
 43692.65567		 305.27265			43387.38302		69.65600		324.00000 
 43692.65567		 952.57479			42740.08088		199.51400		875.00000 
 43692.65567		 305.27265			43387.38302		69.65600		324.00000 
 43692.65567		 952.57479			42740.08088		199.51400		875.00000 
 43692.65567		 305.27265			43387.38302		69.65600		324.00000 
 43692.65567		 952.57479			42740.08088		199.51400		875.00000 
 43692.65567		 305.27265			43387.38302		69.65600		324.00000 
 43692.65567		 952.57479			42740.08088		199.51400		875.00000 
 43692.65567		 305.27265			43387.38302		69.65600		324.00000 
 43692.65567		 952.57479			42740.08088		199.51400		875.00000 
 43692.65567		 305.27265			43387.38302		69.65600		324.00000 
 43692.65567		 952.57479			42740.08088		199.51400		875.00000 
 43692.65567		 305.27265			43387.38302		69.65600		324.00000 
 43692.65567		 952.57479			42740.08088		199.51400		875.00000 
 43692.65567		 305.27265			43387.38302		69.65600		324.00000 
 43692.65567		 952.57479			42740.08088		199.51400		875.00000 
 43692.65567		 305.27265			43387.38302		69.65600		324.00000 
 43692.65567		 952.57479			42740.08088		199.51400		875.00000 
 43692.65567		 305.27265			43387.38302		69.65600		324.00000 
 43692.65567		 952.57479			42740.08088		199.51400		875.00000 
 43692.65567		 305.27265			43387.38302		69.65600		324.00000 
 43692.65567		 952.57479			42740.08088		199.51400		875.00000 
 43692.65567		 305.27265			43387.38302		69.65600		324.00000 
 43692.65567		 952.57479			42740.08088		199.51400		875.00000 
 43692.65567		 305.27265			43387.38302		69.65600		324.00000 
 43692.65567		 952.57479			42740.08088		199.51400		875.00000 
 43692.65567		 305.27265			43387.38302		69.65600		324.00000 
 43692.65567		 952.57479			42740.08088		199.51400		875.00000 
 43692.65567		 305.27265			43387.38302		69.65600		324.00000 
 43692.65567		 952.57479			42740.08088		199.51400		875.00000 
 43692.65567		 305.27265			43387.38302		69.65600		324.00000 
 43692.65567		 952.57479			42740.08088		199.51400		875.00000 
 43692.65567		 305.27265			43387.38302		69.65600		324.00000 
 43692.65567		 952.57479			42740.08088		199.51400		875.00000 
 43692.65567		 305.27265			43387.38302		69.65600		324.00000 
 43692.65567		 952.57479			42740.08088		199.51400		875.00000 
 43692.65567		 305.27265			43387.38302		69.65600		324.00000 
 43692.65567		 952.57479			42740.08088		199.51400		875.00000 
 43692.65567		 305.27265			43387.38302		69.65600		324.00000 
 43692.65567		 952.57479			42740.08088		199.51400		875.00000 
 43692.65567		 305.27265			43387.38302		69.65600		324.00000 
 43692.65567		 952.57479			42740.08088		199.51400		875.00000 
 43692.65567		 305.27265			43387.38302		69.65600		324.00000 
 43692.65567		 952.57479			42740.08088		199.51400		875.00000 
 43692.65567		 305.27265			43387.38302		69.65600		324.00000 
 43692.65567		 952.57479			42740.08088		199.51400		875.00000 
 43692.65567		 305.27265			43387.38302		69.65600		324.00000 
 43692.65567		 952.57479			42740.08088		199.51400		875.00000 
 43692.65567		 305.27265			43387.38302		69.65600		324.00000 
 43692.65567		 952.57479			42740.08088		199.51400		875.00000 
 43692.65567		 305.27265			43387.38302		69.65600		324.00000 
 43692.65567		 952.57479			42740.08088		199.51400		875.00000 
 43692.65567		 305.27265			43387.38302		69.65600		324.00000 
 43692.65567		 952.57479			42740.08088		199.51400		875.00000 
 43692.65567		 305.27265			43387.38302		69.65600		324.00000 
 43692.65567		 952.57479			42740.08088		199.51400		875.00000 
 43692.65567		 305.27265			43387.38302		69.65600		324.00000 
 43692.65567		 952.57479			42740.08088		199.51400		875.00000 
 43692.65567		 305.27265			43387.38302		69.65600		324.00000 
 43692.65567		 952.57479			42740.08088		199.51400		875.00000 
 43692.65567		 305.27265			43387.38302		69.65600		324.00000 
 43692.65567		 952.57479			42740.08088		199.51400		875.00000 
 43692.65567		 305.27265			43387.38302		69.65600		324.00000 
 43692.65567		 952.57479			42740.08088		199.51400		875.00000 
 43692.65567		 305.27265			43387.38302		69.65600		324.00000 
 43692.65567		 952.57479			42740.08088		199.51400		875.00000 
 43692.65567		 305.27265			43387.38302		69.65600		324.00000 
 43692.65567		 952.57479			42740.08088		199.51400		875.00000 
 43692.65567		 305.27265			43387.38302		69.65600		324.00000 
 43692.65567		 952.57479			42740.08088		199.51400		875.00000 
 43692.65567		 305.27265			43387.38302		69.65600		324.00000 
 43692.65567		 952.57479			42740.08088		199.51400		875.00000 
 43692.65567		 305.27265			43387.38302		69.65600		324.00000 
 43692.65567		 952.57479			42740.08088		199.51400		875.00000 
 43692.65567		 305.27265			43387.38302		69.65600		324.00000 
 43692.65567		 952.57479			42740.08088		199.51400		875.00000 
 43692.65567		 305.27265			43387.38302		69.65600		324.00000 
 43692.65567		 952.57479			42740.08088		199.51400		875.00000 
 43692.65567		 305.27265			43387.38302		69.65600		324.00000 
 43692.65567		 952.57479			42740.08088		199.51400		875.00000 
 43692.65567		 305.27265			43387.38302		69.65600		324.00000 
 43692.65567		 952.57479			42740.08088		199.51400		875.00000 
 43692.65567		 305.27265			43387.38302		69.65600		324.00000 
 43692.65567		 952.57479			42740.08088		199.51400		875.00000 
 43692.65567		 305.27265			43387.38302		69.65600		324.00000 
 43692.65567		 952.57479			42740.08088		199.51400		875.00000 
 43692.65567		 305.27265			43387.38302		69.65600		324.00000 
 43692.65567		 952.57479			42740.08088		199.51400		875.00000 
 43692.65567		 305.27265			43387.38302		69.65600		324.00000 
 43692.65567		 952.57479			42740.08088		199.51400		875.00000 
 43692.65567		 305.27265			43387.38302		69.65600		324.00000 
 43692.65567		 952.57479			42740.08088		199.51400		875.00000 
 43692.65567		 305.27265			43387.38302		69.65600		324.00000 
 43692.65567		 952.57479			42740.08088		199.51400		875.00000 
 43692.65567		 305.27265			43387.38302		69.65600		324.00000 
 43692.65567		 952.57479			42740.08088		199.51400		875.00000 
 43692.65567		 305.27265			43387.38302		69.65600		324.00000 
 43692.65567		 952.57479			42740.08088		199.51400		875.00000 
 43692.65567		 305.27265			43387.38302		69.65600		324.00000 
 43692.65567		 952.57479			42740.08088		199.51400		875.00000 
 43692.65567		 305.27265			43387.38302		69.65600		324.00000 
 43692.65567		 952.57479			42740.08088		199.51400		875.00000 
 43692.65567		 305.27265			43387.38302		69.65600		324.00000 
 43692.65567		 952.57479			42740.08088		199.51400		875.00000 
 43692.65567		 305.27265			43387.38302		69.65600		324.00000 
 43692.65567		 952.57479			42740.08088		199.51400		875.00000 
 43692.65567		 305.27265			43387.38302		69.65600		324.00000 
 43692.65567		 952.57479			42740.08088		199.51400		875.00000 
 43692.65567		 305.27265			43387.38302		69.65600		324.00000 
 43692.65567		 952.57479			42740.08088		199.51400		875.00000 
 43692.65567		 305.27265			43387.38302		69.65600		324.00000 
 43692.65567		 952.57479			42740.08088		199.51400		875.00000 
 43692.65567		 305.27265			43387.38302		69.65600		324.00000 
 43692.65567		 952.57479			42740.08088		199.51400		875.00000 
 43692.65567		 305.27265			43387.38302		69.65600		324.00000 
 43692.65567		 952.57479			42740.08088		199.51400		875.00000 
 43692.65567		 305.27265			43387.38302		69.65600		324.00000 
 43692.65567		 952.57479			42740.08088		199.51400		875.00000 
 43692.65567		 305.27265			43387.38302		69.65600		324.00000 
 43692.65567		 952.57479			42740.08088		199.51400		875.00000 
 43692.65567		 305.27265			43387.38302		69.65600		324.00000 
 43692.65567		 952.57479			42740.08088		199.51400		875.00000 
 43692.65567		 305.27265			43387.38302		69.65600		324.00000 
 43692.65567		 952.57479			42740.08088		219.30600		875.00000 
 43692.65567		 305.27265			43387.38302		69.65600		324.00000 
 43692.65567		 952.57479			42740.08088		219.30600		875.00000 
 43692.65567		 305.27265			43387.38302		69.65600		324.00000 
 43692.65567		 952.57479			42740.08088		219.30600		875.00000 
 43692.65567		 305.27265			43387.38302		69.65600		324.00000 
 43692.65567		 952.57479			42740.08088		219.30600		875.00000 
 43692.65567		 305.27265			43387.38302		69.65600		324.00000 
 43692.65567		 952.57479			42740.08088		219.30600		875.00000 
 43692.65567		 305.27265			43387.38302		69.65600		324.00000 
 43692.65567		 952.57479			42740.08088		219.30600		875.00000 
 43692.65567		 305.27265			43387.38302		69.65600		324.00000 
 43692.65567		 952.57479			42740.08088		219.30600		875.00000 
 43692.65567		 305.27265			43387.38302		69.65600		324.00000 
 43692.65567		 952.57479			42740.08088		219.30600		875.00000 
 43692.65567		 305.27265			43387.38302		69.65600		324.00000 
 43692.65567		 952.57479			42740.08088		219.30600		875.00000 
 43692.65567		 305.27265			43387.38302		69.65600		324.00000 
 43692.65567		 952.57479			42740.08088		219.30600		875.00000 
 43692.65567		 305.27265			43387.38302		69.65600		324.00000 
 43692.65567		 952.57479			42740.08088		219.30600		875.00000 
 43692.65567		 305.27265			43387.38302		69.65600		324.00000 
 43692.65567		 952.57479			42740.08088		219.30600		875.00000 
 43692.65567		 305.27265			43387.38302		69.65600		324.00000 
 43692.65567		 952.57479			42740.08088		219.30600		875.00000 
 43692.65567		 305.27265			43387.38302		69.65600		324.00000 
 43692.65567		 952.57479			42740.08088		219.30600		875.00000 
 43692.65567		 305.27265			43387.38302		69.65600		324.00000 
 43692.65567		 952.57479			42740.08088		219.30600		875.00000 
 43692.65567		 305.27265			43387.38302		69.65600		324.00000 
 43692.65567		 952.57479			42740.08088		219.30600		875.00000 
 43692.65567		 305.27265			43387.38302		69.65600		324.00000 
 43692.65567		 952.57479			42740.08088		219.30600		875.00000 
 43692.65567		 305.27265			43387.38302		69.65600		324.00000 
 43692.65567		 952.57479			42740.08088		219.30600		875.00000 
 43692.65567		 305.27265			43387.38302		69.65600		324.00000 
 43692.65567		 952.57479			42740.08088		219.30600		875.00000 
 43692.65567		 305.27265			43387.38302		69.65600		324.00000 
 43692.65567		 952.57479			42740.08088		219.30600		875.00000 
 43692.65567		 305.27265			43387.38302		69.65600		324.00000 
 43692.65567		 952.57479			42740.08088		219.30600		875.00000 
 43692.65567		 305.27265			43387.38302		69.65600		324.00000 
 43692.65567		 952.57479			42740.08088		219.30600		875.00000 
 43692.65567		 305.27265			43387.38302		69.65600		324.00000 
 43692.65567		 952.57479			42740.08088		219.30600		875.00000 
 43692.65567		 305.27265			43387.38302		69.65600		324.00000 
 43692.65567		 952.57479			42740.08088		219.30600		875.00000 
 43692.65567		 305.27265			43387.38302		69.65600		324.00000 
 43692.65567		 952.57479			42740.08088		219.30600		875.00000 
 43692.65567		 305.27265			43387.38302		69.65600		324.00000 
 43692.65567		 952.57479			42740.08088		219.30600		875.00000 
 43692.65567		 305.27265			43387.38302		69.65600		324.00000 
 43692.65567		 952.57479			42740.08088		219.30600		875.00000 
 43692.65567		 305.27265			43387.38302		69.65600		324.00000 
 43692.65567		 952.57479			42740.08088		219.30600		875.00000 
 43692.65567		 305.27265			43387.38302		69.65600		324.00000 
 43692.65567		 952.57479			42740.08088		219.30600		875.00000 
 43692.65567		 305.27265			43387.38302		69.65600		324.00000 
 43692.65567		 952.57479			42740.08088		219.30600		875.00000 
 43692.65567		 305.27265			43387.38302		69.65600		324.00000 
 43692.65567		 952.57479			42740.08088		219.30600		875.00000 
 43692.65567		 305.27265			43387.38302		69.65600		324.00000 
 43692.65567		 952.57479			42740.08088		219.30600		875.00000 
 43692.65567		 305.27265			43387.38302		69.65600		324.00000 
 43692.65567		 952.57479			42740.08088		219.30600		875.00000 
 43692.65567		 305.27265			43387.38302		69.65600		324.00000 
 43692.65567		 952.57479			42740.08088		219.30600		875.00000 
 43692.65567		 305.27265			43387.38302		69.65600		324.00000 
 43692.65567		 952.57479			42740.08088		219.30600		875.00000 
 43692.65567		 305.27265			43387.38302		69.65600		324.00000 
 43692.65567		 952.57479			42740.08088		219.30600		875.00000 
 43692.65567		 305.27265			43387.38302		69.65600		324.00000 
 43692.65567		 952.57479			42740.08088		219.30600		875.00000 
 43692.65567		 305.27265			43387.38302		69.65600		324.00000 
 43692.65567		 952.57479			42740.08088		219.30600		875.00000 
 43692.65567		 305.27265			43387.38302		69.65600		324.00000 
 43692.65567		 952.57479			42740.08088		219.30600		875.00000 
 43692.65567		 305.27265			43387.38302		69.65600		324.00000 
 43692.65567		 952.57479			42740.08088		219.30600		875.00000 
 43692.65567		 305.27265			43387.38302		69.65600		324.00000 
 43692.65567		 952.57479			42740.08088		219.30600		875.00000 
 43692.65567		 305.27265			43387.38302		69.65600		324.00000 
 43692.65567		 952.57479			42740.08088		219.30600		875.00000 
 43692.65567		 305.27265			43387.38302		69.65600		324.00000 
 43692.65567		 952.57479			42740.08088		219.30600		875.00000 
 43692.65567		 305.27265			43387.38302		69.65600		324.00000 
 43692.65567		 952.57479			42740.08088		219.30600		875.00000 
 43692.65567		 305.27265			43387.38302		69.65600		324.00000 
 43692.65567		 952.57479			42740.08088		219.30600		875.00000 
 43692.65567		 305.27265			43387.38302		69.65600		324.00000 
 43692.65567		 952.57479			42740.08088		219.30600		875.00000 
 43692.65567		 305.27265			43387.38302		69.65600		324.00000 
 43692.65567		 952.57479			42740.08088		219.30600		875.00000 
 43692.65567		 305.27265			43387.38302		69.65600		324.00000 
 43692.65567		 952.57479			42740.08088		219.30600		875.00000 
 43692.65567		 305.27265			43387.38302		69.65600		324.00000 
 43692.65567		 952.57479			42740.08088		219.30600		875.00000 
 43692.65567		 305.27265			43387.38302		69.65600		324.00000 
 43692.65567		 952.57479			42740.08088		219.30600		875.00000 
 43692.65567		 305.27265			43387.38302		69.65600		324.00000 
 43692.65567		 952.57479			42740.08088		219.30600		875.00000 
 43692.65567		 305.27265			43387.38302		69.65600		324.00000 
 43692.65567		 952.57479			42740.08088		219.30600		875.00000 
 43692.65567		 305.27265			43387.38302		69.65600		324.00000 
 43692.65567		 952.57479			42740.08088		219.30600		875.00000 
 43692.65567		 305.27265			43387.38302		69.65600		324.00000 
 43692.65567		 952.57479			42740.08088		219.30600		875.00000 
 43692.65567		 305.27265			43387.38302		69.65600		324.00000 
 43692.65567		 952.57479			42740.08088		219.30600		875.00000 
 43692.65567		 305.27265			43387.38302		69.65600		324.00000 
 43692.65567		 952.57479			42740.08088		219.30600		875.00000 
 43692.65567		 305.27265			43387.38302		69.65600		324.00000 
 43692.65567		 952.57479			42740.08088		219.30600		875.00000 
 43692.65567		 305.27265			43387.38302		69.65600		324.00000 
 43692.65567		 952.57479			42740.08088		219.30600		875.00000 
 43692.65567		 305.27265			43387.38302		69.65600		324.00000 
 43692.65567		 952.57479			42740.08088		219.30600		875.00000 
 43692.65567		 305.27265			43387.38302		69.65600		324.00000 
 43692.65567		 952.57479			42740.08088		219.30600		875.00000 
 43692.65567		 305.27265			43387.38302		69.65600		324.00000 
 43692.65567		 952.57479			42740.08088		219.30600		875.00000 
 43692.65567		 305.27265			43387.38302		69.65600		324.00000 
 43692.65567		 952.57479			42740.08088		219.30600		875.00000 
 43692.65567		 305.27265			43387.38302		69.65600		324.00000 
 43692.65567		 952.57479			42740.08088		219.30600		875.00000 
 43692.65567		 305.27265			43387.38302		69.65600		324.00000 
 43692.65567		 952.57479			42740.08088		219.30600		875.00000 
 43692.65567		 305.27265			43387.38302		69.65600		324.00000 
 43692.65567		 952.57479			42740.08088		219.30600		875.00000 
 43692.65567		 305.27265			43387.38302		69.65600		324.00000 
 43692.65567		 952.57479			42740.08088		226.68000		875.00000 
 43692.65567		 305.27265			43387.38302		69.65600		324.00000 
 43692.65567		 952.57479			42740.08088		226.68000		875.00000 
 43692.65567		 305.27265			43387.38302		69.65600		324.00000 
 43692.65567		 952.57479			42740.08088		226.68000		875.00000 
 43692.65567		 305.27265			43387.38302		69.65600		324.00000 
 43692.65567		 952.57479			42740.08088		226.68000		875.00000 
 43692.65567		 305.27265			43387.38302		69.65600		324.00000 
 43692.65567		 952.57479			42740.08088		226.68000		875.00000 
 43692.65567		 305.27265			43387.38302		69.65600		324.00000 
 43692.65567		 952.57479			42740.08088		226.68000		875.00000 
 43692.65567		 305.27265			43387.38302		69.65600		324.00000 
 43692.65567		 952.57479			42740.08088		226.68000		875.00000 
 43692.65567		 305.27265			43387.38302		69.65600		324.00000 
 43692.65567		 952.57479			42740.08088		226.68000		875.00000 
 43692.65567		 305.27265			43387.38302		69.65600		324.00000 
 43692.65567		 952.57479			42740.08088		226.68000		875.00000 
 43692.65567		 305.27265			43387.38302		69.65600		324.00000 
 43692.65567		 952.57479			42740.08088		226.68000		875.00000 
 43692.65567		 305.27265			43387.38302		69.65600		324.00000 
 43692.65567		 952.57479			42740.08088		226.68000		875.00000 
 43692.65567		 305.27265			43387.38302		69.65600		324.00000 
 43692.65567		 952.57479			42740.08088		226.68000		875.00000 
 43692.65567		 305.27265			43387.38302		69.65600		324.00000 
 43692.65567		 952.57479			42740.08088		226.68000		875.00000 
 43692.65567		 305.27265			43387.38302		69.65600		324.00000 
 43692.65567		 952.57479			42740.08088		226.68000		875.00000 
 43692.65567		 305.27265			43387.38302		69.65600		324.00000 
 43692.65567		 952.57479			42740.08088		226.68000		875.00000 
 43692.65567		 305.27265			43387.38302		69.65600		324.00000 
 43692.65567		 952.57479			42740.08088		226.68000		875.00000 
 43692.65567		 305.27265			43387.38302		69.65600		324.00000 
 43692.65567		 952.57479			42740.08088		226.68000		875.00000 
 43692.65567		 305.27265			43387.38302		69.65600		324.00000 
 43692.65567		 952.57479			42740.08088		226.68000		875.00000 
 43692.65567		 305.27265			43387.38302		69.65600		324.00000 
 43692.65567		 952.57479			42740.08088		226.68000		875.00000 
 43692.65567		 305.27265			43387.38302		69.65600		324.00000 
 43692.65567		 952.57479			42740.08088		226.68000		875.00000 
 43692.65567		 305.27265			43387.38302		69.65600		324.00000 
 43692.65567		 952.57479			42740.08088		226.68000		875.00000 
 43692.65567		 305.27265			43387.38302		69.65600		324.00000 
 43692.65567		 952.57479			42740.08088		226.68000		875.00000 
 43692.65567		 305.27265			43387.38302		69.65600		324.00000 
 43692.65567		 952.57479			42740.08088		226.68000		875.00000 
 43692.65567		 305.27265			43387.38302		69.65600		324.00000 
 43692.65567		 952.57479			42740.08088		226.68000		875.00000 
 43692.65567		 305.27265			43387.38302		69.65600		324.00000 
 43692.65567		 952.57479			42740.08088		226.68000		875.00000 
 43692.65567		 305.27265			43387.38302		69.65600		324.00000 
 43692.65567		 952.57479			42740.08088		226.68000		875.00000 
 43692.65567		 305.27265			43387.38302		69.65600		324.00000 
 43692.65567		 952.57479			42740.08088		226.68000		875.00000 
 43692.65567		 305.27265			43387.38302		69.65600		324.00000 
 43692.65567		 952.57479			42740.08088		226.68000		875.00000 
 43692.65567		 305.27265			43387.38302		69.65600		324.00000 
 43692.65567		 952.57479			42740.08088		226.68000		875.00000 
 43692.65567		 305.27265			43387.38302		69.65600		324.00000 
 43692.65567		 952.57479			42740.08088		226.68000		875.00000 
 43692.65567		 305.27265			43387.38302		69.65600		324.00000 
 43692.65567		 952.57479			42740.08088		226.68000		875.00000 
 43692.65567		 305.27265			43387.38302		69.65600		324.00000 
 43692.65567		 952.57479			42740.08088		226.68000		875.00000 
 43692.65567		 305.27265			43387.38302		69.65600		324.00000 
 43692.65567		 952.57479			42740.08088		226.68000		875.00000 
 43692.65567		 305.27265			43387.38302		69.65600		324.00000 
 43692.65567		 952.57479			42740.08088		226.68000		875.00000 
 43692.65567		 305.27265			43387.38302		69.65600		324.00000 
 43692.65567		 952.57479			42740.08088		226.68000		875.00000 
 43692.65567		 305.27265			43387.38302		69.65600		324.00000 
 43692.65567		 952.57479			42740.08088		226.68000		875.00000 
 43692.65567		 305.27265			43387.38302		69.65600		324.00000 
 43692.65567		 952.57479			42740.08088		226.68000		875.00000 
 43692.65567		 305.27265			43387.38302		69.65600		324.00000 
 43692.65567		 952.57479			42740.08088		226.68000		875.00000 
 43692.65567		 305.27265			43387.38302		69.65600		324.00000 
 43692.65567		 952.57479			42740.08088		226.68000		875.00000 
 43692.65567		 305.27265			43387.38302		69.65600		324.00000 
 43692.65567		 952.57479			42740.08088		226.68000		875.00000 
 43692.65567		 305.27265			43387.38302		69.65600		324.00000 
 43692.65567		 952.57479			42740.08088		226.68000		875.00000 
 43692.65567		 305.27265			43387.38302		69.65600		324.00000 
 43692.65567		 952.57479			42740.08088		226.68000		875.00000 
 43692.65567		 305.27265			43387.38302		69.65600		324.00000 
 43692.65567		 952.57479			42740.08088		226.68000		875.00000 
 43692.65567		 305.27265			43387.38302		69.65600		324.00000 
 43692.65567		 952.57479			42740.08088		226.68000		875.00000 
 43692.65567		 305.27265			43387.38302		69.65600		324.00000 
 43692.65567		 952.57479			42740.08088		226.68000		875.00000 
 43692.65567		 305.27265			43387.38302		69.65600		324.00000 
 43692.65567		 952.57479			42740.08088		226.68000		875.00000 
 43692.65567		 305.27265			43387.38302		69.65600		324.00000 
 43692.65567		 952.57479			42740.08088		226.68000		875.00000 
 43692.65567		 305.27265			43387.38302		69.65600		324.00000 
 43692.65567		 952.57479			42740.08088		226.68000		875.00000 
 43692.65567		 305.27265			43387.38302		69.65600		324.00000 
 43692.65567		 952.57479			42740.08088		226.68000		875.00000 
 43692.65567		 305.27265			43387.38302		69.65600		324.00000 
 43692.65567		 952.57479			42740.08088		226.68000		875.00000 
 43692.65567		 305.27265			43387.38302		69.65600		324.00000 
 43692.65567		 952.57479			42740.08088		226.68000		875.00000 
 43692.65567		 305.27265			43387.38302		69.65600		324.00000 
 43692.65567		 952.57479			42740.08088		226.68000		875.00000 
 43692.65567		 305.27265			43387.38302		69.65600		324.00000 
 43692.65567		 952.57479			42740.08088		226.68000		875.00000 
 43692.65567		 305.27265			43387.38302		69.65600		324.00000 
 43692.65567		 952.57479			42740.08088		226.68000		875.00000 
 43692.65567		 305.27265			43387.38302		69.65600		324.00000 
 43692.65567		 952.57479			42740.08088		226.68000		875.00000 
 43692.65567		 305.27265			43387.38302		69.65600		324.00000 
 43692.65567		 952.57479			42740.08088		226.68000		875.00000 
 43692.65567		 305.27265			43387.38302		69.65600		324.00000 
 43692.65567		 952.57479			42740.08088		226.68000		875.00000 
 43692.65567		 305.27265			43387.38302		69.65600		324.00000 
 43692.65567		 952.57479			42740.08088		226.68000		875.00000 
 43692.65567		 305.27265			43387.38302		69.65600		324.00000 
 43692.65567		 952.57479			42740.08088		226.68000		875.00000 
 43692.65567		 305.27265			43387.38302		69.65600		324.00000 
 43692.65567		 952.57479			42740.08088		226.68000		875.00000 
 43692.65567		 305.27265			43387.38302		69.65600		324.00000 
 43692.65567		 952.57479			42740.08088		226.68000		875.00000 
 43692.65567		 305.27265			43387.38302		69.65600		324.00000 
 43692.65567		 952.57479			42740.08088		226.68000		875.00000 
 43692.65567		 305.27265			43387.38302		69.65600		324.00000 
 43692.65567		 952.57479			42740.08088		226.68000		875.00000 
 43692.65567		 305.27265			43387.38302		69.65600		324.00000 
 43692.65567		 952.57479			42740.08088		226.68000		875.00000 
 43692.65567		 305.27265			43387.38302		69.65600		324.00000 
 43692.65567		 952.57479			42740.08088		226.68000		875.00000 
 43692.65567		 305.27265			43387.38302		69.65600		324.00000 
 43692.65567		 952.57479			42740.08088		228.67800		875.00000 
 43692.65567		 305.27265			43387.38302		69.65600		324.00000 
 43692.65567		 952.57479			42740.08088		228.67800		875.00000 
 43692.65567		 305.27265			43387.38302		69.65600		324.00000 
 43692.65567		 952.57479			42740.08088		228.67800		875.00000 
 43692.65567		 305.27265			43387.38302		69.65600		324.00000 
 43692.65567		 952.57479			42740.08088		228.67800		875.00000 
 43692.65567		 305.27265			43387.38302		69.65600		324.00000 
 43692.65567		 952.57479			42740.08088		228.67800		875.00000 
 43692.65567		 305.27265			43387.38302		69.65600		324.00000 
 43692.65567		 952.57479			42740.08088		228.67800		875.00000 
 43692.65567		 305.27265			43387.38302		69.65600		324.00000 
 43692.65567		 952.57479			42740.08088		228.67800		875.00000 
 43692.65567		 305.27265			43387.38302		69.65600		324.00000 
 43692.65567		 952.57479			42740.08088		228.67800		875.00000 
 43692.65567		 305.27265			43387.38302		69.65600		324.00000 
 43692.65567		 952.57479			42740.08088		228.67800		875.00000 
 43692.65567		 305.27265			43387.38302		69.65600		324.00000 
 43692.65567		 952.57479			42740.08088		228.67800		875.00000 
 43692.65567		 305.27265			43387.38302		69.65600		324.00000 
 43692.65567		 952.57479			42740.08088		228.67800		875.00000 
 43692.65567		 305.27265			43387.38302		69.65600		324.00000 
 43692.65567		 952.57479			42740.08088		228.67800		875.00000 
 43692.65567		 305.27265			43387.38302		69.65600		324.00000 
 43692.65567		 952.57479			42740.08088		228.67800		875.00000 
 43692.65567		 305.27265			43387.38302		69.65600		324.00000 
 43692.65567		 952.57479			42740.08088		228.67800		875.00000 
 43692.65567		 305.27265			43387.38302		69.65600		324.00000 
 43692.65567		 952.57479			42740.08088		228.67800		875.00000 
 43692.65567		 305.27265			43387.38302		69.65600		324.00000 
 43692.65567		 952.57479			42740.08088		228.67800		875.00000 
 43692.65567		 305.27265			43387.38302		69.16200		324.00000 
 43692.65567		 952.57479			42740.08088		228.67800		875.00000 
 43692.65567		 305.27265			43387.38302		69.16200		324.00000 
 43692.65567		 952.57479			42740.08088		228.67800		875.00000 
 43692.65567		 305.27265			43387.38302		69.16200		324.00000 
 43692.65567		 952.57479			42740.08088		228.67800		875.00000 
 43692.65567		 305.27265			43387.38302		69.16200		324.00000 
 43692.65567		 952.57479			42740.08088		228.67800		875.00000 
 43692.65567		 305.27265			43387.38302		69.16200		324.00000 
 43692.65567		 952.57479			42740.08088		228.67800		875.00000 
 43692.65567		 305.27265			43387.38302		69.16200		324.00000 
 43692.65567		 952.57479			42740.08088		228.67800		875.00000 
 43692.65567		 305.27265			43387.38302		69.16200		324.00000 
 43692.65567		 952.57479			42740.08088		228.67800		875.00000 
 43692.65567		 305.27265			43387.38302		69.16200		324.00000 
 43692.65567		 952.57479			42740.08088		228.67800		875.00000 
 43692.65567		 305.27265			43387.38302		69.16200		324.00000 
 43692.65567		 952.57479			42740.08088		228.67800		875.00000 
 43692.65567		 305.27265			43387.38302		69.16200		324.00000 
 43692.65567		 952.57479			42740.08088		228.67800		875.00000 
 43692.65567		 305.27265			43387.38302		69.16200		324.00000 
 43692.65567		 952.57479			42740.08088		228.67800		875.00000 
 43692.65567		 305.27265			43387.38302		69.16200		324.00000 
 43692.65567		 952.57479			42740.08088		228.67800		875.00000 
 43692.65567		 305.27265			43387.38302		69.16200		324.00000 
 43692.65567		 952.57479			42740.08088		228.67800		875.00000 
 43692.65567		 305.27265			43387.38302		69.16200		324.00000 
 43692.65567		 952.57479			42740.08088		228.67800		875.00000 
 43692.65567		 305.27265			43387.38302		69.16200		324.00000 
 43692.65567		 952.57479			42740.08088		228.67800		875.00000 
 43692.65567		 305.27265			43387.38302		69.16200		324.00000 
 43692.65567		 952.57479			42740.08088		228.67800		875.00000 
 43692.65567		 305.27265			43387.38302		69.16200		324.00000 
 43692.65567		 952.57479			42740.08088		228.67800		875.00000 
 43692.65567		 305.27265			43387.38302		69.16200		324.00000 
 43692.65567		 952.57479			42740.08088		228.67800		875.00000 
 43692.65567		 305.27265			43387.38302		69.16200		324.00000 
 43692.65567		 952.57479			42740.08088		228.67800		875.00000 
 43692.65567		 305.27265			43387.38302		69.16200		324.00000 
 43692.65567		 952.57479			42740.08088		228.67800		875.00000 
 43692.65567		 305.27265			43387.38302		69.16200		324.00000 
 43692.65567		 952.57479			42740.08088		228.67800		875.00000 
 43692.65567		 305.27265			43387.38302		69.16200		324.00000 
 43692.65567		 952.57479			42740.08088		228.67800		875.00000 
 43692.65567		 305.27265			43387.38302		69.16200		324.00000 
 43692.65567		 952.57479			42740.08088		228.67800		875.00000 
 43692.65567		 305.27265			43387.38302		69.16200		324.00000 
 43692.65567		 952.57479			42740.08088		228.67800		875.00000 
 43692.65567		 305.27265			43387.38302		69.16200		324.00000 
 43692.65567		 952.57479			42740.08088		228.67800		875.00000 
 43692.65567		 305.27265			43387.38302		69.16200		324.00000 
 43692.65567		 952.57479			42740.08088		228.67800		875.00000 
 43692.65567		 305.27265			43387.38302		69.16200		324.00000 
 43692.65567		 952.57479			42740.08088		228.67800		875.00000 
 43692.65567		 305.27265			43387.38302		69.16200		324.00000 
 43692.65567		 952.57479			42740.08088		228.67800		875.00000 
 43692.65567		 305.27265			43387.38302		69.16200		324.00000 
 43692.65567		 952.57479			42740.08088		228.67800		875.00000 
 43692.65567		 305.27265			43387.38302		69.16200		324.00000 
 43692.65567		 952.57479			42740.08088		228.67800		875.00000 
 43692.65567		 305.27265			43387.38302		69.16200		324.00000 
 43692.65567		 952.57479			42740.08088		228.67800		875.00000 
 43692.65567		 305.27265			43387.38302		69.16200		324.00000 
 43692.65567		 952.57479			42740.08088		228.67800		875.00000 
 43692.65567		 305.27265			43387.38302		69.16200		324.00000 
 43692.65567		 952.57479			42740.08088		228.67800		875.00000 
 43692.65567		 305.27265			43387.38302		69.16200		324.00000 
 43692.65567		 952.57479			42740.08088		228.67800		875.00000 
 43692.65567		 305.27265			43387.38302		69.16200		324.00000 
 43692.65567		 952.57479			42740.08088		228.67800		875.00000 
 43692.65567		 305.27265			43387.38302		69.16200		324.00000 
 43692.65567		 952.57479			42740.08088		228.67800		875.00000 
 43692.65567		 305.27265			43387.38302		69.16200		324.00000 
 43692.65567		 952.57479			42740.08088		228.67800		875.00000 
 43692.65567		 305.27265			43387.38302		69.16200		324.00000 
 43692.65567		 952.57479			42740.08088		228.67800		875.00000 
 43692.65567		 305.27265			43387.38302		69.16200		324.00000 
 43692.65567		 952.57479			42740.08088		228.67800		875.00000 
 43692.65567		 305.27265			43387.38302		69.16200		324.00000 
 43692.65567		 952.57479			42740.08088		228.67800		875.00000 
 43692.65567		 305.27265			43387.38302		69.16200		324.00000 
 43692.65567		 952.57479			42740.08088		228.67800		875.00000 
 43692.65567		 305.27265			43387.38302		69.16200		324.00000 
 43692.65567		 952.57479			42740.08088		228.67800		875.00000 
 43692.65567		 305.27265			43387.38302		69.16200		324.00000 
 43692.65567		 952.57479			42740.08088		228.67800		875.00000 
 43692.65567		 305.27265			43387.38302		69.16200		324.00000 
 43692.65567		 952.57479			42740.08088		228.67800		875.00000 
 43692.65567		 305.27265			43387.38302		69.16200		324.00000 
 43692.65567		 952.57479			42740.08088		228.67800		875.00000 
 43692.65567		 305.27265			43387.38302		69.16200		324.00000 
 43692.65567		 952.57479			42740.08088		229.89800		875.00000 
 43692.65567		 305.27265			43387.38302		69.16200		324.00000 
 43692.65567		 952.57479			42740.08088		229.89800		875.00000 
 43692.65567		 305.27265			43387.38302		69.16200		324.00000 
 43692.65567		 952.57479			42740.08088		229.89800		875.00000 
 43692.65567		 305.27265			43387.38302		69.16200		324.00000 
 43692.65567		 952.57479			42740.08088		229.89800		875.00000 
 43692.65567		 305.27265			43387.38302		69.16200		324.00000 
 43692.65567		 952.57479			42740.08088		229.89800		875.00000 
 43692.65567		 305.27265			43387.38302		69.16200		324.00000 
 43692.65567		 952.57479			42740.08088		229.89800		875.00000 
 43692.65567		 305.27265			43387.38302		69.16200		324.00000 
 43692.65567		 952.57479			42740.08088		229.89800		875.00000 
 43692.65567		 305.27265			43387.38302		69.16200		324.00000 
 43692.65567		 952.57479			42740.08088		229.89800		875.00000 
 43692.65567		 305.27265			43387.38302		69.16200		324.00000 
 43692.65567		 952.57479			42740.08088		229.89800		875.00000 
 43692.65567		 305.27265			43387.38302		69.16200		324.00000 
 43692.65567		 952.57479			42740.08088		229.89800		875.00000 
 43692.65567		 305.27265			43387.38302		69.16200		324.00000 
 43692.65567		 952.57479			42740.08088		229.89800		875.00000 
 43692.65567		 305.27265			43387.38302		69.16200		324.00000 
 43692.65567		 952.57479			42740.08088		229.89800		875.00000 
 43692.65567		 305.27265			43387.38302		69.16200		324.00000 
 43692.65567		 952.57479			42740.08088		229.89800		875.00000 
 43692.65567		 305.27265			43387.38302		69.16200		324.00000 
 43692.65567		 952.57479			42740.08088		229.89800		875.00000 
 43692.65567		 305.27265			43387.38302		69.16200		324.00000 
 43692.65567		 952.57479			42740.08088		229.89800		875.00000 
 43692.65567		 305.27265			43387.38302		69.16200		324.00000 
 43692.65567		 952.57479			42740.08088		229.89800		875.00000 
 43692.65567		 305.27265			43387.38302		69.16200		324.00000 
 43692.65567		 952.57479			42740.08088		229.89800		875.00000 
 43692.65567		 305.27265			43387.38302		69.16200		324.00000 
 43692.65567		 952.57479			42740.08088		229.89800		875.00000 
 43692.65567		 305.27265			43387.38302		69.16200		324.00000 
 43692.65567		 952.57479			42740.08088		229.89800		875.00000 
 43692.65567		 305.27265			43387.38302		69.16200		324.00000 
 43692.65567		 952.57479			42740.08088		229.89800		875.00000 
 43692.65567		 305.27265			43387.38302		69.16200		324.00000 
 43692.65567		 952.57479			42740.08088		229.89800		875.00000 
 43692.65567		 305.27265			43387.38302		69.16200		324.00000 
 43692.65567		 952.57479			42740.08088		229.89800		875.00000 
 43692.65567		 305.27265			43387.38302		69.16200		324.00000 
 43692.65567		 952.57479			42740.08088		229.89800		875.00000 
 43692.65567		 305.27265			43387.38302		69.16200		324.00000 
 43692.65567		 952.57479			42740.08088		229.89800		875.00000 
 43692.65567		 305.27265			43387.38302		69.16200		324.00000 
 43692.65567		 952.57479			42740.08088		229.89800		875.00000 
 43692.65567		 305.27265			43387.38302		69.16200		324.00000 
 43692.65567		 952.57479			42740.08088		229.89800		875.00000 
 43692.65567		 305.27265			43387.38302		69.16200		324.00000 
 43692.65567		 952.57479			42740.08088		229.89800		875.00000 
 43692.65567		 305.27265			43387.38302		69.16200		324.00000 
 43692.65567		 952.57479			42740.08088		229.89800		875.00000 
 43692.65567		 305.27265			43387.38302		69.16200		324.00000 
 43692.65567		 952.57479			42740.08088		229.89800		875.00000 
 43692.65567		 305.27265			43387.38302		69.16200		324.00000 
 43692.65567		 952.57479			42740.08088		229.89800		875.00000 
 43692.65567		 305.27265			43387.38302		69.16200		324.00000 
 43692.65567		 952.57479			42740.08088		229.89800		875.00000 
 43692.65567		 305.27265			43387.38302		69.16200		324.00000 
 43692.65567		 952.57479			42740.08088		229.89800		875.00000 
 43692.65567		 305.27265			43387.38302		69.16200		324.00000 
 43692.65567		 952.57479			42740.08088		229.89800		875.00000 
 43692.65567		 305.27265			43387.38302		69.16200		324.00000 
 43692.65567		 952.57479			42740.08088		229.89800		875.00000 
 43692.65567		 305.27265			43387.38302		69.16200		324.00000 
 43692.65567		 952.57479			42740.08088		229.89800		875.00000 
 43692.65567		 305.27265			43387.38302		69.16200		324.00000 
 43692.65567		 952.57479			42740.08088		229.89800		875.00000 
 43692.65567		 305.27265			43387.38302		69.16200		324.00000 
 43692.65567		 952.57479			42740.08088		229.89800		875.00000 
 43692.65567		 305.27265			43387.38302		69.16200		324.00000 
 43692.65567		 952.57479			42740.08088		229.89800		875.00000 
 43692.65567		 305.27265			43387.38302		69.16200		324.00000 
 43692.65567		 952.57479			42740.08088		229.89800		875.00000 
 43692.65567		 305.27265			43387.38302		69.16200		324.00000 
 43692.65567		 952.57479			42740.08088		229.89800		875.00000 
 43692.65567		 305.27265			43387.38302		69.16200		324.00000 
 43692.65567		 952.57479			42740.08088		229.89800		875.00000 
 43692.65567		 305.27265			43387.38302		69.16200		324.00000 
 43692.65567		 952.57479			42740.08088		229.89800		875.00000 
 43692.65567		 305.27265			43387.38302		69.16200		324.00000 
 43692.65567		 952.57479			42740.08088		229.89800		875.00000 
 43692.65567		 305.27265			43387.38302		69.16200		324.00000 
 43692.65567		 952.57479			42740.08088		229.89800		875.00000 
 43692.65567		 305.27265			43387.38302		69.16200		324.00000 
 43692.65567		 952.57479			42740.08088		229.89800		875.00000 
 43692.65567		 305.27265			43387.38302		69.16200		324.00000 
 43692.65567		 952.57479			42740.08088		229.89800		875.00000 
 43692.65567		 305.27265			43387.38302		69.16200		324.00000 
 43692.65567		 952.57479			42740.08088		229.89800		875.00000 
 43692.65567		 305.27265			43387.38302		69.16200		324.00000 
 43692.65567		 952.57479			42740.08088		229.89800		875.00000 
 43692.65567		 305.27265			43387.38302		69.16200		324.00000 
 43692.65567		 952.57479			42740.08088		229.89800		875.00000 
 43692.65567		 305.27265			43387.38302		69.16200		324.00000 
 43692.65567		 952.57479			42740.08088		229.89800		875.00000 
 43692.65567		 305.27265			43387.38302		69.16200		324.00000 
 43692.65567		 952.57479			42740.08088		229.89800		875.00000 
 43692.65567		 305.27265			43387.38302		69.16200		324.00000 
 43692.65567		 952.57479			42740.08088		229.89800		875.00000 
 43692.65567		 305.27265			43387.38302		69.16200		324.00000 
 43692.65567		 952.57479			42740.08088		229.89800		875.00000 
 43692.65567		 305.27265			43387.38302		69.16200		324.00000 
 43692.65567		 952.57479			42740.08088		229.89800		875.00000 
 43692.65567		 305.27265			43387.38302		69.16200		324.00000 
 43692.65567		 952.57479			42740.08088		229.89800		875.00000 
 43692.65567		 305.27265			43387.38302		69.16200		324.00000 
 43692.65567		 952.57479			42740.08088		229.89800		875.00000 
 43692.65567		 305.27265			43387.38302		69.16200		324.00000 
 43692.65567		 952.57479			42740.08088		229.89800		875.00000 
 43692.65567		 305.27265			43387.38302		69.16200		324.00000 
 43692.65567		 952.57479			42740.08088		229.89800		875.00000 
 43692.65567		 305.27265			43387.38302		69.16200		324.00000 
 43692.65567		 952.57479			42740.08088		229.89800		875.00000 
 43692.65567		 305.27265			43387.38302		69.16200		324.00000 
 43692.65567		 952.57479			42740.08088		229.89800		875.00000 
 43692.65567		 305.27265			43387.38302		69.16200		324.00000 
 43692.65567		 952.57479			42740.08088		229.89800		875.00000 
 43692.65567		 305.27265			43387.38302		69.16200		324.00000 
 43692.65567		 952.57479			42740.08088		229.89800		875.00000 
 43692.65567		 305.27265			43387.38302		69.16200		324.00000 
 43692.65567		 952.57479			42740.08088		229.89800		875.00000 
 43692.65567		 305.27265			43387.38302		69.16200		324.00000 
 43692.65567		 952.57479			42740.08088		229.89800		875.00000 
 43692.65567		 305.27265			43387.38302		69.16200		324.00000 
 43692.65567		 952.57479			42740.08088		229.89800		875.00000 
 43692.65567		 305.27265			43387.38302		69.16200		324.00000 
 43692.65567		 952.57479			42740.08088		230.14400		875.00000 
 43692.65567		 305.27265			43387.38302		69.16200		324.00000 
 43692.65567		 952.57479			42740.08088		230.14400		875.00000 
 43692.65567		 305.27265			43387.38302		69.16200		324.00000 
 43692.65567		 952.57479			42740.08088		230.14400		875.00000 
 43692.65567		 305.27265			43387.38302		69.16200		324.00000 
 43692.65567		 952.57479			42740.08088		230.14400		875.00000 
 43692.65567		 305.27265			43387.38302		69.16200		324.00000 
 43692.65567		 952.57479			42740.08088		230.14400		875.00000 
 43692.65567		 305.27265			43387.38302		69.16200		324.00000 
 43692.65567		 952.57479			42740.08088		230.14400		875.00000 
 43692.65567		 305.27265			43387.38302		69.16200		324.00000 
 43692.65567		 952.57479			42740.08088		230.14400		875.00000 
 43692.65567		 305.27265			43387.38302		69.16200		324.00000 
 43692.65567		 952.57479			42740.08088		230.14400		875.00000 
 43692.65567		 305.27265			43387.38302		69.16200		324.00000 
 43692.65567		 952.57479			42740.08088		230.14400		875.00000 
 43692.65567		 305.27265			43387.38302		69.16200		324.00000 
 43692.65567		 952.57479			42740.08088		230.14400		875.00000 
 43692.65567		 305.27265			43387.38302		69.16200		324.00000 
 43692.65567		 952.57479			42740.08088		230.14400		875.00000 
 43692.65567		 305.27265			43387.38302		69.16200		324.00000 
 43692.65567		 952.57479			42740.08088		230.14400		875.00000 
 43692.65567		 305.27265			43387.38302		69.16200		324.00000 
 43692.65567		 952.57479			42740.08088		230.14400		875.00000 
 43692.65567		 305.27265			43387.38302		69.16200		324.00000 
 43692.65567		 952.57479			42740.08088		230.14400		875.00000 
 43692.65567		 305.27265			43387.38302		69.16200		324.00000 
 43692.65567		 952.57479			42740.08088		230.14400		875.00000 
 43692.65567		 305.27265			43387.38302		69.16200		324.00000 
 43692.65567		 952.57479			42740.08088		230.14400		875.00000 
 43692.65567		 305.27265			43387.38302		69.16200		324.00000 
 43692.65567		 952.57479			42740.08088		230.14400		875.00000 
 43692.65567		 305.27265			43387.38302		69.16200		324.00000 
 43692.65567		 952.57479			42740.08088		230.14400		875.00000 
 43692.65567		 305.27265			43387.38302		69.16200		324.00000 
 43692.65567		 952.57479			42740.08088		230.14400		875.00000 
 43692.65567		 305.27265			43387.38302		69.16200		324.00000 
 43692.65567		 952.57479			42740.08088		230.14400		875.00000 
 43692.65567		 305.27265			43387.38302		69.16200		324.00000 
 43692.65567		 952.57479			42740.08088		230.14400		875.00000 
 43692.65567		 305.27265			43387.38302		69.16200		324.00000 
 43692.65567		 952.57479			42740.08088		230.14400		875.00000 
 43692.65567		 305.27265			43387.38302		69.16200		324.00000 
 43692.65567		 952.57479			42740.08088		230.14400		875.00000 
 43692.65567		 305.27265			43387.38302		69.16200		324.00000 
 43692.65567		 952.57479			42740.08088		230.14400		875.00000 
 43692.65567		 305.27265			43387.38302		69.16200		324.00000 
 43692.65567		 952.57479			42740.08088		230.14400		875.00000 
 43692.65567		 305.27265			43387.38302		69.16200		324.00000 
 43692.65567		 952.57479			42740.08088		230.14400		875.00000 
 43692.65567		 305.27265			43387.38302		69.16200		324.00000 
 43692.65567		 952.57479			42740.08088		230.14400		875.00000 
 43692.65567		 305.27265			43387.38302		69.16200		324.00000 
 43692.65567		 952.57479			42740.08088		230.14400		875.00000 
 43692.65567		 305.27265			43387.38302		69.16200		324.00000 
 43692.65567		 952.57479			42740.08088		230.14400		875.00000 
 43692.65567		 305.27265			43387.38302		69.16200		324.00000 
 43692.65567		 952.57479			42740.08088		230.14400		875.00000 
 43692.65567		 305.27265			43387.38302		69.16200		324.00000 
 43692.65567		 952.57479			42740.08088		230.14400		875.00000 
 43692.65567		 305.27265			43387.38302		69.16200		324.00000 
 43692.65567		 952.57479			42740.08088		230.14400		875.00000 
 43692.65567		 305.27265			43387.38302		69.16200		324.00000 
 43692.65567		 952.57479			42740.08088		230.14400		875.00000 
 43692.65567		 305.27265			43387.38302		69.16200		324.00000 
 43692.65567		 952.57479			42740.08088		230.14400		875.00000 
 43692.65567		 305.27265			43387.38302		69.16200		324.00000 
 43692.65567		 952.57479			42740.08088		230.14400		875.00000 
 43692.65567		 305.27265			43387.38302		69.16200		324.00000 
 43692.65567		 952.57479			42740.08088		230.14400		875.00000 
 43692.65567		 305.27265			43387.38302		69.16200		324.00000 
 43692.65567		 952.57479			42740.08088		230.14400		875.00000 
 43692.65567		 305.27265			43387.38302		69.16200		324.00000 
 43692.65567		 952.57479			42740.08088		230.14400		875.00000 
 43692.65567		 305.27265			43387.38302		69.16200		324.00000 
 43692.65567		 952.57479			42740.08088		230.14400		875.00000 
 43692.65567		 305.27265			43387.38302		69.16200		324.00000 
 43692.65567		 952.57479			42740.08088		230.14400		875.00000 
 43692.65567		 305.27265			43387.38302		69.16200		324.00000 
 43692.65567		 952.57479			42740.08088		230.14400		875.00000 
 43692.65567		 305.27265			43387.38302		69.16200		324.00000 
 43692.65567		 952.57479			42740.08088		230.14400		875.00000 
 43692.65567		 305.27265			43387.38302		69.16200		324.00000 
 43692.65567		 952.57479			42740.08088		230.14400		875.00000 
 43692.65567		 305.27265			43387.38302		69.16200		324.00000 
 43692.65567		 952.57479			42740.08088		230.14400		875.00000 
 43692.65567		 305.27265			43387.38302		69.16200		324.00000 
 43692.65567		 952.57479			42740.08088		230.14400		875.00000 
 43692.65567		 305.27265			43387.38302		69.16200		324.00000 
 43692.65567		 952.57479			42740.08088		230.14400		875.00000 
 43692.65567		 305.27265			43387.38302		69.16200		324.00000 
 43692.65567		 952.57479			42740.08088		230.14400		875.00000 
 43692.65567		 305.27265			43387.38302		69.16200		324.00000 
 43692.65567		 952.57479			42740.08088		230.14400		875.00000 
 43692.65567		 305.27265			43387.38302		69.16200		324.00000 
 43692.65567		 952.57479			42740.08088		230.14400		875.00000 
 43692.65567		 305.27265			43387.38302		69.16200		324.00000 
 43692.65567		 952.57479			42740.08088		230.14400		875.00000 
 43692.65567		 305.27265			43387.38302		69.16200		324.00000 
 43692.65567		 952.57479			42740.08088		230.14400		875.00000 
 43692.65567		 305.27265			43387.38302		69.16200		324.00000 
 43692.65567		 952.57479			42740.08088		230.14400		875.00000 
 43692.65567		 305.27265			43387.38302		69.16200		324.00000 
 43692.65567		 952.57479			42740.08088		230.14400		875.00000 
 43692.65567		 305.27265			43387.38302		69.16200		324.00000 
 43692.65567		 952.57479			42740.08088		230.14400		875.00000 
 43692.65567		 305.27265			43387.38302		69.16200		324.00000 
 43692.65567		 952.57479			42740.08088		230.14400		875.00000 
 43692.65567		 305.27265			43387.38302		69.16200		324.00000 
 43692.65567		 952.57479			42740.08088		230.14400		875.00000 
 43692.65567		 305.27265			43387.38302		69.16200		324.00000 
 43692.65567		 952.57479			42740.08088		230.14400		875.00000 
 43692.65567		 305.27265			43387.38302		69.16200		324.00000 
 43692.65567		 952.57479			42740.08088		230.14400		875.00000 
 43692.65567		 305.27265			43387.38302		69.16200		324.00000 
 43692.65567		 952.57479			42740.08088		230.14400		875.00000 
 43692.65567		 305.27265			43387.38302		69.16200		324.00000 
 43692.65567		 952.57479			42740.08088		230.14400		875.00000 
 43692.65567		 305.27265			43387.38302		69.16200		324.00000 
 43692.65567		 952.57479			42740.08088		230.14400		875.00000 
 43692.65567		 305.27265			43387.38302		69.16200		324.00000 
 43692.65567		 952.57479			42740.08088		230.14400		875.00000 
 43692.65567		 305.27265			43387.38302		69.16200		324.00000 
 43692.65567		 952.57479			42740.08088		230.14400		875.00000 
 43692.65567		 305.27265			43387.38302		69.16200		324.00000 
 43692.65567		 952.57479			42740.08088		230.14400		875.00000 
 43692.65567		 305.27265			43387.38302		69.16200		324.00000 
 43692.65567		 952.57479			42740.08088		229.54400		875.00000 
 43692.65567		 305.27265			43387.38302		69.16200		324.00000 
 43692.65567		 952.57479			42740.08088		229.54400		875.00000 
 43692.65567		 305.27265			43387.38302		69.16200		324.00000 
 43692.65567		 952.57479			42740.08088		229.54400		875.00000 
 43692.65567		 305.27265			43387.38302		69.16200		324.00000 
 43692.65567		 952.57479			42740.08088		229.54400		875.00000 
 43692.65567		 305.27265			43387.38302		69.16200		324.00000 
 43692.65567		 952.57479			42740.08088		229.54400		875.00000 
 43692.65567		 305.27265			43387.38302		69.16200		324.00000 
 43692.65567		 952.57479			42740.08088		229.54400		875.00000 
 43692.65567		 305.27265			43387.38302		69.16200		324.00000 
 43692.65567		 952.57479			42740.08088		229.54400		875.00000 
 43692.65567		 305.27265			43387.38302		69.16200		324.00000 
 43692.65567		 952.57479			42740.08088		229.54400		875.00000 
 43692.65567		 305.27265			43387.38302		69.16200		324.00000 
 43692.65567		 952.57479			42740.08088		229.54400		875.00000 
 43692.65567		 305.27265			43387.38302		69.16200		324.00000 
 43692.65567		 952.57479			42740.08088		229.54400		875.00000 
 43692.65567		 305.27265			43387.38302		69.16200		324.00000 
 43692.65567		 952.57479			42740.08088		229.54400		875.00000 
 43692.65567		 305.27265			43387.38302		69.16200		324.00000 
 43692.65567		 952.57479			42740.08088		229.54400		875.00000 
 43692.65567		 305.27265			43387.38302		69.16200		324.00000 
 43692.65567		 952.57479			42740.08088		229.54400		875.00000 
 43692.65567		 305.27265			43387.38302		69.16200		324.00000 
 43692.65567		 952.57479			42740.08088		229.54400		875.00000 
 43692.65567		 305.27265			43387.38302		69.16200		324.00000 
 43692.65567		 952.57479			42740.08088		229.54400		875.00000 
 43692.65567		 305.27265			43387.38302		69.16200		324.00000 
 43692.65567		 952.57479			42740.08088		229.54400		875.00000 
 43692.65567		 305.27265			43387.38302		69.16200		324.00000 
 43692.65567		 952.57479			42740.08088		229.54400		875.00000 
 43692.65567		 305.27265			43387.38302		69.16200		324.00000 
 43692.65567		 952.57479			42740.08088		229.54400		875.00000 
 43692.65567		 305.27265			43387.38302		69.16200		324.00000 
 43692.65567		 952.57479			42740.08088		229.54400		875.00000 
 43692.65567		 305.27265			43387.38302		69.16200		324.00000 
 43692.65567		 952.57479			42740.08088		229.54400		875.00000 
 43692.65567		 305.27265			43387.38302		69.16200		324.00000 
 43692.65567		 952.57479			42740.08088		229.54400		875.00000 
 43692.65567		 305.27265			43387.38302		69.16200		324.00000 
 43692.65567		 952.57479			42740.08088		229.54400		875.00000 
 43692.65567		 305.27265			43387.38302		69.16200		324.00000 
 43692.65567		 952.57479			42740.08088		229.54400		875.00000 
 43692.65567		 305.27265			43387.38302		69.16200		324.00000 
 43692.65567		 952.57479			42740.08088		229.54400		875.00000 
 43692.65567		 305.27265			43387.38302		69.16200		324.00000 
 43692.65567		 952.57479			42740.08088		229.54400		875.00000 
 43692.65567		 305.27265			43387.38302		69.16200		324.00000 
 43692.65567		 952.57479			42740.08088		229.54400		875.00000 
 43692.65567		 305.27265			43387.38302		69.16200		324.00000 
 43692.65567		 952.57479			42740.08088		229.54400		875.00000 
 43692.65567		 305.27265			43387.38302		69.16200		324.00000 
 43692.65567		 952.57479			42740.08088		229.54400		875.00000 
 43692.65567		 305.27265			43387.38302		69.16200		324.00000 
 43692.65567		 952.57479			42740.08088		229.54400		875.00000 
 43692.65567		 305.27265			43387.38302		69.16200		324.00000 
 43692.65567		 952.57479			42740.08088		229.54400		875.00000 
 43692.65567		 305.27265			43387.38302		69.16200		324.00000 
 43692.65567		 952.57479			42740.08088		229.54400		875.00000 
 43692.65567		 305.27265			43387.38302		69.16200		324.00000 
 43692.65567		 952.57479			42740.08088		229.54400		875.00000 
 43692.65567		 305.27265			43387.38302		69.16200		324.00000 
 43692.65567		 952.57479			42740.08088		229.54400		875.00000 
 43692.65567		 305.27265			43387.38302		69.16200		324.00000 
 43692.65567		 952.57479			42740.08088		229.54400		875.00000 
 43692.65567		 305.27265			43387.38302		69.16200		324.00000 
 43692.65567		 952.57479			42740.08088		229.54400		875.00000 
 43692.65567		 305.27265			43387.38302		69.16200		324.00000 
 43692.65567		 952.57479			42740.08088		229.54400		875.00000 
 43692.65567		 305.27265			43387.38302		69.16200		324.00000 
 43692.65567		 952.57479			42740.08088		229.54400		875.00000 
 43692.65567		 305.27265			43387.38302		69.16200		324.00000 
 43692.65567		 952.57479			42740.08088		229.54400		875.00000 
 43692.65567		 305.27265			43387.38302		69.16200		324.00000 
 43692.65567		 952.57479			42740.08088		229.54400		875.00000 
 43692.65567		 305.27265			43387.38302		69.16200		324.00000 
 43692.65567		 952.57479			42740.08088		229.54400		875.00000 
 43692.65567		 305.27265			43387.38302		69.16200		324.00000 
 43692.65567		 952.57479			42740.08088		229.54400		875.00000 
 43692.65567		 305.27265			43387.38302		69.16200		324.00000 
 43692.65567		 952.57479			42740.08088		229.54400		875.00000 
 43692.65567		 305.27265			43387.38302		69.16200		324.00000 
 43692.65567		 952.57479			42740.08088		229.54400		875.00000 
 43692.65567		 305.27265			43387.38302		69.16200		324.00000 
 43692.65567		 952.57479			42740.08088		229.54400		875.00000 
 43692.65567		 305.27265			43387.38302		69.16200		324.00000 
 43692.65567		 952.57479			42740.08088		229.54400		875.00000 
 43692.65567		 305.27265			43387.38302		69.16200		324.00000 
 43692.65567		 952.57479			42740.08088		229.54400		875.00000 
 43692.65567		 305.27265			43387.38302		69.16200		324.00000 
 43692.65567		 952.57479			42740.08088		229.54400		875.00000 
 43692.65567		 305.27265			43387.38302		69.16200		324.00000 
 43692.65567		 952.57479			42740.08088		229.54400		875.00000 
 43692.65567		 305.27265			43387.38302		69.16200		324.00000 
 43692.65567		 952.57479			42740.08088		229.54400		875.00000 
 43692.65567		 305.27265			43387.38302		69.16200		324.00000 
 43692.65567		 952.57479			42740.08088		229.54400		875.00000 
 43692.65567		 305.27265			43387.38302		69.16200		324.00000 
 43692.65567		 952.57479			42740.08088		229.54400		875.00000 
 43692.65567		 305.27265			43387.38302		69.16200		324.00000 
 43692.65567		 952.57479			42740.08088		229.54400		875.00000 
 43692.65567		 305.27265			43387.38302		69.16200		324.00000 
 43692.65567		 952.57479			42740.08088		229.54400		875.00000 
 43692.65567		 305.27265			43387.38302		69.16200		324.00000 
 43692.65567		 952.57479			42740.08088		229.54400		875.00000 
 43692.65567		 305.27265			43387.38302		69.16200		324.00000 
 43692.65567		 952.57479			42740.08088		229.54400		875.00000 
 43692.65567		 305.27265			43387.38302		69.16200		324.00000 
 43692.65567		 952.57479			42740.08088		229.54400		875.00000 
 43692.65567		 305.27265			43387.38302		69.16200		324.00000 
 43692.65567		 952.57479			42740.08088		229.54400		875.00000 
 43692.65567		 305.27265			43387.38302		69.16200		324.00000 
 43692.65567		 952.57479			42740.08088		229.54400		875.00000 
 43692.65567		 305.27265			43387.38302		69.16200		324.00000 
 43692.65567		 952.57479			42740.08088		229.54400		875.00000 
 43692.65567		 305.27265			43387.38302		69.16200		324.00000 
 43692.65567		 952.57479			42740.08088		229.54400		875.00000 
 43692.65567		 305.27265			43387.38302		69.16200		324.00000 
 43692.65567		 952.57479			42740.08088		229.54400		875.00000 
 43692.65567		 305.27265			43387.38302		69.16200		324.00000 
 43692.65567		 952.57479			42740.08088		229.54400		875.00000 
 43692.65567		 305.27265			43387.38302		69.16200		324.00000 
 43692.65567		 952.57479			42740.08088		229.54400		875.00000 
 43692.65567		 305.27265			43387.38302		69.16200		324.00000 
 43692.65567		 952.57479			42740.08088		229.54400		875.00000 
 43692.65567		 305.27265			43387.38302		69.16200		324.00000 
 43692.65567		 952.57479			42740.08088		229.54400		875.00000 
 43692.65567		 305.27265			43387.38302		69.16200		324.00000 
 43692.65567		 952.57479			42740.08088		229.54400		875.00000 
 43692.65567		 305.27265			43387.38302		69.16200		324.00000 
 43692.65567		 952.57479			42740.08088		229.54400		875.00000 
 43692.65567		 305.27265			43387.38302		69.16200		324.00000 
 43692.65567		 952.57479			42740.08088		229.54400		875.00000 
 43692.65567		 305.27265			43387.38302		69.16200		324.00000 
 43692.65567		 952.57479			42740.08088		229.54400		875.00000 
 43692.65567		 305.27265			43387.38302		69.16200		324.00000 
 43692.65567		 952.57479			42740.08088		229.54400		875.00000 
 43692.65567		 305.27265			43387.38302		69.16200		324.00000 
 43692.65567		 952.57479			42740.08088		229.54400		875.00000 
 43692.65567		 305.27265			43387.38302		69.16200		324.00000 
 43692.65567		 952.57479			42740.08088		229.54400		875.00000 
 43692.65567		 305.27265			43387.38302		69.16200		324.00000 
 43692.65567		 952.57479			42740.08088		229.54400		875.00000 
 43692.65567		 305.27265			43387.38302		69.16200		324.00000 
 43692.65567		 952.57479			42740.08088		229.54400		875.00000 
 43692.65567		 305.27265			43387.38302		69.16200		324.00000 
 43692.65567		 952.57479			42740.08088		229.54400		875.00000 
 43692.65567		 305.27265			43387.38302		69.16200		324.00000 
 43692.65567		 952.57479			42740.08088		229.54400		875.00000 
 43692.65567		 305.27265			43387.38302		69.16200		324.00000 
 43692.65567		 952.57479			42740.08088		229.54400		875.00000 
 43692.65567		 305.27265			43387.38302		69.16200		324.00000 
 43692.65567		 952.57479			42740.08088		229.54400		875.00000 
 43692.65567		 305.27265			43387.38302		69.16200		324.00000 
 43692.65567		 952.57479			42740.08088		229.54400		875.00000 
 43692.65567		 305.27265			43387.38302		69.16200		324.00000 
 43692.65567		 952.57479			42740.08088		229.54400		875.00000 
 43692.65567		 305.27265			43387.38302		69.16200		324.00000 
 43692.65567		 952.57479			42740.08088		229.54400		875.00000 
 43692.65567		 305.27265			43387.38302		69.16200		324.00000 
 43692.65567		 952.57479			42740.08088		229.54400		875.00000 
 43692.65567		 305.27265			43387.38302		69.16200		324.00000 
 43692.65567		 952.57479			42740.08088		229.54400		875.00000 
 43692.65567		 305.27265			43387.38302		69.16200		324.00000 
 43692.65567		 952.57479			42740.08088		229.54400		875.00000 
 43692.65567		 305.27265			43387.38302		69.16200		324.00000 
 43692.65567		 952.57479			42740.08088		229.54400		875.00000 
 43692.65567		 305.27265			43387.38302		69.16200		324.00000 
 43692.65567		 952.57479			42740.08088		229.54400		875.00000 
 43692.65567		 305.27265			43387.38302		69.16200		324.00000 
 43692.65567		 952.57479			42740.08088		229.54400		875.00000 
 43692.65567		 305.27265			43387.38302		69.16200		324.00000 
 43692.65567		 952.57479			42740.08088		229.54400		875.00000 
 43692.65567		 305.27265			43387.38302		69.16200		324.00000 
 43692.65567		 952.57479			42740.08088		229.54400		875.00000 
 43692.65567		 305.27265			43387.38302		69.16200		324.00000 
 43692.65567		 952.57479			42740.08088		229.54400		875.00000 
 43692.65567		 305.27265			43387.38302		69.16200		324.00000 
 43692.65567		 952.57479			42740.08088		229.54400		875.00000 
 43692.65567		 305.27265			43387.38302		69.16200		324.00000 
 43692.65567		 952.57479			42740.08088		229.54400		875.00000 
 43692.65567		 305.27265			43387.38302		69.16200		324.00000 
 43692.65567		 952.57479			42740.08088		229.54400		875.00000 
 43692.65567		 305.27265			43387.38302		69.16200		324.00000 
 43692.65567		 952.57479			42740.08088		229.54400		875.00000 
 43692.65567		 305.27265			43387.38302		69.16200		324.00000 
 43692.65567		 952.57479			42740.08088		229.54400		875.00000 
 43692.65567		 305.27265			43387.38302		69.16200		324.00000 
 43692.65567		 952.57479			42740.08088		229.54400		875.00000 
 43692.65567		 305.27265			43387.38302		69.16200		324.00000 
 43692.65567		 952.57479			42740.08088		229.54400		875.00000 
 43692.65567		 305.27265			43387.38302		69.16200		324.00000 
 43692.65567		 952.57479			42740.08088		229.54400		875.00000 
 43692.65567		 305.27265			43387.38302		69.16200		324.00000 
 43692.65567		 952.57479			42740.08088		229.54400		875.00000 
 43692.65567		 305.27265			43387.38302		69.16200		324.00000 
 43692.65567		 952.57479			42740.08088		229.54400		875.00000 
 43692.65567		 305.27265			43387.38302		69.16200		324.00000 
 43692.65567		 952.57479			42740.08088		229.54400		875.00000 
 43692.65567		 305.27265			43387.38302		69.16200		324.00000 
 43692.65567		 952.57479			42740.08088		229.54400		875.00000 
 43692.65567		 305.27265			43387.38302		69.16200		324.00000 
 43692.65567		 952.57479			42740.08088		229.54400		875.00000 
 43692.65567		 305.27265			43387.38302		69.16200		324.00000 
 43692.65567		 952.57479			42740.08088		229.54400		875.00000 
 43692.65567		 305.27265			43387.38302		69.16200		324.00000 
 43692.65567		 952.57479			42740.08088		229.54400		875.00000 
 43692.65567		 305.27265			43387.38302		69.16200		324.00000 
 43692.65567		 952.57479			42740.08088		229.54400		875.00000 
 43692.65567		 305.27265			43387.38302		69.16200		324.00000 
 43692.65567		 952.57479			42740.08088		229.54400		875.00000 
 43692.65567		 305.27265			43387.38302		69.16200		324.00000 
 43692.65567		 952.57479			42740.08088		229.54400		875.00000 
 43692.65567		 305.27265			43387.38302		69.16200		324.00000 
 43692.65567		 952.57479			42740.08088		229.54400		875.00000 
 43692.65567		 305.27265			43387.38302		69.16200		324.00000 
 43692.65567		 952.57479			42740.08088		229.54400		875.00000 
 43692.65567		 305.27265			43387.38302		69.16200		324.00000 
 43692.65567		 952.57479			42740.08088		229.54400		875.00000 
 43692.65567		 305.27265			43387.38302		69.16200		324.00000 
 43692.65567		 952.57479			42740.08088		229.54400		875.00000 
 43692.65567		 305.27265			43387.38302		69.16200		324.00000 
 43692.65567		 952.57479			42740.08088		229.54400		875.00000 
 43692.65567		 305.27265			43387.38302		69.16200		324.00000 
 43692.65567		 952.57479			42740.08088		229.54400		875.00000 
 43692.65567		 305.27265			43387.38302		69.16200		324.00000 
 43692.65567		 952.57479			42740.08088		229.54400		875.00000 
 43692.65567		 305.27265			43387.38302		69.16200		324.00000 
 43692.65567		 952.57479			42740.08088		229.54400		875.00000 
 43692.65567		 305.27265			43387.38302		69.16200		324.00000 
 43692.65567		 952.57479			42740.08088		229.54400		875.00000 
 43692.65567		 305.27265			43387.38302		69.16200		324.00000 
 43692.65567		 952.57479			42740.08088		229.54400		875.00000 
 43692.65567		 305.27265			43387.38302		69.16200		324.00000 
 43692.65567		 952.57479			42740.08088		229.54400		875.00000 
 43692.65567		 305.27265			43387.38302		69.16200		324.00000 
 43692.65567		 952.57479			42740.08088		229.54400		875.00000 
 43692.65567		 305.27265			43387.38302		69.16200		324.00000 
 43692.65567		 952.57479			42740.08088		229.54400		875.00000 
 43692.65567		 305.27265			43387.38302		69.16200		324.00000 
 43692.65567		 952.57479			42740.08088		229.54400		875.00000 
 43692.65567		 305.27265			43387.38302		69.16200		324.00000 
 43692.65567		 952.57479			42740.08088		229.54400		875.00000 
 43692.65567		 305.27265			43387.38302		69.16200		324.00000 
 43692.65567		 952.57479			42740.08088		229.54400		875.00000 
 43692.65567		 305.27265			43387.38302		69.16200		324.00000 
 43692.65567		 952.57479			42740.08088		229.54400		875.00000 
 43692.65567		 305.27265			43387.38302		69.16200		324.00000 
 43692.65567		 952.57479			42740.08088		229.54400		875.00000 
 43692.65567		 305.27265			43387.38302		69.16200		324.00000 
 43692.65567		 952.57479			42740.08088		229.54400		875.00000 
 43692.65567		 305.27265			43387.38302		69.16200		324.00000 
 43692.65567		 952.57479			42740.08088		229.54400		875.00000 
 43692.65567		 305.27265			43387.38302		69.16200		324.00000 
 43692.65567		 952.57479			42740.08088		229.54400		875.00000 
 43692.65567		 305.27265			43387.38302		69.16200		324.00000 
 43692.65567		 952.57479			42740.08088		229.54400		875.00000 
 43692.65567		 305.27265			43387.38302		69.16200		324.00000 
 43692.65567		 952.57479			42740.08088		229.54400		875.00000 
 43692.65567		 305.27265			43387.38302		69.16200		324.00000 
 43692.65567		 952.57479			42740.08088		229.54400		875.00000 
 43692.65567		 305.27265			43387.38302		69.16200		324.00000 
 43692.65567		 952.57479			42740.08088		229.54400		875.00000 
 43692.65567		 305.27265			43387.38302		69.16200		324.00000 
 43692.65567		 952.57479			42740.08088		229.54400		875.00000 
 43692.65567		 305.27265			43387.38302		69.16200		324.00000 
 43692.65567		 952.57479			42740.08088		229.54400		875.00000 
 43692.65567		 305.27265			43387.38302		69.16200		324.00000 
 43692.65567		 952.57479			42740.08088		229.54400		875.00000 
 43692.65567		 305.27265			43387.38302		69.16200		324.00000 
 43692.65567		 952.57479			42740.08088		229.54400		875.00000 
 43692.65567		 305.27265			43387.38302		69.16200		324.00000 
 43692.65567		 952.57479			42740.08088		229.54400		875.00000 
 43692.65567		 305.27265			43387.38302		69.16200		324.00000 
 43692.65567		 952.57479			42740.08088		229.54400		875.00000 
 43692.65567		 305.27265			43387.38302		69.16200		324.00000 
 43692.65567		 952.57479			42740.08088		229.54400		875.00000 
 43692.65567		 305.27265			43387.38302		69.16200		324.00000 
 43692.65567		 952.57479			42740.08088		229.54400		875.00000 
 43692.65567		 305.27265			43387.38302		69.16200		324.00000 
 43692.65567		 952.57479			42740.08088		229.54400		875.00000 
 43692.65567		 305.27265			43387.38302		69.16200		324.00000 
 43692.65567		 952.57479			42740.08088		229.54400		875.00000 
 43692.65567		 305.27265			43387.38302		69.16200		324.00000 
 43692.65567		 952.57479			42740.08088		229.54400		875.00000 
 43692.65567		 305.27265			43387.38302		69.16200		324.00000 
 43692.65567		 952.57479			42740.08088		229.54400		875.00000 
 43692.65567		 305.27265			43387.38302		69.16200		324.00000 
 43692.65567		 952.57479			42740.08088		229.54400		875.00000 
 43692.65567		 305.27265			43387.38302		69.16200		324.00000 
 43692.65567		 952.57479			42740.08088		229.54400		875.00000 
 43692.65567		 305.27265			43387.38302		69.16200		324.00000 
 43692.65567		 952.57479			42740.08088		229.54400		875.00000 
 43692.65567		 305.27265			43387.38302		69.16200		324.00000 
 43692.65567		 952.57479			42740.08088		229.54400		875.00000 
 43692.65567		 305.27265			43387.38302		69.16200		324.00000 
 43692.65567		 952.57479			42740.08088		229.54400		875.00000 
 43692.65567		 305.27265			43387.38302		69.16200		324.00000 
 43692.65567		 952.57479			42740.08088		229.54400		875.00000 
 43692.65567		 305.27265			43387.38302		69.16200		324.00000 
 43692.65567		 952.57479			42740.08088		229.54400		875.00000 
 43692.65567		 305.27265			43387.38302		69.16200		324.00000 
 43692.65567		 952.57479			42740.08088		229.54400		875.00000 
 43692.65567		 305.27265			43387.38302		69.16200		324.00000 
 43692.65567		 952.57479			42740.08088		229.54400		875.00000 
 43692.65567		 305.27265			43387.38302		69.16200		324.00000 
 43692.65567		 952.57479			42740.08088		229.54400		875.00000 
 43692.65567		 305.27265			43387.38302		69.16200		324.00000 
 43692.65567		 952.57479			42740.08088		229.54400		875.00000 
 43692.65567		 305.27265			43387.38302		69.16200		324.00000 
 43692.65567		 952.57479			42740.08088		229.54400		875.00000 
 43692.65567		 305.27265			43387.38302		69.16200		324.00000 
 43692.65567		 952.57479			42740.08088		229.54400		875.00000 
 43692.65567		 305.27265			43387.38302		69.16200		324.00000 
 43692.65567		 952.57479			42740.08088		229.54400		875.00000 
 43692.65567		 305.27265			43387.38302		69.16200		324.00000 
 43692.65567		 952.57479			42740.08088		229.54400		875.00000 
 43692.65567		 305.27265			43387.38302		69.16200		324.00000 
 43692.65567		 952.57479			42740.08088		229.54400		875.00000 
 43692.65567		 305.27265			43387.38302		69.16200		324.00000 
 43692.65567		 952.57479			42740.08088		229.54400		875.00000 
 43692.65567		 305.27265			43387.38302		69.16200		324.00000 
 43692.65567		 952.57479			42740.08088		229.54400		875.00000 
 43692.65567		 305.27265			43387.38302		69.16200		324.00000 
 43692.65567		 952.57479			42740.08088		229.54400		875.00000 
 43692.65567		 305.27265			43387.38302		69.16200		324.00000 
 43692.65567		 952.57479			42740.08088		229.54400		875.00000 
 43692.65567		 305.27265			43387.38302		69.16200		324.00000 
 43692.65567		 952.57479			42740.08088		229.54400		875.00000 
 43692.65567		 305.27265			43387.38302		69.16200		324.00000 
 43692.65567		 952.57479			42740.08088		229.54400		875.00000 
 43692.65567		 305.27265			43387.38302		69.16200		324.00000 
 43692.65567		 952.57479			42740.08088		229.54400		875.00000 
 43692.65567		 305.27265			43387.38302		69.16200		324.00000 
 43692.65567		 952.57479			42740.08088		229.54400		875.00000 
 43692.65567		 305.27265			43387.38302		69.16200		324.00000 
 43692.65567		 952.57479			42740.08088		229.54400		875.00000 
 43692.65567		 305.27265			43387.38302		69.16200		324.00000 
 43692.65567		 952.57479			42740.08088		229.54400		875.00000 
 43692.65567		 305.27265			43387.38302		69.16200		324.00000 
 43692.65567		 952.57479			42740.08088		229.54400		875.00000 
 43692.65567		 305.27265			43387.38302		69.16200		324.00000 
 43692.65567		 952.57479			42740.08088		229.54400		875.00000 
 43692.65567		 305.27265			43387.38302		69.16200		324.00000 
 43692.65567		 952.57479			42740.08088		229.54400		875.00000 
 43692.65567		 305.27265			43387.38302		69.16200		324.00000 
 43692.65567		 952.57479			42740.08088		229.54400		875.00000 
 43692.65567		 305.27265			43387.38302		69.16200		324.00000 
 43692.65567		 952.57479			42740.08088		229.54400		875.00000 
 43692.65567		 305.27265			43387.38302		69.16200		324.00000 
 43692.65567		 952.57479			42740.08088		229.54400		875.00000 
 43692.65567		 305.27265			43387.38302		69.16200		324.00000 
 43692.65567		 952.57479			42740.08088		229.54400		875.00000 
 43692.65567		 305.27265			43387.38302		69.16200		324.00000 
 43692.65567		 952.57479			42740.08088		229.54400		875.00000 
 43692.65567		 305.27265			43387.38302		69.16200		324.00000 
 43692.65567		 952.57479			42740.08088		229.54400		875.00000 
 43692.65567		 305.27265			43387.38302		69.16200		324.00000 
 43692.65567		 952.57479			42740.08088		229.54400		875.00000 
 43692.65567		 305.27265			43387.38302		69.16200		324.00000 
 43692.65567		 952.57479			42740.08088		229.54400		875.00000 
 43692.65567		 305.27265			43387.38302		69.16200		324.00000 
 43692.65567		 952.57479			42740.08088		229.54400		875.00000 
 43692.65567		 305.27265			43387.38302		69.16200		324.00000 
 43692.65567		 952.57479			42740.08088		229.54400		875.00000 
 43692.65567		 305.27265			43387.38302		69.16200		324.00000 
 43692.65567		 952.57479			42740.08088		229.54400		875.00000 
 43692.65567		 305.27265			43387.38302		69.16200		324.00000 
 43692.65567		 952.57479			42740.08088		229.54400		875.00000 
 43692.65567		 305.27265			43387.38302		69.16200		324.00000 
 43692.65567		 952.57479			42740.08088		229.54400		875.00000 
 43692.65567		 305.27265			43387.38302		69.16200		324.00000 
 43692.65567		 952.57479			42740.08088		229.54400		875.00000 
 43692.65567		 305.27265			43387.38302		69.16200		324.00000 
 43692.65567		 952.57479			42740.08088		229.54400		875.00000 
 43692.65567		 305.27265			43387.38302		69.16200		324.00000 
 43692.65567		 952.57479			42740.08088		229.54400		875.00000 
 43692.65567		 305.27265			43387.38302		69.16200		324.00000 
 43692.65567		 952.57479			42740.08088		229.54400		875.00000 
 43692.65567		 305.27265			43387.38302		69.16200		324.00000 
 43692.65567		 952.57479			42740.08088		229.54400		875.00000 
 43692.65567		 305.27265			43387.38302		69.16200		324.00000 
 43692.65567		 952.57479			42740.08088		229.54400		875.00000 
 43692.65567		 305.27265			43387.38302		69.16200		324.00000 
 43692.65567		 952.57479			42740.08088		229.54400		875.00000 
 43692.65567		 305.27265			43387.38302		69.16200		324.00000 
 43692.65567		 952.57479			42740.08088		229.54400		875.00000 
 43692.65567		 305.27265			43387.38302		69.16200		324.00000 
 43692.65567		 952.57479			42740.08088		229.54400		875.00000 
 43692.65567		 305.27265			43387.38302		69.16200		324.00000 
 43692.65567		 952.57479			42740.08088		229.54400		875.00000 
 43692.65567		 305.27265			43387.38302		69.16200		324.00000 
 43692.65567		 952.57479			42740.08088		229.54400		875.00000 
 43692.65567		 305.27265			43387.38302		69.16200		324.00000 
 43692.65567		 952.57479			42740.08088		229.54400		875.00000 
 43692.65567		 305.27265			43387.38302		69.16200		324.00000 
 43692.65567		 952.57479			42740.08088		229.54400		875.00000 
 43692.65567		 305.27265			43387.38302		69.16200		324.00000 
 43692.65567		 952.57479			42740.08088		229.54400		875.00000 
 43692.65567		 305.27265			43387.38302		69.16200		324.00000 
 43692.65567		 952.57479			42740.08088		229.54400		875.00000 
 43692.65567		 305.27265			43387.38302		69.16200		324.00000 
 43692.65567		 952.57479			42740.08088		229.54400		875.00000 
 43692.65567		 305.27265			43387.38302		69.16200		324.00000 
 43692.65567		 952.57479			42740.08088		229.54400		875.00000 
 43692.65567		 305.27265			43387.38302		69.16200		324.00000 
 43692.65567		 952.57479			42740.08088		229.54400		875.00000 
 43692.65567		 305.27265			43387.38302		69.16200		324.00000 
 43692.65567		 952.57479			42740.08088		229.54400		875.00000 
 43692.65567		 305.27265			43387.38302		69.16200		324.00000 
 43692.65567		 952.57479			42740.08088		229.54400		875.00000 
 43692.65567		 305.27265			43387.38302		69.16200		324.00000 
 43692.65567		 952.57479			42740.08088		229.54400		875.00000 
 43692.65567		 305.27265			43387.38302		69.16200		324.00000 
 43692.65567		 952.57479			42740.08088		229.54400		875.00000 
 43692.65567		 305.27265			43387.38302		69.16200		324.00000 
 43692.65567		 952.57479			42740.08088		229.54400		875.00000 
 43692.65567		 305.27265			43387.38302		69.16200		324.00000 
 43692.65567		 952.57479			42740.08088		229.54400		875.00000 
 43692.65567		 305.27265			43387.38302		69.16200		324.00000 
 43692.65567		 952.57479			42740.08088		229.54400		875.00000 
 43692.65567		 305.27265			43387.38302		69.16200		324.00000 
 43692.65567		 952.57479			42740.08088		229.54400		875.00000 
 43692.65567		 305.27265			43387.38302		69.16200		324.00000 
 43692.65567		 952.57479			42740.08088		229.54400		875.00000 
 43692.65567		 305.27265			43387.38302		69.16200		324.00000 
 43692.65567		 952.57479			42740.08088		229.54400		875.00000 
 43692.65567		 305.27265			43387.38302		69.16200		324.00000 
 43692.65567		 952.57479			42740.08088		229.54400		875.00000 
 43692.65567		 305.27265			43387.38302		69.16200		324.00000 
 43692.65567		 952.57479			42740.08088		229.54400		875.00000 
 43692.65567		 305.27265			43387.38302		69.16200		324.00000 
 43692.65567		 952.57479			42740.08088		229.54400		875.00000 
 43692.65567		 305.27265			43387.38302		69.16200		324.00000 
 43692.65567		 952.57479			42740.08088		229.54400		875.00000 
 43692.65567		 305.27265			43387.38302		69.16200		324.00000 
 43692.65567		 952.57479			42740.08088		229.54400		875.00000 
 43692.65567		 305.27265			43387.38302		69.16200		324.00000 
 43692.65567		 952.57479			42740.08088		229.54400		875.00000 
 43692.65567		 305.27265			43387.38302		69.16200		324.00000 
 43692.65567		 952.57479			42740.08088		229.54400		875.00000 
 43692.65567		 305.27265			43387.38302		69.16200		324.00000 
 43692.65567		 952.57479			42740.08088		229.54400		875.00000 
 43692.65567		 305.27265			43387.38302		69.16200		324.00000 
 43692.65567		 952.57479			42740.08088		229.54400		875.00000 
 43692.65567		 305.27265			43387.38302		69.16200		324.00000 
 43692.65567		 952.57479			42740.08088		229.54400		875.00000 
 43692.65567		 305.27265			43387.38302		69.16200		324.00000 
 43692.65567		 952.57479			42740.08088		229.54400		875.00000 
 43692.65567		 305.27265			43387.38302		69.16200		324.00000 
 43692.65567		 952.57479			42740.08088		229.54400		875.00000 
 43692.65567		 305.27265			43387.38302		69.16200		324.00000 
 43692.65567		 952.57479			42740.08088		229.54400		875.00000 
 43692.65567		 305.27265			43387.38302		69.16200		324.00000 
 43692.65567		 952.57479			42740.08088		229.54400		875.00000 
 43692.65567		 305.27265			43387.38302		69.16200		324.00000 
 43692.65567		 952.57479			42740.08088		229.54400		875.00000 
 43692.65567		 305.27265			43387.38302		69.16200		324.00000 
 43692.65567		 952.57479			42740.08088		229.54400		875.00000 
 43692.65567		 305.27265			43387.38302		69.16200		324.00000 
 43692.65567		 952.57479			42740.08088		229.54400		875.00000 
 43692.65567		 305.27265			43387.38302		69.16200		324.00000 
 43692.65567		 952.57479			42740.08088		229.54400		875.00000 
 43692.65567		 305.27265			43387.38302		69.16200		324.00000 
 43692.65567		 952.57479			42740.08088		229.54400		875.00000 
 43692.65567		 305.27265			43387.38302		69.16200		324.00000 
 43692.65567		 952.57479			42740.08088		229.54400		875.00000 
 43692.65567		 305.27265			43387.38302		69.16200		324.00000 
 43692.65567		 952.57479			42740.08088		229.54400		875.00000 
 43692.65567		 305.27265			43387.38302		69.16200		324.00000 
 43692.65567		 952.57479			42740.08088		229.54400		875.00000 
 43692.65567		 305.27265			43387.38302		69.16200		324.00000 
 43692.65567		 952.57479			42740.08088		229.54400		875.00000 
 43692.65567		 305.27265			43387.38302		69.16200		324.00000 
 43692.65567		 952.57479			42740.08088		229.54400		875.00000 
 43692.65567		 305.27265			43387.38302		69.16200		324.00000 
 43692.65567		 952.57479			42740.08088		229.54400		875.00000 
 43692.65567		 305.27265			43387.38302		69.16200		324.00000 
 43692.65567		 952.57479			42740.08088		229.54400		875.00000 
 43692.65567		 305.27265			43387.38302		69.16200		324.00000 
 43692.65567		 952.57479			42740.08088		229.54400		875.00000 
 43692.65567		 305.27265			43387.38302		69.16200		324.00000 
 43692.65567		 952.57479			42740.08088		229.54400		875.00000 
 43692.65567		 305.27265			43387.38302		69.16200		324.00000 
 43692.65567		 952.57479			42740.08088		229.54400		875.00000 
 43692.65567		 305.27265			43387.38302		69.16200		324.00000 
 43692.65567		 952.57479			42740.08088		229.54400		875.00000 
 43692.65567		 305.27265			43387.38302		69.16200		324.00000 
 43692.65567		 952.57479			42740.08088		229.54400		875.00000 
 43692.65567		 305.27265			43387.38302		69.16200		324.00000 
 43692.65567		 952.57479			42740.08088		229.54400		875.00000 
 43692.65567		 305.27265			43387.38302		69.16200		324.00000 
 43692.65567		 952.57479			42740.08088		229.54400		875.00000 
 43692.65567		 305.27265			43387.38302		69.16200		324.00000 
 43692.65567		 952.57479			42740.08088		229.54400		875.00000 
 43692.65567		 305.27265			43387.38302		69.16200		324.00000 
 43692.65567		 952.57479			42740.08088		229.54400		875.00000 
 43692.65567		 305.27265			43387.38302		69.16200		324.00000 
 43692.65567		 952.57479			42740.08088		229.54400		875.00000 
 43692.65567		 305.27265			43387.38302		69.16200		324.00000 
 43692.65567		 952.57479			42740.08088		229.54400		875.00000 
 43692.65567		 305.27265			43387.38302		69.16200		324.00000 
 43692.65567		 952.57479			42740.08088		229.54400		875.00000 
 43692.65567		 305.27265			43387.38302		69.16200		324.00000 
 43692.65567		 952.57479			42740.08088		229.54400		875.00000 
 43692.65567		 305.27265			43387.38302		69.16200		324.00000 
 43692.65567		 952.57479			42740.08088		229.54400		875.00000 
 43692.65567		 305.27265			43387.38302		69.16200		324.00000 
 43692.65567		 952.57479			42740.08088		229.54400		875.00000 
 43692.65567		 305.27265			43387.38302		69.16200		324.00000 
 43692.65567		 952.57479			42740.08088		229.54400		875.00000 
 43692.65567		 305.27265			43387.38302		69.16200		324.00000 
 43692.65567		 952.57479			42740.08088		228.94600		875.00000 
 43692.65567		 305.27265			43387.38302		69.16200		324.00000 
 43692.65567		 952.57479			42740.08088		228.94600		875.00000 
 43692.65567		 305.27265			43387.38302		69.16200		324.00000 
 43692.65567		 952.57479			42740.08088		228.94600		875.00000 
 43692.65567		 305.27265			43387.38302		69.16200		324.00000 
 43692.65567		 952.57479			42740.08088		228.94600		875.00000 
 43692.65567		 305.27265			43387.38302		69.16200		324.00000 
 43692.65567		 952.57479			42740.08088		228.94600		875.00000 
 43692.65567		 305.27265			43387.38302		69.16200		324.00000 
 43692.65567		 952.57479			42740.08088		228.94600		875.00000 
 43692.65567		 305.27265			43387.38302		69.16200		324.00000 
 43692.65567		 952.57479			42740.08088		228.94600		875.00000 
 43692.65567		 305.27265			43387.38302		69.16200		324.00000 
 43692.65567		 952.57479			42740.08088		228.94600		875.00000 
 43692.65567		 305.27265			43387.38302		69.16200		324.00000 
 43692.65567		 952.57479			42740.08088		228.94600		875.00000 
 43692.65567		 305.27265			43387.38302		69.16200		324.00000 
 43692.65567		 952.57479			42740.08088		228.94600		875.00000 
 43692.65567		 305.27265			43387.38302		69.16200		324.00000 
 43692.65567		 952.57479			42740.08088		228.94600		875.00000 
 43692.65567		 305.27265			43387.38302		69.16200		324.00000 
 43692.65567		 952.57479			42740.08088		228.94600		875.00000 
 43692.65567		 305.27265			43387.38302		69.16200		324.00000 
 43692.65567		 952.57479			42740.08088		228.94600		875.00000 
 43692.65567		 305.27265			43387.38302		69.16200		324.00000 
 43692.65567		 952.57479			42740.08088		228.94600		875.00000 
 43692.65567		 305.27265			43387.38302		69.16200		324.00000 
 43692.65567		 952.57479			42740.08088		228.94600		875.00000 
 43692.65567		 305.27265			43387.38302		69.16200		324.00000 
 43692.65567		 952.57479			42740.08088		228.94600		875.00000 
 43692.65567		 305.27265			43387.38302		69.16200		324.00000 
 43692.65567		 952.57479			42740.08088		228.94600		875.00000 
 43692.65567		 305.27265			43387.38302		69.16200		324.00000 
 43692.65567		 952.57479			42740.08088		228.94600		875.00000 
 43692.65567		 305.27265			43387.38302		69.16200		324.00000 
 43692.65567		 952.57479			42740.08088		228.94600		875.00000 
 43692.65567		 305.27265			43387.38302		69.16200		324.00000 
 43692.65567		 952.57479			42740.08088		228.94600		875.00000 
 43692.65567		 305.27265			43387.38302		69.16200		324.00000 
 43692.65567		 952.57479			42740.08088		228.94600		875.00000 
 43692.65567		 305.27265			43387.38302		69.16200		324.00000 
 43692.65567		 952.57479			42740.08088		228.94600		875.00000 
 43692.65567		 305.27265			43387.38302		69.16200		324.00000 
 43692.65567		 952.57479			42740.08088		228.94600		875.00000 
 43692.65567		 305.27265			43387.38302		69.16200		324.00000 
 43692.65567		 952.57479			42740.08088		228.94600		875.00000 
 43692.65567		 305.27265			43387.38302		69.16200		324.00000 
 43692.65567		 952.57479			42740.08088		228.94600		875.00000 
 43692.65567		 305.27265			43387.38302		69.16200		324.00000 
 43692.65567		 952.57479			42740.08088		228.94600		875.00000 
 43692.65567		 305.27265			43387.38302		69.16200		324.00000 
 43692.65567		 952.57479			42740.08088		228.94600		875.00000 
 43692.65567		 305.27265			43387.38302		69.16200		324.00000 
 43692.65567		 952.57479			42740.08088		228.94600		875.00000 
 43692.65567		 305.27265			43387.38302		69.16200		324.00000 
 43692.65567		 952.57479			42740.08088		228.94600		875.00000 
 43692.65567		 305.27265			43387.38302		69.16200		324.00000 
 43692.65567		 952.57479			42740.08088		228.94600		875.00000 
 43692.65567		 305.27265			43387.38302		69.16200		324.00000 
 43692.65567		 952.57479			42740.08088		228.94600		875.00000 
 43692.65567		 305.27265			43387.38302		69.16200		324.00000 
 43692.65567		 952.57479			42740.08088		228.94600		875.00000 
 43692.65567		 305.27265			43387.38302		69.16200		324.00000 
 43692.65567		 952.57479			42740.08088		228.94600		875.00000 
 43692.65567		 305.27265			43387.38302		69.16200		324.00000 
 43692.65567		 952.57479			42740.08088		228.94600		875.00000 
 43692.65567		 305.27265			43387.38302		69.16200		324.00000 
 43692.65567		 952.57479			42740.08088		228.94600		875.00000 
 43692.65567		 305.27265			43387.38302		69.16200		324.00000 
 43692.65567		 952.57479			42740.08088		228.94600		875.00000 
 43692.65567		 305.27265			43387.38302		69.16200		324.00000 
 43692.65567		 952.57479			42740.08088		228.94600		875.00000 
 43692.65567		 305.27265			43387.38302		69.16200		324.00000 
 43692.65567		 952.57479			42740.08088		228.94600		875.00000 
 43692.65567		 305.27265			43387.38302		69.16200		324.00000 
 43692.65567		 952.57479			42740.08088		228.94600		875.00000 
 43692.65567		 305.27265			43387.38302		69.16200		324.00000 
 43692.65567		 952.57479			42740.08088		228.94600		875.00000 
 43692.65567		 305.27265			43387.38302		69.16200		324.00000 
 43692.65567		 952.57479			42740.08088		228.94600		875.00000 
 43692.65567		 305.27265			43387.38302		69.16200		324.00000 
 43692.65567		 952.57479			42740.08088		228.94600		875.00000 
 43692.65567		 305.27265			43387.38302		69.16200		324.00000 
 43692.65567		 952.57479			42740.08088		228.94600		875.00000 
 43692.65567		 305.27265			43387.38302		69.16200		324.00000 
 43692.65567		 952.57479			42740.08088		228.94600		875.00000 
 43692.65567		 305.27265			43387.38302		69.16200		324.00000 
 43692.65567		 952.57479			42740.08088		228.94600		875.00000 
 43692.65567		 305.27265			43387.38302		69.16200		324.00000 
 43692.65567		 952.57479			42740.08088		228.94600		875.00000 
 43692.65567		 305.27265			43387.38302		69.16200		324.00000 
 43692.65567		 952.57479			42740.08088		228.94600		875.00000 
 43692.65567		 305.27265			43387.38302		69.16200		324.00000 
 43692.65567		 952.57479			42740.08088		228.94600		875.00000 
 43692.65567		 305.27265			43387.38302		69.16200		324.00000 
 43692.65567		 952.57479			42740.08088		228.94600		875.00000 
 43692.65567		 305.27265			43387.38302		69.16200		324.00000 
 43692.65567		 952.57479			42740.08088		228.94600		875.00000 
 43692.65567		 305.27265			43387.38302		69.16200		324.00000 
 43692.65567		 952.57479			42740.08088		228.94600		875.00000 
 43692.65567		 305.27265			43387.38302		69.16200		324.00000 
 43692.65567		 952.57479			42740.08088		228.94600		875.00000 
 43692.65567		 305.27265			43387.38302		69.16200		324.00000 
 43692.65567		 952.57479			42740.08088		228.94600		875.00000 
 43692.65567		 305.27265			43387.38302		69.16200		324.00000 
 43692.65567		 952.57479			42740.08088		228.94600		875.00000 
 43692.65567		 305.27265			43387.38302		69.16200		324.00000 
 43692.65567		 952.57479			42740.08088		228.94600		875.00000 
 43692.65567		 305.27265			43387.38302		69.16200		324.00000 
 43692.65567		 952.57479			42740.08088		228.94600		875.00000 
 43692.65567		 305.27265			43387.38302		69.16200		324.00000 
 43692.65567		 952.57479			42740.08088		228.94600		875.00000 
 43692.65567		 305.27265			43387.38302		69.16200		324.00000 
 43692.65567		 952.57479			42740.08088		228.94600		875.00000 
 43692.65567		 305.27265			43387.38302		69.16200		324.00000 
 43692.65567		 952.57479			42740.08088		228.94600		875.00000 
 43692.65567		 305.27265			43387.38302		69.16200		324.00000 
 43692.65567		 952.57479			42740.08088		228.94600		875.00000 
 43692.65567		 305.27265			43387.38302		69.16200		324.00000 
 43692.65567		 952.57479			42740.08088		228.94600		875.00000 
 43692.65567		 305.27265			43387.38302		69.16200		324.00000 
 43692.65567		 952.57479			42740.08088		228.94600		875.00000 
 43692.65567		 305.27265			43387.38302		69.16200		324.00000 
 43692.65567		 952.57479			42740.08088		228.94600		875.00000 
 43692.65567		 305.27265			43387.38302		69.16200		324.00000 
 43692.65567		 952.57479			42740.08088		228.94600		875.00000 
 43692.65567		 305.27265			43387.38302		69.16200		324.00000 
 43692.65567		 952.57479			42740.08088		228.94600		875.00000 
 43692.65567		 305.27265			43387.38302		69.16200		324.00000 
 43692.65567		 952.57479			42740.08088		228.94600		875.00000 
 43692.65567		 305.27265			43387.38302		69.16200		324.00000 
 43692.65567		 952.57479			42740.08088		229.54400		875.00000 
 43692.65567		 305.27265			43387.38302		69.16200		324.00000 
 43692.65567		 952.57479			42740.08088		229.54400		875.00000 
 43692.65567		 305.27265			43387.38302		69.16200		324.00000 
 43692.65567		 952.57479			42740.08088		229.54400		875.00000 
 43692.65567		 305.27265			43387.38302		69.16200		324.00000 
 43692.65567		 952.57479			42740.08088		229.54400		875.00000 
 43692.65567		 305.27265			43387.38302		69.16200		324.00000 
 43692.65567		 952.57479			42740.08088		229.54400		875.00000 
 43692.65567		 305.27265			43387.38302		69.16200		324.00000 
 43692.65567		 952.57479			42740.08088		229.54400		875.00000 
 43692.65567		 305.27265			43387.38302		69.16200		324.00000 
 43692.65567		 952.57479			42740.08088		229.54400		875.00000 
 43692.65567		 305.27265			43387.38302		69.16200		324.00000 
 43692.65567		 952.57479			42740.08088		229.54400		875.00000 
 43692.65567		 305.27265			43387.38302		69.16200		324.00000 
 43692.65567		 952.57479			42740.08088		229.54400		875.00000 
 43692.65567		 305.27265			43387.38302		69.16200		324.00000 
 43692.65567		 952.57479			42740.08088		229.54400		875.00000 
 43692.65567		 305.27265			43387.38302		69.16200		324.00000 
 43692.65567		 952.57479			42740.08088		229.54400		875.00000 
 43692.65567		 305.27265			43387.38302		69.16200		324.00000 
 43692.65567		 952.57479			42740.08088		229.54400		875.00000 
 43692.65567		 305.27265			43387.38302		69.16200		324.00000 
 43692.65567		 952.57479			42740.08088		229.54400		875.00000 
 43692.65567		 305.27265			43387.38302		69.16200		324.00000 
 43692.65567		 952.57479			42740.08088		229.54400		875.00000 
 43692.65567		 305.27265			43387.38302		69.16200		324.00000 
 43692.65567		 952.57479			42740.08088		229.54400		875.00000 
 43692.65567		 305.27265			43387.38302		69.16200		324.00000 
 43692.65567		 952.57479			42740.08088		229.54400		875.00000 
 43692.65567		 305.27265			43387.38302		69.16200		324.00000 
 43692.65567		 952.57479			42740.08088		229.54400		875.00000 
 43692.65567		 305.27265			43387.38302		69.16200		324.00000 
 43692.65567		 952.57479			42740.08088		229.54400		875.00000 
 43692.65567		 305.27265			43387.38302		69.16200		324.00000 
 43692.65567		 952.57479			42740.08088		229.54400		875.00000 
 43692.65567		 305.27265			43387.38302		69.16200		324.00000 
 43692.65567		 952.57479			42740.08088		229.54400		875.00000 
 43692.65567		 305.27265			43387.38302		69.16200		324.00000 
 43692.65567		 952.57479			42740.08088		229.54400		875.00000 
 43692.65567		 305.27265			43387.38302		69.16200		324.00000 
 43692.65567		 952.57479			42740.08088		229.54400		875.00000 
 43692.65567		 305.27265			43387.38302		69.16200		324.00000 
 43692.65567		 952.57479			42740.08088		229.54400		875.00000 
 43692.65567		 305.27265			43387.38302		69.16200		324.00000 
 43692.65567		 952.57479			42740.08088		229.54400		875.00000 
 43692.65567		 305.27265			43387.38302		69.16200		324.00000 
 43692.65567		 952.57479			42740.08088		229.54400		875.00000 
 43692.65567		 305.27265			43387.38302		69.16200		324.00000 
 43692.65567		 952.57479			42740.08088		229.54400		875.00000 
 43692.65567		 305.27265			43387.38302		69.16200		324.00000 
 43692.65567		 952.57479			42740.08088		229.54400		875.00000 
 43692.65567		 305.27265			43387.38302		69.16200		324.00000 
 43692.65567		 952.57479			42740.08088		229.54400		875.00000 
 43692.65567		 305.27265			43387.38302		69.16200		324.00000 
 43692.65567		 952.57479			42740.08088		229.54400		875.00000 
 43692.65567		 305.27265			43387.38302		69.16200		324.00000 
 43692.65567		 952.57479			42740.08088		229.54400		875.00000 
 43692.65567		 305.27265			43387.38302		69.16200		324.00000 
 43692.65567		 952.57479			42740.08088		229.54400		875.00000 
 43692.65567		 305.27265			43387.38302		69.16200		324.00000 
 43692.65567		 952.57479			42740.08088		229.54400		875.00000 
 43692.65567		 305.27265			43387.38302		69.16200		324.00000 
 43692.65567		 952.57479			42740.08088		229.54400		875.00000 
 43692.65567		 305.27265			43387.38302		69.16200		324.00000 
 43692.65567		 952.57479			42740.08088		229.54400		875.00000 
 43692.65567		 305.27265			43387.38302		69.16200		324.00000 
 43692.65567		 952.57479			42740.08088		229.54400		875.00000 
 43692.65567		 305.27265			43387.38302		69.16200		324.00000 
 43692.65567		 952.57479			42740.08088		229.54400		875.00000 
 43692.65567		 305.27265			43387.38302		69.16200		324.00000 
 43692.65567		 952.57479			42740.08088		229.54400		875.00000 
 43692.65567		 305.27265			43387.38302		69.16200		324.00000 
 43692.65567		 952.57479			42740.08088		229.54400		875.00000 
 43692.65567		 305.27265			43387.38302		69.16200		324.00000 
 43692.65567		 952.57479			42740.08088		229.54400		875.00000 
 43692.65567		 305.27265			43387.38302		69.16200		324.00000 
 43692.65567		 952.57479			42740.08088		229.54400		875.00000 
 43692.65567		 305.27265			43387.38302		69.16200		324.00000 
 43692.65567		 952.57479			42740.08088		229.54400		875.00000 
 43692.65567		 305.27265			43387.38302		69.16200		324.00000 
 43692.65567		 952.57479			42740.08088		229.54400		875.00000 
 43692.65567		 305.27265			43387.38302		69.16200		324.00000 
 43692.65567		 952.57479			42740.08088		229.54400		875.00000 
 43692.65567		 305.27265			43387.38302		69.16200		324.00000 
 43692.65567		 952.57479			42740.08088		229.54400		875.00000 
 43692.65567		 305.27265			43387.38302		69.16200		324.00000 
 43692.65567		 952.57479			42740.08088		229.54400		875.00000 
 43692.65567		 305.27265			43387.38302		69.16200		324.00000 
 43692.65567		 952.57479			42740.08088		229.54400		875.00000 
 43692.65567		 305.27265			43387.38302		69.16200		324.00000 
 43692.65567		 952.57479			42740.08088		229.54400		875.00000 
 43692.65567		 305.27265			43387.38302		69.16200		324.00000 
 43692.65567		 952.57479			42740.08088		229.54400		875.00000 
 43692.65567		 305.27265			43387.38302		69.16200		324.00000 
 43692.65567		 952.57479			42740.08088		229.54400		875.00000 
 43692.65567		 305.27265			43387.38302		69.16200		324.00000 
 43692.65567		 952.57479			42740.08088		229.54400		875.00000 
 43692.65567		 305.27265			43387.38302		69.16200		324.00000 
 43692.65567		 952.57479			42740.08088		229.54400		875.00000 
 43692.65567		 305.27265			43387.38302		69.16200		324.00000 
 43692.65567		 952.57479			42740.08088		229.54400		875.00000 
 43692.65567		 305.27265			43387.38302		69.16200		324.00000 
 43692.65567		 952.57479			42740.08088		229.54400		875.00000 
 43692.65567		 305.27265			43387.38302		69.16200		324.00000 
 43692.65567		 952.57479			42740.08088		229.54400		875.00000 
 43692.65567		 305.27265			43387.38302		69.16200		324.00000 
 43692.65567		 952.57479			42740.08088		229.54400		875.00000 
 43692.65567		 305.27265			43387.38302		69.16200		324.00000 
 43692.65567		 952.57479			42740.08088		229.54400		875.00000 
 43692.65567		 305.27265			43387.38302		69.16200		324.00000 
 43692.65567		 952.57479			42740.08088		229.54400		875.00000 
 43692.65567		 305.27265			43387.38302		69.16200		324.00000 
 43692.65567		 952.57479			42740.08088		229.54400		875.00000 
 43692.65567		 305.27265			43387.38302		69.16200		324.00000 
 43692.65567		 952.57479			42740.08088		229.54400		875.00000 
 43692.65567		 305.27265			43387.38302		69.16200		324.00000 
 43692.65567		 952.57479			42740.08088		229.54400		875.00000 
 43692.65567		 305.27265			43387.38302		69.16200		324.00000 
 43692.65567		 952.57479			42740.08088		229.54400		875.00000 
 43692.65567		 305.27265			43387.38302		69.16200		324.00000 
 43692.65567		 952.57479			42740.08088		229.54400		875.00000 
 43692.65567		 305.27265			43387.38302		69.16200		324.00000 
 43692.65567		 952.57479			42740.08088		229.54400		875.00000 
 43692.65567		 305.27265			43387.38302		69.16200		324.00000 
 43692.65567		 952.57479			42740.08088		229.54400		875.00000 
 43692.65567		 305.27265			43387.38302		69.16200		324.00000 
 43692.65567		 952.57479			42740.08088		229.54400		875.00000 
 43692.65567		 305.27265			43387.38302		69.16200		324.00000 
 43692.65567		 952.57479			42740.08088		229.54400		875.00000 
 43692.65567		 305.27265			43387.38302		69.16200		324.00000 
 43692.65567		 952.57479			42740.08088		229.54400		875.00000 
 43692.65567		 305.27265			43387.38302		69.16200		324.00000 
 43692.65567		 952.57479			42740.08088		229.54400		875.00000 
 43692.65567		 305.27265			43387.38302		69.16200		324.00000 
 43692.65567		 952.57479			42740.08088		229.54400		875.00000 
 43692.65567		 305.27265			43387.38302		69.16200		324.00000 
 43692.65567		 952.57479			42740.08088		229.54400		875.00000 
 43692.65567		 305.27265			43387.38302		69.16200		324.00000 
 43692.65567		 952.57479			42740.08088		229.54400		875.00000 
 43692.65567		 305.27265			43387.38302		69.16200		324.00000 
 43692.65567		 952.57479			42740.08088		229.54400		875.00000 
 43692.65567		 305.27265			43387.38302		69.16200		324.00000 
 43692.65567		 952.57479			42740.08088		229.54400		875.00000 
 43692.65567		 305.27265			43387.38302		69.16200		324.00000 
 43692.65567		 952.57479			42740.08088		229.54400		875.00000 
 43692.65567		 305.27265			43387.38302		69.16200		324.00000 
 43692.65567		 952.57479			42740.08088		229.54400		875.00000 
 43692.65567		 305.27265			43387.38302		69.16200		324.00000 
 43692.65567		 952.57479			42740.08088		229.54400		875.00000 
 43692.65567		 305.27265			43387.38302		69.16200		324.00000 
 43692.65567		 952.57479			42740.08088		229.54400		875.00000 
 43692.65567		 305.27265			43387.38302		69.16200		324.00000 
 43692.65567		 952.57479			42740.08088		229.54400		875.00000 
 43692.65567		 305.27265			43387.38302		69.16200		324.00000 
 43692.65567		 952.57479			42740.08088		229.54400		875.00000 
 43692.65567		 305.27265			43387.38302		69.16200		324.00000 
 43692.65567		 952.57479			42740.08088		229.54400		875.00000 
 43692.65567		 305.27265			43387.38302		69.16200		324.00000 
 43692.65567		 952.57479			42740.08088		229.54400		875.00000 
 43692.65567		 305.27265			43387.38302		69.16200		324.00000 
 43692.65567		 952.57479			42740.08088		229.54400		875.00000 
 43692.65567		 305.27265			43387.38302		69.16200		324.00000 
 43692.65567		 952.57479			42740.08088		229.54400		875.00000 
 43692.65567		 305.27265			43387.38302		69.16200		324.00000 
 43692.65567		 952.57479			42740.08088		229.54400		875.00000 
 43692.65567		 305.27265			43387.38302		69.16200		324.00000 
 43692.65567		 952.57479			42740.08088		229.54400		875.00000 
 43692.65567		 305.27265			43387.38302		69.16200		324.00000 
 43692.65567		 952.57479			42740.08088		229.54400		875.00000 
 43692.65567		 305.27265			43387.38302		69.16200		324.00000 
 43692.65567		 952.57479			42740.08088		229.54400		875.00000 
 43692.65567		 305.27265			43387.38302		69.16200		324.00000 
 43692.65567		 952.57479			42740.08088		229.54400		875.00000 
 43692.65567		 305.27265			43387.38302		69.16200		324.00000 
 43692.65567		 952.57479			42740.08088		229.54400		875.00000 
 43692.65567		 305.27265			43387.38302		69.16200		324.00000 
 43692.65567		 952.57479			42740.08088		229.54400		875.00000 
 43692.65567		 305.27265			43387.38302		69.16200		324.00000 
 43692.65567		 952.57479			42740.08088		229.54400		875.00000 
 43692.65567		 305.27265			43387.38302		69.16200		324.00000 
 43692.65567		 952.57479			42740.08088		229.54400		875.00000 
 43692.65567		 305.27265			43387.38302		69.16200		324.00000 
 43692.65567		 952.57479			42740.08088		229.54400		875.00000 
 43692.65567		 305.27265			43387.38302		69.16200		324.00000 
 43692.65567		 952.57479			42740.08088		229.54400		875.00000 
 43692.65567		 305.27265			43387.38302		69.16200		324.00000 
 43692.65567		 952.57479			42740.08088		229.54400		875.00000 
 43692.65567		 305.27265			43387.38302		69.16200		324.00000 
 43692.65567		 952.57479			42740.08088		229.54400		875.00000 
 43692.65567		 305.27265			43387.38302		69.16200		324.00000 
 43692.65567		 952.57479			42740.08088		229.54400		875.00000 
 43692.65567		 305.27265			43387.38302		69.16200		324.00000 
 43692.65567		 952.57479			42740.08088		229.54400		875.00000 
 43692.65567		 305.27265			43387.38302		69.16200		324.00000 
 43692.65567		 952.57479			42740.08088		229.54400		875.00000 
 43692.65567		 305.27265			43387.38302		69.16200		324.00000 
 43692.65567		 952.57479			42740.08088		229.54400		875.00000 
 43692.65567		 305.27265			43387.38302		69.16200		324.00000 
 43692.65567		 952.57479			42740.08088		229.54400		875.00000 
 43692.65567		 305.27265			43387.38302		69.16200		324.00000 
 43692.65567		 952.57479			42740.08088		229.54400		875.00000 
 43692.65567		 305.27265			43387.38302		69.16200		324.00000 
 43692.65567		 952.57479			42740.08088		229.54400		875.00000 
 43692.65567		 305.27265			43387.38302		69.16200		324.00000 
 43692.65567		 952.57479			42740.08088		229.54400		875.00000 
 43692.65567		 305.27265			43387.38302		69.16200		324.00000 
 43692.65567		 952.57479			42740.08088		229.54400		875.00000 
 43692.65567		 305.27265			43387.38302		69.16200		324.00000 
 43692.65567		 952.57479			42740.08088		229.54400		875.00000 
 43692.65567		 305.27265			43387.38302		69.16200		324.00000 
 43692.65567		 952.57479			42740.08088		229.54400		875.00000 
 43692.65567		 305.27265			43387.38302		69.16200		324.00000 
 43692.65567		 952.57479			42740.08088		229.54400		875.00000 
 43692.65567		 305.27265			43387.38302		69.16200		324.00000 
 43692.65567		 952.57479			42740.08088		229.54400		875.00000 
 43692.65567		 305.27265			43387.38302		69.16200		324.00000 
 43692.65567		 952.57479			42740.08088		229.54400		875.00000 
 43692.65567		 305.27265			43387.38302		69.16200		324.00000 
 43692.65567		 952.57479			42740.08088		229.54400		875.00000 
 43692.65567		 305.27265			43387.38302		69.16200		324.00000 
 43692.65567		 952.57479			42740.08088		229.54400		875.00000 
 43692.65567		 305.27265			43387.38302		69.16200		324.00000 
 43692.65567		 952.57479			42740.08088		229.54400		875.00000 
 43692.65567		 305.27265			43387.38302		69.16200		324.00000 
 43692.65567		 952.57479			42740.08088		229.54400		875.00000 
 43692.65567		 305.27265			43387.38302		69.16200		324.00000 
 43692.65567		 952.57479			42740.08088		229.54400		875.00000 
 43692.65567		 305.27265			43387.38302		69.16200		324.00000 
 43692.65567		 952.57479			42740.08088		229.54400		875.00000 
 43692.65567		 305.27265			43387.38302		69.16200		324.00000 
 43692.65567		 952.57479			42740.08088		229.54400		875.00000 
 43692.65567		 305.27265			43387.38302		69.16200		324.00000 
 43692.65567		 952.57479			42740.08088		229.54400		875.00000 
 43692.65567		 305.27265			43387.38302		69.16200		324.00000 
 43692.65567		 952.57479			42740.08088		229.54400		875.00000 
 43692.65567		 305.27265			43387.38302		69.16200		324.00000 
 43692.65567		 952.57479			42740.08088		229.54400		875.00000 
 43692.65567		 305.27265			43387.38302		69.16200		324.00000 
 43692.65567		 952.57479			42740.08088		229.54400		875.00000 
 43692.65567		 305.27265			43387.38302		69.16200		324.00000 
 43692.65567		 952.57479			42740.08088		229.54400		875.00000 
 43692.65567		 305.27265			43387.38302		69.16200		324.00000 
 43692.65567		 952.57479			42740.08088		229.54400		875.00000 
 43692.65567		 305.27265			43387.38302		69.16200		324.00000 
 43692.65567		 952.57479			42740.08088		229.54400		875.00000 
 43692.65567		 305.27265			43387.38302		69.16200		324.00000 
 43692.65567		 952.57479			42740.08088		229.54400		875.00000 
 43692.65567		 305.27265			43387.38302		69.16200		324.00000 
 43692.65567		 952.57479			42740.08088		229.54400		875.00000 
 43692.65567		 305.27265			43387.38302		69.16200		324.00000 
 43692.65567		 952.57479			42740.08088		229.54400		875.00000 
 43692.65567		 305.27265			43387.38302		69.16200		324.00000 
 43692.65567		 952.57479			42740.08088		229.54400		875.00000 
 43692.65567		 305.27265			43387.38302		69.16200		324.00000 
 43692.65567		 952.57479			42740.08088		229.54400		875.00000 
 43692.65567		 305.27265			43387.38302		69.16200		324.00000 
 43692.65567		 952.57479			42740.08088		229.54400		875.00000 
 43692.65567		 305.27265			43387.38302		69.16200		324.00000 
 43692.65567		 952.57479			42740.08088		229.54400		875.00000 
 43692.65567		 305.27265			43387.38302		69.16200		324.00000 
 43692.65567		 952.57479			42740.08088		229.54400		875.00000 
 43692.65567		 305.27265			43387.38302		69.16200		324.00000 
 43692.65567		 952.57479			42740.08088		229.54400		875.00000 
 43692.65567		 305.27265			43387.38302		69.16200		324.00000 
 43692.65567		 952.57479			42740.08088		229.54400		875.00000 
 43692.65567		 305.27265			43387.38302		69.16200		324.00000 
 43692.65567		 952.57479			42740.08088		229.54400		875.00000 
 43692.65567		 305.27265			43387.38302		69.16200		324.00000 
 43692.65567		 952.57479			42740.08088		229.54400		875.00000 
 43692.65567		 305.27265			43387.38302		69.16200		324.00000 
 43692.65567		 952.57479			42740.08088		229.54400		875.00000 
 43692.65567		 305.27265			43387.38302		69.16200		324.00000 
 43692.65567		 952.57479			42740.08088		229.54400		875.00000 
 43692.65567		 305.27265			43387.38302		69.16200		324.00000 
 43692.65567		 952.57479			42740.08088		229.54400		875.00000 
 43692.65567		 305.27265			43387.38302		69.16200		324.00000 
 43692.65567		 952.57479			42740.08088		229.54400		875.00000 
 43692.65567		 305.27265			43387.38302		69.16200		324.00000 
 43692.65567		 952.57479			42740.08088		229.54400		875.00000 
 43692.65567		 305.27265			43387.38302		69.16200		324.00000 
 43692.65567		 952.57479			42740.08088		229.54400		875.00000 
 43692.65567		 305.27265			43387.38302		69.16200		324.00000 
 43692.65567		 952.57479			42740.08088		229.54400		875.00000 
 43692.65567		 305.27265			43387.38302		69.16200		324.00000 
 43692.65567		 952.57479			42740.08088		229.54400		875.00000 
 43692.65567		 305.27265			43387.38302		69.16200		324.00000 
 43692.65567		 952.57479			42740.08088		229.54400		875.00000 
 43692.65567		 305.27265			43387.38302		69.16200		324.00000 
 43692.65567		 952.57479			42740.08088		229.54400		875.00000 
 43692.65567		 305.27265			43387.38302		69.16200		324.00000 
 43692.65567		 952.57479			42740.08088		229.54400		875.00000 
 43692.65567		 305.27265			43387.38302		69.16200		324.00000 
 43692.65567		 952.57479			42740.08088		229.54400		875.00000 
 43692.65567		 305.27265			43387.38302		69.16200		324.00000 
 43692.65567		 952.57479			42740.08088		229.54400		875.00000 
 43692.65567		 305.27265			43387.38302		69.16200		324.00000 
 43692.65567		 952.57479			42740.08088		229.54400		875.00000 
 43692.65567		 305.27265			43387.38302		69.16200		324.00000 
 43692.65567		 952.57479			42740.08088		229.54400		875.00000 
 43692.65567		 305.27265			43387.38302		69.16200		324.00000 
 43692.65567		 952.57479			42740.08088		229.54400		875.00000 
 43692.65567		 305.27265			43387.38302		69.16200		324.00000 
 43692.65567		 952.57479			42740.08088		229.54400		875.00000 
 43692.65567		 305.27265			43387.38302		69.16200		324.00000 
 43692.65567		 952.57479			42740.08088		229.54400		875.00000 
 43692.65567		 305.27265			43387.38302		69.16200		324.00000 
 43692.65567		 952.57479			42740.08088		229.54400		875.00000 
 43692.65567		 305.27265			43387.38302		69.16200		324.00000 
 43692.65567		 952.57479			42740.08088		229.54400		875.00000 
 43692.65567		 305.27265			43387.38302		69.16200		324.00000 
 43692.65567		 952.57479			42740.08088		229.54400		875.00000 
 43692.65567		 305.27265			43387.38302		69.16200		324.00000 
 43692.65567		 952.57479			42740.08088		229.54400		875.00000 
 43692.65567		 305.27265			43387.38302		69.16200		324.00000 
 43692.65567		 952.57479			42740.08088		229.54400		875.00000 
 43692.65567		 305.27265			43387.38302		69.16200		324.00000 
 43692.65567		 952.57479			42740.08088		229.54400		875.00000 
 43692.65567		 305.27265			43387.38302		69.16200		324.00000 
 43692.65567		 952.57479			42740.08088		229.54400		875.00000 
 43692.65567		 305.27265			43387.38302		69.16200		324.00000 
 43692.65567		 952.57479			42740.08088		229.54400		875.00000 
 43692.65567		 305.27265			43387.38302		69.16200		324.00000 
 43692.65567		 952.57479			42740.08088		229.54400		875.00000 
 43692.65567		 305.27265			43387.38302		69.16200		324.00000 
 43692.65567		 952.57479			42740.08088		229.54400		875.00000 
 43692.65567		 305.27265			43387.38302		69.16200		324.00000 
 43692.65567		 952.57479			42740.08088		229.54400		875.00000 
 43692.65567		 305.27265			43387.38302		69.16200		324.00000 
 43692.65567		 952.57479			42740.08088		229.54400		875.00000 
 43692.65567		 305.27265			43387.38302		69.16200		324.00000 
 43692.65567		 952.57479			42740.08088		229.54400		875.00000 
 43692.65567		 305.27265			43387.38302		69.16200		324.00000 
 43692.65567		 952.57479			42740.08088		229.54400		875.00000 
 43692.65567		 305.27265			43387.38302		69.16200		324.00000 
 43692.65567		 952.57479			42740.08088		229.54400		875.00000 
 43692.65567		 305.27265			43387.38302		69.16200		324.00000 
 43692.65567		 952.57479			42740.08088		229.54400		875.00000 
 43692.65567		 305.27265			43387.38302		70.72000		324.00000 
 43692.65567		 952.57479			42740.08088		229.54400		875.00000 
 43692.65567		 305.27265			43387.38302		70.72000		324.00000 
 43692.65567		 952.57479			42740.08088		229.54400		875.00000 
 43692.65567		 305.27265			43387.38302		70.72000		324.00000 
 43692.65567		 952.57479			42740.08088		229.54400		875.00000 
 43692.65567		 305.27265			43387.38302		70.72000		324.00000 
 43692.65567		 952.57479			42740.08088		229.54400		875.00000 
 43692.65567		 305.27265			43387.38302		70.72000		324.00000 
 43692.65567		 952.57479			42740.08088		229.54400		875.00000 
 43692.65567		 305.27265			43387.38302		70.72000		324.00000 
 43692.65567		 952.57479			42740.08088		229.54400		875.00000 
 43692.65567		 305.27265			43387.38302		70.72000		324.00000 
 43692.65567		 952.57479			42740.08088		229.54400		875.00000 
 43692.65567		 305.27265			43387.38302		70.72000		324.00000 
 43692.65567		 952.57479			42740.08088		229.54400		875.00000 
 43692.65567		 305.27265			43387.38302		70.72000		324.00000 
 43692.65567		 952.57479			42740.08088		229.54400		875.00000 
 43692.65567		 305.27265			43387.38302		70.72000		324.00000 
 43692.65567		 952.57479			42740.08088		229.54400		875.00000 
 43692.65567		 305.27265			43387.38302		70.72000		324.00000 
 43692.65567		 952.57479			42740.08088		229.54400		875.00000 
 43692.65567		 305.27265			43387.38302		70.72000		324.00000 
 43692.65567		 952.57479			42740.08088		229.54400		875.00000 
 43692.65567		 305.27265			43387.38302		70.72000		324.00000 
 43692.65567		 952.57479			42740.08088		229.54400		875.00000 
 43692.65567		 305.27265			43387.38302		70.72000		324.00000 
 43692.65567		 952.57479			42740.08088		229.54400		875.00000 
 43692.65567		 305.27265			43387.38302		70.72000		324.00000 
 43692.65567		 952.57479			42740.08088		229.54400		875.00000 
 43692.65567		 305.27265			43387.38302		70.72000		324.00000 
 43692.65567		 952.57479			42740.08088		229.54400		875.00000 
 43692.65567		 305.27265			43387.38302		70.72000		324.00000 
 43692.65567		 952.57479			42740.08088		229.54400		875.00000 
 43692.65567		 305.27265			43387.38302		70.72000		324.00000 
 43692.65567		 952.57479			42740.08088		229.54400		875.00000 
 43692.65567		 305.27265			43387.38302		70.72000		324.00000 
 43692.65567		 952.57479			42740.08088		229.54400		875.00000 
 43692.65567		 305.27265			43387.38302		70.72000		324.00000 
 43692.65567		 952.57479			42740.08088		229.54400		875.00000 
 43692.65567		 305.27265			43387.38302		70.72000		324.00000 
 43692.65567		 952.57479			42740.08088		229.54400		875.00000 
 43692.65567		 305.27265			43387.38302		70.72000		324.00000 
 43692.65567		 952.57479			42740.08088		229.54400		875.00000 
 43692.65567		 305.27265			43387.38302		70.72000		324.00000 
 43692.65567		 952.57479			42740.08088		229.54400		875.00000 
 43692.65567		 305.27265			43387.38302		70.72000		324.00000 
 43692.65567		 952.57479			42740.08088		229.54400		875.00000 
 43692.65567		 305.27265			43387.38302		70.72000		324.00000 
 43692.65567		 952.57479			42740.08088		229.54400		875.00000 
 43692.65567		 305.27265			43387.38302		70.72000		324.00000 
 43692.65567		 952.57479			42740.08088		229.54400		875.00000 
 43692.65567		 305.27265			43387.38302		70.72000		324.00000 
 43692.65567		 952.57479			42740.08088		229.54400		875.00000 
 43692.65567		 305.27265			43387.38302		70.72000		324.00000 
 43692.65567		 952.57479			42740.08088		229.54400		875.00000 
 43692.65567		 305.27265			43387.38302		70.72000		324.00000 
 43692.65567		 952.57479			42740.08088		229.54400		875.00000 
 43692.65567		 305.27265			43387.38302		70.72000		324.00000 
 43692.65567		 952.57479			42740.08088		229.54400		875.00000 
 43692.65567		 305.27265			43387.38302		70.72000		324.00000 
 43692.65567		 952.57479			42740.08088		229.54400		875.00000 
 43692.65567		 305.27265			43387.38302		70.72000		324.00000 
 43692.65567		 952.57479			42740.08088		229.54400		875.00000 
 43692.65567		 305.27265			43387.38302		70.72000		324.00000 
 43692.65567		 952.57479			42740.08088		229.54400		875.00000 
 43692.65567		 305.27265			43387.38302		70.72000		324.00000 
 43692.65567		 952.57479			42740.08088		229.54400		875.00000 
 43692.65567		 305.27265			43387.38302		70.72000		324.00000 
 43692.65567		 952.57479			42740.08088		229.54400		875.00000 
 43692.65567		 305.27265			43387.38302		70.72000		324.00000 
 43692.65567		 952.57479			42740.08088		229.54400		875.00000 
 43692.65567		 305.27265			43387.38302		70.72000		324.00000 
 43692.65567		 952.57479			42740.08088		229.54400		875.00000 
 43692.65567		 305.27265			43387.38302		70.72000		324.00000 
 43692.65567		 952.57479			42740.08088		229.54400		875.00000 
 43692.65567		 305.27265			43387.38302		70.72000		324.00000 
 43692.65567		 952.57479			42740.08088		229.54400		875.00000 
 43692.65567		 305.27265			43387.38302		70.72000		324.00000 
 43692.65567		 952.57479			42740.08088		229.54400		875.00000 
 43692.65567		 305.27265			43387.38302		70.72000		324.00000 
 43692.65567		 952.57479			42740.08088		229.54400		875.00000 
 43692.65567		 305.27265			43387.38302		70.72000		324.00000 
 43692.65567		 952.57479			42740.08088		229.54400		875.00000 
 43692.65567		 305.27265			43387.38302		70.72000		324.00000 
 43692.65567		 952.57479			42740.08088		229.54400		875.00000 
 43692.65567		 305.27265			43387.38302		70.72000		324.00000 
 43692.65567		 952.57479			42740.08088		229.54400		875.00000 
 43692.65567		 305.27265			43387.38302		70.72000		324.00000 
 43692.65567		 952.57479			42740.08088		229.54400		875.00000 
 43692.65567		 305.27265			43387.38302		70.72000		324.00000 
 43692.65567		 952.57479			42740.08088		229.54400		875.00000 
 43692.65567		 305.27265			43387.38302		70.72000		324.00000 
 43692.65567		 952.57479			42740.08088		229.54400		875.00000 
 43692.65567		 305.27265			43387.38302		70.72000		324.00000 
 43692.65567		 952.57479			42740.08088		229.54400		875.00000 
 43692.65567		 305.27265			43387.38302		70.72000		324.00000 
 43692.65567		 952.57479			42740.08088		229.54400		875.00000 
 43692.65567		 305.27265			43387.38302		70.72000		324.00000 
 43692.65567		 952.57479			42740.08088		229.54400		875.00000 
 43692.65567		 305.27265			43387.38302		70.72000		324.00000 
 43692.65567		 952.57479			42740.08088		229.54400		875.00000 
 43692.65567		 305.27265			43387.38302		70.72000		324.00000 
 43692.65567		 952.57479			42740.08088		229.54400		875.00000 
 43692.65567		 305.27265			43387.38302		70.72000		324.00000 
 43692.65567		 952.57479			42740.08088		229.54400		875.00000 
 43692.65567		 305.27265			43387.38302		70.72000		324.00000 
 43692.65567		 952.57479			42740.08088		229.54400		875.00000 
 43692.65567		 305.27265			43387.38302		70.72000		324.00000 
 43692.65567		 952.57479			42740.08088		229.54400		875.00000 
 43692.65567		 305.27265			43387.38302		70.72000		324.00000 
 43692.65567		 952.57479			42740.08088		229.54400		875.00000 
 43692.65567		 305.27265			43387.38302		70.72000		324.00000 
 43692.65567		 952.57479			42740.08088		229.54400		875.00000 
 43692.65567		 305.27265			43387.38302		70.72000		324.00000 
 43692.65567		 952.57479			42740.08088		229.54400		875.00000 
 43692.65567		 305.27265			43387.38302		70.72000		324.00000 
 43692.65567		 952.57479			42740.08088		229.54400		875.00000 
 43692.65567		 305.27265			43387.38302		70.72000		324.00000 
 43692.65567		 952.57479			42740.08088		229.54400		875.00000 
 43692.65567		 305.27265			43387.38302		70.72000		324.00000 
 43692.65567		 952.57479			42740.08088		229.54400		875.00000 
 43692.65567		 305.27265			43387.38302		70.72000		324.00000 
 43692.65567		 952.57479			42740.08088		229.54400		875.00000 
 43692.65567		 305.27265			43387.38302		70.72000		324.00000 
 43692.65567		 952.57479			42740.08088		229.54400		875.00000 
 43692.65567		 305.27265			43387.38302		70.72000		324.00000 
 43692.65567		 952.57479			42740.08088		229.54400		875.00000 
 43692.65567		 305.27265			43387.38302		70.72000		324.00000 
 43692.65567		 952.57479			42740.08088		229.54400		875.00000 
 43692.65567		 305.27265			43387.38302		70.72000		324.00000 
 43692.65567		 952.57479			42740.08088		229.54400		875.00000 
 43692.65567		 305.27265			43387.38302		70.72000		324.00000 
 43692.65567		 952.57479			42740.08088		229.54400		875.00000 
 43692.65567		 305.27265			43387.38302		70.72000		324.00000 
 43692.65567		 952.57479			42740.08088		229.54400		875.00000 
 43692.65567		 305.27265			43387.38302		70.72000		324.00000 
 43692.65567		 952.57479			42740.08088		229.54400		875.00000 
 43692.65567		 305.27265			43387.38302		70.72000		324.00000 
 43692.65567		 952.57479			42740.08088		229.54400		875.00000 
 43692.65567		 305.27265			43387.38302		70.72000		324.00000 
 43692.65567		 952.57479			42740.08088		229.54400		875.00000 
 43692.65567		 305.27265			43387.38302		70.72000		324.00000 
 43692.65567		 952.57479			42740.08088		229.54400		875.00000 
 43692.65567		 305.27265			43387.38302		70.72000		324.00000 
 43692.65567		 952.57479			42740.08088		229.54400		875.00000 
 43692.65567		 305.27265			43387.38302		70.72000		324.00000 
 43692.65567		 952.57479			42740.08088		229.54400		875.00000 
 43692.65567		 305.27265			43387.38302		70.72000		324.00000 
 43692.65567		 952.57479			42740.08088		229.54400		875.00000 
 43692.65567		 305.27265			43387.38302		70.72000		324.00000 
 43692.65567		 952.57479			42740.08088		229.54400		875.00000 
 43692.65567		 305.27265			43387.38302		70.72000		324.00000 
 43692.65567		 952.57479			42740.08088		229.54400		875.00000 
 43692.65567		 305.27265			43387.38302		70.72000		324.00000 
 43692.65567		 952.57479			42740.08088		229.54400		875.00000 
 43692.65567		 305.27265			43387.38302		70.72000		324.00000 
 43692.65567		 952.57479			42740.08088		229.54400		875.00000 
 43692.65567		 305.27265			43387.38302		70.72000		324.00000 
 43692.65567		 952.57479			42740.08088		229.54400		875.00000 
 43692.65567		 305.27265			43387.38302		70.72000		324.00000 
 43692.65567		 952.57479			42740.08088		229.54400		875.00000 
 43692.65567		 305.27265			43387.38302		70.72000		324.00000 
 43692.65567		 952.57479			42740.08088		229.54400		875.00000 
 43692.65567		 305.27265			43387.38302		70.72000		324.00000 
 43692.65567		 952.57479			42740.08088		229.54400		875.00000 
 43692.65567		 305.27265			43387.38302		70.72000		324.00000 
 43692.65567		 952.57479			42740.08088		229.54400		875.00000 
 43692.65567		 305.27265			43387.38302		70.72000		324.00000 
 43692.65567		 952.57479			42740.08088		229.54400		875.00000 
 43692.65567		 305.27265			43387.38302		70.72000		324.00000 
 43692.65567		 952.57479			42740.08088		229.54400		875.00000 
 43692.65567		 305.27265			43387.38302		70.72000		324.00000 
 43692.65567		 952.57479			42740.08088		229.54400		875.00000 
 43692.65567		 305.27265			43387.38302		70.72000		324.00000 
 43692.65567		 952.57479			42740.08088		229.54400		875.00000 
 43692.65567		 305.27265			43387.38302		70.72000		324.00000 
 43692.65567		 952.57479			42740.08088		229.54400		875.00000 
 43692.65567		 305.27265			43387.38302		70.72000		324.00000 
 43692.65567		 952.57479			42740.08088		229.54400		875.00000 
 43692.65567		 305.27265			43387.38302		70.72000		324.00000 
 43692.65567		 952.57479			42740.08088		229.54400		875.00000 
 43692.65567		 305.27265			43387.38302		70.72000		324.00000 
 43692.65567		 952.57479			42740.08088		229.54400		875.00000 
 43692.65567		 305.27265			43387.38302		70.72000		324.00000 
 43692.65567		 952.57479			42740.08088		229.54400		875.00000 
 43692.65567		 305.27265			43387.38302		70.72000		324.00000 
 43692.65567		 952.57479			42740.08088		229.54400		875.00000 
 43692.65567		 305.27265			43387.38302		70.72000		324.00000 
 43692.65567		 952.57479			42740.08088		229.54400		875.00000 
 43692.65567		 305.27265			43387.38302		70.72000		324.00000 
 43692.65567		 952.57479			42740.08088		229.54400		875.00000 
 43692.65567		 305.27265			43387.38302		70.72000		324.00000 
 43692.65567		 952.57479			42740.08088		229.54400		875.00000 
 43692.65567		 305.27265			43387.38302		70.72000		324.00000 
 43692.65567		 952.57479			42740.08088		229.54400		875.00000 
 43692.65567		 305.27265			43387.38302		70.72000		324.00000 
 43692.65567		 952.57479			42740.08088		229.54400		875.00000 
 43692.65567		 305.27265			43387.38302		70.72000		324.00000 
 43692.65567		 952.57479			42740.08088		229.54400		875.00000 
 43692.65567		 305.27265			43387.38302		70.72000		324.00000 
 43692.65567		 952.57479			42740.08088		229.54400		875.00000 
 43692.65567		 305.27265			43387.38302		70.72000		324.00000 
 43692.65567		 952.57479			42740.08088		229.54400		875.00000 
 43692.65567		 305.27265			43387.38302		70.72000		324.00000 
 43692.65567		 952.57479			42740.08088		229.54400		875.00000 
 43692.65567		 305.27265			43387.38302		70.72000		324.00000 
 43692.65567		 952.57479			42740.08088		229.54400		875.00000 
 43692.65567		 305.27265			43387.38302		70.72000		324.00000 
 43692.65567		 952.57479			42740.08088		229.54400		875.00000 
 43692.65567		 305.27265			43387.38302		70.72000		324.00000 
 43692.65567		 952.57479			42740.08088		229.54400		875.00000 
 43692.65567		 305.27265			43387.38302		70.72000		324.00000 
 43692.65567		 952.57479			42740.08088		229.54400		875.00000 
 43692.65567		 305.27265			43387.38302		70.72000		324.00000 
 43692.65567		 952.57479			42740.08088		229.54400		875.00000 
 43692.65567		 305.27265			43387.38302		70.72000		324.00000 
 43692.65567		 952.57479			42740.08088		229.54400		875.00000 
 43692.65567		 305.27265			43387.38302		70.72000		324.00000 
 43692.65567		 952.57479			42740.08088		229.54400		875.00000 
 43692.65567		 305.27265			43387.38302		70.72000		324.00000 
 43692.65567		 952.57479			42740.08088		229.54400		875.00000 
 43692.65567		 305.27265			43387.38302		70.72000		324.00000 
 43692.65567		 952.57479			42740.08088		229.54400		875.00000 
 43692.65567		 305.27265			43387.38302		70.72000		324.00000 
 43692.65567		 952.57479			42740.08088		229.54400		875.00000 
 43692.65567		 305.27265			43387.38302		70.72000		324.00000 
 43692.65567		 952.57479			42740.08088		229.54400		875.00000 
 43692.65567		 305.27265			43387.38302		70.72000		324.00000 
 43692.65567		 952.57479			42740.08088		229.54400		875.00000 
 43692.65567		 305.27265			43387.38302		70.72000		324.00000 
 43692.65567		 952.57479			42740.08088		229.54400		875.00000 
 43692.65567		 305.27265			43387.38302		70.72000		324.00000 
 43692.65567		 952.57479			42740.08088		229.54400		875.00000 
 43692.65567		 305.27265			43387.38302		70.72000		324.00000 
 43692.65567		 952.57479			42740.08088		229.54400		875.00000 
 43692.65567		 305.27265			43387.38302		70.72000		324.00000 
 43692.65567		 952.57479			42740.08088		229.54400		875.00000 
 43692.65567		 305.27265			43387.38302		70.72000		324.00000 
 43692.65567		 952.57479			42740.08088		229.54400		875.00000 
 43692.65567		 305.27265			43387.38302		70.72000		324.00000 
 43692.65567		 952.57479			42740.08088		229.54400		875.00000 
 43692.65567		 305.27265			43387.38302		70.72000		324.00000 
 43692.65567		 952.57479			42740.08088		229.54400		875.00000 
 43692.65567		 305.27265			43387.38302		70.72000		324.00000 
 43692.65567		 952.57479			42740.08088		229.54400		875.00000 
 43692.65567		 305.27265			43387.38302		70.72000		324.00000 
 43692.65567		 952.57479			42740.08088		229.54400		875.00000 
 43692.65567		 305.27265			43387.38302		70.72000		324.00000 
 43692.65567		 952.57479			42740.08088		229.54400		875.00000 
 43692.65567		 305.27265			43387.38302		70.72000		324.00000 
 43692.65567		 952.57479			42740.08088		229.54400		875.00000 
 43692.65567		 305.27265			43387.38302		70.72000		324.00000 
 43692.65567		 952.57479			42740.08088		229.54400		875.00000 
 43692.65567		 305.27265			43387.38302		70.72000		324.00000 
 43692.65567		 952.57479			42740.08088		229.54400		875.00000 
 43692.65567		 305.27265			43387.38302		70.72000		324.00000 
 43692.65567		 952.57479			42740.08088		229.54400		875.00000 
 43692.65567		 305.27265			43387.38302		70.72000		324.00000 
 43692.65567		 952.57479			42740.08088		229.54400		875.00000 
 43692.65567		 305.27265			43387.38302		70.72000		324.00000 
 43692.65567		 952.57479			42740.08088		229.54400		875.00000 
 43692.65567		 305.27265			43387.38302		70.72000		324.00000 
 43692.65567		 952.57479			42740.08088		229.54400		875.00000 
 43692.65567		 305.27265			43387.38302		70.72000		324.00000 
 43692.65567		 952.57479			42740.08088		229.54400		875.00000 
 43692.65567		 305.27265			43387.38302		70.72000		324.00000 
 43692.65567		 952.57479			42740.08088		229.54400		875.00000 
 43692.65567		 305.27265			43387.38302		70.72000		324.00000 
 43692.65567		 952.57479			42740.08088		229.54400		875.00000 
 43692.65567		 305.27265			43387.38302		70.72000		324.00000 
 43692.65567		 952.57479			42740.08088		229.54400		875.00000 
 43692.65567		 305.27265			43387.38302		70.72000		324.00000 
 43692.65567		 952.57479			42740.08088		229.54400		875.00000 
 43692.65567		 305.27265			43387.38302		70.72000		324.00000 
 43692.65567		 952.57479			42740.08088		229.54400		875.00000 
 43692.65567		 305.27265			43387.38302		70.72000		324.00000 
 43692.65567		 952.57479			42740.08088		229.54400		875.00000 
 43692.65567		 305.27265			43387.38302		70.72000		324.00000 
 43692.65567		 952.57479			42740.08088		229.54400		875.00000 
 43692.65567		 305.27265			43387.38302		70.72000		324.00000 
 43692.65567		 952.57479			42740.08088		229.54400		875.00000 
 43692.65567		 305.27265			43387.38302		70.72000		324.00000 
 43692.65567		 952.57479			42740.08088		229.54400		875.00000 
 43692.65567		 305.27265			43387.38302		70.72000		324.00000 
 43692.65567		 952.57479			42740.08088		229.54400		875.00000 
 43692.65567		 305.27265			43387.38302		70.72000		324.00000 
 43692.65567		 952.57479			42740.08088		229.54400		875.00000 
 43692.65567		 305.27265			43387.38302		70.72000		324.00000 
 43692.65567		 952.57479			42740.08088		229.54400		875.00000 
 43692.65567		 305.27265			43387.38302		70.72000		324.00000 
 43692.65567		 952.57479			42740.08088		229.54400		875.00000 
 43692.65567		 305.27265			43387.38302		70.72000		324.00000 
 43692.65567		 952.57479			42740.08088		229.54400		875.00000 
 43692.65567		 305.27265			43387.38302		70.72000		324.00000 
 43692.65567		 952.57479			42740.08088		229.54400		875.00000 
 43692.65567		 305.27265			43387.38302		70.72000		324.00000 
 43692.65567		 952.57479			42740.08088		229.54400		875.00000 
 43692.65567		 305.27265			43387.38302		70.72000		324.00000 
 43692.65567		 952.57479			42740.08088		229.54400		875.00000 
 43692.65567		 305.27265			43387.38302		70.72000		324.00000 
 43692.65567		 952.57479			42740.08088		229.54400		875.00000 
 43692.65567		 305.27265			43387.38302		70.72000		324.00000 
 43692.65567		 952.57479			42740.08088		229.54400		875.00000 
 43692.65567		 305.27265			43387.38302		70.72000		324.00000 
 43692.65567		 952.57479			42740.08088		229.54400		875.00000 
 43692.65567		 305.27265			43387.38302		70.72000		324.00000 
 43692.65567		 952.57479			42740.08088		229.54400		875.00000 
 43692.65567		 305.27265			43387.38302		70.72000		324.00000 
 43692.65567		 952.57479			42740.08088		229.54400		875.00000 
 43692.65567		 305.27265			43387.38302		70.72000		324.00000 
 43692.65567		 952.57479			42740.08088		229.54400		875.00000 
 43692.65567		 305.27265			43387.38302		70.72000		324.00000 
 43692.65567		 952.57479			42740.08088		229.54400		875.00000 
 43692.65567		 305.27265			43387.38302		70.72000		324.00000 
 43692.65567		 952.57479			42740.08088		229.54400		875.00000 
 43692.65567		 305.27265			43387.38302		70.72000		324.00000 
 43692.65567		 952.57479			42740.08088		229.54400		875.00000 
 43692.65567		 305.27265			43387.38302		70.72000		324.00000 
 43692.65567		 952.57479			42740.08088		229.54400		875.00000 
 43692.65567		 305.27265			43387.38302		70.72000		324.00000 
 43692.65567		 952.57479			42740.08088		229.54400		875.00000 
 43692.65567		 305.27265			43387.38302		70.72000		324.00000 
 43692.65567		 952.57479			42740.08088		229.54400		875.00000 
 43692.65567		 305.27265			43387.38302		70.72000		324.00000 
 43692.65567		 952.57479			42740.08088		229.54400		875.00000 
 43692.65567		 305.27265			43387.38302		70.72000		324.00000 
 43692.65567		 952.57479			42740.08088		229.54400		875.00000 
 43692.65567		 305.27265			43387.38302		70.72000		324.00000 
 43692.65567		 952.57479			42740.08088		229.54400		875.00000 
 43692.65567		 305.27265			43387.38302		70.72000		324.00000 
 43692.65567		 952.57479			42740.08088		229.54400		875.00000 
 43692.65567		 305.27265			43387.38302		70.72000		324.00000 
 43692.65567		 952.57479			42740.08088		229.54400		875.00000 
 43692.65567		 305.27265			43387.38302		70.72000		324.00000 
 43692.65567		 952.57479			42740.08088		229.54400		875.00000 
 43692.65567		 305.27265			43387.38302		70.72000		324.00000 
 43692.65567		 952.57479			42740.08088		229.54400		875.00000 
 43692.65567		 305.27265			43387.38302		70.72000		324.00000 
 43692.65567		 952.57479			42740.08088		229.54400		875.00000 
 43692.65567		 305.27265			43387.38302		70.72000		324.00000 
 43692.65567		 952.57479			42740.08088		229.54400		875.00000 
 43692.65567		 305.27265			43387.38302		70.72000		324.00000 
 43692.65567		 952.57479			42740.08088		229.54400		875.00000 
 43692.65567		 305.27265			43387.38302		70.72000		324.00000 
 43692.65567		 952.57479			42740.08088		229.54400		875.00000 
 43692.65567		 305.27265			43387.38302		70.72000		324.00000 
 43692.65567		 952.57479			42740.08088		229.54400		875.00000 
 43692.65567		 305.27265			43387.38302		70.72000		324.00000 
 43692.65567		 952.57479			42740.08088		229.54400		875.00000 
 43692.65567		 305.27265			43387.38302		70.72000		324.00000 
 43692.65567		 952.57479			42740.08088		229.54400		875.00000 
 43692.65567		 305.27265			43387.38302		70.72000		324.00000 
 43692.65567		 952.57479			42740.08088		229.54400		875.00000 
 43692.65567		 305.27265			43387.38302		70.72000		324.00000 
 43692.65567		 952.57479			42740.08088		229.54400		875.00000 
 43692.65567		 305.27265			43387.38302		70.72000		324.00000 
 43692.65567		 952.57479			42740.08088		229.54400		875.00000 
 43692.65567		 305.27265			43387.38302		70.72000		324.00000 
 43692.65567		 952.57479			42740.08088		229.54400		875.00000 
 43692.65567		 305.27265			43387.38302		70.72000		324.00000 
 43692.65567		 952.57479			42740.08088		229.54400		875.00000 
 43692.65567		 305.27265			43387.38302		70.72000		324.00000 
 43692.65567		 952.57479			42740.08088		229.54400		875.00000 
 43692.65567		 305.27265			43387.38302		70.72000		324.00000 
 43692.65567		 952.57479			42740.08088		229.54400		875.00000 
 43692.65567		 305.27265			43387.38302		70.72000		324.00000 
 43692.65567		 952.57479			42740.08088		229.54400		875.00000 
 43692.65567		 305.27265			43387.38302		70.72000		324.00000 
 43692.65567		 952.57479			42740.08088		229.54400		875.00000 
 43692.65567		 305.27265			43387.38302		70.72000		324.00000 
 43692.65567		 952.57479			42740.08088		229.54400		875.00000 
 43692.65567		 305.27265			43387.38302		70.72000		324.00000 
 43692.65567		 952.57479			42740.08088		229.54400		875.00000 
 43692.65567		 305.27265			43387.38302		70.72000		324.00000 
 43692.65567		 952.57479			42740.08088		229.54400		875.00000 
 43692.65567		 305.27265			43387.38302		70.72000		324.00000 
 43692.65567		 952.57479			42740.08088		229.54400		875.00000 
 43692.65567		 305.27265			43387.38302		70.72000		324.00000 
 43692.65567		 952.57479			42740.08088		229.54400		875.00000 
 43692.65567		 305.27265			43387.38302		70.72000		324.00000 
 43692.65567		 952.57479			42740.08088		229.54400		875.00000 
 43692.65567		 305.27265			43387.38302		70.72000		324.00000 
 43692.65567		 952.57479			42740.08088		229.54400		875.00000 
 43692.65567		 305.27265			43387.38302		70.72000		324.00000 
 43692.65567		 952.57479			42740.08088		229.54400		875.00000 
 43692.65567		 305.27265			43387.38302		70.72000		324.00000 
 43692.65567		 952.57479			42740.08088		229.54400		875.00000 
 43692.65567		 305.27265			43387.38302		70.72000		324.00000 
 43692.65567		 952.57479			42740.08088		229.54400		875.00000 
 43692.65567		 305.27265			43387.38302		70.72000		324.00000 
 43692.65567		 952.57479			42740.08088		229.54400		875.00000 
 43692.65567		 305.27265			43387.38302		70.72000		324.00000 
 43692.65567		 952.57479			42740.08088		229.54400		875.00000 
 43692.65567		 305.27265			43387.38302		70.72000		324.00000 
 43692.65567		 952.57479			42740.08088		229.54400		875.00000 
 43692.65567		 305.27265			43387.38302		70.72000		324.00000 
 43692.65567		 952.57479			42740.08088		229.54400		875.00000 
 43692.65567		 305.27265			43387.38302		70.72000		324.00000 
 43692.65567		 952.57479			42740.08088		229.54400		875.00000 
 43692.65567		 305.27265			43387.38302		70.72000		324.00000 
 43692.65567		 952.57479			42740.08088		229.54400		875.00000 
 43692.65567		 305.27265			43387.38302		70.72000		324.00000 
 43692.65567		 952.57479			42740.08088		229.54400		875.00000 
 43692.65567		 305.27265			43387.38302		70.72000		324.00000 
 43692.65567		 952.57479			42740.08088		229.54400		875.00000 
 43692.65567		 305.27265			43387.38302		70.72000		324.00000 
 43692.65567		 952.57479			42740.08088		229.54400		875.00000 
 43692.65567		 305.27265			43387.38302		70.72000		324.00000 
 43692.65567		 952.57479			42740.08088		229.54400		875.00000 
 43692.65567		 305.27265			43387.38302		70.72000		324.00000 
 43692.65567		 952.57479			42740.08088		229.54400		875.00000 
 43692.65567		 305.27265			43387.38302		70.72000		324.00000 
 43692.65567		 952.57479			42740.08088		229.54400		875.00000 
 43692.65567		 305.27265			43387.38302		70.72000		324.00000 
 43692.65567		 952.57479			42740.08088		229.54400		875.00000 
 43692.65567		 305.27265			43387.38302		70.72000		324.00000 
 43692.65567		 952.57479			42740.08088		229.54400		875.00000 
 43692.65567		 305.27265			43387.38302		70.72000		324.00000 
 43692.65567		 952.57479			42740.08088		229.54400		875.00000 
 43692.65567		 305.27265			43387.38302		70.72000		324.00000 
 43692.65567		 952.57479			42740.08088		229.54400		875.00000 
 43692.65567		 305.27265			43387.38302		70.72000		324.00000 
 43692.65567		 952.57479			42740.08088		229.54400		875.00000 
 43692.65567		 305.27265			43387.38302		70.72000		324.00000 
 43692.65567		 952.57479			42740.08088		229.54400		875.00000 
 43692.65567		 305.27265			43387.38302		70.72000		324.00000 
 43692.65567		 952.57479			42740.08088		228.94600		875.00000 
 43692.65567		 305.27265			43387.38302		70.72000		324.00000 
 43692.65567		 952.57479			42740.08088		228.94600		875.00000 
 43692.65567		 305.27265			43387.38302		70.72000		324.00000 
 43692.65567		 952.57479			42740.08088		228.94600		875.00000 
 43692.65567		 305.27265			43387.38302		70.72000		324.00000 
 43692.65567		 952.57479			42740.08088		228.94600		875.00000 
 43692.65567		 305.27265			43387.38302		70.72000		324.00000 
 43692.65567		 952.57479			42740.08088		228.94600		875.00000 
 43692.65567		 305.27265			43387.38302		70.72000		324.00000 
 43692.65567		 952.57479			42740.08088		228.94600		875.00000 
 43692.65567		 305.27265			43387.38302		70.72000		324.00000 
 43692.65567		 952.57479			42740.08088		228.94600		875.00000 
 43692.65567		 305.27265			43387.38302		70.72000		324.00000 
 43692.65567		 952.57479			42740.08088		228.94600		875.00000 
 43692.65567		 305.27265			43387.38302		70.72000		324.00000 
 43692.65567		 952.57479			42740.08088		228.94600		875.00000 
 43692.65567		 305.27265			43387.38302		70.72000		324.00000 
 43692.65567		 952.57479			42740.08088		228.94600		875.00000 
 43692.65567		 305.27265			43387.38302		70.72000		324.00000 
 43692.65567		 952.57479			42740.08088		228.94600		875.00000 
 43692.65567		 305.27265			43387.38302		70.72000		324.00000 
 43692.65567		 952.57479			42740.08088		228.94600		875.00000 
 43692.65567		 305.27265			43387.38302		70.72000		324.00000 
 43692.65567		 952.57479			42740.08088		228.94600		875.00000 
 43692.65567		 305.27265			43387.38302		70.72000		324.00000 
 43692.65567		 952.57479			42740.08088		228.94600		875.00000 
 43692.65567		 305.27265			43387.38302		70.72000		324.00000 
 43692.65567		 952.57479			42740.08088		228.94600		875.00000 
 43692.65567		 305.27265			43387.38302		70.72000		324.00000 
 43692.65567		 952.57479			42740.08088		228.94600		875.00000 
 43692.65567		 305.27265			43387.38302		70.72000		324.00000 
 43692.65567		 952.57479			42740.08088		228.94600		875.00000 
 43692.65567		 305.27265			43387.38302		70.72000		324.00000 
 43692.65567		 952.57479			42740.08088		228.94600		875.00000 
 43692.65567		 305.27265			43387.38302		70.72000		324.00000 
 43692.65567		 952.57479			42740.08088		228.94600		875.00000 
 43692.65567		 305.27265			43387.38302		70.72000		324.00000 
 43692.65567		 952.57479			42740.08088		228.94600		875.00000 
 43692.65567		 305.27265			43387.38302		70.72000		324.00000 
 43692.65567		 952.57479			42740.08088		228.94600		875.00000 
 43692.65567		 305.27265			43387.38302		70.72000		324.00000 
 43692.65567		 952.57479			42740.08088		228.94600		875.00000 
 43692.65567		 305.27265			43387.38302		70.72000		324.00000 
 43692.65567		 952.57479			42740.08088		228.94600		875.00000 
 43692.65567		 305.27265			43387.38302		70.72000		324.00000 
 43692.65567		 952.57479			42740.08088		228.94600		875.00000 
 43692.65567		 305.27265			43387.38302		70.72000		324.00000 
 43692.65567		 952.57479			42740.08088		228.94600		875.00000 
 43692.65567		 305.27265			43387.38302		70.72000		324.00000 
 43692.65567		 952.57479			42740.08088		228.94600		875.00000 
 43692.65567		 305.27265			43387.38302		70.72000		324.00000 
 43692.65567		 952.57479			42740.08088		228.94600		875.00000 
 43692.65567		 305.27265			43387.38302		70.72000		324.00000 
 43692.65567		 952.57479			42740.08088		228.94600		875.00000 
 43692.65567		 305.27265			43387.38302		70.72000		324.00000 
 43692.65567		 952.57479			42740.08088		228.94600		875.00000 
 43692.65567		 305.27265			43387.38302		70.72000		324.00000 
 43692.65567		 952.57479			42740.08088		228.94600		875.00000 
 43692.65567		 305.27265			43387.38302		70.72000		324.00000 
 43692.65567		 952.57479			42740.08088		228.94600		875.00000 
 43692.65567		 305.27265			43387.38302		70.72000		324.00000 
 43692.65567		 952.57479			42740.08088		228.94600		875.00000 
 43692.65567		 305.27265			43387.38302		70.72000		324.00000 
 43692.65567		 952.57479			42740.08088		228.94600		875.00000 
 43692.65567		 305.27265			43387.38302		70.72000		324.00000 
 43692.65567		 952.57479			42740.08088		228.94600		875.00000 
 43692.65567		 305.27265			43387.38302		70.72000		324.00000 
 43692.65567		 952.57479			42740.08088		228.94600		875.00000 
 43692.65567		 305.27265			43387.38302		70.72000		324.00000 
 43692.65567		 952.57479			42740.08088		228.94600		875.00000 
 43692.65567		 305.27265			43387.38302		70.72000		324.00000 
 43692.65567		 952.57479			42740.08088		228.94600		875.00000 
 43692.65567		 305.27265			43387.38302		70.72000		324.00000 
 43692.65567		 952.57479			42740.08088		228.94600		875.00000 
 43692.65567		 305.27265			43387.38302		70.72000		324.00000 
 43692.65567		 952.57479			42740.08088		228.94600		875.00000 
 43692.65567		 305.27265			43387.38302		70.72000		324.00000 
 43692.65567		 952.57479			42740.08088		228.94600		875.00000 
 43692.65567		 305.27265			43387.38302		70.72000		324.00000 
 43692.65567		 952.57479			42740.08088		228.94600		875.00000 
 43692.65567		 305.27265			43387.38302		70.72000		324.00000 
 43692.65567		 952.57479			42740.08088		228.94600		875.00000 
 43692.65567		 305.27265			43387.38302		70.72000		324.00000 
 43692.65567		 952.57479			42740.08088		228.94600		875.00000 
 43692.65567		 305.27265			43387.38302		70.72000		324.00000 
 43692.65567		 952.57479			42740.08088		228.94600		875.00000 
 43692.65567		 305.27265			43387.38302		70.72000		324.00000 
 43692.65567		 952.57479			42740.08088		228.94600		875.00000 
 43692.65567		 305.27265			43387.38302		70.72000		324.00000 
 43692.65567		 952.57479			42740.08088		228.94600		875.00000 
 43692.65567		 305.27265			43387.38302		70.72000		324.00000 
 43692.65567		 952.57479			42740.08088		228.94600		875.00000 
 43692.65567		 305.27265			43387.38302		70.72000		324.00000 
 43692.65567		 952.57479			42740.08088		228.94600		875.00000 
 43692.65567		 305.27265			43387.38302		70.72000		324.00000 
 43692.65567		 952.57479			42740.08088		228.94600		875.00000 
 43692.65567		 305.27265			43387.38302		70.72000		324.00000 
 43692.65567		 952.57479			42740.08088		228.94600		875.00000 
 43692.65567		 305.27265			43387.38302		70.72000		324.00000 
 43692.65567		 952.57479			42740.08088		228.94600		875.00000 
 43692.65567		 305.27265			43387.38302		70.72000		324.00000 
 43692.65567		 952.57479			42740.08088		228.94600		875.00000 
 43692.65567		 305.27265			43387.38302		70.72000		324.00000 
 43692.65567		 952.57479			42740.08088		228.94600		875.00000 
 43692.65567		 305.27265			43387.38302		70.72000		324.00000 
 43692.65567		 952.57479			42740.08088		228.94600		875.00000 
 43692.65567		 305.27265			43387.38302		70.72000		324.00000 
 43692.65567		 952.57479			42740.08088		228.94600		875.00000 
 43692.65567		 305.27265			43387.38302		70.72000		324.00000 
 43692.65567		 952.57479			42740.08088		228.94600		875.00000 
 43692.65567		 305.27265			43387.38302		70.72000		324.00000 
 43692.65567		 952.57479			42740.08088		228.94600		875.00000 
 43692.65567		 305.27265			43387.38302		70.72000		324.00000 
 43692.65567		 952.57479			42740.08088		228.94600		875.00000 
 43692.65567		 305.27265			43387.38302		70.72000		324.00000 
 43692.65567		 952.57479			42740.08088		228.94600		875.00000 
 43692.65567		 305.27265			43387.38302		70.72000		324.00000 
 43692.65567		 952.57479			42740.08088		228.94600		875.00000 
 43692.65567		 305.27265			43387.38302		70.72000		324.00000 
 43692.65567		 952.57479			42740.08088		228.94600		875.00000 
 43692.65567		 305.27265			43387.38302		70.72000		324.00000 
 43692.65567		 952.57479			42740.08088		228.94600		875.00000 
 43692.65567		 305.27265			43387.38302		70.72000		324.00000 
 43692.65567		 952.57479			42740.08088		228.94600		875.00000 
 43692.65567		 305.27265			43387.38302		70.72000		324.00000 
 43692.65567		 952.57479			42740.08088		228.94600		875.00000 
 43692.65567		 305.27265			43387.38302		70.72000		324.00000 
 43692.65567		 952.57479			42740.08088		228.94600		875.00000 
 43692.65567		 305.27265			43387.38302		70.72000		324.00000 
 43692.65567		 952.57479			42740.08088		228.94600		875.00000 
 43692.65567		 305.27265			43387.38302		70.72000		324.00000 
 43692.65567		 952.57479			42740.08088		228.94600		875.00000 
 43692.65567		 305.27265			43387.38302		70.72000		324.00000 
 43692.65567		 952.57479			42740.08088		228.94600		875.00000 
 43692.65567		 305.27265			43387.38302		70.72000		324.00000 
 43692.65567		 952.57479			42740.08088		228.94600		875.00000 
 43692.65567		 305.27265			43387.38302		70.72000		324.00000 
 43692.65567		 952.57479			42740.08088		228.94600		875.00000 
 43692.65567		 305.27265			43387.38302		70.72000		324.00000 
 43692.65567		 952.57479			42740.08088		228.94600		875.00000 
 43692.65567		 305.27265			43387.38302		70.72000		324.00000 
 43692.65567		 952.57479			42740.08088		228.94600		875.00000 
 43692.65567		 305.27265			43387.38302		70.72000		324.00000 
 43692.65567		 952.57479			42740.08088		228.94600		875.00000 
 43692.65567		 305.27265			43387.38302		70.72000		324.00000 
 43692.65567		 952.57479			42740.08088		228.94600		875.00000 
 43692.65567		 305.27265			43387.38302		70.72000		324.00000 
 43692.65567		 952.57479			42740.08088		228.94600		875.00000 
 43692.65567		 305.27265			43387.38302		70.72000		324.00000 
 43692.65567		 952.57479			42740.08088		228.94600		875.00000 
 43692.65567		 305.27265			43387.38302		70.72000		324.00000 
 43692.65567		 952.57479			42740.08088		228.94600		875.00000 
 43692.65567		 305.27265			43387.38302		70.72000		324.00000 
 43692.65567		 952.57479			42740.08088		228.94600		875.00000 
 43692.65567		 305.27265			43387.38302		70.72000		324.00000 
 43692.65567		 952.57479			42740.08088		228.94600		875.00000 
 43692.65567		 305.27265			43387.38302		70.72000		324.00000 
 43692.65567		 952.57479			42740.08088		228.94600		875.00000 
 43692.65567		 305.27265			43387.38302		70.72000		324.00000 
 43692.65567		 952.57479			42740.08088		228.94600		875.00000 
 43692.65567		 305.27265			43387.38302		70.72000		324.00000 
 43692.65567		 952.57479			42740.08088		228.94600		875.00000 
 43692.65567		 305.27265			43387.38302		70.72000		324.00000 
 43692.65567		 952.57479			42740.08088		228.94600		875.00000 
 43692.65567		 305.27265			43387.38302		70.72000		324.00000 
 43692.65567		 952.57479			42740.08088		228.94600		875.00000 
 43692.65567		 305.27265			43387.38302		70.72000		324.00000 
 43692.65567		 952.57479			42740.08088		228.94600		875.00000 
 43692.65567		 305.27265			43387.38302		70.72000		324.00000 
 43692.65567		 952.57479			42740.08088		228.94600		875.00000 
 43692.65567		 305.27265			43387.38302		70.72000		324.00000 
 43692.65567		 952.57479			42740.08088		228.94600		875.00000 
 43692.65567		 305.27265			43387.38302		70.72000		324.00000 
 43692.65567		 952.57479			42740.08088		228.94600		875.00000 
 43692.65567		 305.27265			43387.38302		70.72000		324.00000 
 43692.65567		 952.57479			42740.08088		228.94600		875.00000 
 43692.65567		 305.27265			43387.38302		70.72000		324.00000 
 43692.65567		 952.57479			42740.08088		228.94600		875.00000 
 43692.65567		 305.27265			43387.38302		70.72000		324.00000 
 43692.65567		 952.57479			42740.08088		228.94600		875.00000 
 43692.65567		 305.27265			43387.38302		70.72000		324.00000 
 43692.65567		 952.57479			42740.08088		228.94600		875.00000 
 43692.65567		 305.27265			43387.38302		70.72000		324.00000 
 43692.65567		 952.57479			42740.08088		228.94600		875.00000 
 43692.65567		 305.27265			43387.38302		70.72000		324.00000 
 43692.65567		 952.57479			42740.08088		228.94600		875.00000 
 43692.65567		 305.27265			43387.38302		70.72000		324.00000 
 43692.65567		 952.57479			42740.08088		228.94600		875.00000 
 43692.65567		 305.27265			43387.38302		70.72000		324.00000 
 43692.65567		 952.57479			42740.08088		228.94600		875.00000 
 43692.65567		 305.27265			43387.38302		70.72000		324.00000 
 43692.65567		 952.57479			42740.08088		228.94600		875.00000 
 43692.65567		 305.27265			43387.38302		70.72000		324.00000 
 43692.65567		 952.57479			42740.08088		228.94600		875.00000 
 43692.65567		 305.27265			43387.38302		70.72000		324.00000 
 43692.65567		 952.57479			42740.08088		228.94600		875.00000 
 43692.65567		 305.27265			43387.38302		70.72000		324.00000 
 43692.65567		 952.57479			42740.08088		228.94600		875.00000 
 43692.65567		 305.27265			43387.38302		70.72000		324.00000 
 43692.65567		 952.57479			42740.08088		228.94600		875.00000 
 43692.65567		 305.27265			43387.38302		70.72000		324.00000 
 43692.65567		 952.57479			42740.08088		228.94600		875.00000 
 43692.65567		 305.27265			43387.38302		70.72000		324.00000 
 43692.65567		 952.57479			42740.08088		228.94600		875.00000 
 43692.65567		 305.27265			43387.38302		70.72000		324.00000 
 43692.65567		 952.57479			42740.08088		228.94600		875.00000 
 43692.65567		 305.27265			43387.38302		70.72000		324.00000 
 43692.65567		 952.57479			42740.08088		228.94600		875.00000 
 43692.65567		 305.27265			43387.38302		70.72000		324.00000 
 43692.65567		 952.57479			42740.08088		228.94600		875.00000 
 43692.65567		 305.27265			43387.38302		70.72000		324.00000 
 43692.65567		 952.57479			42740.08088		228.94600		875.00000 
 43692.65567		 305.27265			43387.38302		70.72000		324.00000 
 43692.65567		 952.57479			42740.08088		228.94600		875.00000 
 43692.65567		 305.27265			43387.38302		70.72000		324.00000 
 43692.65567		 952.57479			42740.08088		228.94600		875.00000 
 43692.65567		 305.27265			43387.38302		70.72000		324.00000 
 43692.65567		 952.57479			42740.08088		228.94600		875.00000 
 43692.65567		 305.27265			43387.38302		70.72000		324.00000 
 43692.65567		 952.57479			42740.08088		228.94600		875.00000 
 43692.65567		 305.27265			43387.38302		70.72000		324.00000 
 43692.65567		 952.57479			42740.08088		228.94600		875.00000 
 43692.65567		 305.27265			43387.38302		70.72000		324.00000 
 43692.65567		 952.57479			42740.08088		228.94600		875.00000 
 43692.65567		 305.27265			43387.38302		70.72000		324.00000 
 43692.65567		 952.57479			42740.08088		228.94600		875.00000 
 43692.65567		 305.27265			43387.38302		70.72000		324.00000 
 43692.65567		 952.57479			42740.08088		228.94600		875.00000 
 43692.65567		 305.27265			43387.38302		70.72000		324.00000 
 43692.65567		 952.57479			42740.08088		228.94600		875.00000 
 43692.65567		 305.27265			43387.38302		70.72000		324.00000 
 43692.65567		 952.57479			42740.08088		228.94600		875.00000 
 43692.65567		 305.27265			43387.38302		70.72000		324.00000 
 43692.65567		 952.57479			42740.08088		228.94600		875.00000 
 43692.65567		 305.27265			43387.38302		70.72000		324.00000 
 43692.65567		 952.57479			42740.08088		228.94600		875.00000 
 43692.65567		 305.27265			43387.38302		70.72000		324.00000 
 43692.65567		 952.57479			42740.08088		228.94600		875.00000 
 43692.65567		 305.27265			43387.38302		70.72000		324.00000 
 43692.65567		 952.57479			42740.08088		228.94600		875.00000 
 43692.65567		 305.27265			43387.38302		70.72000		324.00000 
 43692.65567		 952.57479			42740.08088		228.94600		875.00000 
 43692.65567		 305.27265			43387.38302		70.72000		324.00000 
 43692.65567		 952.57479			42740.08088		228.94600		875.00000 
 43692.65567		 305.27265			43387.38302		70.72000		324.00000 
 43692.65567		 952.57479			42740.08088		228.94600		875.00000 
 43692.65567		 305.27265			43387.38302		70.72000		324.00000 
 43692.65567		 952.57479			42740.08088		228.94600		875.00000 
 43692.65567		 305.27265			43387.38302		70.72000		324.00000 
 43692.65567		 952.57479			42740.08088		228.94600		875.00000 
 43692.65567		 305.27265			43387.38302		70.72000		324.00000 
 43692.65567		 952.57479			42740.08088		228.94600		875.00000 
 43692.65567		 305.27265			43387.38302		70.72000		324.00000 
 43692.65567		 952.57479			42740.08088		228.94600		875.00000 
 43692.65567		 305.27265			43387.38302		70.72000		324.00000 
 43692.65567		 952.57479			42740.08088		228.94600		875.00000 
 43692.65567		 305.27265			43387.38302		70.72000		324.00000 
 43692.65567		 952.57479			42740.08088		228.94600		875.00000 
 43692.65567		 305.27265			43387.38302		70.72000		324.00000 
 43692.65567		 952.57479			42740.08088		228.94600		875.00000 
 43692.65567		 305.27265			43387.38302		70.72000		324.00000 
 43692.65567		 952.57479			42740.08088		228.94600		875.00000 
 43692.65567		 305.27265			43387.38302		70.72000		324.00000 
 43692.65567		 952.57479			42740.08088		228.94600		875.00000 
 43692.65567		 305.27265			43387.38302		70.72000		324.00000 
 43692.65567		 952.57479			42740.08088		228.94600		875.00000 
 43692.65567		 305.27265			43387.38302		70.72000		324.00000 
 43692.65567		 952.57479			42740.08088		228.94600		875.00000 
 43692.65567		 305.27265			43387.38302		70.72000		324.00000 
 43692.65567		 952.57479			42740.08088		228.94600		875.00000 
 43692.65567		 305.27265			43387.38302		70.72000		324.00000 
 43692.65567		 952.57479			42740.08088		228.94600		875.00000 
 43692.65567		 305.27265			43387.38302		70.72000		324.00000 
 43692.65567		 952.57479			42740.08088		228.94600		875.00000 
 43692.65567		 305.27265			43387.38302		70.72000		324.00000 
 43692.65567		 952.57479			42740.08088		228.94600		875.00000 
 43692.65567		 305.27265			43387.38302		70.72000		324.00000 
 43692.65567		 952.57479			42740.08088		228.94600		875.00000 
 43692.65567		 305.27265			43387.38302		70.72000		324.00000 
 43692.65567		 952.57479			42740.08088		228.94600		875.00000 
 43692.65567		 305.27265			43387.38302		70.72000		324.00000 
 43692.65567		 952.57479			42740.08088		228.94600		875.00000 
 43692.65567		 305.27265			43387.38302		70.72000		324.00000 
 43692.65567		 952.57479			42740.08088		228.94600		875.00000 
 43692.65567		 305.27265			43387.38302		70.72000		324.00000 
 43692.65567		 952.57479			42740.08088		228.94600		875.00000 
 43692.65567		 305.27265			43387.38302		70.72000		324.00000 
 43692.65567		 952.57479			42740.08088		228.94600		875.00000 
 43692.65567		 305.27265			43387.38302		70.72000		324.00000 
 43692.65567		 952.57479			42740.08088		228.94600		875.00000 
 43692.65567		 305.27265			43387.38302		70.72000		324.00000 
 43692.65567		 952.57479			42740.08088		228.94600		875.00000 
 43692.65567		 305.27265			43387.38302		70.72000		324.00000 
 43692.65567		 952.57479			42740.08088		228.94600		875.00000 
 43692.65567		 305.27265			43387.38302		70.72000		324.00000 
 43692.65567		 952.57479			42740.08088		228.94600		875.00000 
 43692.65567		 305.27265			43387.38302		70.72000		324.00000 
 43692.65567		 952.57479			42740.08088		228.94600		875.00000 
 43692.65567		 305.27265			43387.38302		70.72000		324.00000 
 43692.65567		 952.57479			42740.08088		228.94600		875.00000 
 43692.65567		 305.27265			43387.38302		70.72000		324.00000 
 43692.65567		 952.57479			42740.08088		228.94600		875.00000 
 43692.65567		 305.27265			43387.38302		70.72000		324.00000 
 43692.65567		 952.57479			42740.08088		228.94600		875.00000 
 43692.65567		 305.27265			43387.38302		70.72000		324.00000 
 43692.65567		 952.57479			42740.08088		228.94600		875.00000 
 43692.65567		 305.27265			43387.38302		70.72000		324.00000 
 43692.65567		 952.57479			42740.08088		228.94600		875.00000 
 43692.65567		 305.27265			43387.38302		70.72000		324.00000 
 43692.65567		 952.57479			42740.08088		228.94600		875.00000 
 43692.65567		 305.27265			43387.38302		70.72000		324.00000 
 43692.65567		 952.57479			42740.08088		228.94600		875.00000 
 43692.65567		 305.27265			43387.38302		70.72000		324.00000 
 43692.65567		 952.57479			42740.08088		228.94600		875.00000 
 43692.65567		 305.27265			43387.38302		70.72000		324.00000 
 43692.65567		 952.57479			42740.08088		228.94600		875.00000 
 43692.65567		 305.27265			43387.38302		70.72000		324.00000 
 43692.65567		 952.57479			42740.08088		228.94600		875.00000 
 43692.65567		 305.27265			43387.38302		70.72000		324.00000 
 43692.65567		 952.57479			42740.08088		228.94600		875.00000 
 43692.65567		 305.27265			43387.38302		70.72000		324.00000 
 43692.65567		 952.57479			42740.08088		228.94600		875.00000 
 43692.65567		 305.27265			43387.38302		70.72000		324.00000 
 43692.65567		 952.57479			42740.08088		228.94600		875.00000 
 43692.65567		 305.27265			43387.38302		70.72000		324.00000 
 43692.65567		 952.57479			42740.08088		228.94600		875.00000 
 43692.65567		 305.27265			43387.38302		70.72000		324.00000 
 43692.65567		 952.57479			42740.08088		228.94600		875.00000 
 43692.65567		 305.27265			43387.38302		70.72000		324.00000 
 43692.65567		 952.57479			42740.08088		228.94600		875.00000 
 43692.65567		 305.27265			43387.38302		70.72000		324.00000 
 43692.65567		 952.57479			42740.08088		228.94600		875.00000 
 43692.65567		 305.27265			43387.38302		70.72000		324.00000 
 43692.65567		 952.57479			42740.08088		228.94600		875.00000 
 43692.65567		 305.27265			43387.38302		70.72000		324.00000 
 43692.65567		 952.57479			42740.08088		228.94600		875.00000 
 43692.65567		 305.27265			43387.38302		70.72000		324.00000 
 43692.65567		 952.57479			42740.08088		228.94600		875.00000 
 43692.65567		 305.27265			43387.38302		70.72000		324.00000 
 43692.65567		 952.57479			42740.08088		228.94600		875.00000 
 43692.65567		 305.27265			43387.38302		70.72000		324.00000 
 43692.65567		 952.57479			42740.08088		228.94600		875.00000 
 43692.65567		 305.27265			43387.38302		70.72000		324.00000 
 43692.65567		 952.57479			42740.08088		228.94600		875.00000 
 43692.65567		 305.27265			43387.38302		70.72000		324.00000 
 43692.65567		 952.57479			42740.08088		228.94600		875.00000 
 43692.65567		 305.27265			43387.38302		70.72000		324.00000 
 43692.65567		 952.57479			42740.08088		228.94600		875.00000 
 43692.65567		 305.27265			43387.38302		70.72000		324.00000 
 43692.65567		 952.57479			42740.08088		228.94600		875.00000 
 43692.65567		 305.27265			43387.38302		70.72000		324.00000 
 43692.65567		 952.57479			42740.08088		228.94600		875.00000 
 43692.65567		 305.27265			43387.38302		70.72000		324.00000 
 43692.65567		 952.57479			42740.08088		228.94600		875.00000 
 43692.65567		 305.27265			43387.38302		70.72000		324.00000 
 43692.65567		 952.57479			42740.08088		228.94600		875.00000 
 43692.65567		 305.27265			43387.38302		70.72000		324.00000 
 43692.65567		 952.57479			42740.08088		228.94600		875.00000 
 43692.65567		 305.27265			43387.38302		70.72000		324.00000 
 43692.65567		 952.57479			42740.08088		228.94600		875.00000 
 43692.65567		 305.27265			43387.38302		70.72000		324.00000 
 43692.65567		 952.57479			42740.08088		228.94600		875.00000 
 43692.65567		 305.27265			43387.38302		70.72000		324.00000 
 43692.65567		 952.57479			42740.08088		228.94600		875.00000 
 43692.65567		 305.27265			43387.38302		70.72000		324.00000 
 43692.65567		 952.57479			42740.08088		228.94600		875.00000 
 43692.65567		 305.27265			43387.38302		70.72000		324.00000 
 43692.65567		 952.57479			42740.08088		228.94600		875.00000 
 43692.65567		 305.27265			43387.38302		70.72000		324.00000 
 43692.65567		 952.57479			42740.08088		228.94600		875.00000 
 43692.65567		 305.27265			43387.38302		70.72000		324.00000 
 43692.65567		 952.57479			42740.08088		228.94600		875.00000 
 43692.65567		 305.27265			43387.38302		70.72000		324.00000 
 43692.65567		 952.57479			42740.08088		228.94600		875.00000 
 43692.65567		 305.27265			43387.38302		70.72000		324.00000 
 43692.65567		 952.57479			42740.08088		228.94600		875.00000 
 43692.65567		 305.27265			43387.38302		70.72000		324.00000 
 43692.65567		 952.57479			42740.08088		228.94600		875.00000 
 43692.65567		 305.27265			43387.38302		70.72000		324.00000 
 43692.65567		 952.57479			42740.08088		228.94600		875.00000 
 43692.65567		 305.27265			43387.38302		70.72000		324.00000 
 43692.65567		 952.57479			42740.08088		228.94600		875.00000 
 43692.65567		 305.27265			43387.38302		70.72000		324.00000 
 43692.65567		 952.57479			42740.08088		228.94600		875.00000 
 43692.65567		 305.27265			43387.38302		70.72000		324.00000 
 43692.65567		 952.57479			42740.08088		228.94600		875.00000 
 43692.65567		 305.27265			43387.38302		70.72000		324.00000 
 43692.65567		 952.57479			42740.08088		228.94600		875.00000 
 43692.65567		 305.27265			43387.38302		70.72000		324.00000 
 43692.65567		 952.57479			42740.08088		228.94600		875.00000 
 43692.65567		 305.27265			43387.38302		70.72000		324.00000 
 43692.65567		 952.57479			42740.08088		228.94600		875.00000 
 43692.65567		 305.27265			43387.38302		70.72000		324.00000 
 43692.65567		 952.57479			42740.08088		228.94600		875.00000 
 43692.65567		 305.27265			43387.38302		70.72000		324.00000 
 43692.65567		 952.57479			42740.08088		228.94600		875.00000 
 43692.65567		 305.27265			43387.38302		70.72000		324.00000 
 43692.65567		 952.57479			42740.08088		228.94600		875.00000 
 43692.65567		 305.27265			43387.38302		70.72000		324.00000 
 43692.65567		 952.57479			42740.08088		228.94600		875.00000 
 43692.65567		 305.27265			43387.38302		70.72000		324.00000 
 43692.65567		 952.57479			42740.08088		228.94600		875.00000 
 43692.65567		 305.27265			43387.38302		70.72000		324.00000 
 43692.65567		 952.57479			42740.08088		228.94600		875.00000 
 43692.65567		 305.27265			43387.38302		70.72000		324.00000 
 43692.65567		 952.57479			42740.08088		228.94600		875.00000 
 43692.65567		 305.27265			43387.38302		70.72000		324.00000 
 43692.65567		 952.57479			42740.08088		228.94600		875.00000 
 43692.65567		 305.27265			43387.38302		70.72000		324.00000 
 43692.65567		 952.57479			42740.08088		228.94600		875.00000 
 43692.65567		 305.27265			43387.38302		70.72000		324.00000 
 43692.65567		 952.57479			42740.08088		228.94600		875.00000 
 43692.65567		 305.27265			43387.38302		70.72000		324.00000 
 43692.65567		 952.57479			42740.08088		228.94600		875.00000 
 43692.65567		 305.27265			43387.38302		70.72000		324.00000 
 43692.65567		 952.57479			42740.08088		228.94600		875.00000 
 43692.65567		 305.27265			43387.38302		70.72000		324.00000 
 43692.65567		 952.57479			42740.08088		228.94600		875.00000 
 43692.65567		 305.27265			43387.38302		70.72000		324.00000 
 43692.65567		 952.57479			42740.08088		228.94600		875.00000 
 43692.65567		 305.27265			43387.38302		70.72000		324.00000 
 43692.65567		 952.57479			42740.08088		228.94600		875.00000 
 43692.65567		 305.27265			43387.38302		70.72000		324.00000 
 43692.65567		 952.57479			42740.08088		228.94600		875.00000 
 43692.65567		 305.27265			43387.38302		70.72000		324.00000 
 43692.65567		 952.57479			42740.08088		228.94600		875.00000 
 43692.65567		 305.27265			43387.38302		70.72000		324.00000 
 43692.65567		 952.57479			42740.08088		228.94600		875.00000 
 43692.65567		 305.27265			43387.38302		70.72000		324.00000 
 43692.65567		 952.57479			42740.08088		228.94600		875.00000 
 43692.65567		 305.27265			43387.38302		70.72000		324.00000 
 43692.65567		 952.57479			42740.08088		228.94600		875.00000 
 43692.65567		 305.27265			43387.38302		70.72000		324.00000 
 43692.65567		 952.57479			42740.08088		228.94600		875.00000 
 43692.65567		 305.27265			43387.38302		70.72000		324.00000 
 43692.65567		 952.57479			42740.08088		228.94600		875.00000 
 43692.65567		 305.27265			43387.38302		70.72000		324.00000 
 43692.65567		 952.57479			42740.08088		228.94600		875.00000 
 43692.65567		 305.27265			43387.38302		70.72000		324.00000 
 43692.65567		 952.57479			42740.08088		228.94600		875.00000 
 43692.65567		 305.27265			43387.38302		70.72000		324.00000 
 43692.65567		 952.57479			42740.08088		228.94600		875.00000 
 43692.65567		 305.27265			43387.38302		70.72000		324.00000 
 43692.65567		 952.57479			42740.08088		228.94600		875.00000 
 43692.65567		 305.27265			43387.38302		70.72000		324.00000 
 43692.65567		 952.57479			42740.08088		228.94600		875.00000 
 43692.65567		 305.27265			43387.38302		70.72000		324.00000 
 43692.65567		 952.57479			42740.08088		228.94600		875.00000 
 43692.65567		 305.27265			43387.38302		70.72000		324.00000 
 43692.65567		 952.57479			42740.08088		228.94600		875.00000 
 43692.65567		 305.27265			43387.38302		70.72000		324.00000 
 43692.65567		 952.57479			42740.08088		228.94600		875.00000 
 43692.65567		 305.27265			43387.38302		70.72000		324.00000 
 43692.65567		 952.57479			42740.08088		228.94600		875.00000 
 43692.65567		 305.27265			43387.38302		70.72000		324.00000 
 43692.65567		 952.57479			42740.08088		228.94600		875.00000 
 43692.65567		 305.27265			43387.38302		70.72000		324.00000 
 43692.65567		 952.57479			42740.08088		228.94600		875.00000 
 43692.65567		 305.27265			43387.38302		70.72000		324.00000 
 43692.65567		 952.57479			42740.08088		228.94600		875.00000 
 43692.65567		 305.27265			43387.38302		70.72000		324.00000 
 43692.65567		 952.57479			42740.08088		228.94600		875.00000 
 43692.65567		 305.27265			43387.38302		70.72000		324.00000 
 43692.65567		 952.57479			42740.08088		228.94600		875.00000 
 43692.65567		 305.27265			43387.38302		70.72000		324.00000 
 43692.65567		 952.57479			42740.08088		228.94600		875.00000 
 43692.65567		 305.27265			43387.38302		70.72000		324.00000 
 43692.65567		 952.57479			42740.08088		228.94600		875.00000 
 43692.65567		 305.27265			43387.38302		70.72000		324.00000 
 43692.65567		 952.57479			42740.08088		228.94600		875.00000 
 43692.65567		 305.27265			43387.38302		70.72000		324.00000 
 43692.65567		 952.57479			42740.08088		228.94600		875.00000 
 43692.65567		 305.27265			43387.38302		70.72000		324.00000 
 43692.65567		 952.57479			42740.08088		228.94600		875.00000 
 43692.65567		 305.27265			43387.38302		70.72000		324.00000 
 43692.65567		 952.57479			42740.08088		228.94600		875.00000 
 43692.65567		 305.27265			43387.38302		70.72000		324.00000 
 43692.65567		 952.57479			42740.08088		228.94600		875.00000 
 43692.65567		 305.27265			43387.38302		70.72000		324.00000 
 43692.65567		 952.57479			42740.08088		228.94600		875.00000 
 43692.65567		 305.27265			43387.38302		70.72000		324.00000 
 43692.65567		 952.57479			42740.08088		228.94600		875.00000 
 43692.65567		 305.27265			43387.38302		70.72000		324.00000 
 43692.65567		 952.57479			42740.08088		228.94600		875.00000 
 43692.65567		 305.27265			43387.38302		70.72000		324.00000 
 43692.65567		 952.57479			42740.08088		228.94600		875.00000 
 43692.65567		 305.27265			43387.38302		70.72000		324.00000 
 43692.65567		 952.57479			42740.08088		228.94600		875.00000 
 43692.65567		 305.27265			43387.38302		70.72000		324.00000 
 43692.65567		 952.57479			42740.08088		228.94600		875.00000 
 43692.65567		 305.27265			43387.38302		70.72000		324.00000 
 43692.65567		 952.57479			42740.08088		228.94600		875.00000 
 43692.65567		 305.27265			43387.38302		70.72000		324.00000 
 43692.65567		 952.57479			42740.08088		228.94600		875.00000 
 43692.65567		 305.27265			43387.38302		70.72000		324.00000 
 43692.65567		 952.57479			42740.08088		228.94600		875.00000 
 43692.65567		 305.27265			43387.38302		70.72000		324.00000 
 43692.65567		 952.57479			42740.08088		228.94600		875.00000 
 43692.65567		 305.27265			43387.38302		70.72000		324.00000 
 43692.65567		 952.57479			42740.08088		228.94600		875.00000 
 43692.65567		 305.27265			43387.38302		70.72000		324.00000 
 43692.65567		 952.57479			42740.08088		228.94600		875.00000 
 43692.65567		 305.27265			43387.38302		70.72000		324.00000 
 43692.65567		 952.57479			42740.08088		228.94600		875.00000 
 43692.65567		 305.27265			43387.38302		70.72000		324.00000 
 43692.65567		 952.57479			42740.08088		228.94600		875.00000 
 43692.65567		 305.27265			43387.38302		70.72000		324.00000 
 43692.65567		 952.57479			42740.08088		228.94600		875.00000 
 43692.65567		 305.27265			43387.38302		70.72000		324.00000 
 43692.65567		 952.57479			42740.08088		228.94600		875.00000 
 43692.65567		 305.27265			43387.38302		70.72000		324.00000 
 43692.65567		 952.57479			42740.08088		228.94600		875.00000 
 43692.65567		 305.27265			43387.38302		70.72000		324.00000 
 43692.65567		 952.57479			42740.08088		229.54400		875.00000 
 43692.65567		 305.27265			43387.38302		70.72000		324.00000 
 43692.65567		 952.57479			42740.08088		229.54400		875.00000 
 43692.65567		 305.27265			43387.38302		70.72000		324.00000 
 43692.65567		 952.57479			42740.08088		229.54400		875.00000 
 43692.65567		 305.27265			43387.38302		70.72000		324.00000 
 43692.65567		 952.57479			42740.08088		229.54400		875.00000 
 43692.65567		 305.27265			43387.38302		70.72000		324.00000 
 43692.65567		 952.57479			42740.08088		229.54400		875.00000 
 43692.65567		 305.27265			43387.38302		70.72000		324.00000 
 43692.65567		 952.57479			42740.08088		229.54400		875.00000 
 43692.65567		 305.27265			43387.38302		70.72000		324.00000 
 43692.65567		 952.57479			42740.08088		229.54400		875.00000 
 43692.65567		 305.27265			43387.38302		70.72000		324.00000 
 43692.65567		 952.57479			42740.08088		229.54400		875.00000 
 43692.65567		 305.27265			43387.38302		70.72000		324.00000 
 43692.65567		 952.57479			42740.08088		229.54400		875.00000 
 43692.65567		 305.27265			43387.38302		70.72000		324.00000 
 43692.65567		 952.57479			42740.08088		229.54400		875.00000 
 43692.65567		 305.27265			43387.38302		70.72000		324.00000 
 43692.65567		 952.57479			42740.08088		229.54400		875.00000 
 43692.65567		 305.27265			43387.38302		70.72000		324.00000 
 43692.65567		 952.57479			42740.08088		229.54400		875.00000 
 43692.65567		 305.27265			43387.38302		70.72000		324.00000 
 43692.65567		 952.57479			42740.08088		229.54400		875.00000 
 43692.65567		 305.27265			43387.38302		70.72000		324.00000 
 43692.65567		 952.57479			42740.08088		229.54400		875.00000 
 43692.65567		 305.27265			43387.38302		70.72000		324.00000 
 43692.65567		 952.57479			42740.08088		229.54400		875.00000 
 43692.65567		 305.27265			43387.38302		70.72000		324.00000 
 43692.65567		 952.57479			42740.08088		229.54400		875.00000 
 43692.65567		 305.27265			43387.38302		70.72000		324.00000 
 43692.65567		 952.57479			42740.08088		229.54400		875.00000 
 43692.65567		 305.27265			43387.38302		70.72000		324.00000 
 43692.65567		 952.57479			42740.08088		229.54400		875.00000 
 43692.65567		 305.27265			43387.38302		70.72000		324.00000 
 43692.65567		 952.57479			42740.08088		229.54400		875.00000 
 43692.65567		 305.27265			43387.38302		70.72000		324.00000 
 43692.65567		 952.57479			42740.08088		229.54400		875.00000 
 43692.65567		 305.27265			43387.38302		70.72000		324.00000 
 43692.65567		 952.57479			42740.08088		229.54400		875.00000 
 43692.65567		 305.27265			43387.38302		70.72000		324.00000 
 43692.65567		 952.57479			42740.08088		229.54400		875.00000 
 43692.65567		 305.27265			43387.38302		70.72000		324.00000 
 43692.65567		 952.57479			42740.08088		229.54400		875.00000 
 43692.65567		 305.27265			43387.38302		70.72000		324.00000 
 43692.65567		 952.57479			42740.08088		229.54400		875.00000 
 43692.65567		 305.27265			43387.38302		70.72000		324.00000 
 43692.65567		 814.13997			42878.51570		229.54400		875.00000 
 43692.65567		 305.27265			43387.38302		70.72000		324.00000 
 43692.65567		 814.13997			42878.51570		229.54400		875.00000 
 43692.65567		 305.27265			43387.38302		70.72000		324.00000 
 43692.65567		 675.70515			43016.95053		229.54400		875.00000 
 43692.65567		 305.27265			43387.38302		70.72000		324.00000 
 43692.65567		 675.70515			43016.95053		229.54400		875.00000 
 43692.65567		 305.27265			43387.38302		70.72000		324.00000 
 43692.65567		 537.27032			43155.38535		229.54400		875.00000 
 43692.65567		 305.27265			43387.38302		70.72000		324.00000 
 43692.65567		 537.27032			43155.38535		229.54400		875.00000 
 43692.65567		 305.27265			43387.38302		70.72000		324.00000 
 43692.65567		 537.27032			43155.38535		229.54400		875.00000 
 43692.65567		 305.27265			43387.38302		70.72000		324.00000 
 43692.65567		 537.27032			43155.38535		229.54400		875.00000 
 43692.65567		 305.27265			43387.38302		70.72000		324.00000 
 43692.65567		 537.27032			43155.38535		229.54400		875.00000 
 43692.65567		 305.27265			43387.38302		70.72000		324.00000 
 43692.65567		 537.27032			43155.38535		229.54400		875.00000 
 43692.65567		 305.27265			43387.38302		70.72000		324.00000 
 43692.65567		 537.27032			43155.38535		229.54400		875.00000 
 43692.65567		 305.27265			43387.38302		70.72000		324.00000 
 43692.65567		 537.27032			43155.38535		229.54400		875.00000 
 43692.65567		 305.27265			43387.38302		70.72000		324.00000 
 43692.65567		 537.27032			43155.38535		229.54400		875.00000 
 43692.65567		 305.27265			43387.38302		70.72000		324.00000 
 43692.65567		 537.27032			43155.38535		229.54400		875.00000 
 43692.65567		 305.27265			43387.38302		70.72000		324.00000 
 43692.65567		 537.27032			43155.38535		229.54400		875.00000 
 43692.65567		 305.27265			43387.38302		70.72000		324.00000 
 43692.65567		 537.27032			43155.38535		229.54400		875.00000 
 43692.65567		 305.27265			43387.38302		70.72000		324.00000 
 43692.65567		 537.27032			43155.38535		229.54400		875.00000 
 43692.65567		 305.27265			43387.38302		70.72000		324.00000 
 43692.65567		 537.27032			43155.38535		229.54400		875.00000 
 43692.65567		 305.27265			43387.38302		70.72000		324.00000 
 43692.65567		 537.27032			43155.38535		229.54400		875.00000 
 43692.65567		 305.27265			43387.38302		70.72000		324.00000 
 43692.65567		 537.27032			43155.38535		229.54400		875.00000 
 43692.65567		 305.27265			43387.38302		70.72000		324.00000 
 43692.65567		 537.27032			43155.38535		229.54400		875.00000 
 43692.65567		 305.27265			43387.38302		70.72000		324.00000 
 43692.65567		 537.27032			43155.38535		229.54400		875.00000 
 43692.65567		 305.27265			43387.38302		70.72000		324.00000 
 43692.65567		 537.27032			43155.38535		229.54400		875.00000 
 43692.65567		 305.27265			43387.38302		70.72000		324.00000 
 43692.65567		 537.27032			43155.38535		229.54400		875.00000 
 43692.65567		 305.27265			43387.38302		70.72000		324.00000 
 43692.65567		 537.27032			43155.38535		229.54400		875.00000 
 43692.65567		 305.27265			43387.38302		70.72000		324.00000 
 43692.65567		 537.27032			43155.38535		229.54400		875.00000 
 43692.65567		 305.27265			43387.38302		70.72000		324.00000 
 43692.65567		 529.63254			43163.02313		229.54400		875.00000 
 43692.65567		 305.27265			43387.38302		70.72000		324.00000 
 43692.65567		 525.81365			43166.84203		229.54400		875.00000 
 43692.65567		 293.81598			43398.83969		70.72000		324.00000 
 43692.65567		 261.35540			43431.30027		186.04200		875.00000 
 43692.65567		 261.35540			43431.30027		70.72000		324.00000 
