Memory Total (MiB) 	 Memory Used (MiB) 	    Memory Free (MiB) 	 Power Drawed (W) 	 Clocks (Mhz) 	 
 43692.65567		 261.35540			43431.30027		193.22400		875.00000 
 43692.65567		 261.35540			43431.30027		65.13400		324.00000 
 43692.65567		 261.35540			43431.30027		193.22400		875.00000 
 43692.65567		 261.35540			43431.30027		65.13400		324.00000 
 43692.65567		 261.35540			43431.30027		193.22400		875.00000 
 43692.65567		 261.35540			43431.30027		65.13400		324.00000 
 43692.65567		 261.35540			43431.30027		193.22400		875.00000 
 43692.65567		 261.35540			43431.30027		65.13400		324.00000 
 43692.65567		 261.35540			43431.30027		193.22400		875.00000 
 43692.65567		 261.35540			43431.30027		65.13400		324.00000 
 43692.65567		 261.35540			43431.30027		193.22400		875.00000 
 43692.65567		 261.35540			43431.30027		65.13400		324.00000 
 43692.65567		 261.35540			43431.30027		193.22400		875.00000 
 43692.65567		 261.35540			43431.30027		65.13400		324.00000 
 43692.65567		 261.35540			43431.30027		193.22400		875.00000 
 43692.65567		 261.35540			43431.30027		65.13400		324.00000 
 43692.65567		 261.35540			43431.30027		193.22400		875.00000 
 43692.65567		 261.35540			43431.30027		65.13400		324.00000 
 43692.65567		 261.35540			43431.30027		193.22400		875.00000 
 43692.65567		 261.35540			43431.30027		65.13400		324.00000 
 43692.65567		 261.35540			43431.30027		193.22400		875.00000 
 43692.65567		 261.35540			43431.30027		65.13400		324.00000 
 43692.65567		 261.35540			43431.30027		193.22400		875.00000 
 43692.65567		 261.35540			43431.30027		65.13400		324.00000 
 43692.65567		 261.35540			43431.30027		193.22400		875.00000 
 43692.65567		 261.35540			43431.30027		65.13400		324.00000 
 43692.65567		 261.35540			43431.30027		193.22400		875.00000 
 43692.65567		 261.35540			43431.30027		65.13400		324.00000 
 43692.65567		 261.35540			43431.30027		193.22400		875.00000 
 43692.65567		 261.35540			43431.30027		65.13400		324.00000 
 43692.65567		 261.35540			43431.30027		193.22400		875.00000 
 43692.65567		 261.35540			43431.30027		65.13400		324.00000 
 43692.65567		 261.35540			43431.30027		193.22400		875.00000 
 43692.65567		 261.35540			43431.30027		65.13400		324.00000 
 43692.65567		 261.35540			43431.30027		193.22400		875.00000 
 43692.65567		 261.35540			43431.30027		65.13400		324.00000 
 43692.65567		 265.17429			43427.48138		193.22400		875.00000 
 43692.65567		 261.35540			43431.30027		65.13400		324.00000 
 43692.65567		 265.17429			43427.48138		154.68600		875.00000 
 43692.65567		 261.35540			43431.30027		65.13400		324.00000 
 43692.65567		 272.81207			43419.84360		154.68600		875.00000 
 43692.65567		 261.35540			43431.30027		65.13400		324.00000 
 43692.65567		 272.81207			43419.84360		154.68600		875.00000 
 43692.65567		 261.35540			43431.30027		65.13400		324.00000 
 43692.65567		 272.81207			43419.84360		154.68600		875.00000 
 43692.65567		 265.17429			43427.48138		65.13400		324.00000 
 43692.65567		 272.81207			43419.84360		154.68600		875.00000 
 43692.65567		 265.17429			43427.48138		65.13400		324.00000 
 43692.65567		 272.81207			43419.84360		154.68600		875.00000 
 43692.65567		 265.17429			43427.48138		65.13400		324.00000 
 43692.65567		 272.81207			43419.84360		154.68600		875.00000 
 43692.65567		 272.81207			43419.84360		65.13400		324.00000 
 43692.65567		 272.81207			43419.84360		154.68600		875.00000 
 43692.65567		 272.81207			43419.84360		65.13400		324.00000 
 43692.65567		 272.81207			43419.84360		154.68600		875.00000 
 43692.65567		 272.81207			43419.84360		65.13400		324.00000 
 43692.65567		 305.27265			43387.38302		154.68600		875.00000 
 43692.65567		 305.27265			43387.38302		65.13400		324.00000 
 43692.65567		 305.27265			43387.38302		154.68600		875.00000 
 43692.65567		 305.27265			43387.38302		65.13400		324.00000 
 43692.65567		 305.27265			43387.38302		154.68600		875.00000 
 43692.65567		 305.27265			43387.38302		65.13400		324.00000 
 43692.65567		 305.27265			43387.38302		154.68600		875.00000 
 43692.65567		 305.27265			43387.38302		65.13400		324.00000 
 43692.65567		 305.27265			43387.38302		154.68600		875.00000 
 43692.65567		 305.27265			43387.38302		65.13400		324.00000 
 43692.65567		 310.04627			43382.60941		154.68600		875.00000 
 43692.65567		 305.27265			43387.38302		65.13400		324.00000 
 43692.65567		 311.00099			43381.65468		154.68600		875.00000 
 43692.65567		 305.27265			43387.38302		65.13400		324.00000 
 43692.65567		 311.00099			43381.65468		154.68600		875.00000 
 43692.65567		 305.27265			43387.38302		65.13400		324.00000 
 43692.65567		 311.00099			43381.65468		154.68600		875.00000 
 43692.65567		 305.27265			43387.38302		65.13400		324.00000 
 43692.65567		 311.00099			43381.65468		154.68600		875.00000 
 43692.65567		 305.27265			43387.38302		65.13400		324.00000 
 43692.65567		 311.00099			43381.65468		154.68600		875.00000 
 43692.65567		 305.27265			43387.38302		65.13400		324.00000 
 43692.65567		 311.00099			43381.65468		154.68600		875.00000 
 43692.65567		 305.27265			43387.38302		65.13400		324.00000 
 43692.65567		 311.00099			43381.65468		154.68600		875.00000 
 43692.65567		 305.27265			43387.38302		65.13400		324.00000 
 43692.65567		 311.00099			43381.65468		154.68600		875.00000 
 43692.65567		 305.27265			43387.38302		65.13400		324.00000 
 43692.65567		 311.00099			43381.65468		154.68600		875.00000 
 43692.65567		 305.27265			43387.38302		65.13400		324.00000 
 43692.65567		 311.00099			43381.65468		154.68600		875.00000 
 43692.65567		 305.27265			43387.38302		65.13400		324.00000 
 43692.65567		 311.00099			43381.65468		154.68600		875.00000 
 43692.65567		 305.27265			43387.38302		65.13400		324.00000 
 43692.65567		 311.00099			43381.65468		154.68600		875.00000 
 43692.65567		 305.27265			43387.38302		65.13400		324.00000 
 43692.65567		 311.00099			43381.65468		154.68600		875.00000 
 43692.65567		 305.27265			43387.38302		65.13400		324.00000 
 43692.65567		 311.00099			43381.65468		154.68600		875.00000 
 43692.65567		 305.27265			43387.38302		65.13400		324.00000 
 43692.65567		 311.00099			43381.65468		154.68600		875.00000 
 43692.65567		 305.27265			43387.38302		65.13400		324.00000 
 43692.65567		 311.00099			43381.65468		154.68600		875.00000 
 43692.65567		 305.27265			43387.38302		65.13400		324.00000 
 43692.65567		 311.00099			43381.65468		139.84200		875.00000 
 43692.65567		 305.27265			43387.38302		65.13400		324.00000 
 43692.65567		 311.00099			43381.65468		139.84200		875.00000 
 43692.65567		 305.27265			43387.38302		65.13400		324.00000 
 43692.65567		 311.00099			43381.65468		139.84200		875.00000 
 43692.65567		 305.27265			43387.38302		65.13400		324.00000 
 43692.65567		 311.00099			43381.65468		139.84200		875.00000 
 43692.65567		 305.27265			43387.38302		65.13400		324.00000 
 43692.65567		 311.00099			43381.65468		139.84200		875.00000 
 43692.65567		 305.27265			43387.38302		65.13400		324.00000 
 43692.65567		 311.00099			43381.65468		139.84200		875.00000 
 43692.65567		 305.27265			43387.38302		65.13400		324.00000 
 43692.65567		 311.00099			43381.65468		139.84200		875.00000 
 43692.65567		 305.27265			43387.38302		65.13400		324.00000 
 43692.65567		 311.00099			43381.65468		139.84200		875.00000 
 43692.65567		 305.27265			43387.38302		65.13400		324.00000 
 43692.65567		 311.00099			43381.65468		139.84200		875.00000 
 43692.65567		 305.27265			43387.38302		65.13400		324.00000 
 43692.65567		 311.00099			43381.65468		139.84200		875.00000 
 43692.65567		 305.27265			43387.38302		65.13400		324.00000 
 43692.65567		 311.00099			43381.65468		139.84200		875.00000 
 43692.65567		 305.27265			43387.38302		65.13400		324.00000 
 43692.65567		 311.00099			43381.65468		139.84200		875.00000 
 43692.65567		 305.27265			43387.38302		65.13400		324.00000 
 43692.65567		 311.00099			43381.65468		139.84200		875.00000 
 43692.65567		 305.27265			43387.38302		65.13400		324.00000 
 43692.65567		 311.00099			43381.65468		139.84200		875.00000 
 43692.65567		 305.27265			43387.38302		65.13400		324.00000 
 43692.65567		 311.00099			43381.65468		139.84200		875.00000 
 43692.65567		 305.27265			43387.38302		65.13400		324.00000 
 43692.65567		 311.00099			43381.65468		139.84200		875.00000 
 43692.65567		 305.27265			43387.38302		65.13400		324.00000 
 43692.65567		 311.00099			43381.65468		139.84200		875.00000 
 43692.65567		 305.27265			43387.38302		65.13400		324.00000 
 43692.65567		 311.00099			43381.65468		139.84200		875.00000 
 43692.65567		 305.27265			43387.38302		65.13400		324.00000 
 43692.65567		 311.00099			43381.65468		139.84200		875.00000 
 43692.65567		 305.27265			43387.38302		65.13400		324.00000 
 43692.65567		 311.00099			43381.65468		139.84200		875.00000 
 43692.65567		 305.27265			43387.38302		65.13400		324.00000 
 43692.65567		 311.00099			43381.65468		139.84200		875.00000 
 43692.65567		 305.27265			43387.38302		65.13400		324.00000 
 43692.65567		 311.00099			43381.65468		139.84200		875.00000 
 43692.65567		 305.27265			43387.38302		65.13400		324.00000 
 43692.65567		 311.00099			43381.65468		139.84200		875.00000 
 43692.65567		 305.27265			43387.38302		65.13400		324.00000 
 43692.65567		 311.00099			43381.65468		139.84200		875.00000 
 43692.65567		 305.27265			43387.38302		65.13400		324.00000 
 43692.65567		 311.00099			43381.65468		139.84200		875.00000 
 43692.65567		 305.27265			43387.38302		65.13400		324.00000 
 43692.65567		 311.00099			43381.65468		139.84200		875.00000 
 43692.65567		 305.27265			43387.38302		65.13400		324.00000 
 43692.65567		 311.00099			43381.65468		139.84200		875.00000 
 43692.65567		 305.27265			43387.38302		65.13400		324.00000 
 43692.65567		 311.00099			43381.65468		139.84200		875.00000 
 43692.65567		 305.27265			43387.38302		65.13400		324.00000 
 43692.65567		 311.00099			43381.65468		139.84200		875.00000 
 43692.65567		 305.27265			43387.38302		65.13400		324.00000 
 43692.65567		 311.00099			43381.65468		139.84200		875.00000 
 43692.65567		 305.27265			43387.38302		65.13400		324.00000 
 43692.65567		 311.00099			43381.65468		134.44800		875.00000 
 43692.65567		 305.27265			43387.38302		65.13400		324.00000 
 43692.65567		 311.00099			43381.65468		134.44800		875.00000 
 43692.65567		 305.27265			43387.38302		65.13400		324.00000 
 43692.65567		 311.00099			43381.65468		134.44800		875.00000 
 43692.65567		 305.27265			43387.38302		65.13400		324.00000 
 43692.65567		 311.00099			43381.65468		134.44800		875.00000 
 43692.65567		 305.27265			43387.38302		65.13400		324.00000 
 43692.65567		 314.81988			43377.83579		134.44800		875.00000 
 43692.65567		 305.27265			43387.38302		65.13400		324.00000 
 43692.65567		 314.81988			43377.83579		134.44800		875.00000 
 43692.65567		 305.27265			43387.38302		65.13400		324.00000 
 43692.65567		 314.81988			43377.83579		134.44800		875.00000 
 43692.65567		 305.27265			43387.38302		65.13400		324.00000 
 43692.65567		 318.63877			43374.01690		134.44800		875.00000 
 43692.65567		 305.27265			43387.38302		65.13400		324.00000 
 43692.65567		 322.45767			43370.19801		134.44800		875.00000 
 43692.65567		 305.27265			43387.38302		65.13400		324.00000 
 43692.65567		 326.27656			43366.37912		134.44800		875.00000 
 43692.65567		 305.27265			43387.38302		64.65000		324.00000 
 43692.65567		 326.27656			43366.37912		134.44800		875.00000 
 43692.65567		 305.27265			43387.38302		64.65000		324.00000 
 43692.65567		 537.27032			43155.38535		134.44800		875.00000 
 43692.65567		 305.27265			43387.38302		64.65000		324.00000 
 43692.65567		 571.16299			43121.49269		134.44800		875.00000 
 43692.65567		 305.27265			43387.38302		64.65000		324.00000 
 43692.65567		 638.94831			43053.70736		134.44800		875.00000 
 43692.65567		 305.27265			43387.38302		64.65000		324.00000 
 43692.65567		 638.94831			43053.70736		134.44800		875.00000 
 43692.65567		 305.27265			43387.38302		64.65000		324.00000 
 43692.65567		 638.94831			43053.70736		134.44800		875.00000 
 43692.65567		 305.27265			43387.38302		64.65000		324.00000 
 43692.65567		 638.94831			43053.70736		134.44800		875.00000 
 43692.65567		 305.27265			43387.38302		64.65000		324.00000 
 43692.65567		 638.94831			43053.70736		134.44800		875.00000 
 43692.65567		 305.27265			43387.38302		64.65000		324.00000 
 43692.65567		 638.94831			43053.70736		134.44800		875.00000 
 43692.65567		 305.27265			43387.38302		64.65000		324.00000 
 43692.65567		 638.94831			43053.70736		134.44800		875.00000 
 43692.65567		 305.27265			43387.38302		64.65000		324.00000 
 43692.65567		 638.94831			43053.70736		134.44800		875.00000 
 43692.65567		 305.27265			43387.38302		64.65000		324.00000 
 43692.65567		 638.94831			43053.70736		134.44800		875.00000 
 43692.65567		 305.27265			43387.38302		64.65000		324.00000 
 43692.65567		 638.94831			43053.70736		134.44800		875.00000 
 43692.65567		 305.27265			43387.38302		64.65000		324.00000 
 43692.65567		 638.94831			43053.70736		134.44800		875.00000 
 43692.65567		 305.27265			43387.38302		64.65000		324.00000 
 43692.65567		 638.94831			43053.70736		134.44800		875.00000 
 43692.65567		 305.27265			43387.38302		64.65000		324.00000 
 43692.65567		 638.94831			43053.70736		134.44800		875.00000 
 43692.65567		 305.27265			43387.38302		64.65000		324.00000 
 43692.65567		 638.94831			43053.70736		134.44800		875.00000 
 43692.65567		 305.27265			43387.38302		64.65000		324.00000 
 43692.65567		 638.94831			43053.70736		134.44800		875.00000 
 43692.65567		 305.27265			43387.38302		64.65000		324.00000 
 43692.65567		 638.94831			43053.70736		134.44800		875.00000 
 43692.65567		 305.27265			43387.38302		64.65000		324.00000 
 43692.65567		 638.94831			43053.70736		134.44800		875.00000 
 43692.65567		 305.27265			43387.38302		64.65000		324.00000 
 43692.65567		 638.94831			43053.70736		134.44800		875.00000 
 43692.65567		 305.27265			43387.38302		64.65000		324.00000 
 43692.65567		 638.94831			43053.70736		134.44800		875.00000 
 43692.65567		 305.27265			43387.38302		64.65000		324.00000 
 43692.65567		 638.94831			43053.70736		134.44800		875.00000 
 43692.65567		 305.27265			43387.38302		64.65000		324.00000 
 43692.65567		 638.94831			43053.70736		134.44800		875.00000 
 43692.65567		 305.27265			43387.38302		64.65000		324.00000 
 43692.65567		 638.94831			43053.70736		134.44800		875.00000 
 43692.65567		 305.27265			43387.38302		64.65000		324.00000 
 43692.65567		 638.94831			43053.70736		134.44800		875.00000 
 43692.65567		 305.27265			43387.38302		64.65000		324.00000 
 43692.65567		 638.94831			43053.70736		134.44800		875.00000 
 43692.65567		 305.27265			43387.38302		64.65000		324.00000 
 43692.65567		 638.94831			43053.70736		134.44800		875.00000 
 43692.65567		 305.27265			43387.38302		64.65000		324.00000 
 43692.65567		 638.94831			43053.70736		134.44800		875.00000 
 43692.65567		 305.27265			43387.38302		64.65000		324.00000 
 43692.65567		 638.94831			43053.70736		134.44800		875.00000 
 43692.65567		 305.27265			43387.38302		64.65000		324.00000 
 43692.65567		 638.94831			43053.70736		134.44800		875.00000 
 43692.65567		 305.27265			43387.38302		64.65000		324.00000 
 43692.65567		 638.94831			43053.70736		134.44800		875.00000 
 43692.65567		 305.27265			43387.38302		64.65000		324.00000 
 43692.65567		 638.94831			43053.70736		134.44800		875.00000 
 43692.65567		 305.27265			43387.38302		64.65000		324.00000 
 43692.65567		 638.94831			43053.70736		134.44800		875.00000 
 43692.65567		 305.27265			43387.38302		64.65000		324.00000 
 43692.65567		 638.94831			43053.70736		134.44800		875.00000 
 43692.65567		 305.27265			43387.38302		64.65000		324.00000 
 43692.65567		 638.94831			43053.70736		134.44800		875.00000 
 43692.65567		 305.27265			43387.38302		64.65000		324.00000 
 43692.65567		 638.94831			43053.70736		134.44800		875.00000 
 43692.65567		 305.27265			43387.38302		64.65000		324.00000 
 43692.65567		 638.94831			43053.70736		134.44800		875.00000 
 43692.65567		 305.27265			43387.38302		64.65000		324.00000 
 43692.65567		 638.94831			43053.70736		134.44800		875.00000 
 43692.65567		 305.27265			43387.38302		64.65000		324.00000 
 43692.65567		 638.94831			43053.70736		134.44800		875.00000 
 43692.65567		 305.27265			43387.38302		64.65000		324.00000 
 43692.65567		 638.94831			43053.70736		134.44800		875.00000 
 43692.65567		 305.27265			43387.38302		64.65000		324.00000 
 43692.65567		 638.94831			43053.70736		134.44800		875.00000 
 43692.65567		 305.27265			43387.38302		64.65000		324.00000 
 43692.65567		 638.94831			43053.70736		134.44800		875.00000 
 43692.65567		 305.27265			43387.38302		64.65000		324.00000 
 43692.65567		 638.94831			43053.70736		174.82200		875.00000 
 43692.65567		 305.27265			43387.38302		64.65000		324.00000 
 43692.65567		 638.94831			43053.70736		174.82200		875.00000 
 43692.65567		 305.27265			43387.38302		64.65000		324.00000 
 43692.65567		 638.94831			43053.70736		174.82200		875.00000 
 43692.65567		 305.27265			43387.38302		64.65000		324.00000 
 43692.65567		 638.94831			43053.70736		174.82200		875.00000 
 43692.65567		 305.27265			43387.38302		64.65000		324.00000 
 43692.65567		 638.94831			43053.70736		174.82200		875.00000 
 43692.65567		 305.27265			43387.38302		64.65000		324.00000 
 43692.65567		 638.94831			43053.70736		174.82200		875.00000 
 43692.65567		 305.27265			43387.38302		64.65000		324.00000 
 43692.65567		 638.94831			43053.70736		174.82200		875.00000 
 43692.65567		 305.27265			43387.38302		64.65000		324.00000 
 43692.65567		 638.94831			43053.70736		174.82200		875.00000 
 43692.65567		 305.27265			43387.38302		64.65000		324.00000 
 43692.65567		 638.94831			43053.70736		174.82200		875.00000 
 43692.65567		 305.27265			43387.38302		64.65000		324.00000 
 43692.65567		 638.94831			43053.70736		174.82200		875.00000 
 43692.65567		 305.27265			43387.38302		64.65000		324.00000 
 43692.65567		 638.94831			43053.70736		174.82200		875.00000 
 43692.65567		 305.27265			43387.38302		64.65000		324.00000 
 43692.65567		 638.94831			43053.70736		174.82200		875.00000 
 43692.65567		 305.27265			43387.38302		64.65000		324.00000 
 43692.65567		 638.94831			43053.70736		174.82200		875.00000 
 43692.65567		 305.27265			43387.38302		64.65000		324.00000 
 43692.65567		 638.94831			43053.70736		174.82200		875.00000 
 43692.65567		 305.27265			43387.38302		64.65000		324.00000 
 43692.65567		 638.94831			43053.70736		174.82200		875.00000 
 43692.65567		 305.27265			43387.38302		64.65000		324.00000 
 43692.65567		 638.94831			43053.70736		174.82200		875.00000 
 43692.65567		 305.27265			43387.38302		64.65000		324.00000 
 43692.65567		 638.94831			43053.70736		174.82200		875.00000 
 43692.65567		 305.27265			43387.38302		64.65000		324.00000 
 43692.65567		 638.94831			43053.70736		174.82200		875.00000 
 43692.65567		 305.27265			43387.38302		64.65000		324.00000 
 43692.65567		 638.94831			43053.70736		174.82200		875.00000 
 43692.65567		 305.27265			43387.38302		64.65000		324.00000 
 43692.65567		 638.94831			43053.70736		174.82200		875.00000 
 43692.65567		 305.27265			43387.38302		64.65000		324.00000 
 43692.65567		 638.94831			43053.70736		174.82200		875.00000 
 43692.65567		 305.27265			43387.38302		64.65000		324.00000 
 43692.65567		 638.94831			43053.70736		174.82200		875.00000 
 43692.65567		 305.27265			43387.38302		64.65000		324.00000 
 43692.65567		 638.94831			43053.70736		174.82200		875.00000 
 43692.65567		 305.27265			43387.38302		64.65000		324.00000 
 43692.65567		 638.94831			43053.70736		174.82200		875.00000 
 43692.65567		 305.27265			43387.38302		64.65000		324.00000 
 43692.65567		 638.94831			43053.70736		174.82200		875.00000 
 43692.65567		 305.27265			43387.38302		64.65000		324.00000 
 43692.65567		 638.94831			43053.70736		174.82200		875.00000 
 43692.65567		 305.27265			43387.38302		64.65000		324.00000 
 43692.65567		 638.94831			43053.70736		174.82200		875.00000 
 43692.65567		 305.27265			43387.38302		64.65000		324.00000 
 43692.65567		 638.94831			43053.70736		174.82200		875.00000 
 43692.65567		 305.27265			43387.38302		64.65000		324.00000 
 43692.65567		 638.94831			43053.70736		174.82200		875.00000 
 43692.65567		 305.27265			43387.38302		64.65000		324.00000 
 43692.65567		 638.94831			43053.70736		174.82200		875.00000 
 43692.65567		 305.27265			43387.38302		64.65000		324.00000 
 43692.65567		 638.94831			43053.70736		174.82200		875.00000 
 43692.65567		 305.27265			43387.38302		64.65000		324.00000 
 43692.65567		 638.94831			43053.70736		174.82200		875.00000 
 43692.65567		 305.27265			43387.38302		64.65000		324.00000 
 43692.65567		 638.94831			43053.70736		174.82200		875.00000 
 43692.65567		 305.27265			43387.38302		64.65000		324.00000 
 43692.65567		 638.94831			43053.70736		174.82200		875.00000 
 43692.65567		 305.27265			43387.38302		64.65000		324.00000 
 43692.65567		 638.94831			43053.70736		174.82200		875.00000 
 43692.65567		 305.27265			43387.38302		64.65000		324.00000 
 43692.65567		 638.94831			43053.70736		174.82200		875.00000 
 43692.65567		 305.27265			43387.38302		64.65000		324.00000 
 43692.65567		 638.94831			43053.70736		174.82200		875.00000 
 43692.65567		 305.27265			43387.38302		64.65000		324.00000 
 43692.65567		 638.94831			43053.70736		174.82200		875.00000 
 43692.65567		 305.27265			43387.38302		64.65000		324.00000 
 43692.65567		 638.94831			43053.70736		174.82200		875.00000 
 43692.65567		 305.27265			43387.38302		64.65000		324.00000 
 43692.65567		 638.94831			43053.70736		174.82200		875.00000 
 43692.65567		 305.27265			43387.38302		64.65000		324.00000 
 43692.65567		 638.94831			43053.70736		174.82200		875.00000 
 43692.65567		 305.27265			43387.38302		64.65000		324.00000 
 43692.65567		 638.94831			43053.70736		174.82200		875.00000 
 43692.65567		 305.27265			43387.38302		64.65000		324.00000 
 43692.65567		 638.94831			43053.70736		174.82200		875.00000 
 43692.65567		 305.27265			43387.38302		64.65000		324.00000 
 43692.65567		 638.94831			43053.70736		174.82200		875.00000 
 43692.65567		 305.27265			43387.38302		64.65000		324.00000 
 43692.65567		 638.94831			43053.70736		174.82200		875.00000 
 43692.65567		 305.27265			43387.38302		64.65000		324.00000 
 43692.65567		 638.94831			43053.70736		174.82200		875.00000 
 43692.65567		 305.27265			43387.38302		64.65000		324.00000 
 43692.65567		 638.94831			43053.70736		174.82200		875.00000 
 43692.65567		 305.27265			43387.38302		64.65000		324.00000 
 43692.65567		 638.94831			43053.70736		174.82200		875.00000 
 43692.65567		 305.27265			43387.38302		64.65000		324.00000 
 43692.65567		 638.94831			43053.70736		174.82200		875.00000 
 43692.65567		 305.27265			43387.38302		64.65000		324.00000 
 43692.65567		 638.94831			43053.70736		174.82200		875.00000 
 43692.65567		 305.27265			43387.38302		64.65000		324.00000 
 43692.65567		 638.94831			43053.70736		174.82200		875.00000 
 43692.65567		 305.27265			43387.38302		64.65000		324.00000 
 43692.65567		 638.94831			43053.70736		174.82200		875.00000 
 43692.65567		 305.27265			43387.38302		64.65000		324.00000 
 43692.65567		 638.94831			43053.70736		174.82200		875.00000 
 43692.65567		 305.27265			43387.38302		64.65000		324.00000 
 43692.65567		 638.94831			43053.70736		174.82200		875.00000 
 43692.65567		 305.27265			43387.38302		64.65000		324.00000 
 43692.65567		 638.94831			43053.70736		174.82200		875.00000 
 43692.65567		 305.27265			43387.38302		64.65000		324.00000 
 43692.65567		 638.94831			43053.70736		174.82200		875.00000 
 43692.65567		 305.27265			43387.38302		64.65000		324.00000 
 43692.65567		 638.94831			43053.70736		174.82200		875.00000 
 43692.65567		 305.27265			43387.38302		64.65000		324.00000 
 43692.65567		 638.94831			43053.70736		202.78800		875.00000 
 43692.65567		 305.27265			43387.38302		64.65000		324.00000 
 43692.65567		 638.94831			43053.70736		202.78800		875.00000 
 43692.65567		 305.27265			43387.38302		64.65000		324.00000 
 43692.65567		 638.94831			43053.70736		202.78800		875.00000 
 43692.65567		 305.27265			43387.38302		64.65000		324.00000 
 43692.65567		 638.94831			43053.70736		202.78800		875.00000 
 43692.65567		 305.27265			43387.38302		64.65000		324.00000 
 43692.65567		 638.94831			43053.70736		202.78800		875.00000 
 43692.65567		 305.27265			43387.38302		64.65000		324.00000 
 43692.65567		 638.94831			43053.70736		202.78800		875.00000 
 43692.65567		 305.27265			43387.38302		64.65000		324.00000 
 43692.65567		 638.94831			43053.70736		202.78800		875.00000 
 43692.65567		 305.27265			43387.38302		64.65000		324.00000 
 43692.65567		 638.94831			43053.70736		202.78800		875.00000 
 43692.65567		 305.27265			43387.38302		64.65000		324.00000 
 43692.65567		 638.94831			43053.70736		202.78800		875.00000 
 43692.65567		 305.27265			43387.38302		64.65000		324.00000 
 43692.65567		 638.94831			43053.70736		202.78800		875.00000 
 43692.65567		 305.27265			43387.38302		64.65000		324.00000 
 43692.65567		 638.94831			43053.70736		202.78800		875.00000 
 43692.65567		 305.27265			43387.38302		64.65000		324.00000 
 43692.65567		 638.94831			43053.70736		202.78800		875.00000 
 43692.65567		 305.27265			43387.38302		64.65000		324.00000 
 43692.65567		 638.94831			43053.70736		202.78800		875.00000 
 43692.65567		 305.27265			43387.38302		64.65000		324.00000 
 43692.65567		 638.94831			43053.70736		202.78800		875.00000 
 43692.65567		 305.27265			43387.38302		64.65000		324.00000 
 43692.65567		 638.94831			43053.70736		202.78800		875.00000 
 43692.65567		 305.27265			43387.38302		64.65000		324.00000 
 43692.65567		 638.94831			43053.70736		202.78800		875.00000 
 43692.65567		 305.27265			43387.38302		64.65000		324.00000 
 43692.65567		 638.94831			43053.70736		202.78800		875.00000 
 43692.65567		 305.27265			43387.38302		64.65000		324.00000 
 43692.65567		 638.94831			43053.70736		202.78800		875.00000 
 43692.65567		 305.27265			43387.38302		64.65000		324.00000 
 43692.65567		 638.94831			43053.70736		202.78800		875.00000 
 43692.65567		 305.27265			43387.38302		64.65000		324.00000 
 43692.65567		 638.94831			43053.70736		202.78800		875.00000 
 43692.65567		 305.27265			43387.38302		64.65000		324.00000 
 43692.65567		 638.94831			43053.70736		202.78800		875.00000 
 43692.65567		 305.27265			43387.38302		64.65000		324.00000 
 43692.65567		 638.94831			43053.70736		202.78800		875.00000 
 43692.65567		 305.27265			43387.38302		64.65000		324.00000 
 43692.65567		 638.94831			43053.70736		202.78800		875.00000 
 43692.65567		 305.27265			43387.38302		64.65000		324.00000 
 43692.65567		 638.94831			43053.70736		202.78800		875.00000 
 43692.65567		 305.27265			43387.38302		64.65000		324.00000 
 43692.65567		 638.94831			43053.70736		202.78800		875.00000 
 43692.65567		 305.27265			43387.38302		64.65000		324.00000 
 43692.65567		 638.94831			43053.70736		202.78800		875.00000 
 43692.65567		 305.27265			43387.38302		64.65000		324.00000 
 43692.65567		 638.94831			43053.70736		202.78800		875.00000 
 43692.65567		 305.27265			43387.38302		64.65000		324.00000 
 43692.65567		 638.94831			43053.70736		202.78800		875.00000 
 43692.65567		 305.27265			43387.38302		64.65000		324.00000 
 43692.65567		 638.94831			43053.70736		202.78800		875.00000 
 43692.65567		 305.27265			43387.38302		64.65000		324.00000 
 43692.65567		 638.94831			43053.70736		202.78800		875.00000 
 43692.65567		 305.27265			43387.38302		64.65000		324.00000 
 43692.65567		 638.94831			43053.70736		202.78800		875.00000 
 43692.65567		 305.27265			43387.38302		64.65000		324.00000 
 43692.65567		 638.94831			43053.70736		202.78800		875.00000 
 43692.65567		 305.27265			43387.38302		64.65000		324.00000 
 43692.65567		 638.94831			43053.70736		202.78800		875.00000 
 43692.65567		 305.27265			43387.38302		64.65000		324.00000 
 43692.65567		 638.94831			43053.70736		202.78800		875.00000 
 43692.65567		 305.27265			43387.38302		64.65000		324.00000 
 43692.65567		 638.94831			43053.70736		202.78800		875.00000 
 43692.65567		 305.27265			43387.38302		64.65000		324.00000 
 43692.65567		 638.94831			43053.70736		202.78800		875.00000 
 43692.65567		 305.27265			43387.38302		64.65000		324.00000 
 43692.65567		 638.94831			43053.70736		202.78800		875.00000 
 43692.65567		 305.27265			43387.38302		64.65000		324.00000 
 43692.65567		 638.94831			43053.70736		202.78800		875.00000 
 43692.65567		 305.27265			43387.38302		64.65000		324.00000 
 43692.65567		 638.94831			43053.70736		202.78800		875.00000 
 43692.65567		 305.27265			43387.38302		64.65000		324.00000 
 43692.65567		 638.94831			43053.70736		202.78800		875.00000 
 43692.65567		 305.27265			43387.38302		64.65000		324.00000 
 43692.65567		 638.94831			43053.70736		202.78800		875.00000 
 43692.65567		 305.27265			43387.38302		64.65000		324.00000 
 43692.65567		 638.94831			43053.70736		202.78800		875.00000 
 43692.65567		 305.27265			43387.38302		64.65000		324.00000 
 43692.65567		 638.94831			43053.70736		202.78800		875.00000 
 43692.65567		 305.27265			43387.38302		64.65000		324.00000 
 43692.65567		 638.94831			43053.70736		202.78800		875.00000 
 43692.65567		 305.27265			43387.38302		64.65000		324.00000 
 43692.65567		 638.94831			43053.70736		202.78800		875.00000 
 43692.65567		 305.27265			43387.38302		64.65000		324.00000 
 43692.65567		 638.94831			43053.70736		202.78800		875.00000 
 43692.65567		 305.27265			43387.38302		64.65000		324.00000 
 43692.65567		 638.94831			43053.70736		202.78800		875.00000 
 43692.65567		 305.27265			43387.38302		64.65000		324.00000 
 43692.65567		 638.94831			43053.70736		202.78800		875.00000 
 43692.65567		 305.27265			43387.38302		64.65000		324.00000 
 43692.65567		 638.94831			43053.70736		202.78800		875.00000 
 43692.65567		 305.27265			43387.38302		64.65000		324.00000 
 43692.65567		 638.94831			43053.70736		202.78800		875.00000 
 43692.65567		 305.27265			43387.38302		64.65000		324.00000 
 43692.65567		 638.94831			43053.70736		202.78800		875.00000 
 43692.65567		 305.27265			43387.38302		64.65000		324.00000 
 43692.65567		 638.94831			43053.70736		202.78800		875.00000 
 43692.65567		 305.27265			43387.38302		64.65000		324.00000 
 43692.65567		 638.94831			43053.70736		202.78800		875.00000 
 43692.65567		 305.27265			43387.38302		64.65000		324.00000 
 43692.65567		 638.94831			43053.70736		202.78800		875.00000 
 43692.65567		 305.27265			43387.38302		64.65000		324.00000 
 43692.65567		 638.94831			43053.70736		202.78800		875.00000 
 43692.65567		 305.27265			43387.38302		64.65000		324.00000 
 43692.65567		 638.94831			43053.70736		202.78800		875.00000 
 43692.65567		 305.27265			43387.38302		64.65000		324.00000 
 43692.65567		 638.94831			43053.70736		202.78800		875.00000 
 43692.65567		 305.27265			43387.38302		64.65000		324.00000 
 43692.65567		 638.94831			43053.70736		202.78800		875.00000 
 43692.65567		 305.27265			43387.38302		64.65000		324.00000 
 43692.65567		 638.94831			43053.70736		202.78800		875.00000 
 43692.65567		 305.27265			43387.38302		64.65000		324.00000 
 43692.65567		 638.94831			43053.70736		202.78800		875.00000 
 43692.65567		 305.27265			43387.38302		64.65000		324.00000 
 43692.65567		 638.94831			43053.70736		202.78800		875.00000 
 43692.65567		 305.27265			43387.38302		64.65000		324.00000 
 43692.65567		 638.94831			43053.70736		202.78800		875.00000 
 43692.65567		 305.27265			43387.38302		64.65000		324.00000 
 43692.65567		 638.94831			43053.70736		202.78800		875.00000 
 43692.65567		 305.27265			43387.38302		64.65000		324.00000 
 43692.65567		 638.94831			43053.70736		202.78800		875.00000 
 43692.65567		 305.27265			43387.38302		64.65000		324.00000 
 43692.65567		 638.94831			43053.70736		214.33800		875.00000 
 43692.65567		 305.27265			43387.38302		64.65000		324.00000 
 43692.65567		 638.94831			43053.70736		214.33800		875.00000 
 43692.65567		 305.27265			43387.38302		64.65000		324.00000 
 43692.65567		 638.94831			43053.70736		214.33800		875.00000 
 43692.65567		 305.27265			43387.38302		64.65000		324.00000 
 43692.65567		 638.94831			43053.70736		214.33800		875.00000 
 43692.65567		 305.27265			43387.38302		64.65000		324.00000 
 43692.65567		 638.94831			43053.70736		214.33800		875.00000 
 43692.65567		 305.27265			43387.38302		64.65000		324.00000 
 43692.65567		 638.94831			43053.70736		214.33800		875.00000 
 43692.65567		 305.27265			43387.38302		64.65000		324.00000 
 43692.65567		 638.94831			43053.70736		214.33800		875.00000 
 43692.65567		 305.27265			43387.38302		64.65000		324.00000 
 43692.65567		 638.94831			43053.70736		214.33800		875.00000 
 43692.65567		 305.27265			43387.38302		64.65000		324.00000 
 43692.65567		 638.94831			43053.70736		214.33800		875.00000 
 43692.65567		 305.27265			43387.38302		64.65000		324.00000 
 43692.65567		 638.94831			43053.70736		214.33800		875.00000 
 43692.65567		 305.27265			43387.38302		64.65000		324.00000 
 43692.65567		 638.94831			43053.70736		214.33800		875.00000 
 43692.65567		 305.27265			43387.38302		64.65000		324.00000 
 43692.65567		 638.94831			43053.70736		214.33800		875.00000 
 43692.65567		 305.27265			43387.38302		64.65000		324.00000 
 43692.65567		 638.94831			43053.70736		214.33800		875.00000 
 43692.65567		 305.27265			43387.38302		64.65000		324.00000 
 43692.65567		 638.94831			43053.70736		214.33800		875.00000 
 43692.65567		 305.27265			43387.38302		64.65000		324.00000 
 43692.65567		 638.94831			43053.70736		214.33800		875.00000 
 43692.65567		 305.27265			43387.38302		64.65000		324.00000 
 43692.65567		 638.94831			43053.70736		214.33800		875.00000 
 43692.65567		 305.27265			43387.38302		64.65000		324.00000 
 43692.65567		 638.94831			43053.70736		214.33800		875.00000 
 43692.65567		 305.27265			43387.38302		64.65000		324.00000 
 43692.65567		 638.94831			43053.70736		214.33800		875.00000 
 43692.65567		 305.27265			43387.38302		64.65000		324.00000 
 43692.65567		 638.94831			43053.70736		214.33800		875.00000 
 43692.65567		 305.27265			43387.38302		64.65000		324.00000 
 43692.65567		 638.94831			43053.70736		214.33800		875.00000 
 43692.65567		 305.27265			43387.38302		64.65000		324.00000 
 43692.65567		 638.94831			43053.70736		214.33800		875.00000 
 43692.65567		 305.27265			43387.38302		64.65000		324.00000 
 43692.65567		 638.94831			43053.70736		214.33800		875.00000 
 43692.65567		 305.27265			43387.38302		64.65000		324.00000 
 43692.65567		 638.94831			43053.70736		214.33800		875.00000 
 43692.65567		 305.27265			43387.38302		64.65000		324.00000 
 43692.65567		 638.94831			43053.70736		214.33800		875.00000 
 43692.65567		 305.27265			43387.38302		64.65000		324.00000 
 43692.65567		 638.94831			43053.70736		214.33800		875.00000 
 43692.65567		 305.27265			43387.38302		64.65000		324.00000 
 43692.65567		 638.94831			43053.70736		214.33800		875.00000 
 43692.65567		 305.27265			43387.38302		64.65000		324.00000 
 43692.65567		 638.94831			43053.70736		214.33800		875.00000 
 43692.65567		 305.27265			43387.38302		64.65000		324.00000 
 43692.65567		 638.94831			43053.70736		214.33800		875.00000 
 43692.65567		 305.27265			43387.38302		64.65000		324.00000 
 43692.65567		 638.94831			43053.70736		214.33800		875.00000 
 43692.65567		 305.27265			43387.38302		64.65000		324.00000 
 43692.65567		 638.94831			43053.70736		214.33800		875.00000 
 43692.65567		 305.27265			43387.38302		64.65000		324.00000 
 43692.65567		 638.94831			43053.70736		214.33800		875.00000 
 43692.65567		 305.27265			43387.38302		64.65000		324.00000 
 43692.65567		 638.94831			43053.70736		214.33800		875.00000 
 43692.65567		 305.27265			43387.38302		64.65000		324.00000 
 43692.65567		 638.94831			43053.70736		214.33800		875.00000 
 43692.65567		 305.27265			43387.38302		64.65000		324.00000 
 43692.65567		 638.94831			43053.70736		214.33800		875.00000 
 43692.65567		 305.27265			43387.38302		64.65000		324.00000 
 43692.65567		 638.94831			43053.70736		214.33800		875.00000 
 43692.65567		 305.27265			43387.38302		64.65000		324.00000 
 43692.65567		 638.94831			43053.70736		214.33800		875.00000 
 43692.65567		 305.27265			43387.38302		64.65000		324.00000 
 43692.65567		 638.94831			43053.70736		214.33800		875.00000 
 43692.65567		 305.27265			43387.38302		64.65000		324.00000 
 43692.65567		 638.94831			43053.70736		214.33800		875.00000 
 43692.65567		 305.27265			43387.38302		64.65000		324.00000 
 43692.65567		 638.94831			43053.70736		214.33800		875.00000 
 43692.65567		 305.27265			43387.38302		64.65000		324.00000 
 43692.65567		 638.94831			43053.70736		214.33800		875.00000 
 43692.65567		 305.27265			43387.38302		64.65000		324.00000 
 43692.65567		 638.94831			43053.70736		214.33800		875.00000 
 43692.65567		 305.27265			43387.38302		64.65000		324.00000 
 43692.65567		 638.94831			43053.70736		214.33800		875.00000 
 43692.65567		 305.27265			43387.38302		64.65000		324.00000 
 43692.65567		 638.94831			43053.70736		214.33800		875.00000 
 43692.65567		 305.27265			43387.38302		64.65000		324.00000 
 43692.65567		 638.94831			43053.70736		214.33800		875.00000 
 43692.65567		 305.27265			43387.38302		64.65000		324.00000 
 43692.65567		 638.94831			43053.70736		214.33800		875.00000 
 43692.65567		 305.27265			43387.38302		64.65000		324.00000 
 43692.65567		 638.94831			43053.70736		214.33800		875.00000 
 43692.65567		 305.27265			43387.38302		64.65000		324.00000 
 43692.65567		 638.94831			43053.70736		214.33800		875.00000 
 43692.65567		 305.27265			43387.38302		64.65000		324.00000 
 43692.65567		 638.94831			43053.70736		214.33800		875.00000 
 43692.65567		 305.27265			43387.38302		64.65000		324.00000 
 43692.65567		 638.94831			43053.70736		214.33800		875.00000 
 43692.65567		 305.27265			43387.38302		64.65000		324.00000 
 43692.65567		 638.94831			43053.70736		214.33800		875.00000 
 43692.65567		 305.27265			43387.38302		64.65000		324.00000 
 43692.65567		 638.94831			43053.70736		214.33800		875.00000 
 43692.65567		 305.27265			43387.38302		64.65000		324.00000 
 43692.65567		 638.94831			43053.70736		214.33800		875.00000 
 43692.65567		 305.27265			43387.38302		64.65000		324.00000 
 43692.65567		 638.94831			43053.70736		214.33800		875.00000 
 43692.65567		 305.27265			43387.38302		64.65000		324.00000 
 43692.65567		 638.94831			43053.70736		214.33800		875.00000 
 43692.65567		 305.27265			43387.38302		64.65000		324.00000 
 43692.65567		 638.94831			43053.70736		214.33800		875.00000 
 43692.65567		 305.27265			43387.38302		64.65000		324.00000 
 43692.65567		 638.94831			43053.70736		214.33800		875.00000 
 43692.65567		 305.27265			43387.38302		64.65000		324.00000 
 43692.65567		 638.94831			43053.70736		214.33800		875.00000 
 43692.65567		 305.27265			43387.38302		64.65000		324.00000 
 43692.65567		 638.94831			43053.70736		214.33800		875.00000 
 43692.65567		 305.27265			43387.38302		64.65000		324.00000 
 43692.65567		 638.94831			43053.70736		214.33800		875.00000 
 43692.65567		 305.27265			43387.38302		64.65000		324.00000 
 43692.65567		 638.94831			43053.70736		214.33800		875.00000 
 43692.65567		 305.27265			43387.38302		64.65000		324.00000 
 43692.65567		 638.94831			43053.70736		214.33800		875.00000 
 43692.65567		 305.27265			43387.38302		64.65000		324.00000 
 43692.65567		 638.94831			43053.70736		214.33800		875.00000 
 43692.65567		 305.27265			43387.38302		64.65000		324.00000 
 43692.65567		 638.94831			43053.70736		214.33800		875.00000 
 43692.65567		 305.27265			43387.38302		64.65000		324.00000 
 43692.65567		 638.94831			43053.70736		214.33800		875.00000 
 43692.65567		 305.27265			43387.38302		64.65000		324.00000 
 43692.65567		 638.94831			43053.70736		218.38000		875.00000 
 43692.65567		 305.27265			43387.38302		64.65000		324.00000 
 43692.65567		 638.94831			43053.70736		218.38000		875.00000 
 43692.65567		 305.27265			43387.38302		64.65000		324.00000 
 43692.65567		 638.94831			43053.70736		218.38000		875.00000 
 43692.65567		 305.27265			43387.38302		64.65000		324.00000 
 43692.65567		 638.94831			43053.70736		218.38000		875.00000 
 43692.65567		 305.27265			43387.38302		64.65000		324.00000 
 43692.65567		 638.94831			43053.70736		218.38000		875.00000 
 43692.65567		 305.27265			43387.38302		64.65000		324.00000 
 43692.65567		 638.94831			43053.70736		218.38000		875.00000 
 43692.65567		 305.27265			43387.38302		64.65000		324.00000 
 43692.65567		 638.94831			43053.70736		218.38000		875.00000 
 43692.65567		 305.27265			43387.38302		64.65000		324.00000 
 43692.65567		 638.94831			43053.70736		218.38000		875.00000 
 43692.65567		 305.27265			43387.38302		64.65000		324.00000 
 43692.65567		 638.94831			43053.70736		218.38000		875.00000 
 43692.65567		 305.27265			43387.38302		64.65000		324.00000 
 43692.65567		 638.94831			43053.70736		218.38000		875.00000 
 43692.65567		 305.27265			43387.38302		64.65000		324.00000 
 43692.65567		 638.94831			43053.70736		218.38000		875.00000 
 43692.65567		 305.27265			43387.38302		64.65000		324.00000 
 43692.65567		 638.94831			43053.70736		218.38000		875.00000 
 43692.65567		 305.27265			43387.38302		64.65000		324.00000 
 43692.65567		 638.94831			43053.70736		218.38000		875.00000 
 43692.65567		 305.27265			43387.38302		64.65000		324.00000 
 43692.65567		 638.94831			43053.70736		218.38000		875.00000 
 43692.65567		 305.27265			43387.38302		64.65000		324.00000 
 43692.65567		 638.94831			43053.70736		218.38000		875.00000 
 43692.65567		 305.27265			43387.38302		64.65000		324.00000 
 43692.65567		 638.94831			43053.70736		218.38000		875.00000 
 43692.65567		 305.27265			43387.38302		64.65000		324.00000 
 43692.65567		 638.94831			43053.70736		218.38000		875.00000 
 43692.65567		 305.27265			43387.38302		64.65000		324.00000 
 43692.65567		 638.94831			43053.70736		218.38000		875.00000 
 43692.65567		 305.27265			43387.38302		64.65000		324.00000 
 43692.65567		 638.94831			43053.70736		218.38000		875.00000 
 43692.65567		 305.27265			43387.38302		64.65000		324.00000 
 43692.65567		 638.94831			43053.70736		218.38000		875.00000 
 43692.65567		 305.27265			43387.38302		64.65000		324.00000 
 43692.65567		 638.94831			43053.70736		218.38000		875.00000 
 43692.65567		 305.27265			43387.38302		64.65000		324.00000 
 43692.65567		 638.94831			43053.70736		218.38000		875.00000 
 43692.65567		 305.27265			43387.38302		64.65000		324.00000 
 43692.65567		 638.94831			43053.70736		218.38000		875.00000 
 43692.65567		 305.27265			43387.38302		64.65000		324.00000 
 43692.65567		 638.94831			43053.70736		218.38000		875.00000 
 43692.65567		 305.27265			43387.38302		64.65000		324.00000 
 43692.65567		 638.94831			43053.70736		218.38000		875.00000 
 43692.65567		 305.27265			43387.38302		64.65000		324.00000 
 43692.65567		 638.94831			43053.70736		218.38000		875.00000 
 43692.65567		 305.27265			43387.38302		64.65000		324.00000 
 43692.65567		 638.94831			43053.70736		218.38000		875.00000 
 43692.65567		 305.27265			43387.38302		64.65000		324.00000 
 43692.65567		 638.94831			43053.70736		218.38000		875.00000 
 43692.65567		 305.27265			43387.38302		64.65000		324.00000 
 43692.65567		 638.94831			43053.70736		218.38000		875.00000 
 43692.65567		 305.27265			43387.38302		64.65000		324.00000 
 43692.65567		 638.94831			43053.70736		218.38000		875.00000 
 43692.65567		 305.27265			43387.38302		64.65000		324.00000 
 43692.65567		 638.94831			43053.70736		218.38000		875.00000 
 43692.65567		 305.27265			43387.38302		64.65000		324.00000 
 43692.65567		 638.94831			43053.70736		218.38000		875.00000 
 43692.65567		 305.27265			43387.38302		64.65000		324.00000 
 43692.65567		 638.94831			43053.70736		218.38000		875.00000 
 43692.65567		 305.27265			43387.38302		64.65000		324.00000 
 43692.65567		 638.94831			43053.70736		218.38000		875.00000 
 43692.65567		 305.27265			43387.38302		64.65000		324.00000 
 43692.65567		 638.94831			43053.70736		218.38000		875.00000 
 43692.65567		 305.27265			43387.38302		64.65000		324.00000 
 43692.65567		 638.94831			43053.70736		218.38000		875.00000 
 43692.65567		 305.27265			43387.38302		64.65000		324.00000 
 43692.65567		 638.94831			43053.70736		218.38000		875.00000 
 43692.65567		 305.27265			43387.38302		64.65000		324.00000 
 43692.65567		 638.94831			43053.70736		218.38000		875.00000 
 43692.65567		 305.27265			43387.38302		64.65000		324.00000 
 43692.65567		 638.94831			43053.70736		218.38000		875.00000 
 43692.65567		 305.27265			43387.38302		64.65000		324.00000 
 43692.65567		 638.94831			43053.70736		218.38000		875.00000 
 43692.65567		 305.27265			43387.38302		64.65000		324.00000 
 43692.65567		 638.94831			43053.70736		218.38000		875.00000 
 43692.65567		 305.27265			43387.38302		64.65000		324.00000 
 43692.65567		 638.94831			43053.70736		218.38000		875.00000 
 43692.65567		 305.27265			43387.38302		64.65000		324.00000 
 43692.65567		 638.94831			43053.70736		218.38000		875.00000 
 43692.65567		 305.27265			43387.38302		64.65000		324.00000 
 43692.65567		 638.94831			43053.70736		218.38000		875.00000 
 43692.65567		 305.27265			43387.38302		64.65000		324.00000 
 43692.65567		 638.94831			43053.70736		218.38000		875.00000 
 43692.65567		 305.27265			43387.38302		64.65000		324.00000 
 43692.65567		 638.94831			43053.70736		218.38000		875.00000 
 43692.65567		 305.27265			43387.38302		64.65000		324.00000 
 43692.65567		 638.94831			43053.70736		218.38000		875.00000 
 43692.65567		 305.27265			43387.38302		64.65000		324.00000 
 43692.65567		 638.94831			43053.70736		218.38000		875.00000 
 43692.65567		 305.27265			43387.38302		64.65000		324.00000 
 43692.65567		 638.94831			43053.70736		218.38000		875.00000 
 43692.65567		 305.27265			43387.38302		64.65000		324.00000 
 43692.65567		 638.94831			43053.70736		218.38000		875.00000 
 43692.65567		 305.27265			43387.38302		64.65000		324.00000 
 43692.65567		 638.94831			43053.70736		218.38000		875.00000 
 43692.65567		 305.27265			43387.38302		64.65000		324.00000 
 43692.65567		 638.94831			43053.70736		218.38000		875.00000 
 43692.65567		 305.27265			43387.38302		64.65000		324.00000 
 43692.65567		 638.94831			43053.70736		218.38000		875.00000 
 43692.65567		 305.27265			43387.38302		64.65000		324.00000 
 43692.65567		 638.94831			43053.70736		218.38000		875.00000 
 43692.65567		 305.27265			43387.38302		64.65000		324.00000 
 43692.65567		 638.94831			43053.70736		218.38000		875.00000 
 43692.65567		 305.27265			43387.38302		64.65000		324.00000 
 43692.65567		 638.94831			43053.70736		218.38000		875.00000 
 43692.65567		 305.27265			43387.38302		64.65000		324.00000 
 43692.65567		 638.94831			43053.70736		218.38000		875.00000 
 43692.65567		 305.27265			43387.38302		64.65000		324.00000 
 43692.65567		 638.94831			43053.70736		218.38000		875.00000 
 43692.65567		 305.27265			43387.38302		64.65000		324.00000 
 43692.65567		 638.94831			43053.70736		218.38000		875.00000 
 43692.65567		 305.27265			43387.38302		64.65000		324.00000 
 43692.65567		 638.94831			43053.70736		218.38000		875.00000 
 43692.65567		 305.27265			43387.38302		64.65000		324.00000 
 43692.65567		 638.94831			43053.70736		218.38000		875.00000 
 43692.65567		 305.27265			43387.38302		64.65000		324.00000 
 43692.65567		 638.94831			43053.70736		218.38000		875.00000 
 43692.65567		 305.27265			43387.38302		64.65000		324.00000 
 43692.65567		 638.94831			43053.70736		218.38000		875.00000 
 43692.65567		 305.27265			43387.38302		64.65000		324.00000 
 43692.65567		 638.94831			43053.70736		218.38000		875.00000 
 43692.65567		 305.27265			43387.38302		64.65000		324.00000 
 43692.65567		 638.94831			43053.70736		218.38000		875.00000 
 43692.65567		 305.27265			43387.38302		64.65000		324.00000 
 43692.65567		 638.94831			43053.70736		220.11600		875.00000 
 43692.65567		 305.27265			43387.38302		64.65000		324.00000 
 43692.65567		 638.94831			43053.70736		220.11600		875.00000 
 43692.65567		 305.27265			43387.38302		64.65000		324.00000 
 43692.65567		 638.94831			43053.70736		220.11600		875.00000 
 43692.65567		 305.27265			43387.38302		64.65000		324.00000 
 43692.65567		 638.94831			43053.70736		220.11600		875.00000 
 43692.65567		 305.27265			43387.38302		64.65000		324.00000 
 43692.65567		 638.94831			43053.70736		220.11600		875.00000 
 43692.65567		 305.27265			43387.38302		64.65000		324.00000 
 43692.65567		 638.94831			43053.70736		220.11600		875.00000 
 43692.65567		 305.27265			43387.38302		64.65000		324.00000 
 43692.65567		 638.94831			43053.70736		220.11600		875.00000 
 43692.65567		 305.27265			43387.38302		64.65000		324.00000 
 43692.65567		 638.94831			43053.70736		220.11600		875.00000 
 43692.65567		 305.27265			43387.38302		64.65000		324.00000 
 43692.65567		 638.94831			43053.70736		220.11600		875.00000 
 43692.65567		 305.27265			43387.38302		64.65000		324.00000 
 43692.65567		 638.94831			43053.70736		220.11600		875.00000 
 43692.65567		 305.27265			43387.38302		64.65000		324.00000 
 43692.65567		 638.94831			43053.70736		220.11600		875.00000 
 43692.65567		 305.27265			43387.38302		64.65000		324.00000 
 43692.65567		 638.94831			43053.70736		220.11600		875.00000 
 43692.65567		 305.27265			43387.38302		64.65000		324.00000 
 43692.65567		 638.94831			43053.70736		220.11600		875.00000 
 43692.65567		 305.27265			43387.38302		64.65000		324.00000 
 43692.65567		 638.94831			43053.70736		220.11600		875.00000 
 43692.65567		 305.27265			43387.38302		64.65000		324.00000 
 43692.65567		 638.94831			43053.70736		220.11600		875.00000 
 43692.65567		 305.27265			43387.38302		64.65000		324.00000 
 43692.65567		 638.94831			43053.70736		220.11600		875.00000 
 43692.65567		 305.27265			43387.38302		64.65000		324.00000 
 43692.65567		 638.94831			43053.70736		220.11600		875.00000 
 43692.65567		 305.27265			43387.38302		64.65000		324.00000 
 43692.65567		 638.94831			43053.70736		220.11600		875.00000 
 43692.65567		 305.27265			43387.38302		64.65000		324.00000 
 43692.65567		 638.94831			43053.70736		220.11600		875.00000 
 43692.65567		 305.27265			43387.38302		64.65000		324.00000 
 43692.65567		 638.94831			43053.70736		220.11600		875.00000 
 43692.65567		 305.27265			43387.38302		64.65000		324.00000 
 43692.65567		 638.94831			43053.70736		220.11600		875.00000 
 43692.65567		 305.27265			43387.38302		64.65000		324.00000 
 43692.65567		 638.94831			43053.70736		220.11600		875.00000 
 43692.65567		 305.27265			43387.38302		64.65000		324.00000 
 43692.65567		 638.94831			43053.70736		220.11600		875.00000 
 43692.65567		 305.27265			43387.38302		64.65000		324.00000 
 43692.65567		 638.94831			43053.70736		220.11600		875.00000 
 43692.65567		 305.27265			43387.38302		64.65000		324.00000 
 43692.65567		 638.94831			43053.70736		220.11600		875.00000 
 43692.65567		 305.27265			43387.38302		64.65000		324.00000 
 43692.65567		 638.94831			43053.70736		220.11600		875.00000 
 43692.65567		 305.27265			43387.38302		64.65000		324.00000 
 43692.65567		 638.94831			43053.70736		220.11600		875.00000 
 43692.65567		 305.27265			43387.38302		64.65000		324.00000 
 43692.65567		 638.94831			43053.70736		220.11600		875.00000 
 43692.65567		 305.27265			43387.38302		64.65000		324.00000 
 43692.65567		 638.94831			43053.70736		220.11600		875.00000 
 43692.65567		 305.27265			43387.38302		64.65000		324.00000 
 43692.65567		 638.94831			43053.70736		220.11600		875.00000 
 43692.65567		 305.27265			43387.38302		64.65000		324.00000 
 43692.65567		 638.94831			43053.70736		220.11600		875.00000 
 43692.65567		 305.27265			43387.38302		64.65000		324.00000 
 43692.65567		 638.94831			43053.70736		220.11600		875.00000 
 43692.65567		 305.27265			43387.38302		64.65000		324.00000 
 43692.65567		 638.94831			43053.70736		220.11600		875.00000 
 43692.65567		 305.27265			43387.38302		64.65000		324.00000 
 43692.65567		 638.94831			43053.70736		220.11600		875.00000 
 43692.65567		 305.27265			43387.38302		64.65000		324.00000 
 43692.65567		 638.94831			43053.70736		220.11600		875.00000 
 43692.65567		 305.27265			43387.38302		64.65000		324.00000 
 43692.65567		 638.94831			43053.70736		220.11600		875.00000 
 43692.65567		 305.27265			43387.38302		64.65000		324.00000 
 43692.65567		 638.94831			43053.70736		220.11600		875.00000 
 43692.65567		 305.27265			43387.38302		64.65000		324.00000 
 43692.65567		 638.94831			43053.70736		220.11600		875.00000 
 43692.65567		 305.27265			43387.38302		64.65000		324.00000 
 43692.65567		 638.94831			43053.70736		220.11600		875.00000 
 43692.65567		 305.27265			43387.38302		64.65000		324.00000 
 43692.65567		 638.94831			43053.70736		220.11600		875.00000 
 43692.65567		 305.27265			43387.38302		64.65000		324.00000 
 43692.65567		 638.94831			43053.70736		220.11600		875.00000 
 43692.65567		 305.27265			43387.38302		64.65000		324.00000 
 43692.65567		 638.94831			43053.70736		220.11600		875.00000 
 43692.65567		 305.27265			43387.38302		64.65000		324.00000 
 43692.65567		 638.94831			43053.70736		220.11600		875.00000 
 43692.65567		 305.27265			43387.38302		64.65000		324.00000 
 43692.65567		 638.94831			43053.70736		220.11600		875.00000 
 43692.65567		 305.27265			43387.38302		64.65000		324.00000 
 43692.65567		 638.94831			43053.70736		220.11600		875.00000 
 43692.65567		 305.27265			43387.38302		64.65000		324.00000 
 43692.65567		 638.94831			43053.70736		220.11600		875.00000 
 43692.65567		 305.27265			43387.38302		64.65000		324.00000 
 43692.65567		 638.94831			43053.70736		220.11600		875.00000 
 43692.65567		 305.27265			43387.38302		64.65000		324.00000 
 43692.65567		 638.94831			43053.70736		220.11600		875.00000 
 43692.65567		 305.27265			43387.38302		64.65000		324.00000 
 43692.65567		 638.94831			43053.70736		220.11600		875.00000 
 43692.65567		 305.27265			43387.38302		64.65000		324.00000 
 43692.65567		 638.94831			43053.70736		220.11600		875.00000 
 43692.65567		 305.27265			43387.38302		64.65000		324.00000 
 43692.65567		 638.94831			43053.70736		220.11600		875.00000 
 43692.65567		 305.27265			43387.38302		64.65000		324.00000 
 43692.65567		 638.94831			43053.70736		220.11600		875.00000 
 43692.65567		 305.27265			43387.38302		64.65000		324.00000 
 43692.65567		 638.94831			43053.70736		220.11600		875.00000 
 43692.65567		 305.27265			43387.38302		64.65000		324.00000 
 43692.65567		 638.94831			43053.70736		220.11600		875.00000 
 43692.65567		 305.27265			43387.38302		64.65000		324.00000 
 43692.65567		 638.94831			43053.70736		220.11600		875.00000 
 43692.65567		 305.27265			43387.38302		64.65000		324.00000 
 43692.65567		 638.94831			43053.70736		220.11600		875.00000 
 43692.65567		 305.27265			43387.38302		64.65000		324.00000 
 43692.65567		 638.94831			43053.70736		220.11600		875.00000 
 43692.65567		 305.27265			43387.38302		64.65000		324.00000 
 43692.65567		 638.94831			43053.70736		220.11600		875.00000 
 43692.65567		 305.27265			43387.38302		64.65000		324.00000 
 43692.65567		 638.94831			43053.70736		220.11600		875.00000 
 43692.65567		 305.27265			43387.38302		64.65000		324.00000 
 43692.65567		 638.94831			43053.70736		220.11600		875.00000 
 43692.65567		 305.27265			43387.38302		64.65000		324.00000 
 43692.65567		 638.94831			43053.70736		220.11600		875.00000 
 43692.65567		 305.27265			43387.38302		64.65000		324.00000 
 43692.65567		 638.94831			43053.70736		220.11600		875.00000 
 43692.65567		 305.27265			43387.38302		64.65000		324.00000 
 43692.65567		 638.94831			43053.70736		220.11600		875.00000 
 43692.65567		 305.27265			43387.38302		64.65000		324.00000 
 43692.65567		 638.94831			43053.70736		220.11600		875.00000 
 43692.65567		 305.27265			43387.38302		64.65000		324.00000 
 43692.65567		 638.94831			43053.70736		220.83800		875.00000 
 43692.65567		 305.27265			43387.38302		64.65000		324.00000 
 43692.65567		 638.94831			43053.70736		220.83800		875.00000 
 43692.65567		 305.27265			43387.38302		64.65000		324.00000 
 43692.65567		 638.94831			43053.70736		220.83800		875.00000 
 43692.65567		 305.27265			43387.38302		64.65000		324.00000 
 43692.65567		 638.94831			43053.70736		220.83800		875.00000 
 43692.65567		 305.27265			43387.38302		64.65000		324.00000 
 43692.65567		 638.94831			43053.70736		220.83800		875.00000 
 43692.65567		 305.27265			43387.38302		64.65000		324.00000 
 43692.65567		 638.94831			43053.70736		220.83800		875.00000 
 43692.65567		 305.27265			43387.38302		64.65000		324.00000 
 43692.65567		 638.94831			43053.70736		220.83800		875.00000 
 43692.65567		 305.27265			43387.38302		64.65000		324.00000 
 43692.65567		 638.94831			43053.70736		220.83800		875.00000 
 43692.65567		 305.27265			43387.38302		64.65000		324.00000 
 43692.65567		 638.94831			43053.70736		220.83800		875.00000 
 43692.65567		 305.27265			43387.38302		64.65000		324.00000 
 43692.65567		 638.94831			43053.70736		220.83800		875.00000 
 43692.65567		 305.27265			43387.38302		64.65000		324.00000 
 43692.65567		 638.94831			43053.70736		220.83800		875.00000 
 43692.65567		 305.27265			43387.38302		64.65000		324.00000 
 43692.65567		 638.94831			43053.70736		220.83800		875.00000 
 43692.65567		 305.27265			43387.38302		64.65000		324.00000 
 43692.65567		 638.94831			43053.70736		220.83800		875.00000 
 43692.65567		 305.27265			43387.38302		64.65000		324.00000 
 43692.65567		 638.94831			43053.70736		220.83800		875.00000 
 43692.65567		 305.27265			43387.38302		64.65000		324.00000 
 43692.65567		 571.16299			43121.49269		220.83800		875.00000 
 43692.65567		 305.27265			43387.38302		64.65000		324.00000 
 43692.65567		 537.27032			43155.38535		220.83800		875.00000 
 43692.65567		 305.27265			43387.38302		64.65000		324.00000 
 43692.65567		 537.27032			43155.38535		220.83800		875.00000 
 43692.65567		 305.27265			43387.38302		64.65000		324.00000 
 43692.65567		 537.27032			43155.38535		220.83800		875.00000 
 43692.65567		 305.27265			43387.38302		64.65000		324.00000 
 43692.65567		 537.27032			43155.38535		220.83800		875.00000 
 43692.65567		 305.27265			43387.38302		64.65000		324.00000 
 43692.65567		 537.27032			43155.38535		220.83800		875.00000 
 43692.65567		 305.27265			43387.38302		64.65000		324.00000 
 43692.65567		 537.27032			43155.38535		220.83800		875.00000 
 43692.65567		 305.27265			43387.38302		64.65000		324.00000 
 43692.65567		 537.27032			43155.38535		220.83800		875.00000 
 43692.65567		 305.27265			43387.38302		64.65000		324.00000 
 43692.65567		 537.27032			43155.38535		220.83800		875.00000 
 43692.65567		 305.27265			43387.38302		64.65000		324.00000 
 43692.65567		 537.27032			43155.38535		220.83800		875.00000 
 43692.65567		 305.27265			43387.38302		64.65000		324.00000 
 43692.65567		 537.27032			43155.38535		220.83800		875.00000 
 43692.65567		 305.27265			43387.38302		64.65000		324.00000 
 43692.65567		 537.27032			43155.38535		220.83800		875.00000 
 43692.65567		 305.27265			43387.38302		64.65000		324.00000 
 43692.65567		 537.27032			43155.38535		220.83800		875.00000 
 43692.65567		 305.27265			43387.38302		64.65000		324.00000 
 43692.65567		 537.27032			43155.38535		220.83800		875.00000 
 43692.65567		 305.27265			43387.38302		64.65000		324.00000 
 43692.65567		 537.27032			43155.38535		220.83800		875.00000 
 43692.65567		 305.27265			43387.38302		64.65000		324.00000 
 43692.65567		 537.27032			43155.38535		220.83800		875.00000 
 43692.65567		 305.27265			43387.38302		64.65000		324.00000 
 43692.65567		 537.27032			43155.38535		220.83800		875.00000 
 43692.65567		 305.27265			43387.38302		64.65000		324.00000 
 43692.65567		 537.27032			43155.38535		220.83800		875.00000 
 43692.65567		 305.27265			43387.38302		64.65000		324.00000 
 43692.65567		 537.27032			43155.38535		220.83800		875.00000 
 43692.65567		 305.27265			43387.38302		64.65000		324.00000 
 43692.65567		 537.27032			43155.38535		220.83800		875.00000 
 43692.65567		 305.27265			43387.38302		64.65000		324.00000 
 43692.65567		 537.27032			43155.38535		220.83800		875.00000 
 43692.65567		 305.27265			43387.38302		64.65000		324.00000 
 43692.65567		 537.27032			43155.38535		220.83800		875.00000 
 43692.65567		 305.27265			43387.38302		64.65000		324.00000 
 43692.65567		 525.81365			43166.84203		220.83800		875.00000 
 43692.65567		 305.27265			43387.38302		64.65000		324.00000 
 43692.65567		 525.81365			43166.84203		220.83800		875.00000 
 43692.65567		 261.35540			43431.30027		64.65000		324.00000 
 43692.65567		 261.35540			43431.30027		174.19000		875.00000 
 43692.65567		 261.35540			43431.30027		64.65000		324.00000 
