Memory Total (MiB) 	 Memory Used (MiB) 	    Memory Free (MiB) 	 Power Drawed (W) 	 Clocks (Mhz) 	 
 43692.65567		 261.35540			43431.30027		172.55800		875.00000 
 43692.65567		 261.35540			43431.30027		67.17200		324.00000 
 43692.65567		 261.35540			43431.30027		172.55800		875.00000 
 43692.65567		 261.35540			43431.30027		67.17200		324.00000 
 43692.65567		 261.35540			43431.30027		172.55800		875.00000 
 43692.65567		 261.35540			43431.30027		67.17200		324.00000 
 43692.65567		 261.35540			43431.30027		172.55800		875.00000 
 43692.65567		 261.35540			43431.30027		67.17200		324.00000 
 43692.65567		 261.35540			43431.30027		172.55800		875.00000 
 43692.65567		 261.35540			43431.30027		67.17200		324.00000 
 43692.65567		 261.35540			43431.30027		172.55800		875.00000 
 43692.65567		 261.35540			43431.30027		67.17200		324.00000 
 43692.65567		 261.35540			43431.30027		172.55800		875.00000 
 43692.65567		 261.35540			43431.30027		67.17200		324.00000 
 43692.65567		 261.35540			43431.30027		172.55800		875.00000 
 43692.65567		 261.35540			43431.30027		67.17200		324.00000 
 43692.65567		 261.35540			43431.30027		172.55800		875.00000 
 43692.65567		 261.35540			43431.30027		67.17200		324.00000 
 43692.65567		 261.35540			43431.30027		172.55800		875.00000 
 43692.65567		 261.35540			43431.30027		67.17200		324.00000 
 43692.65567		 261.35540			43431.30027		172.55800		875.00000 
 43692.65567		 261.35540			43431.30027		67.17200		324.00000 
 43692.65567		 261.35540			43431.30027		172.55800		875.00000 
 43692.65567		 261.35540			43431.30027		67.17200		324.00000 
 43692.65567		 261.35540			43431.30027		172.55800		875.00000 
 43692.65567		 261.35540			43431.30027		67.17200		324.00000 
 43692.65567		 261.35540			43431.30027		172.55800		875.00000 
 43692.65567		 261.35540			43431.30027		67.17200		324.00000 
 43692.65567		 261.35540			43431.30027		172.55800		875.00000 
 43692.65567		 261.35540			43431.30027		67.17200		324.00000 
 43692.65567		 265.17429			43427.48138		172.55800		875.00000 
 43692.65567		 261.35540			43431.30027		67.17200		324.00000 
 43692.65567		 265.17429			43427.48138		172.55800		875.00000 
 43692.65567		 261.35540			43431.30027		67.17200		324.00000 
 43692.65567		 272.81207			43419.84360		172.55800		875.00000 
 43692.65567		 261.35540			43431.30027		67.17200		324.00000 
 43692.65567		 272.81207			43419.84360		172.55800		875.00000 
 43692.65567		 261.35540			43431.30027		67.17200		324.00000 
 43692.65567		 272.81207			43419.84360		172.55800		875.00000 
 43692.65567		 265.17429			43427.48138		67.17200		324.00000 
 43692.65567		 272.81207			43419.84360		172.55800		875.00000 
 43692.65567		 265.17429			43427.48138		67.17200		324.00000 
 43692.65567		 272.81207			43419.84360		172.55800		875.00000 
 43692.65567		 272.81207			43419.84360		67.17200		324.00000 
 43692.65567		 272.81207			43419.84360		172.55800		875.00000 
 43692.65567		 272.81207			43419.84360		67.17200		324.00000 
 43692.65567		 272.81207			43419.84360		172.55800		875.00000 
 43692.65567		 272.81207			43419.84360		67.17200		324.00000 
 43692.65567		 305.27265			43387.38302		172.55800		875.00000 
 43692.65567		 305.27265			43387.38302		67.17200		324.00000 
 43692.65567		 305.27265			43387.38302		172.55800		875.00000 
 43692.65567		 305.27265			43387.38302		67.17200		324.00000 
 43692.65567		 305.27265			43387.38302		172.55800		875.00000 
 43692.65567		 305.27265			43387.38302		67.17200		324.00000 
 43692.65567		 305.27265			43387.38302		172.55800		875.00000 
 43692.65567		 305.27265			43387.38302		67.17200		324.00000 
 43692.65567		 305.27265			43387.38302		172.55800		875.00000 
 43692.65567		 305.27265			43387.38302		67.17200		324.00000 
 43692.65567		 309.09154			43383.56413		172.55800		875.00000 
 43692.65567		 305.27265			43387.38302		67.17200		324.00000 
 43692.65567		 310.52363			43382.13204		172.55800		875.00000 
 43692.65567		 305.27265			43387.38302		67.17200		324.00000 
 43692.65567		 311.00099			43381.65468		172.55800		875.00000 
 43692.65567		 305.27265			43387.38302		67.17200		324.00000 
 43692.65567		 311.00099			43381.65468		172.55800		875.00000 
 43692.65567		 305.27265			43387.38302		67.17200		324.00000 
 43692.65567		 311.00099			43381.65468		172.55800		875.00000 
 43692.65567		 305.27265			43387.38302		67.17200		324.00000 
 43692.65567		 311.00099			43381.65468		172.55800		875.00000 
 43692.65567		 305.27265			43387.38302		67.17200		324.00000 
 43692.65567		 311.00099			43381.65468		147.11600		875.00000 
 43692.65567		 305.27265			43387.38302		67.17200		324.00000 
 43692.65567		 311.00099			43381.65468		147.11600		875.00000 
 43692.65567		 305.27265			43387.38302		67.17200		324.00000 
 43692.65567		 311.00099			43381.65468		147.11600		875.00000 
 43692.65567		 305.27265			43387.38302		67.17200		324.00000 
 43692.65567		 311.00099			43381.65468		147.11600		875.00000 
 43692.65567		 305.27265			43387.38302		67.17200		324.00000 
 43692.65567		 311.00099			43381.65468		147.11600		875.00000 
 43692.65567		 305.27265			43387.38302		67.17200		324.00000 
 43692.65567		 311.00099			43381.65468		147.11600		875.00000 
 43692.65567		 305.27265			43387.38302		67.17200		324.00000 
 43692.65567		 311.00099			43381.65468		147.11600		875.00000 
 43692.65567		 305.27265			43387.38302		67.17200		324.00000 
 43692.65567		 311.00099			43381.65468		147.11600		875.00000 
 43692.65567		 305.27265			43387.38302		67.17200		324.00000 
 43692.65567		 311.00099			43381.65468		147.11600		875.00000 
 43692.65567		 305.27265			43387.38302		67.17200		324.00000 
 43692.65567		 311.00099			43381.65468		147.11600		875.00000 
 43692.65567		 305.27265			43387.38302		67.17200		324.00000 
 43692.65567		 311.00099			43381.65468		147.11600		875.00000 
 43692.65567		 305.27265			43387.38302		67.17200		324.00000 
 43692.65567		 311.00099			43381.65468		147.11600		875.00000 
 43692.65567		 305.27265			43387.38302		67.17200		324.00000 
 43692.65567		 311.00099			43381.65468		147.11600		875.00000 
 43692.65567		 305.27265			43387.38302		67.17200		324.00000 
 43692.65567		 311.00099			43381.65468		147.11600		875.00000 
 43692.65567		 305.27265			43387.38302		67.17200		324.00000 
 43692.65567		 311.00099			43381.65468		147.11600		875.00000 
 43692.65567		 305.27265			43387.38302		67.17200		324.00000 
 43692.65567		 311.00099			43381.65468		147.11600		875.00000 
 43692.65567		 305.27265			43387.38302		67.17200		324.00000 
 43692.65567		 311.00099			43381.65468		147.11600		875.00000 
 43692.65567		 305.27265			43387.38302		67.17200		324.00000 
 43692.65567		 311.00099			43381.65468		147.11600		875.00000 
 43692.65567		 305.27265			43387.38302		67.17200		324.00000 
 43692.65567		 311.00099			43381.65468		147.11600		875.00000 
 43692.65567		 305.27265			43387.38302		67.17200		324.00000 
 43692.65567		 311.00099			43381.65468		147.11600		875.00000 
 43692.65567		 305.27265			43387.38302		67.17200		324.00000 
 43692.65567		 311.00099			43381.65468		147.11600		875.00000 
 43692.65567		 305.27265			43387.38302		67.17200		324.00000 
 43692.65567		 311.00099			43381.65468		147.11600		875.00000 
 43692.65567		 305.27265			43387.38302		67.17200		324.00000 
 43692.65567		 311.00099			43381.65468		147.11600		875.00000 
 43692.65567		 305.27265			43387.38302		67.17200		324.00000 
 43692.65567		 311.00099			43381.65468		147.11600		875.00000 
 43692.65567		 305.27265			43387.38302		67.17200		324.00000 
 43692.65567		 311.00099			43381.65468		147.11600		875.00000 
 43692.65567		 305.27265			43387.38302		67.17200		324.00000 
 43692.65567		 311.00099			43381.65468		147.11600		875.00000 
 43692.65567		 305.27265			43387.38302		67.17200		324.00000 
 43692.65567		 311.00099			43381.65468		147.11600		875.00000 
 43692.65567		 305.27265			43387.38302		67.17200		324.00000 
 43692.65567		 311.00099			43381.65468		147.11600		875.00000 
 43692.65567		 305.27265			43387.38302		67.17200		324.00000 
 43692.65567		 311.00099			43381.65468		147.11600		875.00000 
 43692.65567		 305.27265			43387.38302		67.17200		324.00000 
 43692.65567		 311.00099			43381.65468		147.11600		875.00000 
 43692.65567		 305.27265			43387.38302		67.17200		324.00000 
 43692.65567		 311.00099			43381.65468		147.11600		875.00000 
 43692.65567		 305.27265			43387.38302		67.17200		324.00000 
 43692.65567		 311.00099			43381.65468		136.80400		875.00000 
 43692.65567		 305.27265			43387.38302		67.17200		324.00000 
 43692.65567		 311.00099			43381.65468		136.80400		875.00000 
 43692.65567		 305.27265			43387.38302		67.17200		324.00000 
 43692.65567		 311.00099			43381.65468		136.80400		875.00000 
 43692.65567		 305.27265			43387.38302		67.17200		324.00000 
 43692.65567		 311.00099			43381.65468		136.80400		875.00000 
 43692.65567		 305.27265			43387.38302		67.17200		324.00000 
 43692.65567		 311.00099			43381.65468		136.80400		875.00000 
 43692.65567		 305.27265			43387.38302		67.17200		324.00000 
 43692.65567		 311.00099			43381.65468		136.80400		875.00000 
 43692.65567		 305.27265			43387.38302		67.17200		324.00000 
 43692.65567		 311.00099			43381.65468		136.80400		875.00000 
 43692.65567		 305.27265			43387.38302		67.17200		324.00000 
 43692.65567		 311.00099			43381.65468		136.80400		875.00000 
 43692.65567		 305.27265			43387.38302		67.17200		324.00000 
 43692.65567		 311.00099			43381.65468		136.80400		875.00000 
 43692.65567		 305.27265			43387.38302		67.17200		324.00000 
 43692.65567		 311.00099			43381.65468		136.80400		875.00000 
 43692.65567		 305.27265			43387.38302		67.17200		324.00000 
 43692.65567		 311.00099			43381.65468		136.80400		875.00000 
 43692.65567		 305.27265			43387.38302		67.17200		324.00000 
 43692.65567		 311.00099			43381.65468		136.80400		875.00000 
 43692.65567		 305.27265			43387.38302		67.17200		324.00000 
 43692.65567		 311.00099			43381.65468		136.80400		875.00000 
 43692.65567		 305.27265			43387.38302		64.65000		324.00000 
 43692.65567		 311.00099			43381.65468		136.80400		875.00000 
 43692.65567		 305.27265			43387.38302		64.65000		324.00000 
 43692.65567		 311.00099			43381.65468		136.80400		875.00000 
 43692.65567		 305.27265			43387.38302		64.65000		324.00000 
 43692.65567		 311.00099			43381.65468		136.80400		875.00000 
 43692.65567		 305.27265			43387.38302		64.65000		324.00000 
 43692.65567		 311.00099			43381.65468		136.80400		875.00000 
 43692.65567		 305.27265			43387.38302		64.65000		324.00000 
 43692.65567		 314.81988			43377.83579		136.80400		875.00000 
 43692.65567		 305.27265			43387.38302		64.65000		324.00000 
 43692.65567		 314.81988			43377.83579		136.80400		875.00000 
 43692.65567		 305.27265			43387.38302		64.65000		324.00000 
 43692.65567		 314.81988			43377.83579		136.80400		875.00000 
 43692.65567		 305.27265			43387.38302		64.65000		324.00000 
 43692.65567		 318.63877			43374.01690		136.80400		875.00000 
 43692.65567		 305.27265			43387.38302		64.65000		324.00000 
 43692.65567		 322.45767			43370.19801		136.80400		875.00000 
 43692.65567		 305.27265			43387.38302		64.65000		324.00000 
 43692.65567		 326.27656			43366.37912		136.80400		875.00000 
 43692.65567		 305.27265			43387.38302		64.65000		324.00000 
 43692.65567		 326.27656			43366.37912		136.80400		875.00000 
 43692.65567		 305.27265			43387.38302		64.65000		324.00000 
 43692.65567		 326.27656			43366.37912		136.80400		875.00000 
 43692.65567		 305.27265			43387.38302		64.65000		324.00000 
 43692.65567		 537.27032			43155.38535		136.80400		875.00000 
 43692.65567		 305.27265			43387.38302		64.65000		324.00000 
 43692.65567		 565.43465			43127.22102		136.80400		875.00000 
 43692.65567		 305.27265			43387.38302		64.65000		324.00000 
 43692.65567		 621.76330			43070.89237		136.80400		875.00000 
 43692.65567		 305.27265			43387.38302		64.65000		324.00000 
 43692.65567		 621.76330			43070.89237		136.80400		875.00000 
 43692.65567		 305.27265			43387.38302		64.65000		324.00000 
 43692.65567		 621.76330			43070.89237		136.80400		875.00000 
 43692.65567		 305.27265			43387.38302		64.65000		324.00000 
 43692.65567		 621.76330			43070.89237		136.80400		875.00000 
 43692.65567		 305.27265			43387.38302		64.65000		324.00000 
 43692.65567		 621.76330			43070.89237		136.80400		875.00000 
 43692.65567		 305.27265			43387.38302		64.65000		324.00000 
 43692.65567		 621.76330			43070.89237		136.80400		875.00000 
 43692.65567		 305.27265			43387.38302		64.65000		324.00000 
 43692.65567		 621.76330			43070.89237		136.80400		875.00000 
 43692.65567		 305.27265			43387.38302		64.65000		324.00000 
 43692.65567		 621.76330			43070.89237		136.80400		875.00000 
 43692.65567		 305.27265			43387.38302		64.65000		324.00000 
 43692.65567		 621.76330			43070.89237		136.80400		875.00000 
 43692.65567		 305.27265			43387.38302		64.65000		324.00000 
 43692.65567		 621.76330			43070.89237		136.80400		875.00000 
 43692.65567		 305.27265			43387.38302		64.65000		324.00000 
 43692.65567		 621.76330			43070.89237		136.80400		875.00000 
 43692.65567		 305.27265			43387.38302		64.65000		324.00000 
 43692.65567		 621.76330			43070.89237		136.80400		875.00000 
 43692.65567		 305.27265			43387.38302		64.65000		324.00000 
 43692.65567		 621.76330			43070.89237		149.09600		875.00000 
 43692.65567		 305.27265			43387.38302		64.65000		324.00000 
 43692.65567		 621.76330			43070.89237		149.09600		875.00000 
 43692.65567		 305.27265			43387.38302		64.65000		324.00000 
 43692.65567		 621.76330			43070.89237		149.09600		875.00000 
 43692.65567		 305.27265			43387.38302		64.65000		324.00000 
 43692.65567		 621.76330			43070.89237		149.09600		875.00000 
 43692.65567		 305.27265			43387.38302		64.65000		324.00000 
 43692.65567		 621.76330			43070.89237		149.09600		875.00000 
 43692.65567		 305.27265			43387.38302		64.65000		324.00000 
 43692.65567		 621.76330			43070.89237		149.09600		875.00000 
 43692.65567		 305.27265			43387.38302		64.65000		324.00000 
 43692.65567		 621.76330			43070.89237		149.09600		875.00000 
 43692.65567		 305.27265			43387.38302		64.65000		324.00000 
 43692.65567		 621.76330			43070.89237		149.09600		875.00000 
 43692.65567		 305.27265			43387.38302		64.65000		324.00000 
 43692.65567		 621.76330			43070.89237		149.09600		875.00000 
 43692.65567		 305.27265			43387.38302		64.65000		324.00000 
 43692.65567		 621.76330			43070.89237		149.09600		875.00000 
 43692.65567		 305.27265			43387.38302		64.65000		324.00000 
 43692.65567		 621.76330			43070.89237		149.09600		875.00000 
 43692.65567		 305.27265			43387.38302		64.65000		324.00000 
 43692.65567		 621.76330			43070.89237		149.09600		875.00000 
 43692.65567		 305.27265			43387.38302		64.65000		324.00000 
 43692.65567		 621.76330			43070.89237		149.09600		875.00000 
 43692.65567		 305.27265			43387.38302		64.65000		324.00000 
 43692.65567		 621.76330			43070.89237		149.09600		875.00000 
 43692.65567		 305.27265			43387.38302		64.65000		324.00000 
 43692.65567		 621.76330			43070.89237		149.09600		875.00000 
 43692.65567		 305.27265			43387.38302		64.65000		324.00000 
 43692.65567		 621.76330			43070.89237		149.09600		875.00000 
 43692.65567		 305.27265			43387.38302		64.65000		324.00000 
 43692.65567		 621.76330			43070.89237		149.09600		875.00000 
 43692.65567		 305.27265			43387.38302		64.65000		324.00000 
 43692.65567		 621.76330			43070.89237		149.09600		875.00000 
 43692.65567		 305.27265			43387.38302		64.65000		324.00000 
 43692.65567		 621.76330			43070.89237		149.09600		875.00000 
 43692.65567		 305.27265			43387.38302		64.65000		324.00000 
 43692.65567		 621.76330			43070.89237		149.09600		875.00000 
 43692.65567		 305.27265			43387.38302		64.65000		324.00000 
 43692.65567		 621.76330			43070.89237		149.09600		875.00000 
 43692.65567		 305.27265			43387.38302		64.65000		324.00000 
 43692.65567		 621.76330			43070.89237		149.09600		875.00000 
 43692.65567		 305.27265			43387.38302		64.65000		324.00000 
 43692.65567		 621.76330			43070.89237		149.09600		875.00000 
 43692.65567		 305.27265			43387.38302		64.65000		324.00000 
 43692.65567		 621.76330			43070.89237		149.09600		875.00000 
 43692.65567		 305.27265			43387.38302		64.65000		324.00000 
 43692.65567		 621.76330			43070.89237		149.09600		875.00000 
 43692.65567		 305.27265			43387.38302		64.65000		324.00000 
 43692.65567		 621.76330			43070.89237		149.09600		875.00000 
 43692.65567		 305.27265			43387.38302		64.65000		324.00000 
 43692.65567		 621.76330			43070.89237		149.09600		875.00000 
 43692.65567		 305.27265			43387.38302		64.65000		324.00000 
 43692.65567		 621.76330			43070.89237		149.09600		875.00000 
 43692.65567		 305.27265			43387.38302		64.65000		324.00000 
 43692.65567		 621.76330			43070.89237		149.09600		875.00000 
 43692.65567		 305.27265			43387.38302		64.65000		324.00000 
 43692.65567		 621.76330			43070.89237		149.09600		875.00000 
 43692.65567		 305.27265			43387.38302		64.65000		324.00000 
 43692.65567		 621.76330			43070.89237		149.09600		875.00000 
 43692.65567		 305.27265			43387.38302		64.65000		324.00000 
 43692.65567		 621.76330			43070.89237		149.09600		875.00000 
 43692.65567		 305.27265			43387.38302		64.65000		324.00000 
 43692.65567		 621.76330			43070.89237		149.09600		875.00000 
 43692.65567		 305.27265			43387.38302		64.65000		324.00000 
 43692.65567		 621.76330			43070.89237		149.09600		875.00000 
 43692.65567		 305.27265			43387.38302		64.65000		324.00000 
 43692.65567		 621.76330			43070.89237		149.09600		875.00000 
 43692.65567		 305.27265			43387.38302		64.65000		324.00000 
 43692.65567		 621.76330			43070.89237		149.09600		875.00000 
 43692.65567		 305.27265			43387.38302		64.65000		324.00000 
 43692.65567		 621.76330			43070.89237		149.09600		875.00000 
 43692.65567		 305.27265			43387.38302		64.65000		324.00000 
 43692.65567		 621.76330			43070.89237		149.09600		875.00000 
 43692.65567		 305.27265			43387.38302		64.65000		324.00000 
 43692.65567		 621.76330			43070.89237		149.09600		875.00000 
 43692.65567		 305.27265			43387.38302		64.65000		324.00000 
 43692.65567		 621.76330			43070.89237		149.09600		875.00000 
 43692.65567		 305.27265			43387.38302		64.65000		324.00000 
 43692.65567		 621.76330			43070.89237		149.09600		875.00000 
 43692.65567		 305.27265			43387.38302		64.65000		324.00000 
 43692.65567		 621.76330			43070.89237		149.09600		875.00000 
 43692.65567		 305.27265			43387.38302		64.65000		324.00000 
 43692.65567		 621.76330			43070.89237		149.09600		875.00000 
 43692.65567		 305.27265			43387.38302		64.65000		324.00000 
 43692.65567		 621.76330			43070.89237		149.09600		875.00000 
 43692.65567		 305.27265			43387.38302		64.65000		324.00000 
 43692.65567		 621.76330			43070.89237		149.09600		875.00000 
 43692.65567		 305.27265			43387.38302		64.65000		324.00000 
 43692.65567		 621.76330			43070.89237		149.09600		875.00000 
 43692.65567		 305.27265			43387.38302		64.65000		324.00000 
 43692.65567		 621.76330			43070.89237		149.09600		875.00000 
 43692.65567		 305.27265			43387.38302		64.65000		324.00000 
 43692.65567		 621.76330			43070.89237		149.09600		875.00000 
 43692.65567		 305.27265			43387.38302		64.65000		324.00000 
 43692.65567		 621.76330			43070.89237		149.09600		875.00000 
 43692.65567		 305.27265			43387.38302		64.65000		324.00000 
 43692.65567		 621.76330			43070.89237		149.09600		875.00000 
 43692.65567		 305.27265			43387.38302		64.65000		324.00000 
 43692.65567		 621.76330			43070.89237		149.09600		875.00000 
 43692.65567		 305.27265			43387.38302		64.65000		324.00000 
 43692.65567		 621.76330			43070.89237		149.09600		875.00000 
 43692.65567		 305.27265			43387.38302		64.65000		324.00000 
 43692.65567		 621.76330			43070.89237		149.09600		875.00000 
 43692.65567		 305.27265			43387.38302		64.65000		324.00000 
 43692.65567		 621.76330			43070.89237		149.09600		875.00000 
 43692.65567		 305.27265			43387.38302		64.65000		324.00000 
 43692.65567		 621.76330			43070.89237		149.09600		875.00000 
 43692.65567		 305.27265			43387.38302		64.65000		324.00000 
 43692.65567		 621.76330			43070.89237		149.09600		875.00000 
 43692.65567		 305.27265			43387.38302		64.65000		324.00000 
 43692.65567		 621.76330			43070.89237		149.09600		875.00000 
 43692.65567		 305.27265			43387.38302		64.65000		324.00000 
 43692.65567		 621.76330			43070.89237		149.09600		875.00000 
 43692.65567		 305.27265			43387.38302		64.65000		324.00000 
 43692.65567		 621.76330			43070.89237		149.09600		875.00000 
 43692.65567		 305.27265			43387.38302		64.65000		324.00000 
 43692.65567		 621.76330			43070.89237		149.09600		875.00000 
 43692.65567		 305.27265			43387.38302		64.65000		324.00000 
 43692.65567		 621.76330			43070.89237		149.09600		875.00000 
 43692.65567		 305.27265			43387.38302		64.65000		324.00000 
 43692.65567		 621.76330			43070.89237		149.09600		875.00000 
 43692.65567		 305.27265			43387.38302		64.65000		324.00000 
 43692.65567		 621.76330			43070.89237		149.09600		875.00000 
 43692.65567		 305.27265			43387.38302		64.65000		324.00000 
 43692.65567		 621.76330			43070.89237		149.09600		875.00000 
 43692.65567		 305.27265			43387.38302		64.65000		324.00000 
 43692.65567		 621.76330			43070.89237		149.09600		875.00000 
 43692.65567		 305.27265			43387.38302		64.65000		324.00000 
 43692.65567		 621.76330			43070.89237		191.85800		875.00000 
 43692.65567		 305.27265			43387.38302		64.65000		324.00000 
 43692.65567		 621.76330			43070.89237		191.85800		875.00000 
 43692.65567		 305.27265			43387.38302		64.65000		324.00000 
 43692.65567		 621.76330			43070.89237		191.85800		875.00000 
 43692.65567		 305.27265			43387.38302		64.65000		324.00000 
 43692.65567		 621.76330			43070.89237		191.85800		875.00000 
 43692.65567		 305.27265			43387.38302		64.65000		324.00000 
 43692.65567		 621.76330			43070.89237		191.85800		875.00000 
 43692.65567		 305.27265			43387.38302		64.65000		324.00000 
 43692.65567		 621.76330			43070.89237		191.85800		875.00000 
 43692.65567		 305.27265			43387.38302		64.65000		324.00000 
 43692.65567		 621.76330			43070.89237		191.85800		875.00000 
 43692.65567		 305.27265			43387.38302		64.65000		324.00000 
 43692.65567		 621.76330			43070.89237		191.85800		875.00000 
 43692.65567		 305.27265			43387.38302		64.65000		324.00000 
 43692.65567		 621.76330			43070.89237		191.85800		875.00000 
 43692.65567		 305.27265			43387.38302		64.65000		324.00000 
 43692.65567		 621.76330			43070.89237		191.85800		875.00000 
 43692.65567		 305.27265			43387.38302		64.65000		324.00000 
 43692.65567		 621.76330			43070.89237		191.85800		875.00000 
 43692.65567		 305.27265			43387.38302		64.65000		324.00000 
 43692.65567		 621.76330			43070.89237		191.85800		875.00000 
 43692.65567		 305.27265			43387.38302		64.65000		324.00000 
 43692.65567		 621.76330			43070.89237		191.85800		875.00000 
 43692.65567		 305.27265			43387.38302		64.65000		324.00000 
 43692.65567		 621.76330			43070.89237		191.85800		875.00000 
 43692.65567		 305.27265			43387.38302		64.65000		324.00000 
 43692.65567		 621.76330			43070.89237		191.85800		875.00000 
 43692.65567		 305.27265			43387.38302		64.65000		324.00000 
 43692.65567		 621.76330			43070.89237		191.85800		875.00000 
 43692.65567		 305.27265			43387.38302		64.65000		324.00000 
 43692.65567		 621.76330			43070.89237		191.85800		875.00000 
 43692.65567		 305.27265			43387.38302		64.65000		324.00000 
 43692.65567		 621.76330			43070.89237		191.85800		875.00000 
 43692.65567		 305.27265			43387.38302		64.65000		324.00000 
 43692.65567		 621.76330			43070.89237		191.85800		875.00000 
 43692.65567		 305.27265			43387.38302		64.65000		324.00000 
 43692.65567		 621.76330			43070.89237		191.85800		875.00000 
 43692.65567		 305.27265			43387.38302		64.65000		324.00000 
 43692.65567		 621.76330			43070.89237		191.85800		875.00000 
 43692.65567		 305.27265			43387.38302		64.65000		324.00000 
 43692.65567		 621.76330			43070.89237		191.85800		875.00000 
 43692.65567		 305.27265			43387.38302		64.65000		324.00000 
 43692.65567		 621.76330			43070.89237		191.85800		875.00000 
 43692.65567		 305.27265			43387.38302		64.65000		324.00000 
 43692.65567		 621.76330			43070.89237		191.85800		875.00000 
 43692.65567		 305.27265			43387.38302		64.65000		324.00000 
 43692.65567		 621.76330			43070.89237		191.85800		875.00000 
 43692.65567		 305.27265			43387.38302		64.65000		324.00000 
 43692.65567		 621.76330			43070.89237		191.85800		875.00000 
 43692.65567		 305.27265			43387.38302		64.65000		324.00000 
 43692.65567		 621.76330			43070.89237		191.85800		875.00000 
 43692.65567		 305.27265			43387.38302		64.65000		324.00000 
 43692.65567		 621.76330			43070.89237		191.85800		875.00000 
 43692.65567		 305.27265			43387.38302		64.65000		324.00000 
 43692.65567		 621.76330			43070.89237		191.85800		875.00000 
 43692.65567		 305.27265			43387.38302		64.65000		324.00000 
 43692.65567		 621.76330			43070.89237		191.85800		875.00000 
 43692.65567		 305.27265			43387.38302		64.65000		324.00000 
 43692.65567		 621.76330			43070.89237		191.85800		875.00000 
 43692.65567		 305.27265			43387.38302		64.65000		324.00000 
 43692.65567		 621.76330			43070.89237		191.85800		875.00000 
 43692.65567		 305.27265			43387.38302		64.65000		324.00000 
 43692.65567		 621.76330			43070.89237		191.85800		875.00000 
 43692.65567		 305.27265			43387.38302		64.65000		324.00000 
 43692.65567		 621.76330			43070.89237		191.85800		875.00000 
 43692.65567		 305.27265			43387.38302		64.65000		324.00000 
 43692.65567		 621.76330			43070.89237		191.85800		875.00000 
 43692.65567		 305.27265			43387.38302		64.65000		324.00000 
 43692.65567		 621.76330			43070.89237		191.85800		875.00000 
 43692.65567		 305.27265			43387.38302		64.65000		324.00000 
 43692.65567		 621.76330			43070.89237		191.85800		875.00000 
 43692.65567		 305.27265			43387.38302		64.65000		324.00000 
 43692.65567		 621.76330			43070.89237		191.85800		875.00000 
 43692.65567		 305.27265			43387.38302		64.65000		324.00000 
 43692.65567		 621.76330			43070.89237		191.85800		875.00000 
 43692.65567		 305.27265			43387.38302		64.65000		324.00000 
 43692.65567		 621.76330			43070.89237		191.85800		875.00000 
 43692.65567		 305.27265			43387.38302		64.65000		324.00000 
 43692.65567		 621.76330			43070.89237		191.85800		875.00000 
 43692.65567		 305.27265			43387.38302		64.65000		324.00000 
 43692.65567		 621.76330			43070.89237		191.85800		875.00000 
 43692.65567		 305.27265			43387.38302		64.65000		324.00000 
 43692.65567		 621.76330			43070.89237		191.85800		875.00000 
 43692.65567		 305.27265			43387.38302		64.65000		324.00000 
 43692.65567		 621.76330			43070.89237		191.85800		875.00000 
 43692.65567		 305.27265			43387.38302		64.65000		324.00000 
 43692.65567		 621.76330			43070.89237		191.85800		875.00000 
 43692.65567		 305.27265			43387.38302		64.65000		324.00000 
 43692.65567		 621.76330			43070.89237		191.85800		875.00000 
 43692.65567		 305.27265			43387.38302		64.65000		324.00000 
 43692.65567		 621.76330			43070.89237		191.85800		875.00000 
 43692.65567		 305.27265			43387.38302		64.65000		324.00000 
 43692.65567		 621.76330			43070.89237		191.85800		875.00000 
 43692.65567		 305.27265			43387.38302		64.65000		324.00000 
 43692.65567		 621.76330			43070.89237		191.85800		875.00000 
 43692.65567		 305.27265			43387.38302		64.65000		324.00000 
 43692.65567		 621.76330			43070.89237		191.85800		875.00000 
 43692.65567		 305.27265			43387.38302		64.65000		324.00000 
 43692.65567		 621.76330			43070.89237		191.85800		875.00000 
 43692.65567		 305.27265			43387.38302		64.65000		324.00000 
 43692.65567		 621.76330			43070.89237		191.85800		875.00000 
 43692.65567		 305.27265			43387.38302		64.65000		324.00000 
 43692.65567		 621.76330			43070.89237		191.85800		875.00000 
 43692.65567		 305.27265			43387.38302		64.65000		324.00000 
 43692.65567		 621.76330			43070.89237		191.85800		875.00000 
 43692.65567		 305.27265			43387.38302		64.65000		324.00000 
 43692.65567		 621.76330			43070.89237		191.85800		875.00000 
 43692.65567		 305.27265			43387.38302		64.65000		324.00000 
 43692.65567		 621.76330			43070.89237		191.85800		875.00000 
 43692.65567		 305.27265			43387.38302		64.65000		324.00000 
 43692.65567		 621.76330			43070.89237		191.85800		875.00000 
 43692.65567		 305.27265			43387.38302		64.65000		324.00000 
 43692.65567		 621.76330			43070.89237		191.85800		875.00000 
 43692.65567		 305.27265			43387.38302		64.65000		324.00000 
 43692.65567		 621.76330			43070.89237		191.85800		875.00000 
 43692.65567		 305.27265			43387.38302		64.65000		324.00000 
 43692.65567		 621.76330			43070.89237		191.85800		875.00000 
 43692.65567		 305.27265			43387.38302		64.65000		324.00000 
 43692.65567		 621.76330			43070.89237		191.85800		875.00000 
 43692.65567		 305.27265			43387.38302		64.65000		324.00000 
 43692.65567		 621.76330			43070.89237		191.85800		875.00000 
 43692.65567		 305.27265			43387.38302		64.65000		324.00000 
 43692.65567		 621.76330			43070.89237		191.85800		875.00000 
 43692.65567		 305.27265			43387.38302		64.65000		324.00000 
 43692.65567		 621.76330			43070.89237		191.85800		875.00000 
 43692.65567		 305.27265			43387.38302		64.65000		324.00000 
 43692.65567		 621.76330			43070.89237		209.30200		875.00000 
 43692.65567		 305.27265			43387.38302		64.65000		324.00000 
 43692.65567		 621.76330			43070.89237		209.30200		875.00000 
 43692.65567		 305.27265			43387.38302		64.65000		324.00000 
 43692.65567		 621.76330			43070.89237		209.30200		875.00000 
 43692.65567		 305.27265			43387.38302		64.65000		324.00000 
 43692.65567		 621.76330			43070.89237		209.30200		875.00000 
 43692.65567		 305.27265			43387.38302		64.65000		324.00000 
 43692.65567		 621.76330			43070.89237		209.30200		875.00000 
 43692.65567		 305.27265			43387.38302		64.65000		324.00000 
 43692.65567		 621.76330			43070.89237		209.30200		875.00000 
 43692.65567		 305.27265			43387.38302		64.65000		324.00000 
 43692.65567		 621.76330			43070.89237		209.30200		875.00000 
 43692.65567		 305.27265			43387.38302		64.65000		324.00000 
 43692.65567		 621.76330			43070.89237		209.30200		875.00000 
 43692.65567		 305.27265			43387.38302		64.65000		324.00000 
 43692.65567		 621.76330			43070.89237		209.30200		875.00000 
 43692.65567		 305.27265			43387.38302		64.65000		324.00000 
 43692.65567		 621.76330			43070.89237		209.30200		875.00000 
 43692.65567		 305.27265			43387.38302		64.65000		324.00000 
 43692.65567		 621.76330			43070.89237		209.30200		875.00000 
 43692.65567		 305.27265			43387.38302		64.65000		324.00000 
 43692.65567		 621.76330			43070.89237		209.30200		875.00000 
 43692.65567		 305.27265			43387.38302		64.65000		324.00000 
 43692.65567		 621.76330			43070.89237		209.30200		875.00000 
 43692.65567		 305.27265			43387.38302		64.65000		324.00000 
 43692.65567		 621.76330			43070.89237		209.30200		875.00000 
 43692.65567		 305.27265			43387.38302		64.65000		324.00000 
 43692.65567		 621.76330			43070.89237		209.30200		875.00000 
 43692.65567		 305.27265			43387.38302		64.65000		324.00000 
 43692.65567		 621.76330			43070.89237		209.30200		875.00000 
 43692.65567		 305.27265			43387.38302		64.65000		324.00000 
 43692.65567		 621.76330			43070.89237		209.30200		875.00000 
 43692.65567		 305.27265			43387.38302		64.65000		324.00000 
 43692.65567		 621.76330			43070.89237		209.30200		875.00000 
 43692.65567		 305.27265			43387.38302		64.65000		324.00000 
 43692.65567		 621.76330			43070.89237		209.30200		875.00000 
 43692.65567		 305.27265			43387.38302		64.65000		324.00000 
 43692.65567		 621.76330			43070.89237		209.30200		875.00000 
 43692.65567		 305.27265			43387.38302		64.65000		324.00000 
 43692.65567		 621.76330			43070.89237		209.30200		875.00000 
 43692.65567		 305.27265			43387.38302		64.65000		324.00000 
 43692.65567		 621.76330			43070.89237		209.30200		875.00000 
 43692.65567		 305.27265			43387.38302		64.65000		324.00000 
 43692.65567		 621.76330			43070.89237		209.30200		875.00000 
 43692.65567		 305.27265			43387.38302		64.65000		324.00000 
 43692.65567		 621.76330			43070.89237		209.30200		875.00000 
 43692.65567		 305.27265			43387.38302		64.65000		324.00000 
 43692.65567		 621.76330			43070.89237		209.30200		875.00000 
 43692.65567		 305.27265			43387.38302		64.65000		324.00000 
 43692.65567		 621.76330			43070.89237		209.30200		875.00000 
 43692.65567		 305.27265			43387.38302		64.65000		324.00000 
 43692.65567		 621.76330			43070.89237		209.30200		875.00000 
 43692.65567		 305.27265			43387.38302		64.65000		324.00000 
 43692.65567		 621.76330			43070.89237		209.30200		875.00000 
 43692.65567		 305.27265			43387.38302		64.65000		324.00000 
 43692.65567		 621.76330			43070.89237		209.30200		875.00000 
 43692.65567		 305.27265			43387.38302		64.65000		324.00000 
 43692.65567		 621.76330			43070.89237		209.30200		875.00000 
 43692.65567		 305.27265			43387.38302		64.65000		324.00000 
 43692.65567		 621.76330			43070.89237		209.30200		875.00000 
 43692.65567		 305.27265			43387.38302		64.65000		324.00000 
 43692.65567		 621.76330			43070.89237		209.30200		875.00000 
 43692.65567		 305.27265			43387.38302		64.65000		324.00000 
 43692.65567		 621.76330			43070.89237		209.30200		875.00000 
 43692.65567		 305.27265			43387.38302		64.65000		324.00000 
 43692.65567		 621.76330			43070.89237		209.30200		875.00000 
 43692.65567		 305.27265			43387.38302		64.65000		324.00000 
 43692.65567		 621.76330			43070.89237		209.30200		875.00000 
 43692.65567		 305.27265			43387.38302		64.65000		324.00000 
 43692.65567		 621.76330			43070.89237		209.30200		875.00000 
 43692.65567		 305.27265			43387.38302		64.65000		324.00000 
 43692.65567		 621.76330			43070.89237		209.30200		875.00000 
 43692.65567		 305.27265			43387.38302		64.65000		324.00000 
 43692.65567		 621.76330			43070.89237		209.30200		875.00000 
 43692.65567		 305.27265			43387.38302		64.65000		324.00000 
 43692.65567		 621.76330			43070.89237		209.30200		875.00000 
 43692.65567		 305.27265			43387.38302		64.65000		324.00000 
 43692.65567		 621.76330			43070.89237		209.30200		875.00000 
 43692.65567		 305.27265			43387.38302		64.65000		324.00000 
 43692.65567		 621.76330			43070.89237		209.30200		875.00000 
 43692.65567		 305.27265			43387.38302		64.65000		324.00000 
 43692.65567		 621.76330			43070.89237		209.30200		875.00000 
 43692.65567		 305.27265			43387.38302		64.65000		324.00000 
 43692.65567		 621.76330			43070.89237		209.30200		875.00000 
 43692.65567		 305.27265			43387.38302		64.65000		324.00000 
 43692.65567		 621.76330			43070.89237		209.30200		875.00000 
 43692.65567		 305.27265			43387.38302		64.65000		324.00000 
 43692.65567		 621.76330			43070.89237		209.30200		875.00000 
 43692.65567		 305.27265			43387.38302		64.65000		324.00000 
 43692.65567		 621.76330			43070.89237		209.30200		875.00000 
 43692.65567		 305.27265			43387.38302		64.65000		324.00000 
 43692.65567		 621.76330			43070.89237		209.30200		875.00000 
 43692.65567		 305.27265			43387.38302		64.65000		324.00000 
 43692.65567		 621.76330			43070.89237		209.30200		875.00000 
 43692.65567		 305.27265			43387.38302		64.65000		324.00000 
 43692.65567		 621.76330			43070.89237		209.30200		875.00000 
 43692.65567		 305.27265			43387.38302		64.65000		324.00000 
 43692.65567		 621.76330			43070.89237		209.30200		875.00000 
 43692.65567		 305.27265			43387.38302		64.65000		324.00000 
 43692.65567		 621.76330			43070.89237		209.30200		875.00000 
 43692.65567		 305.27265			43387.38302		64.65000		324.00000 
 43692.65567		 621.76330			43070.89237		209.30200		875.00000 
 43692.65567		 305.27265			43387.38302		64.65000		324.00000 
 43692.65567		 621.76330			43070.89237		209.30200		875.00000 
 43692.65567		 305.27265			43387.38302		64.65000		324.00000 
 43692.65567		 621.76330			43070.89237		209.30200		875.00000 
 43692.65567		 305.27265			43387.38302		64.65000		324.00000 
 43692.65567		 621.76330			43070.89237		209.30200		875.00000 
 43692.65567		 305.27265			43387.38302		64.65000		324.00000 
 43692.65567		 621.76330			43070.89237		209.30200		875.00000 
 43692.65567		 305.27265			43387.38302		64.65000		324.00000 
 43692.65567		 621.76330			43070.89237		209.30200		875.00000 
 43692.65567		 305.27265			43387.38302		64.65000		324.00000 
 43692.65567		 621.76330			43070.89237		209.30200		875.00000 
 43692.65567		 305.27265			43387.38302		64.65000		324.00000 
 43692.65567		 621.76330			43070.89237		209.30200		875.00000 
 43692.65567		 305.27265			43387.38302		64.65000		324.00000 
 43692.65567		 621.76330			43070.89237		209.30200		875.00000 
 43692.65567		 305.27265			43387.38302		64.65000		324.00000 
 43692.65567		 621.76330			43070.89237		209.30200		875.00000 
 43692.65567		 305.27265			43387.38302		64.65000		324.00000 
 43692.65567		 621.76330			43070.89237		209.30200		875.00000 
 43692.65567		 305.27265			43387.38302		64.65000		324.00000 
 43692.65567		 621.76330			43070.89237		209.30200		875.00000 
 43692.65567		 305.27265			43387.38302		64.65000		324.00000 
 43692.65567		 621.76330			43070.89237		209.30200		875.00000 
 43692.65567		 305.27265			43387.38302		64.65000		324.00000 
 43692.65567		 621.76330			43070.89237		216.03600		875.00000 
 43692.65567		 305.27265			43387.38302		64.65000		324.00000 
 43692.65567		 621.76330			43070.89237		216.03600		875.00000 
 43692.65567		 305.27265			43387.38302		64.65000		324.00000 
 43692.65567		 621.76330			43070.89237		216.03600		875.00000 
 43692.65567		 305.27265			43387.38302		64.65000		324.00000 
 43692.65567		 621.76330			43070.89237		216.03600		875.00000 
 43692.65567		 305.27265			43387.38302		64.65000		324.00000 
 43692.65567		 621.76330			43070.89237		216.03600		875.00000 
 43692.65567		 305.27265			43387.38302		64.65000		324.00000 
 43692.65567		 621.76330			43070.89237		216.03600		875.00000 
 43692.65567		 305.27265			43387.38302		64.65000		324.00000 
 43692.65567		 621.76330			43070.89237		216.03600		875.00000 
 43692.65567		 305.27265			43387.38302		64.65000		324.00000 
 43692.65567		 621.76330			43070.89237		216.03600		875.00000 
 43692.65567		 305.27265			43387.38302		64.65000		324.00000 
 43692.65567		 621.76330			43070.89237		216.03600		875.00000 
 43692.65567		 305.27265			43387.38302		64.65000		324.00000 
 43692.65567		 621.76330			43070.89237		216.03600		875.00000 
 43692.65567		 305.27265			43387.38302		64.65000		324.00000 
 43692.65567		 621.76330			43070.89237		216.03600		875.00000 
 43692.65567		 305.27265			43387.38302		64.65000		324.00000 
 43692.65567		 621.76330			43070.89237		216.03600		875.00000 
 43692.65567		 305.27265			43387.38302		64.65000		324.00000 
 43692.65567		 621.76330			43070.89237		216.03600		875.00000 
 43692.65567		 305.27265			43387.38302		64.65000		324.00000 
 43692.65567		 621.76330			43070.89237		216.03600		875.00000 
 43692.65567		 305.27265			43387.38302		64.65000		324.00000 
 43692.65567		 621.76330			43070.89237		216.03600		875.00000 
 43692.65567		 305.27265			43387.38302		64.65000		324.00000 
 43692.65567		 621.76330			43070.89237		216.03600		875.00000 
 43692.65567		 305.27265			43387.38302		64.65000		324.00000 
 43692.65567		 621.76330			43070.89237		216.03600		875.00000 
 43692.65567		 305.27265			43387.38302		64.65000		324.00000 
 43692.65567		 621.76330			43070.89237		216.03600		875.00000 
 43692.65567		 305.27265			43387.38302		64.65000		324.00000 
 43692.65567		 621.76330			43070.89237		216.03600		875.00000 
 43692.65567		 305.27265			43387.38302		64.65000		324.00000 
 43692.65567		 621.76330			43070.89237		216.03600		875.00000 
 43692.65567		 305.27265			43387.38302		64.65000		324.00000 
 43692.65567		 621.76330			43070.89237		216.03600		875.00000 
 43692.65567		 305.27265			43387.38302		64.65000		324.00000 
 43692.65567		 621.76330			43070.89237		216.03600		875.00000 
 43692.65567		 305.27265			43387.38302		64.65000		324.00000 
 43692.65567		 621.76330			43070.89237		216.03600		875.00000 
 43692.65567		 305.27265			43387.38302		64.65000		324.00000 
 43692.65567		 621.76330			43070.89237		216.03600		875.00000 
 43692.65567		 305.27265			43387.38302		64.65000		324.00000 
 43692.65567		 621.76330			43070.89237		216.03600		875.00000 
 43692.65567		 305.27265			43387.38302		64.65000		324.00000 
 43692.65567		 621.76330			43070.89237		216.03600		875.00000 
 43692.65567		 305.27265			43387.38302		64.65000		324.00000 
 43692.65567		 621.76330			43070.89237		216.03600		875.00000 
 43692.65567		 305.27265			43387.38302		64.65000		324.00000 
 43692.65567		 621.76330			43070.89237		216.03600		875.00000 
 43692.65567		 305.27265			43387.38302		64.65000		324.00000 
 43692.65567		 621.76330			43070.89237		216.03600		875.00000 
 43692.65567		 305.27265			43387.38302		64.65000		324.00000 
 43692.65567		 621.76330			43070.89237		216.03600		875.00000 
 43692.65567		 305.27265			43387.38302		64.65000		324.00000 
 43692.65567		 621.76330			43070.89237		216.03600		875.00000 
 43692.65567		 305.27265			43387.38302		64.65000		324.00000 
 43692.65567		 621.76330			43070.89237		216.03600		875.00000 
 43692.65567		 305.27265			43387.38302		64.65000		324.00000 
 43692.65567		 621.76330			43070.89237		216.03600		875.00000 
 43692.65567		 305.27265			43387.38302		64.65000		324.00000 
 43692.65567		 621.76330			43070.89237		216.03600		875.00000 
 43692.65567		 305.27265			43387.38302		64.65000		324.00000 
 43692.65567		 621.76330			43070.89237		216.03600		875.00000 
 43692.65567		 305.27265			43387.38302		64.65000		324.00000 
 43692.65567		 621.76330			43070.89237		216.03600		875.00000 
 43692.65567		 305.27265			43387.38302		64.65000		324.00000 
 43692.65567		 621.76330			43070.89237		216.03600		875.00000 
 43692.65567		 305.27265			43387.38302		64.65000		324.00000 
 43692.65567		 621.76330			43070.89237		216.03600		875.00000 
 43692.65567		 305.27265			43387.38302		64.65000		324.00000 
 43692.65567		 621.76330			43070.89237		216.03600		875.00000 
 43692.65567		 305.27265			43387.38302		64.65000		324.00000 
 43692.65567		 621.76330			43070.89237		216.03600		875.00000 
 43692.65567		 305.27265			43387.38302		64.65000		324.00000 
 43692.65567		 621.76330			43070.89237		216.03600		875.00000 
 43692.65567		 305.27265			43387.38302		64.65000		324.00000 
 43692.65567		 621.76330			43070.89237		216.03600		875.00000 
 43692.65567		 305.27265			43387.38302		64.65000		324.00000 
 43692.65567		 621.76330			43070.89237		216.03600		875.00000 
 43692.65567		 305.27265			43387.38302		64.65000		324.00000 
 43692.65567		 621.76330			43070.89237		216.03600		875.00000 
 43692.65567		 305.27265			43387.38302		64.65000		324.00000 
 43692.65567		 621.76330			43070.89237		216.03600		875.00000 
 43692.65567		 305.27265			43387.38302		64.65000		324.00000 
 43692.65567		 621.76330			43070.89237		216.03600		875.00000 
 43692.65567		 305.27265			43387.38302		64.65000		324.00000 
 43692.65567		 621.76330			43070.89237		216.03600		875.00000 
 43692.65567		 305.27265			43387.38302		64.65000		324.00000 
 43692.65567		 621.76330			43070.89237		216.03600		875.00000 
 43692.65567		 305.27265			43387.38302		64.65000		324.00000 
 43692.65567		 621.76330			43070.89237		216.03600		875.00000 
 43692.65567		 305.27265			43387.38302		64.65000		324.00000 
 43692.65567		 621.76330			43070.89237		216.03600		875.00000 
 43692.65567		 305.27265			43387.38302		64.65000		324.00000 
 43692.65567		 621.76330			43070.89237		216.03600		875.00000 
 43692.65567		 305.27265			43387.38302		64.65000		324.00000 
 43692.65567		 621.76330			43070.89237		216.03600		875.00000 
 43692.65567		 305.27265			43387.38302		64.65000		324.00000 
 43692.65567		 621.76330			43070.89237		216.03600		875.00000 
 43692.65567		 305.27265			43387.38302		64.65000		324.00000 
 43692.65567		 621.76330			43070.89237		216.03600		875.00000 
 43692.65567		 305.27265			43387.38302		64.65000		324.00000 
 43692.65567		 621.76330			43070.89237		216.03600		875.00000 
 43692.65567		 305.27265			43387.38302		64.65000		324.00000 
 43692.65567		 621.76330			43070.89237		216.03600		875.00000 
 43692.65567		 305.27265			43387.38302		64.65000		324.00000 
 43692.65567		 621.76330			43070.89237		216.03600		875.00000 
 43692.65567		 305.27265			43387.38302		64.65000		324.00000 
 43692.65567		 621.76330			43070.89237		216.03600		875.00000 
 43692.65567		 305.27265			43387.38302		64.65000		324.00000 
 43692.65567		 621.76330			43070.89237		216.03600		875.00000 
 43692.65567		 305.27265			43387.38302		64.65000		324.00000 
 43692.65567		 621.76330			43070.89237		216.03600		875.00000 
 43692.65567		 305.27265			43387.38302		64.65000		324.00000 
 43692.65567		 621.76330			43070.89237		216.03600		875.00000 
 43692.65567		 305.27265			43387.38302		64.65000		324.00000 
 43692.65567		 621.76330			43070.89237		216.03600		875.00000 
 43692.65567		 305.27265			43387.38302		64.65000		324.00000 
 43692.65567		 621.76330			43070.89237		217.97000		875.00000 
 43692.65567		 305.27265			43387.38302		64.65000		324.00000 
 43692.65567		 621.76330			43070.89237		217.97000		875.00000 
 43692.65567		 305.27265			43387.38302		64.65000		324.00000 
 43692.65567		 621.76330			43070.89237		217.97000		875.00000 
 43692.65567		 305.27265			43387.38302		64.65000		324.00000 
 43692.65567		 621.76330			43070.89237		217.97000		875.00000 
 43692.65567		 305.27265			43387.38302		64.65000		324.00000 
 43692.65567		 621.76330			43070.89237		217.97000		875.00000 
 43692.65567		 305.27265			43387.38302		64.65000		324.00000 
 43692.65567		 621.76330			43070.89237		217.97000		875.00000 
 43692.65567		 305.27265			43387.38302		64.65000		324.00000 
 43692.65567		 621.76330			43070.89237		217.97000		875.00000 
 43692.65567		 305.27265			43387.38302		64.65000		324.00000 
 43692.65567		 621.76330			43070.89237		217.97000		875.00000 
 43692.65567		 305.27265			43387.38302		64.65000		324.00000 
 43692.65567		 621.76330			43070.89237		217.97000		875.00000 
 43692.65567		 305.27265			43387.38302		64.65000		324.00000 
 43692.65567		 621.76330			43070.89237		217.97000		875.00000 
 43692.65567		 305.27265			43387.38302		64.65000		324.00000 
 43692.65567		 621.76330			43070.89237		217.97000		875.00000 
 43692.65567		 305.27265			43387.38302		64.65000		324.00000 
 43692.65567		 621.76330			43070.89237		217.97000		875.00000 
 43692.65567		 305.27265			43387.38302		64.65000		324.00000 
 43692.65567		 621.76330			43070.89237		217.97000		875.00000 
 43692.65567		 305.27265			43387.38302		64.65000		324.00000 
 43692.65567		 621.76330			43070.89237		217.97000		875.00000 
 43692.65567		 305.27265			43387.38302		64.65000		324.00000 
 43692.65567		 621.76330			43070.89237		217.97000		875.00000 
 43692.65567		 305.27265			43387.38302		64.65000		324.00000 
 43692.65567		 621.76330			43070.89237		217.97000		875.00000 
 43692.65567		 305.27265			43387.38302		64.65000		324.00000 
 43692.65567		 621.76330			43070.89237		217.97000		875.00000 
 43692.65567		 305.27265			43387.38302		64.65000		324.00000 
 43692.65567		 621.76330			43070.89237		217.97000		875.00000 
 43692.65567		 305.27265			43387.38302		64.65000		324.00000 
 43692.65567		 621.76330			43070.89237		217.97000		875.00000 
 43692.65567		 305.27265			43387.38302		64.65000		324.00000 
 43692.65567		 621.76330			43070.89237		217.97000		875.00000 
 43692.65567		 305.27265			43387.38302		64.65000		324.00000 
 43692.65567		 621.76330			43070.89237		217.97000		875.00000 
 43692.65567		 305.27265			43387.38302		64.65000		324.00000 
 43692.65567		 621.76330			43070.89237		217.97000		875.00000 
 43692.65567		 305.27265			43387.38302		64.65000		324.00000 
 43692.65567		 621.76330			43070.89237		217.97000		875.00000 
 43692.65567		 305.27265			43387.38302		64.65000		324.00000 
 43692.65567		 621.76330			43070.89237		217.97000		875.00000 
 43692.65567		 305.27265			43387.38302		64.65000		324.00000 
 43692.65567		 621.76330			43070.89237		217.97000		875.00000 
 43692.65567		 305.27265			43387.38302		64.65000		324.00000 
 43692.65567		 621.76330			43070.89237		217.97000		875.00000 
 43692.65567		 305.27265			43387.38302		64.65000		324.00000 
 43692.65567		 621.76330			43070.89237		217.97000		875.00000 
 43692.65567		 305.27265			43387.38302		64.65000		324.00000 
 43692.65567		 621.76330			43070.89237		217.97000		875.00000 
 43692.65567		 305.27265			43387.38302		64.65000		324.00000 
 43692.65567		 621.76330			43070.89237		217.97000		875.00000 
 43692.65567		 305.27265			43387.38302		64.65000		324.00000 
 43692.65567		 621.76330			43070.89237		217.97000		875.00000 
 43692.65567		 305.27265			43387.38302		64.65000		324.00000 
 43692.65567		 621.76330			43070.89237		217.97000		875.00000 
 43692.65567		 305.27265			43387.38302		64.65000		324.00000 
 43692.65567		 621.76330			43070.89237		217.97000		875.00000 
 43692.65567		 305.27265			43387.38302		64.65000		324.00000 
 43692.65567		 621.76330			43070.89237		217.97000		875.00000 
 43692.65567		 305.27265			43387.38302		64.65000		324.00000 
 43692.65567		 621.76330			43070.89237		217.97000		875.00000 
 43692.65567		 305.27265			43387.38302		64.65000		324.00000 
 43692.65567		 621.76330			43070.89237		217.97000		875.00000 
 43692.65567		 305.27265			43387.38302		64.65000		324.00000 
 43692.65567		 621.76330			43070.89237		217.97000		875.00000 
 43692.65567		 305.27265			43387.38302		64.65000		324.00000 
 43692.65567		 621.76330			43070.89237		217.97000		875.00000 
 43692.65567		 305.27265			43387.38302		64.65000		324.00000 
 43692.65567		 621.76330			43070.89237		217.97000		875.00000 
 43692.65567		 305.27265			43387.38302		64.65000		324.00000 
 43692.65567		 621.76330			43070.89237		217.97000		875.00000 
 43692.65567		 305.27265			43387.38302		64.65000		324.00000 
 43692.65567		 621.76330			43070.89237		217.97000		875.00000 
 43692.65567		 305.27265			43387.38302		64.65000		324.00000 
 43692.65567		 621.76330			43070.89237		217.97000		875.00000 
 43692.65567		 305.27265			43387.38302		64.65000		324.00000 
 43692.65567		 621.76330			43070.89237		217.97000		875.00000 
 43692.65567		 305.27265			43387.38302		64.65000		324.00000 
 43692.65567		 621.76330			43070.89237		217.97000		875.00000 
 43692.65567		 305.27265			43387.38302		64.65000		324.00000 
 43692.65567		 621.76330			43070.89237		217.97000		875.00000 
 43692.65567		 305.27265			43387.38302		64.65000		324.00000 
 43692.65567		 621.76330			43070.89237		217.97000		875.00000 
 43692.65567		 305.27265			43387.38302		64.65000		324.00000 
 43692.65567		 621.76330			43070.89237		217.97000		875.00000 
 43692.65567		 305.27265			43387.38302		64.65000		324.00000 
 43692.65567		 621.76330			43070.89237		217.97000		875.00000 
 43692.65567		 305.27265			43387.38302		64.65000		324.00000 
 43692.65567		 621.76330			43070.89237		217.97000		875.00000 
 43692.65567		 305.27265			43387.38302		64.65000		324.00000 
 43692.65567		 565.43465			43127.22102		217.97000		875.00000 
 43692.65567		 305.27265			43387.38302		64.65000		324.00000 
 43692.65567		 537.27032			43155.38535		217.97000		875.00000 
 43692.65567		 305.27265			43387.38302		64.65000		324.00000 
 43692.65567		 537.27032			43155.38535		217.97000		875.00000 
 43692.65567		 305.27265			43387.38302		64.65000		324.00000 
 43692.65567		 537.27032			43155.38535		217.97000		875.00000 
 43692.65567		 305.27265			43387.38302		64.65000		324.00000 
 43692.65567		 537.27032			43155.38535		217.97000		875.00000 
 43692.65567		 305.27265			43387.38302		64.65000		324.00000 
 43692.65567		 537.27032			43155.38535		217.97000		875.00000 
 43692.65567		 305.27265			43387.38302		64.65000		324.00000 
 43692.65567		 537.27032			43155.38535		217.97000		875.00000 
 43692.65567		 305.27265			43387.38302		64.65000		324.00000 
 43692.65567		 537.27032			43155.38535		217.97000		875.00000 
 43692.65567		 305.27265			43387.38302		64.65000		324.00000 
 43692.65567		 537.27032			43155.38535		217.97000		875.00000 
 43692.65567		 305.27265			43387.38302		64.65000		324.00000 
 43692.65567		 537.27032			43155.38535		217.97000		875.00000 
 43692.65567		 305.27265			43387.38302		64.65000		324.00000 
 43692.65567		 537.27032			43155.38535		201.97000		875.00000 
 43692.65567		 305.27265			43387.38302		64.65000		324.00000 
 43692.65567		 537.27032			43155.38535		201.97000		875.00000 
 43692.65567		 305.27265			43387.38302		64.65000		324.00000 
 43692.65567		 537.27032			43155.38535		201.97000		875.00000 
 43692.65567		 305.27265			43387.38302		64.65000		324.00000 
 43692.65567		 537.27032			43155.38535		201.97000		875.00000 
 43692.65567		 305.27265			43387.38302		64.65000		324.00000 
 43692.65567		 537.27032			43155.38535		201.97000		875.00000 
 43692.65567		 305.27265			43387.38302		64.65000		324.00000 
 43692.65567		 537.27032			43155.38535		201.97000		875.00000 
 43692.65567		 305.27265			43387.38302		64.65000		324.00000 
 43692.65567		 537.27032			43155.38535		201.97000		875.00000 
 43692.65567		 305.27265			43387.38302		64.65000		324.00000 
 43692.65567		 537.27032			43155.38535		201.97000		875.00000 
 43692.65567		 305.27265			43387.38302		64.65000		324.00000 
 43692.65567		 537.27032			43155.38535		201.97000		875.00000 
 43692.65567		 305.27265			43387.38302		64.65000		324.00000 
 43692.65567		 537.27032			43155.38535		201.97000		875.00000 
 43692.65567		 305.27265			43387.38302		64.65000		324.00000 
 43692.65567		 537.27032			43155.38535		201.97000		875.00000 
 43692.65567		 305.27265			43387.38302		64.65000		324.00000 
 43692.65567		 529.63254			43163.02313		201.97000		875.00000 
 43692.65567		 305.27265			43387.38302		64.65000		324.00000 
 43692.65567		 525.81365			43166.84203		201.97000		875.00000 
 43692.65567		 293.81598			43398.83969		64.65000		324.00000 
 43692.65567		 261.35540			43431.30027		201.97000		875.00000 
 43692.65567		 261.35540			43431.30027		64.65000		324.00000 
