Memory Total (MiB) 	 Memory Used (MiB) 	    Memory Free (MiB) 	 Power Drawed (W) 	 Clocks (Mhz) 	 
 43692.65567		 261.35540			43431.30027		206.02000		875.00000 
 43692.65567		 261.35540			43431.30027		66.19600		324.00000 
 43692.65567		 261.35540			43431.30027		206.02000		875.00000 
 43692.65567		 261.35540			43431.30027		66.19600		324.00000 
 43692.65567		 261.35540			43431.30027		206.02000		875.00000 
 43692.65567		 261.35540			43431.30027		66.19600		324.00000 
 43692.65567		 261.35540			43431.30027		206.02000		875.00000 
 43692.65567		 261.35540			43431.30027		66.19600		324.00000 
 43692.65567		 261.35540			43431.30027		206.02000		875.00000 
 43692.65567		 261.35540			43431.30027		66.19600		324.00000 
 43692.65567		 261.35540			43431.30027		206.02000		875.00000 
 43692.65567		 261.35540			43431.30027		66.19600		324.00000 
 43692.65567		 261.35540			43431.30027		206.02000		875.00000 
 43692.65567		 261.35540			43431.30027		66.19600		324.00000 
 43692.65567		 261.35540			43431.30027		206.02000		875.00000 
 43692.65567		 261.35540			43431.30027		66.19600		324.00000 
 43692.65567		 261.35540			43431.30027		206.02000		875.00000 
 43692.65567		 261.35540			43431.30027		66.19600		324.00000 
 43692.65567		 261.35540			43431.30027		206.02000		875.00000 
 43692.65567		 261.35540			43431.30027		66.19600		324.00000 
 43692.65567		 261.35540			43431.30027		206.02000		875.00000 
 43692.65567		 261.35540			43431.30027		66.19600		324.00000 
 43692.65567		 261.35540			43431.30027		206.02000		875.00000 
 43692.65567		 261.35540			43431.30027		66.19600		324.00000 
 43692.65567		 261.35540			43431.30027		160.79400		875.00000 
 43692.65567		 261.35540			43431.30027		66.19600		324.00000 
 43692.65567		 261.35540			43431.30027		160.79400		875.00000 
 43692.65567		 261.35540			43431.30027		66.19600		324.00000 
 43692.65567		 261.35540			43431.30027		160.79400		875.00000 
 43692.65567		 261.35540			43431.30027		66.19600		324.00000 
 43692.65567		 261.35540			43431.30027		160.79400		875.00000 
 43692.65567		 261.35540			43431.30027		66.19600		324.00000 
 43692.65567		 261.35540			43431.30027		160.79400		875.00000 
 43692.65567		 261.35540			43431.30027		66.19600		324.00000 
 43692.65567		 261.35540			43431.30027		160.79400		875.00000 
 43692.65567		 261.35540			43431.30027		66.19600		324.00000 
 43692.65567		 265.17429			43427.48138		160.79400		875.00000 
 43692.65567		 261.35540			43431.30027		66.19600		324.00000 
 43692.65567		 265.17429			43427.48138		160.79400		875.00000 
 43692.65567		 261.35540			43431.30027		66.19600		324.00000 
 43692.65567		 272.81207			43419.84360		160.79400		875.00000 
 43692.65567		 261.35540			43431.30027		66.19600		324.00000 
 43692.65567		 272.81207			43419.84360		160.79400		875.00000 
 43692.65567		 265.17429			43427.48138		66.19600		324.00000 
 43692.65567		 272.81207			43419.84360		160.79400		875.00000 
 43692.65567		 265.17429			43427.48138		66.19600		324.00000 
 43692.65567		 272.81207			43419.84360		160.79400		875.00000 
 43692.65567		 265.17429			43427.48138		66.19600		324.00000 
 43692.65567		 272.81207			43419.84360		160.79400		875.00000 
 43692.65567		 272.81207			43419.84360		66.19600		324.00000 
 43692.65567		 272.81207			43419.84360		160.79400		875.00000 
 43692.65567		 272.81207			43419.84360		66.19600		324.00000 
 43692.65567		 272.81207			43419.84360		160.79400		875.00000 
 43692.65567		 272.81207			43419.84360		66.19600		324.00000 
 43692.65567		 305.27265			43387.38302		160.79400		875.00000 
 43692.65567		 305.27265			43387.38302		66.19600		324.00000 
 43692.65567		 305.27265			43387.38302		160.79400		875.00000 
 43692.65567		 305.27265			43387.38302		66.19600		324.00000 
 43692.65567		 305.27265			43387.38302		160.79400		875.00000 
 43692.65567		 305.27265			43387.38302		66.19600		324.00000 
 43692.65567		 305.27265			43387.38302		160.79400		875.00000 
 43692.65567		 305.27265			43387.38302		66.19600		324.00000 
 43692.65567		 305.27265			43387.38302		160.79400		875.00000 
 43692.65567		 305.27265			43387.38302		66.19600		324.00000 
 43692.65567		 309.09154			43383.56413		160.79400		875.00000 
 43692.65567		 305.27265			43387.38302		66.19600		324.00000 
 43692.65567		 310.52363			43382.13204		160.79400		875.00000 
 43692.65567		 305.27265			43387.38302		66.19600		324.00000 
 43692.65567		 311.00099			43381.65468		160.79400		875.00000 
 43692.65567		 305.27265			43387.38302		66.19600		324.00000 
 43692.65567		 311.00099			43381.65468		160.79400		875.00000 
 43692.65567		 305.27265			43387.38302		66.19600		324.00000 
 43692.65567		 311.00099			43381.65468		160.79400		875.00000 
 43692.65567		 305.27265			43387.38302		66.19600		324.00000 
 43692.65567		 311.00099			43381.65468		160.79400		875.00000 
 43692.65567		 305.27265			43387.38302		66.19600		324.00000 
 43692.65567		 311.00099			43381.65468		160.79400		875.00000 
 43692.65567		 305.27265			43387.38302		66.19600		324.00000 
 43692.65567		 311.00099			43381.65468		160.79400		875.00000 
 43692.65567		 305.27265			43387.38302		66.19600		324.00000 
 43692.65567		 311.00099			43381.65468		160.79400		875.00000 
 43692.65567		 305.27265			43387.38302		66.19600		324.00000 
 43692.65567		 311.00099			43381.65468		160.79400		875.00000 
 43692.65567		 305.27265			43387.38302		66.19600		324.00000 
 43692.65567		 311.00099			43381.65468		160.79400		875.00000 
 43692.65567		 305.27265			43387.38302		66.19600		324.00000 
 43692.65567		 311.00099			43381.65468		142.59000		875.00000 
 43692.65567		 305.27265			43387.38302		66.19600		324.00000 
 43692.65567		 311.00099			43381.65468		142.59000		875.00000 
 43692.65567		 305.27265			43387.38302		66.19600		324.00000 
 43692.65567		 311.00099			43381.65468		142.59000		875.00000 
 43692.65567		 305.27265			43387.38302		66.19600		324.00000 
 43692.65567		 311.00099			43381.65468		142.59000		875.00000 
 43692.65567		 305.27265			43387.38302		66.19600		324.00000 
 43692.65567		 311.00099			43381.65468		142.59000		875.00000 
 43692.65567		 305.27265			43387.38302		66.19600		324.00000 
 43692.65567		 311.00099			43381.65468		142.59000		875.00000 
 43692.65567		 305.27265			43387.38302		66.19600		324.00000 
 43692.65567		 311.00099			43381.65468		142.59000		875.00000 
 43692.65567		 305.27265			43387.38302		66.19600		324.00000 
 43692.65567		 311.00099			43381.65468		142.59000		875.00000 
 43692.65567		 305.27265			43387.38302		66.19600		324.00000 
 43692.65567		 311.00099			43381.65468		142.59000		875.00000 
 43692.65567		 305.27265			43387.38302		66.19600		324.00000 
 43692.65567		 311.00099			43381.65468		142.59000		875.00000 
 43692.65567		 305.27265			43387.38302		66.19600		324.00000 
 43692.65567		 311.00099			43381.65468		142.59000		875.00000 
 43692.65567		 305.27265			43387.38302		66.19600		324.00000 
 43692.65567		 311.00099			43381.65468		142.59000		875.00000 
 43692.65567		 305.27265			43387.38302		66.19600		324.00000 
 43692.65567		 311.00099			43381.65468		142.59000		875.00000 
 43692.65567		 305.27265			43387.38302		66.19600		324.00000 
 43692.65567		 311.00099			43381.65468		142.59000		875.00000 
 43692.65567		 305.27265			43387.38302		66.19600		324.00000 
 43692.65567		 311.00099			43381.65468		142.59000		875.00000 
 43692.65567		 305.27265			43387.38302		66.22000		324.00000 
 43692.65567		 311.00099			43381.65468		142.59000		875.00000 
 43692.65567		 305.27265			43387.38302		66.22000		324.00000 
 43692.65567		 311.00099			43381.65468		142.59000		875.00000 
 43692.65567		 305.27265			43387.38302		66.22000		324.00000 
 43692.65567		 311.00099			43381.65468		142.59000		875.00000 
 43692.65567		 305.27265			43387.38302		66.22000		324.00000 
 43692.65567		 311.00099			43381.65468		142.59000		875.00000 
 43692.65567		 305.27265			43387.38302		66.22000		324.00000 
 43692.65567		 311.00099			43381.65468		142.59000		875.00000 
 43692.65567		 305.27265			43387.38302		66.22000		324.00000 
 43692.65567		 311.00099			43381.65468		142.59000		875.00000 
 43692.65567		 305.27265			43387.38302		66.22000		324.00000 
 43692.65567		 311.00099			43381.65468		142.59000		875.00000 
 43692.65567		 305.27265			43387.38302		66.22000		324.00000 
 43692.65567		 311.00099			43381.65468		142.59000		875.00000 
 43692.65567		 305.27265			43387.38302		66.22000		324.00000 
 43692.65567		 311.00099			43381.65468		142.59000		875.00000 
 43692.65567		 305.27265			43387.38302		66.22000		324.00000 
 43692.65567		 311.00099			43381.65468		142.59000		875.00000 
 43692.65567		 305.27265			43387.38302		66.22000		324.00000 
 43692.65567		 311.00099			43381.65468		142.59000		875.00000 
 43692.65567		 305.27265			43387.38302		66.22000		324.00000 
 43692.65567		 311.00099			43381.65468		142.59000		875.00000 
 43692.65567		 305.27265			43387.38302		66.22000		324.00000 
 43692.65567		 311.00099			43381.65468		142.59000		875.00000 
 43692.65567		 305.27265			43387.38302		66.22000		324.00000 
 43692.65567		 311.00099			43381.65468		142.59000		875.00000 
 43692.65567		 305.27265			43387.38302		66.22000		324.00000 
 43692.65567		 311.00099			43381.65468		142.59000		875.00000 
 43692.65567		 305.27265			43387.38302		66.22000		324.00000 
 43692.65567		 311.00099			43381.65468		135.62600		875.00000 
 43692.65567		 305.27265			43387.38302		66.22000		324.00000 
 43692.65567		 311.00099			43381.65468		135.62600		875.00000 
 43692.65567		 305.27265			43387.38302		66.22000		324.00000 
 43692.65567		 311.00099			43381.65468		135.62600		875.00000 
 43692.65567		 305.27265			43387.38302		66.22000		324.00000 
 43692.65567		 311.00099			43381.65468		135.62600		875.00000 
 43692.65567		 305.27265			43387.38302		66.22000		324.00000 
 43692.65567		 311.00099			43381.65468		135.62600		875.00000 
 43692.65567		 305.27265			43387.38302		66.22000		324.00000 
 43692.65567		 311.00099			43381.65468		135.62600		875.00000 
 43692.65567		 305.27265			43387.38302		66.22000		324.00000 
 43692.65567		 311.00099			43381.65468		135.62600		875.00000 
 43692.65567		 305.27265			43387.38302		66.22000		324.00000 
 43692.65567		 311.00099			43381.65468		135.62600		875.00000 
 43692.65567		 305.27265			43387.38302		66.22000		324.00000 
 43692.65567		 311.00099			43381.65468		135.62600		875.00000 
 43692.65567		 305.27265			43387.38302		66.22000		324.00000 
 43692.65567		 311.00099			43381.65468		135.62600		875.00000 
 43692.65567		 305.27265			43387.38302		66.22000		324.00000 
 43692.65567		 311.00099			43381.65468		135.62600		875.00000 
 43692.65567		 305.27265			43387.38302		66.22000		324.00000 
 43692.65567		 314.81988			43377.83579		135.62600		875.00000 
 43692.65567		 305.27265			43387.38302		66.22000		324.00000 
 43692.65567		 314.81988			43377.83579		135.62600		875.00000 
 43692.65567		 305.27265			43387.38302		66.22000		324.00000 
 43692.65567		 314.81988			43377.83579		135.62600		875.00000 
 43692.65567		 305.27265			43387.38302		66.22000		324.00000 
 43692.65567		 318.63877			43374.01690		135.62600		875.00000 
 43692.65567		 305.27265			43387.38302		66.22000		324.00000 
 43692.65567		 322.45767			43370.19801		135.62600		875.00000 
 43692.65567		 305.27265			43387.38302		66.22000		324.00000 
 43692.65567		 326.27656			43366.37912		135.62600		875.00000 
 43692.65567		 305.27265			43387.38302		66.22000		324.00000 
 43692.65567		 326.27656			43366.37912		135.62600		875.00000 
 43692.65567		 305.27265			43387.38302		66.22000		324.00000 
 43692.65567		 326.27656			43366.37912		135.62600		875.00000 
 43692.65567		 305.27265			43387.38302		66.22000		324.00000 
 43692.65567		 537.27032			43155.38535		135.62600		875.00000 
 43692.65567		 305.27265			43387.38302		66.22000		324.00000 
 43692.65567		 628.92372			43063.73195		135.62600		875.00000 
 43692.65567		 305.27265			43387.38302		66.22000		324.00000 
 43692.65567		 674.75042			43017.90525		135.62600		875.00000 
 43692.65567		 305.27265			43387.38302		66.22000		324.00000 
 43692.65567		 674.75042			43017.90525		135.62600		875.00000 
 43692.65567		 305.27265			43387.38302		66.22000		324.00000 
 43692.65567		 674.75042			43017.90525		135.62600		875.00000 
 43692.65567		 305.27265			43387.38302		66.22000		324.00000 
 43692.65567		 674.75042			43017.90525		135.62600		875.00000 
 43692.65567		 305.27265			43387.38302		66.22000		324.00000 
 43692.65567		 674.75042			43017.90525		135.62600		875.00000 
 43692.65567		 305.27265			43387.38302		66.22000		324.00000 
 43692.65567		 674.75042			43017.90525		135.62600		875.00000 
 43692.65567		 305.27265			43387.38302		66.22000		324.00000 
 43692.65567		 674.75042			43017.90525		135.62600		875.00000 
 43692.65567		 305.27265			43387.38302		66.22000		324.00000 
 43692.65567		 674.75042			43017.90525		135.62600		875.00000 
 43692.65567		 305.27265			43387.38302		66.22000		324.00000 
 43692.65567		 674.75042			43017.90525		135.62600		875.00000 
 43692.65567		 305.27265			43387.38302		66.22000		324.00000 
 43692.65567		 674.75042			43017.90525		135.62600		875.00000 
 43692.65567		 305.27265			43387.38302		66.22000		324.00000 
 43692.65567		 674.75042			43017.90525		135.62600		875.00000 
 43692.65567		 305.27265			43387.38302		66.22000		324.00000 
 43692.65567		 674.75042			43017.90525		135.62600		875.00000 
 43692.65567		 305.27265			43387.38302		66.22000		324.00000 
 43692.65567		 674.75042			43017.90525		135.62600		875.00000 
 43692.65567		 305.27265			43387.38302		66.22000		324.00000 
 43692.65567		 674.75042			43017.90525		135.62600		875.00000 
 43692.65567		 305.27265			43387.38302		66.22000		324.00000 
 43692.65567		 674.75042			43017.90525		135.62600		875.00000 
 43692.65567		 305.27265			43387.38302		66.22000		324.00000 
 43692.65567		 674.75042			43017.90525		135.62600		875.00000 
 43692.65567		 305.27265			43387.38302		66.22000		324.00000 
 43692.65567		 674.75042			43017.90525		135.62600		875.00000 
 43692.65567		 305.27265			43387.38302		66.22000		324.00000 
 43692.65567		 674.75042			43017.90525		135.62600		875.00000 
 43692.65567		 305.27265			43387.38302		66.22000		324.00000 
 43692.65567		 674.75042			43017.90525		135.62600		875.00000 
 43692.65567		 305.27265			43387.38302		66.22000		324.00000 
 43692.65567		 674.75042			43017.90525		135.62600		875.00000 
 43692.65567		 305.27265			43387.38302		66.22000		324.00000 
 43692.65567		 674.75042			43017.90525		135.62600		875.00000 
 43692.65567		 305.27265			43387.38302		66.22000		324.00000 
 43692.65567		 674.75042			43017.90525		135.62600		875.00000 
 43692.65567		 305.27265			43387.38302		66.22000		324.00000 
 43692.65567		 674.75042			43017.90525		135.62600		875.00000 
 43692.65567		 305.27265			43387.38302		66.22000		324.00000 
 43692.65567		 674.75042			43017.90525		135.62600		875.00000 
 43692.65567		 305.27265			43387.38302		66.22000		324.00000 
 43692.65567		 674.75042			43017.90525		135.62600		875.00000 
 43692.65567		 305.27265			43387.38302		66.22000		324.00000 
 43692.65567		 674.75042			43017.90525		135.62600		875.00000 
 43692.65567		 305.27265			43387.38302		66.22000		324.00000 
 43692.65567		 674.75042			43017.90525		163.30800		875.00000 
 43692.65567		 305.27265			43387.38302		66.22000		324.00000 
 43692.65567		 674.75042			43017.90525		163.30800		875.00000 
 43692.65567		 305.27265			43387.38302		66.22000		324.00000 
 43692.65567		 674.75042			43017.90525		163.30800		875.00000 
 43692.65567		 305.27265			43387.38302		66.22000		324.00000 
 43692.65567		 674.75042			43017.90525		163.30800		875.00000 
 43692.65567		 305.27265			43387.38302		66.22000		324.00000 
 43692.65567		 674.75042			43017.90525		163.30800		875.00000 
 43692.65567		 305.27265			43387.38302		66.22000		324.00000 
 43692.65567		 674.75042			43017.90525		163.30800		875.00000 
 43692.65567		 305.27265			43387.38302		66.22000		324.00000 
 43692.65567		 674.75042			43017.90525		163.30800		875.00000 
 43692.65567		 305.27265			43387.38302		66.22000		324.00000 
 43692.65567		 674.75042			43017.90525		163.30800		875.00000 
 43692.65567		 305.27265			43387.38302		66.22000		324.00000 
 43692.65567		 674.75042			43017.90525		163.30800		875.00000 
 43692.65567		 305.27265			43387.38302		66.22000		324.00000 
 43692.65567		 674.75042			43017.90525		163.30800		875.00000 
 43692.65567		 305.27265			43387.38302		66.22000		324.00000 
 43692.65567		 674.75042			43017.90525		163.30800		875.00000 
 43692.65567		 305.27265			43387.38302		66.22000		324.00000 
 43692.65567		 674.75042			43017.90525		163.30800		875.00000 
 43692.65567		 305.27265			43387.38302		66.22000		324.00000 
 43692.65567		 674.75042			43017.90525		163.30800		875.00000 
 43692.65567		 305.27265			43387.38302		66.22000		324.00000 
 43692.65567		 674.75042			43017.90525		163.30800		875.00000 
 43692.65567		 305.27265			43387.38302		66.22000		324.00000 
 43692.65567		 674.75042			43017.90525		163.30800		875.00000 
 43692.65567		 305.27265			43387.38302		66.22000		324.00000 
 43692.65567		 674.75042			43017.90525		163.30800		875.00000 
 43692.65567		 305.27265			43387.38302		66.22000		324.00000 
 43692.65567		 674.75042			43017.90525		163.30800		875.00000 
 43692.65567		 305.27265			43387.38302		66.22000		324.00000 
 43692.65567		 674.75042			43017.90525		163.30800		875.00000 
 43692.65567		 305.27265			43387.38302		66.22000		324.00000 
 43692.65567		 674.75042			43017.90525		163.30800		875.00000 
 43692.65567		 305.27265			43387.38302		66.22000		324.00000 
 43692.65567		 674.75042			43017.90525		163.30800		875.00000 
 43692.65567		 305.27265			43387.38302		66.22000		324.00000 
 43692.65567		 674.75042			43017.90525		163.30800		875.00000 
 43692.65567		 305.27265			43387.38302		66.22000		324.00000 
 43692.65567		 674.75042			43017.90525		163.30800		875.00000 
 43692.65567		 305.27265			43387.38302		66.22000		324.00000 
 43692.65567		 674.75042			43017.90525		163.30800		875.00000 
 43692.65567		 305.27265			43387.38302		66.22000		324.00000 
 43692.65567		 674.75042			43017.90525		163.30800		875.00000 
 43692.65567		 305.27265			43387.38302		66.22000		324.00000 
 43692.65567		 674.75042			43017.90525		163.30800		875.00000 
 43692.65567		 305.27265			43387.38302		66.22000		324.00000 
 43692.65567		 674.75042			43017.90525		163.30800		875.00000 
 43692.65567		 305.27265			43387.38302		66.22000		324.00000 
 43692.65567		 674.75042			43017.90525		163.30800		875.00000 
 43692.65567		 305.27265			43387.38302		66.22000		324.00000 
 43692.65567		 674.75042			43017.90525		163.30800		875.00000 
 43692.65567		 305.27265			43387.38302		66.22000		324.00000 
 43692.65567		 674.75042			43017.90525		163.30800		875.00000 
 43692.65567		 305.27265			43387.38302		66.22000		324.00000 
 43692.65567		 674.75042			43017.90525		163.30800		875.00000 
 43692.65567		 305.27265			43387.38302		66.22000		324.00000 
 43692.65567		 674.75042			43017.90525		163.30800		875.00000 
 43692.65567		 305.27265			43387.38302		66.22000		324.00000 
 43692.65567		 674.75042			43017.90525		163.30800		875.00000 
 43692.65567		 305.27265			43387.38302		66.22000		324.00000 
 43692.65567		 674.75042			43017.90525		163.30800		875.00000 
 43692.65567		 305.27265			43387.38302		66.22000		324.00000 
 43692.65567		 674.75042			43017.90525		163.30800		875.00000 
 43692.65567		 305.27265			43387.38302		66.22000		324.00000 
 43692.65567		 674.75042			43017.90525		163.30800		875.00000 
 43692.65567		 305.27265			43387.38302		66.22000		324.00000 
 43692.65567		 674.75042			43017.90525		163.30800		875.00000 
 43692.65567		 305.27265			43387.38302		66.22000		324.00000 
 43692.65567		 674.75042			43017.90525		163.30800		875.00000 
 43692.65567		 305.27265			43387.38302		66.22000		324.00000 
 43692.65567		 674.75042			43017.90525		163.30800		875.00000 
 43692.65567		 305.27265			43387.38302		66.22000		324.00000 
 43692.65567		 674.75042			43017.90525		163.30800		875.00000 
 43692.65567		 305.27265			43387.38302		66.22000		324.00000 
 43692.65567		 674.75042			43017.90525		163.30800		875.00000 
 43692.65567		 305.27265			43387.38302		66.22000		324.00000 
 43692.65567		 674.75042			43017.90525		163.30800		875.00000 
 43692.65567		 305.27265			43387.38302		66.22000		324.00000 
 43692.65567		 674.75042			43017.90525		163.30800		875.00000 
 43692.65567		 305.27265			43387.38302		66.22000		324.00000 
 43692.65567		 674.75042			43017.90525		163.30800		875.00000 
 43692.65567		 305.27265			43387.38302		66.22000		324.00000 
 43692.65567		 674.75042			43017.90525		163.30800		875.00000 
 43692.65567		 305.27265			43387.38302		66.22000		324.00000 
 43692.65567		 674.75042			43017.90525		163.30800		875.00000 
 43692.65567		 305.27265			43387.38302		66.22000		324.00000 
 43692.65567		 674.75042			43017.90525		163.30800		875.00000 
 43692.65567		 305.27265			43387.38302		66.22000		324.00000 
 43692.65567		 674.75042			43017.90525		163.30800		875.00000 
 43692.65567		 305.27265			43387.38302		66.22000		324.00000 
 43692.65567		 674.75042			43017.90525		163.30800		875.00000 
 43692.65567		 305.27265			43387.38302		66.22000		324.00000 
 43692.65567		 674.75042			43017.90525		163.30800		875.00000 
 43692.65567		 305.27265			43387.38302		66.22000		324.00000 
 43692.65567		 674.75042			43017.90525		163.30800		875.00000 
 43692.65567		 305.27265			43387.38302		66.22000		324.00000 
 43692.65567		 674.75042			43017.90525		163.30800		875.00000 
 43692.65567		 305.27265			43387.38302		66.22000		324.00000 
 43692.65567		 674.75042			43017.90525		163.30800		875.00000 
 43692.65567		 305.27265			43387.38302		66.22000		324.00000 
 43692.65567		 674.75042			43017.90525		163.30800		875.00000 
 43692.65567		 305.27265			43387.38302		66.22000		324.00000 
 43692.65567		 674.75042			43017.90525		163.30800		875.00000 
 43692.65567		 305.27265			43387.38302		66.22000		324.00000 
 43692.65567		 674.75042			43017.90525		163.30800		875.00000 
 43692.65567		 305.27265			43387.38302		66.22000		324.00000 
 43692.65567		 674.75042			43017.90525		163.30800		875.00000 
 43692.65567		 305.27265			43387.38302		66.22000		324.00000 
 43692.65567		 674.75042			43017.90525		163.30800		875.00000 
 43692.65567		 305.27265			43387.38302		66.22000		324.00000 
 43692.65567		 674.75042			43017.90525		163.30800		875.00000 
 43692.65567		 305.27265			43387.38302		66.22000		324.00000 
 43692.65567		 674.75042			43017.90525		163.30800		875.00000 
 43692.65567		 305.27265			43387.38302		66.22000		324.00000 
 43692.65567		 674.75042			43017.90525		163.30800		875.00000 
 43692.65567		 305.27265			43387.38302		66.22000		324.00000 
 43692.65567		 674.75042			43017.90525		163.30800		875.00000 
 43692.65567		 305.27265			43387.38302		66.22000		324.00000 
 43692.65567		 674.75042			43017.90525		163.30800		875.00000 
 43692.65567		 305.27265			43387.38302		66.22000		324.00000 
 43692.65567		 674.75042			43017.90525		163.30800		875.00000 
 43692.65567		 305.27265			43387.38302		66.22000		324.00000 
 43692.65567		 674.75042			43017.90525		163.30800		875.00000 
 43692.65567		 305.27265			43387.38302		66.22000		324.00000 
 43692.65567		 674.75042			43017.90525		198.41600		875.00000 
 43692.65567		 305.27265			43387.38302		66.22000		324.00000 
 43692.65567		 674.75042			43017.90525		198.41600		875.00000 
 43692.65567		 305.27265			43387.38302		66.22000		324.00000 
 43692.65567		 674.75042			43017.90525		198.41600		875.00000 
 43692.65567		 305.27265			43387.38302		66.22000		324.00000 
 43692.65567		 674.75042			43017.90525		198.41600		875.00000 
 43692.65567		 305.27265			43387.38302		66.22000		324.00000 
 43692.65567		 674.75042			43017.90525		198.41600		875.00000 
 43692.65567		 305.27265			43387.38302		66.22000		324.00000 
 43692.65567		 674.75042			43017.90525		198.41600		875.00000 
 43692.65567		 305.27265			43387.38302		66.22000		324.00000 
 43692.65567		 674.75042			43017.90525		198.41600		875.00000 
 43692.65567		 305.27265			43387.38302		66.22000		324.00000 
 43692.65567		 674.75042			43017.90525		198.41600		875.00000 
 43692.65567		 305.27265			43387.38302		66.22000		324.00000 
 43692.65567		 674.75042			43017.90525		198.41600		875.00000 
 43692.65567		 305.27265			43387.38302		66.22000		324.00000 
 43692.65567		 674.75042			43017.90525		198.41600		875.00000 
 43692.65567		 305.27265			43387.38302		66.22000		324.00000 
 43692.65567		 674.75042			43017.90525		198.41600		875.00000 
 43692.65567		 305.27265			43387.38302		66.22000		324.00000 
 43692.65567		 674.75042			43017.90525		198.41600		875.00000 
 43692.65567		 305.27265			43387.38302		66.22000		324.00000 
 43692.65567		 674.75042			43017.90525		198.41600		875.00000 
 43692.65567		 305.27265			43387.38302		66.22000		324.00000 
 43692.65567		 674.75042			43017.90525		198.41600		875.00000 
 43692.65567		 305.27265			43387.38302		66.22000		324.00000 
 43692.65567		 674.75042			43017.90525		198.41600		875.00000 
 43692.65567		 305.27265			43387.38302		66.22000		324.00000 
 43692.65567		 674.75042			43017.90525		198.41600		875.00000 
 43692.65567		 305.27265			43387.38302		66.22000		324.00000 
 43692.65567		 674.75042			43017.90525		198.41600		875.00000 
 43692.65567		 305.27265			43387.38302		66.22000		324.00000 
 43692.65567		 674.75042			43017.90525		198.41600		875.00000 
 43692.65567		 305.27265			43387.38302		66.22000		324.00000 
 43692.65567		 674.75042			43017.90525		198.41600		875.00000 
 43692.65567		 305.27265			43387.38302		66.22000		324.00000 
 43692.65567		 674.75042			43017.90525		198.41600		875.00000 
 43692.65567		 305.27265			43387.38302		66.22000		324.00000 
 43692.65567		 674.75042			43017.90525		198.41600		875.00000 
 43692.65567		 305.27265			43387.38302		66.22000		324.00000 
 43692.65567		 674.75042			43017.90525		198.41600		875.00000 
 43692.65567		 305.27265			43387.38302		66.22000		324.00000 
 43692.65567		 674.75042			43017.90525		198.41600		875.00000 
 43692.65567		 305.27265			43387.38302		66.22000		324.00000 
 43692.65567		 674.75042			43017.90525		198.41600		875.00000 
 43692.65567		 305.27265			43387.38302		66.22000		324.00000 
 43692.65567		 674.75042			43017.90525		198.41600		875.00000 
 43692.65567		 305.27265			43387.38302		66.22000		324.00000 
 43692.65567		 674.75042			43017.90525		198.41600		875.00000 
 43692.65567		 305.27265			43387.38302		66.22000		324.00000 
 43692.65567		 674.75042			43017.90525		198.41600		875.00000 
 43692.65567		 305.27265			43387.38302		66.22000		324.00000 
 43692.65567		 674.75042			43017.90525		198.41600		875.00000 
 43692.65567		 305.27265			43387.38302		66.22000		324.00000 
 43692.65567		 674.75042			43017.90525		198.41600		875.00000 
 43692.65567		 305.27265			43387.38302		66.22000		324.00000 
 43692.65567		 674.75042			43017.90525		198.41600		875.00000 
 43692.65567		 305.27265			43387.38302		66.22000		324.00000 
 43692.65567		 674.75042			43017.90525		198.41600		875.00000 
 43692.65567		 305.27265			43387.38302		66.22000		324.00000 
 43692.65567		 674.75042			43017.90525		198.41600		875.00000 
 43692.65567		 305.27265			43387.38302		66.22000		324.00000 
 43692.65567		 674.75042			43017.90525		198.41600		875.00000 
 43692.65567		 305.27265			43387.38302		66.22000		324.00000 
 43692.65567		 674.75042			43017.90525		198.41600		875.00000 
 43692.65567		 305.27265			43387.38302		66.22000		324.00000 
 43692.65567		 674.75042			43017.90525		198.41600		875.00000 
 43692.65567		 305.27265			43387.38302		66.22000		324.00000 
 43692.65567		 674.75042			43017.90525		198.41600		875.00000 
 43692.65567		 305.27265			43387.38302		66.22000		324.00000 
 43692.65567		 674.75042			43017.90525		198.41600		875.00000 
 43692.65567		 305.27265			43387.38302		66.22000		324.00000 
 43692.65567		 674.75042			43017.90525		198.41600		875.00000 
 43692.65567		 305.27265			43387.38302		66.22000		324.00000 
 43692.65567		 674.75042			43017.90525		198.41600		875.00000 
 43692.65567		 305.27265			43387.38302		66.22000		324.00000 
 43692.65567		 674.75042			43017.90525		198.41600		875.00000 
 43692.65567		 305.27265			43387.38302		66.22000		324.00000 
 43692.65567		 674.75042			43017.90525		198.41600		875.00000 
 43692.65567		 305.27265			43387.38302		66.22000		324.00000 
 43692.65567		 674.75042			43017.90525		198.41600		875.00000 
 43692.65567		 305.27265			43387.38302		66.22000		324.00000 
 43692.65567		 674.75042			43017.90525		198.41600		875.00000 
 43692.65567		 305.27265			43387.38302		66.22000		324.00000 
 43692.65567		 674.75042			43017.90525		198.41600		875.00000 
 43692.65567		 305.27265			43387.38302		66.22000		324.00000 
 43692.65567		 674.75042			43017.90525		198.41600		875.00000 
 43692.65567		 305.27265			43387.38302		66.22000		324.00000 
 43692.65567		 674.75042			43017.90525		198.41600		875.00000 
 43692.65567		 305.27265			43387.38302		66.22000		324.00000 
 43692.65567		 674.75042			43017.90525		198.41600		875.00000 
 43692.65567		 305.27265			43387.38302		66.22000		324.00000 
 43692.65567		 674.75042			43017.90525		198.41600		875.00000 
 43692.65567		 305.27265			43387.38302		66.22000		324.00000 
 43692.65567		 674.75042			43017.90525		198.41600		875.00000 
 43692.65567		 305.27265			43387.38302		66.22000		324.00000 
 43692.65567		 674.75042			43017.90525		198.41600		875.00000 
 43692.65567		 305.27265			43387.38302		66.22000		324.00000 
 43692.65567		 674.75042			43017.90525		198.41600		875.00000 
 43692.65567		 305.27265			43387.38302		66.22000		324.00000 
 43692.65567		 674.75042			43017.90525		198.41600		875.00000 
 43692.65567		 305.27265			43387.38302		66.22000		324.00000 
 43692.65567		 674.75042			43017.90525		198.41600		875.00000 
 43692.65567		 305.27265			43387.38302		66.22000		324.00000 
 43692.65567		 674.75042			43017.90525		198.41600		875.00000 
 43692.65567		 305.27265			43387.38302		66.22000		324.00000 
 43692.65567		 674.75042			43017.90525		198.41600		875.00000 
 43692.65567		 305.27265			43387.38302		66.22000		324.00000 
 43692.65567		 674.75042			43017.90525		198.41600		875.00000 
 43692.65567		 305.27265			43387.38302		66.22000		324.00000 
 43692.65567		 674.75042			43017.90525		198.41600		875.00000 
 43692.65567		 305.27265			43387.38302		66.22000		324.00000 
 43692.65567		 674.75042			43017.90525		198.41600		875.00000 
 43692.65567		 305.27265			43387.38302		66.22000		324.00000 
 43692.65567		 674.75042			43017.90525		198.41600		875.00000 
 43692.65567		 305.27265			43387.38302		66.22000		324.00000 
 43692.65567		 674.75042			43017.90525		198.41600		875.00000 
 43692.65567		 305.27265			43387.38302		66.22000		324.00000 
 43692.65567		 674.75042			43017.90525		198.41600		875.00000 
 43692.65567		 305.27265			43387.38302		66.22000		324.00000 
 43692.65567		 674.75042			43017.90525		198.41600		875.00000 
 43692.65567		 305.27265			43387.38302		66.22000		324.00000 
 43692.65567		 674.75042			43017.90525		198.41600		875.00000 
 43692.65567		 305.27265			43387.38302		66.22000		324.00000 
 43692.65567		 674.75042			43017.90525		198.41600		875.00000 
 43692.65567		 305.27265			43387.38302		66.22000		324.00000 
 43692.65567		 674.75042			43017.90525		212.00800		875.00000 
 43692.65567		 305.27265			43387.38302		66.22000		324.00000 
 43692.65567		 674.75042			43017.90525		212.00800		875.00000 
 43692.65567		 305.27265			43387.38302		66.22000		324.00000 
 43692.65567		 674.75042			43017.90525		212.00800		875.00000 
 43692.65567		 305.27265			43387.38302		66.22000		324.00000 
 43692.65567		 674.75042			43017.90525		212.00800		875.00000 
 43692.65567		 305.27265			43387.38302		66.22000		324.00000 
 43692.65567		 674.75042			43017.90525		212.00800		875.00000 
 43692.65567		 305.27265			43387.38302		66.22000		324.00000 
 43692.65567		 674.75042			43017.90525		212.00800		875.00000 
 43692.65567		 305.27265			43387.38302		66.22000		324.00000 
 43692.65567		 674.75042			43017.90525		212.00800		875.00000 
 43692.65567		 305.27265			43387.38302		66.22000		324.00000 
 43692.65567		 674.75042			43017.90525		212.00800		875.00000 
 43692.65567		 305.27265			43387.38302		66.22000		324.00000 
 43692.65567		 674.75042			43017.90525		212.00800		875.00000 
 43692.65567		 305.27265			43387.38302		66.22000		324.00000 
 43692.65567		 674.75042			43017.90525		212.00800		875.00000 
 43692.65567		 305.27265			43387.38302		66.22000		324.00000 
 43692.65567		 674.75042			43017.90525		212.00800		875.00000 
 43692.65567		 305.27265			43387.38302		66.22000		324.00000 
 43692.65567		 674.75042			43017.90525		212.00800		875.00000 
 43692.65567		 305.27265			43387.38302		66.22000		324.00000 
 43692.65567		 674.75042			43017.90525		212.00800		875.00000 
 43692.65567		 305.27265			43387.38302		66.22000		324.00000 
 43692.65567		 674.75042			43017.90525		212.00800		875.00000 
 43692.65567		 305.27265			43387.38302		66.22000		324.00000 
 43692.65567		 674.75042			43017.90525		212.00800		875.00000 
 43692.65567		 305.27265			43387.38302		66.22000		324.00000 
 43692.65567		 674.75042			43017.90525		212.00800		875.00000 
 43692.65567		 305.27265			43387.38302		66.22000		324.00000 
 43692.65567		 674.75042			43017.90525		212.00800		875.00000 
 43692.65567		 305.27265			43387.38302		66.22000		324.00000 
 43692.65567		 674.75042			43017.90525		212.00800		875.00000 
 43692.65567		 305.27265			43387.38302		66.22000		324.00000 
 43692.65567		 674.75042			43017.90525		212.00800		875.00000 
 43692.65567		 305.27265			43387.38302		66.22000		324.00000 
 43692.65567		 674.75042			43017.90525		212.00800		875.00000 
 43692.65567		 305.27265			43387.38302		66.22000		324.00000 
 43692.65567		 674.75042			43017.90525		212.00800		875.00000 
 43692.65567		 305.27265			43387.38302		66.22000		324.00000 
 43692.65567		 674.75042			43017.90525		212.00800		875.00000 
 43692.65567		 305.27265			43387.38302		66.22000		324.00000 
 43692.65567		 674.75042			43017.90525		212.00800		875.00000 
 43692.65567		 305.27265			43387.38302		66.22000		324.00000 
 43692.65567		 674.75042			43017.90525		212.00800		875.00000 
 43692.65567		 305.27265			43387.38302		66.22000		324.00000 
 43692.65567		 674.75042			43017.90525		212.00800		875.00000 
 43692.65567		 305.27265			43387.38302		66.22000		324.00000 
 43692.65567		 674.75042			43017.90525		212.00800		875.00000 
 43692.65567		 305.27265			43387.38302		66.22000		324.00000 
 43692.65567		 674.75042			43017.90525		212.00800		875.00000 
 43692.65567		 305.27265			43387.38302		66.22000		324.00000 
 43692.65567		 674.75042			43017.90525		212.00800		875.00000 
 43692.65567		 305.27265			43387.38302		66.22000		324.00000 
 43692.65567		 674.75042			43017.90525		212.00800		875.00000 
 43692.65567		 305.27265			43387.38302		66.22000		324.00000 
 43692.65567		 674.75042			43017.90525		212.00800		875.00000 
 43692.65567		 305.27265			43387.38302		66.22000		324.00000 
 43692.65567		 674.75042			43017.90525		212.00800		875.00000 
 43692.65567		 305.27265			43387.38302		66.22000		324.00000 
 43692.65567		 674.75042			43017.90525		212.00800		875.00000 
 43692.65567		 305.27265			43387.38302		66.22000		324.00000 
 43692.65567		 674.75042			43017.90525		212.00800		875.00000 
 43692.65567		 305.27265			43387.38302		66.22000		324.00000 
 43692.65567		 674.75042			43017.90525		212.00800		875.00000 
 43692.65567		 305.27265			43387.38302		66.22000		324.00000 
 43692.65567		 674.75042			43017.90525		212.00800		875.00000 
 43692.65567		 305.27265			43387.38302		66.22000		324.00000 
 43692.65567		 674.75042			43017.90525		212.00800		875.00000 
 43692.65567		 305.27265			43387.38302		66.22000		324.00000 
 43692.65567		 674.75042			43017.90525		212.00800		875.00000 
 43692.65567		 305.27265			43387.38302		66.22000		324.00000 
 43692.65567		 674.75042			43017.90525		212.00800		875.00000 
 43692.65567		 305.27265			43387.38302		66.22000		324.00000 
 43692.65567		 674.75042			43017.90525		212.00800		875.00000 
 43692.65567		 305.27265			43387.38302		66.22000		324.00000 
 43692.65567		 674.75042			43017.90525		212.00800		875.00000 
 43692.65567		 305.27265			43387.38302		66.22000		324.00000 
 43692.65567		 674.75042			43017.90525		212.00800		875.00000 
 43692.65567		 305.27265			43387.38302		66.22000		324.00000 
 43692.65567		 674.75042			43017.90525		212.00800		875.00000 
 43692.65567		 305.27265			43387.38302		66.22000		324.00000 
 43692.65567		 674.75042			43017.90525		212.00800		875.00000 
 43692.65567		 305.27265			43387.38302		66.22000		324.00000 
 43692.65567		 674.75042			43017.90525		212.00800		875.00000 
 43692.65567		 305.27265			43387.38302		66.22000		324.00000 
 43692.65567		 674.75042			43017.90525		212.00800		875.00000 
 43692.65567		 305.27265			43387.38302		66.22000		324.00000 
 43692.65567		 674.75042			43017.90525		212.00800		875.00000 
 43692.65567		 305.27265			43387.38302		66.22000		324.00000 
 43692.65567		 674.75042			43017.90525		212.00800		875.00000 
 43692.65567		 305.27265			43387.38302		66.22000		324.00000 
 43692.65567		 674.75042			43017.90525		212.00800		875.00000 
 43692.65567		 305.27265			43387.38302		66.22000		324.00000 
 43692.65567		 674.75042			43017.90525		212.00800		875.00000 
 43692.65567		 305.27265			43387.38302		66.22000		324.00000 
 43692.65567		 674.75042			43017.90525		212.00800		875.00000 
 43692.65567		 305.27265			43387.38302		66.22000		324.00000 
 43692.65567		 674.75042			43017.90525		212.00800		875.00000 
 43692.65567		 305.27265			43387.38302		66.22000		324.00000 
 43692.65567		 674.75042			43017.90525		212.00800		875.00000 
 43692.65567		 305.27265			43387.38302		66.22000		324.00000 
 43692.65567		 674.75042			43017.90525		212.00800		875.00000 
 43692.65567		 305.27265			43387.38302		66.22000		324.00000 
 43692.65567		 674.75042			43017.90525		212.00800		875.00000 
 43692.65567		 305.27265			43387.38302		66.22000		324.00000 
 43692.65567		 674.75042			43017.90525		212.00800		875.00000 
 43692.65567		 305.27265			43387.38302		66.22000		324.00000 
 43692.65567		 674.75042			43017.90525		212.00800		875.00000 
 43692.65567		 305.27265			43387.38302		66.22000		324.00000 
 43692.65567		 674.75042			43017.90525		212.00800		875.00000 
 43692.65567		 305.27265			43387.38302		66.22000		324.00000 
 43692.65567		 674.75042			43017.90525		212.00800		875.00000 
 43692.65567		 305.27265			43387.38302		66.22000		324.00000 
 43692.65567		 674.75042			43017.90525		212.00800		875.00000 
 43692.65567		 305.27265			43387.38302		66.22000		324.00000 
 43692.65567		 674.75042			43017.90525		212.00800		875.00000 
 43692.65567		 305.27265			43387.38302		66.22000		324.00000 
 43692.65567		 674.75042			43017.90525		212.00800		875.00000 
 43692.65567		 305.27265			43387.38302		66.22000		324.00000 
 43692.65567		 674.75042			43017.90525		212.00800		875.00000 
 43692.65567		 305.27265			43387.38302		66.22000		324.00000 
 43692.65567		 674.75042			43017.90525		212.00800		875.00000 
 43692.65567		 305.27265			43387.38302		66.22000		324.00000 
 43692.65567		 674.75042			43017.90525		212.00800		875.00000 
 43692.65567		 305.27265			43387.38302		66.22000		324.00000 
 43692.65567		 674.75042			43017.90525		218.17000		875.00000 
 43692.65567		 305.27265			43387.38302		66.22000		324.00000 
 43692.65567		 674.75042			43017.90525		218.17000		875.00000 
 43692.65567		 305.27265			43387.38302		66.22000		324.00000 
 43692.65567		 674.75042			43017.90525		218.17000		875.00000 
 43692.65567		 305.27265			43387.38302		66.22000		324.00000 
 43692.65567		 674.75042			43017.90525		218.17000		875.00000 
 43692.65567		 305.27265			43387.38302		66.22000		324.00000 
 43692.65567		 674.75042			43017.90525		218.17000		875.00000 
 43692.65567		 305.27265			43387.38302		66.22000		324.00000 
 43692.65567		 674.75042			43017.90525		218.17000		875.00000 
 43692.65567		 305.27265			43387.38302		66.22000		324.00000 
 43692.65567		 674.75042			43017.90525		218.17000		875.00000 
 43692.65567		 305.27265			43387.38302		66.22000		324.00000 
 43692.65567		 674.75042			43017.90525		218.17000		875.00000 
 43692.65567		 305.27265			43387.38302		66.22000		324.00000 
 43692.65567		 674.75042			43017.90525		218.17000		875.00000 
 43692.65567		 305.27265			43387.38302		66.22000		324.00000 
 43692.65567		 674.75042			43017.90525		218.17000		875.00000 
 43692.65567		 305.27265			43387.38302		66.22000		324.00000 
 43692.65567		 674.75042			43017.90525		218.17000		875.00000 
 43692.65567		 305.27265			43387.38302		66.22000		324.00000 
 43692.65567		 674.75042			43017.90525		218.17000		875.00000 
 43692.65567		 305.27265			43387.38302		66.22000		324.00000 
 43692.65567		 674.75042			43017.90525		218.17000		875.00000 
 43692.65567		 305.27265			43387.38302		66.22000		324.00000 
 43692.65567		 674.75042			43017.90525		218.17000		875.00000 
 43692.65567		 305.27265			43387.38302		66.22000		324.00000 
 43692.65567		 674.75042			43017.90525		218.17000		875.00000 
 43692.65567		 305.27265			43387.38302		66.22000		324.00000 
 43692.65567		 674.75042			43017.90525		218.17000		875.00000 
 43692.65567		 305.27265			43387.38302		66.22000		324.00000 
 43692.65567		 674.75042			43017.90525		218.17000		875.00000 
 43692.65567		 305.27265			43387.38302		66.22000		324.00000 
 43692.65567		 674.75042			43017.90525		218.17000		875.00000 
 43692.65567		 305.27265			43387.38302		66.22000		324.00000 
 43692.65567		 674.75042			43017.90525		218.17000		875.00000 
 43692.65567		 305.27265			43387.38302		66.22000		324.00000 
 43692.65567		 674.75042			43017.90525		218.17000		875.00000 
 43692.65567		 305.27265			43387.38302		66.22000		324.00000 
 43692.65567		 674.75042			43017.90525		218.17000		875.00000 
 43692.65567		 305.27265			43387.38302		66.22000		324.00000 
 43692.65567		 674.75042			43017.90525		218.17000		875.00000 
 43692.65567		 305.27265			43387.38302		66.22000		324.00000 
 43692.65567		 674.75042			43017.90525		218.17000		875.00000 
 43692.65567		 305.27265			43387.38302		66.22000		324.00000 
 43692.65567		 674.75042			43017.90525		218.17000		875.00000 
 43692.65567		 305.27265			43387.38302		66.22000		324.00000 
 43692.65567		 674.75042			43017.90525		218.17000		875.00000 
 43692.65567		 305.27265			43387.38302		66.22000		324.00000 
 43692.65567		 674.75042			43017.90525		218.17000		875.00000 
 43692.65567		 305.27265			43387.38302		66.22000		324.00000 
 43692.65567		 674.75042			43017.90525		218.17000		875.00000 
 43692.65567		 305.27265			43387.38302		66.22000		324.00000 
 43692.65567		 674.75042			43017.90525		218.17000		875.00000 
 43692.65567		 305.27265			43387.38302		66.22000		324.00000 
 43692.65567		 674.75042			43017.90525		218.17000		875.00000 
 43692.65567		 305.27265			43387.38302		66.22000		324.00000 
 43692.65567		 674.75042			43017.90525		218.17000		875.00000 
 43692.65567		 305.27265			43387.38302		66.22000		324.00000 
 43692.65567		 674.75042			43017.90525		218.17000		875.00000 
 43692.65567		 305.27265			43387.38302		66.22000		324.00000 
 43692.65567		 674.75042			43017.90525		218.17000		875.00000 
 43692.65567		 305.27265			43387.38302		66.22000		324.00000 
 43692.65567		 674.75042			43017.90525		218.17000		875.00000 
 43692.65567		 305.27265			43387.38302		66.22000		324.00000 
 43692.65567		 674.75042			43017.90525		218.17000		875.00000 
 43692.65567		 305.27265			43387.38302		66.22000		324.00000 
 43692.65567		 674.75042			43017.90525		218.17000		875.00000 
 43692.65567		 305.27265			43387.38302		66.22000		324.00000 
 43692.65567		 674.75042			43017.90525		218.17000		875.00000 
 43692.65567		 305.27265			43387.38302		66.22000		324.00000 
 43692.65567		 674.75042			43017.90525		218.17000		875.00000 
 43692.65567		 305.27265			43387.38302		66.22000		324.00000 
 43692.65567		 674.75042			43017.90525		218.17000		875.00000 
 43692.65567		 305.27265			43387.38302		66.22000		324.00000 
 43692.65567		 674.75042			43017.90525		218.17000		875.00000 
 43692.65567		 305.27265			43387.38302		66.22000		324.00000 
 43692.65567		 674.75042			43017.90525		218.17000		875.00000 
 43692.65567		 305.27265			43387.38302		66.22000		324.00000 
 43692.65567		 674.75042			43017.90525		218.17000		875.00000 
 43692.65567		 305.27265			43387.38302		66.22000		324.00000 
 43692.65567		 674.75042			43017.90525		218.17000		875.00000 
 43692.65567		 305.27265			43387.38302		66.22000		324.00000 
 43692.65567		 674.75042			43017.90525		218.17000		875.00000 
 43692.65567		 305.27265			43387.38302		66.22000		324.00000 
 43692.65567		 674.75042			43017.90525		218.17000		875.00000 
 43692.65567		 305.27265			43387.38302		66.22000		324.00000 
 43692.65567		 674.75042			43017.90525		218.17000		875.00000 
 43692.65567		 305.27265			43387.38302		66.22000		324.00000 
 43692.65567		 674.75042			43017.90525		218.17000		875.00000 
 43692.65567		 305.27265			43387.38302		66.22000		324.00000 
 43692.65567		 674.75042			43017.90525		218.17000		875.00000 
 43692.65567		 305.27265			43387.38302		66.22000		324.00000 
 43692.65567		 674.75042			43017.90525		218.17000		875.00000 
 43692.65567		 305.27265			43387.38302		66.22000		324.00000 
 43692.65567		 674.75042			43017.90525		218.17000		875.00000 
 43692.65567		 305.27265			43387.38302		66.22000		324.00000 
 43692.65567		 674.75042			43017.90525		218.17000		875.00000 
 43692.65567		 305.27265			43387.38302		66.22000		324.00000 
 43692.65567		 674.75042			43017.90525		218.17000		875.00000 
 43692.65567		 305.27265			43387.38302		66.22000		324.00000 
 43692.65567		 674.75042			43017.90525		218.17000		875.00000 
 43692.65567		 305.27265			43387.38302		66.22000		324.00000 
 43692.65567		 674.75042			43017.90525		218.17000		875.00000 
 43692.65567		 305.27265			43387.38302		66.22000		324.00000 
 43692.65567		 674.75042			43017.90525		218.17000		875.00000 
 43692.65567		 305.27265			43387.38302		66.22000		324.00000 
 43692.65567		 674.75042			43017.90525		218.17000		875.00000 
 43692.65567		 305.27265			43387.38302		66.22000		324.00000 
 43692.65567		 674.75042			43017.90525		218.17000		875.00000 
 43692.65567		 305.27265			43387.38302		66.22000		324.00000 
 43692.65567		 674.75042			43017.90525		218.17000		875.00000 
 43692.65567		 305.27265			43387.38302		66.22000		324.00000 
 43692.65567		 674.75042			43017.90525		218.17000		875.00000 
 43692.65567		 305.27265			43387.38302		66.22000		324.00000 
 43692.65567		 674.75042			43017.90525		218.17000		875.00000 
 43692.65567		 305.27265			43387.38302		66.22000		324.00000 
 43692.65567		 674.75042			43017.90525		218.17000		875.00000 
 43692.65567		 305.27265			43387.38302		66.22000		324.00000 
 43692.65567		 674.75042			43017.90525		218.17000		875.00000 
 43692.65567		 305.27265			43387.38302		66.22000		324.00000 
 43692.65567		 674.75042			43017.90525		218.17000		875.00000 
 43692.65567		 305.27265			43387.38302		66.22000		324.00000 
 43692.65567		 674.75042			43017.90525		218.17000		875.00000 
 43692.65567		 305.27265			43387.38302		66.22000		324.00000 
 43692.65567		 674.75042			43017.90525		218.17000		875.00000 
 43692.65567		 305.27265			43387.38302		66.22000		324.00000 
 43692.65567		 674.75042			43017.90525		218.17000		875.00000 
 43692.65567		 305.27265			43387.38302		66.22000		324.00000 
 43692.65567		 674.75042			43017.90525		219.52400		875.00000 
 43692.65567		 305.27265			43387.38302		66.22000		324.00000 
 43692.65567		 674.75042			43017.90525		219.52400		875.00000 
 43692.65567		 305.27265			43387.38302		66.22000		324.00000 
 43692.65567		 674.75042			43017.90525		219.52400		875.00000 
 43692.65567		 305.27265			43387.38302		66.22000		324.00000 
 43692.65567		 674.75042			43017.90525		219.52400		875.00000 
 43692.65567		 305.27265			43387.38302		66.22000		324.00000 
 43692.65567		 674.75042			43017.90525		219.52400		875.00000 
 43692.65567		 305.27265			43387.38302		66.22000		324.00000 
 43692.65567		 674.75042			43017.90525		219.52400		875.00000 
 43692.65567		 305.27265			43387.38302		66.22000		324.00000 
 43692.65567		 674.75042			43017.90525		219.52400		875.00000 
 43692.65567		 305.27265			43387.38302		66.22000		324.00000 
 43692.65567		 674.75042			43017.90525		219.52400		875.00000 
 43692.65567		 305.27265			43387.38302		66.22000		324.00000 
 43692.65567		 674.75042			43017.90525		219.52400		875.00000 
 43692.65567		 305.27265			43387.38302		66.22000		324.00000 
 43692.65567		 674.75042			43017.90525		219.52400		875.00000 
 43692.65567		 305.27265			43387.38302		66.22000		324.00000 
 43692.65567		 674.75042			43017.90525		219.52400		875.00000 
 43692.65567		 305.27265			43387.38302		66.22000		324.00000 
 43692.65567		 674.75042			43017.90525		219.52400		875.00000 
 43692.65567		 305.27265			43387.38302		66.22000		324.00000 
 43692.65567		 674.75042			43017.90525		219.52400		875.00000 
 43692.65567		 305.27265			43387.38302		66.22000		324.00000 
 43692.65567		 674.75042			43017.90525		219.52400		875.00000 
 43692.65567		 305.27265			43387.38302		66.22000		324.00000 
 43692.65567		 674.75042			43017.90525		219.52400		875.00000 
 43692.65567		 305.27265			43387.38302		66.22000		324.00000 
 43692.65567		 674.75042			43017.90525		219.52400		875.00000 
 43692.65567		 305.27265			43387.38302		66.22000		324.00000 
 43692.65567		 674.75042			43017.90525		219.52400		875.00000 
 43692.65567		 305.27265			43387.38302		66.22000		324.00000 
 43692.65567		 674.75042			43017.90525		219.52400		875.00000 
 43692.65567		 305.27265			43387.38302		66.22000		324.00000 
 43692.65567		 674.75042			43017.90525		219.52400		875.00000 
 43692.65567		 305.27265			43387.38302		66.22000		324.00000 
 43692.65567		 674.75042			43017.90525		219.52400		875.00000 
 43692.65567		 305.27265			43387.38302		66.22000		324.00000 
 43692.65567		 674.75042			43017.90525		219.52400		875.00000 
 43692.65567		 305.27265			43387.38302		66.22000		324.00000 
 43692.65567		 674.75042			43017.90525		219.52400		875.00000 
 43692.65567		 305.27265			43387.38302		66.22000		324.00000 
 43692.65567		 674.75042			43017.90525		219.52400		875.00000 
 43692.65567		 305.27265			43387.38302		66.22000		324.00000 
 43692.65567		 674.75042			43017.90525		219.52400		875.00000 
 43692.65567		 305.27265			43387.38302		66.22000		324.00000 
 43692.65567		 674.75042			43017.90525		219.52400		875.00000 
 43692.65567		 305.27265			43387.38302		66.22000		324.00000 
 43692.65567		 674.75042			43017.90525		219.52400		875.00000 
 43692.65567		 305.27265			43387.38302		66.22000		324.00000 
 43692.65567		 674.75042			43017.90525		219.52400		875.00000 
 43692.65567		 305.27265			43387.38302		66.22000		324.00000 
 43692.65567		 674.75042			43017.90525		219.52400		875.00000 
 43692.65567		 305.27265			43387.38302		66.22000		324.00000 
 43692.65567		 674.75042			43017.90525		219.52400		875.00000 
 43692.65567		 305.27265			43387.38302		66.22000		324.00000 
 43692.65567		 674.75042			43017.90525		219.52400		875.00000 
 43692.65567		 305.27265			43387.38302		66.22000		324.00000 
 43692.65567		 674.75042			43017.90525		219.52400		875.00000 
 43692.65567		 305.27265			43387.38302		66.22000		324.00000 
 43692.65567		 674.75042			43017.90525		219.52400		875.00000 
 43692.65567		 305.27265			43387.38302		66.22000		324.00000 
 43692.65567		 674.75042			43017.90525		219.52400		875.00000 
 43692.65567		 305.27265			43387.38302		66.22000		324.00000 
 43692.65567		 674.75042			43017.90525		219.52400		875.00000 
 43692.65567		 305.27265			43387.38302		66.22000		324.00000 
 43692.65567		 674.75042			43017.90525		219.52400		875.00000 
 43692.65567		 305.27265			43387.38302		66.22000		324.00000 
 43692.65567		 674.75042			43017.90525		219.52400		875.00000 
 43692.65567		 305.27265			43387.38302		66.22000		324.00000 
 43692.65567		 674.75042			43017.90525		219.52400		875.00000 
 43692.65567		 305.27265			43387.38302		66.22000		324.00000 
 43692.65567		 674.75042			43017.90525		219.52400		875.00000 
 43692.65567		 305.27265			43387.38302		66.22000		324.00000 
 43692.65567		 674.75042			43017.90525		219.52400		875.00000 
 43692.65567		 305.27265			43387.38302		66.22000		324.00000 
 43692.65567		 674.75042			43017.90525		219.52400		875.00000 
 43692.65567		 305.27265			43387.38302		66.22000		324.00000 
 43692.65567		 674.75042			43017.90525		219.52400		875.00000 
 43692.65567		 305.27265			43387.38302		66.22000		324.00000 
 43692.65567		 674.75042			43017.90525		219.52400		875.00000 
 43692.65567		 305.27265			43387.38302		66.22000		324.00000 
 43692.65567		 674.75042			43017.90525		219.52400		875.00000 
 43692.65567		 305.27265			43387.38302		66.22000		324.00000 
 43692.65567		 674.75042			43017.90525		219.52400		875.00000 
 43692.65567		 305.27265			43387.38302		66.22000		324.00000 
 43692.65567		 674.75042			43017.90525		219.52400		875.00000 
 43692.65567		 305.27265			43387.38302		66.22000		324.00000 
 43692.65567		 674.75042			43017.90525		219.52400		875.00000 
 43692.65567		 305.27265			43387.38302		66.22000		324.00000 
 43692.65567		 674.75042			43017.90525		219.52400		875.00000 
 43692.65567		 305.27265			43387.38302		66.22000		324.00000 
 43692.65567		 674.75042			43017.90525		219.52400		875.00000 
 43692.65567		 305.27265			43387.38302		66.22000		324.00000 
 43692.65567		 674.75042			43017.90525		219.52400		875.00000 
 43692.65567		 305.27265			43387.38302		66.22000		324.00000 
 43692.65567		 674.75042			43017.90525		219.52400		875.00000 
 43692.65567		 305.27265			43387.38302		66.22000		324.00000 
 43692.65567		 674.75042			43017.90525		219.52400		875.00000 
 43692.65567		 305.27265			43387.38302		66.22000		324.00000 
 43692.65567		 674.75042			43017.90525		219.52400		875.00000 
 43692.65567		 305.27265			43387.38302		66.22000		324.00000 
 43692.65567		 674.75042			43017.90525		219.52400		875.00000 
 43692.65567		 305.27265			43387.38302		66.22000		324.00000 
 43692.65567		 674.75042			43017.90525		219.52400		875.00000 
 43692.65567		 305.27265			43387.38302		66.22000		324.00000 
 43692.65567		 674.75042			43017.90525		219.52400		875.00000 
 43692.65567		 305.27265			43387.38302		66.22000		324.00000 
 43692.65567		 674.75042			43017.90525		219.52400		875.00000 
 43692.65567		 305.27265			43387.38302		66.22000		324.00000 
 43692.65567		 674.75042			43017.90525		219.52400		875.00000 
 43692.65567		 305.27265			43387.38302		66.22000		324.00000 
 43692.65567		 674.75042			43017.90525		219.52400		875.00000 
 43692.65567		 305.27265			43387.38302		66.22000		324.00000 
 43692.65567		 674.75042			43017.90525		219.52400		875.00000 
 43692.65567		 305.27265			43387.38302		66.22000		324.00000 
 43692.65567		 674.75042			43017.90525		219.52400		875.00000 
 43692.65567		 305.27265			43387.38302		66.22000		324.00000 
 43692.65567		 674.75042			43017.90525		219.52400		875.00000 
 43692.65567		 305.27265			43387.38302		66.22000		324.00000 
 43692.65567		 674.75042			43017.90525		219.52400		875.00000 
 43692.65567		 305.27265			43387.38302		66.22000		324.00000 
 43692.65567		 674.75042			43017.90525		219.52400		875.00000 
 43692.65567		 305.27265			43387.38302		66.22000		324.00000 
 43692.65567		 674.75042			43017.90525		219.52400		875.00000 
 43692.65567		 305.27265			43387.38302		66.22000		324.00000 
 43692.65567		 674.75042			43017.90525		219.52400		875.00000 
 43692.65567		 305.27265			43387.38302		66.22000		324.00000 
 43692.65567		 674.75042			43017.90525		219.71600		875.00000 
 43692.65567		 305.27265			43387.38302		66.22000		324.00000 
 43692.65567		 674.75042			43017.90525		219.71600		875.00000 
 43692.65567		 305.27265			43387.38302		66.22000		324.00000 
 43692.65567		 674.75042			43017.90525		219.71600		875.00000 
 43692.65567		 305.27265			43387.38302		66.22000		324.00000 
 43692.65567		 674.75042			43017.90525		219.71600		875.00000 
 43692.65567		 305.27265			43387.38302		66.22000		324.00000 
 43692.65567		 674.75042			43017.90525		219.71600		875.00000 
 43692.65567		 305.27265			43387.38302		66.22000		324.00000 
 43692.65567		 674.75042			43017.90525		219.71600		875.00000 
 43692.65567		 305.27265			43387.38302		66.22000		324.00000 
 43692.65567		 674.75042			43017.90525		219.71600		875.00000 
 43692.65567		 305.27265			43387.38302		66.22000		324.00000 
 43692.65567		 674.75042			43017.90525		219.71600		875.00000 
 43692.65567		 305.27265			43387.38302		66.22000		324.00000 
 43692.65567		 674.75042			43017.90525		219.71600		875.00000 
 43692.65567		 305.27265			43387.38302		66.22000		324.00000 
 43692.65567		 674.75042			43017.90525		219.71600		875.00000 
 43692.65567		 305.27265			43387.38302		66.22000		324.00000 
 43692.65567		 674.75042			43017.90525		219.71600		875.00000 
 43692.65567		 305.27265			43387.38302		66.22000		324.00000 
 43692.65567		 674.75042			43017.90525		219.71600		875.00000 
 43692.65567		 305.27265			43387.38302		66.22000		324.00000 
 43692.65567		 674.75042			43017.90525		219.71600		875.00000 
 43692.65567		 305.27265			43387.38302		66.22000		324.00000 
 43692.65567		 674.75042			43017.90525		219.71600		875.00000 
 43692.65567		 305.27265			43387.38302		66.22000		324.00000 
 43692.65567		 674.75042			43017.90525		219.71600		875.00000 
 43692.65567		 305.27265			43387.38302		66.22000		324.00000 
 43692.65567		 674.75042			43017.90525		219.71600		875.00000 
 43692.65567		 305.27265			43387.38302		66.22000		324.00000 
 43692.65567		 674.75042			43017.90525		219.71600		875.00000 
 43692.65567		 305.27265			43387.38302		66.22000		324.00000 
 43692.65567		 674.75042			43017.90525		219.71600		875.00000 
 43692.65567		 305.27265			43387.38302		66.22000		324.00000 
 43692.65567		 674.75042			43017.90525		219.71600		875.00000 
 43692.65567		 305.27265			43387.38302		66.22000		324.00000 
 43692.65567		 674.75042			43017.90525		219.71600		875.00000 
 43692.65567		 305.27265			43387.38302		66.22000		324.00000 
 43692.65567		 674.75042			43017.90525		219.71600		875.00000 
 43692.65567		 305.27265			43387.38302		66.22000		324.00000 
 43692.65567		 674.75042			43017.90525		219.71600		875.00000 
 43692.65567		 305.27265			43387.38302		66.22000		324.00000 
 43692.65567		 674.75042			43017.90525		219.71600		875.00000 
 43692.65567		 305.27265			43387.38302		66.22000		324.00000 
 43692.65567		 674.75042			43017.90525		219.71600		875.00000 
 43692.65567		 305.27265			43387.38302		66.22000		324.00000 
 43692.65567		 674.75042			43017.90525		219.71600		875.00000 
 43692.65567		 305.27265			43387.38302		66.22000		324.00000 
 43692.65567		 674.75042			43017.90525		219.71600		875.00000 
 43692.65567		 305.27265			43387.38302		66.22000		324.00000 
 43692.65567		 674.75042			43017.90525		219.71600		875.00000 
 43692.65567		 305.27265			43387.38302		66.22000		324.00000 
 43692.65567		 674.75042			43017.90525		219.71600		875.00000 
 43692.65567		 305.27265			43387.38302		66.22000		324.00000 
 43692.65567		 674.75042			43017.90525		219.71600		875.00000 
 43692.65567		 305.27265			43387.38302		66.22000		324.00000 
 43692.65567		 674.75042			43017.90525		219.71600		875.00000 
 43692.65567		 305.27265			43387.38302		66.22000		324.00000 
 43692.65567		 674.75042			43017.90525		219.71600		875.00000 
 43692.65567		 305.27265			43387.38302		66.22000		324.00000 
 43692.65567		 674.75042			43017.90525		219.71600		875.00000 
 43692.65567		 305.27265			43387.38302		66.22000		324.00000 
 43692.65567		 674.75042			43017.90525		219.71600		875.00000 
 43692.65567		 305.27265			43387.38302		66.22000		324.00000 
 43692.65567		 674.75042			43017.90525		219.71600		875.00000 
 43692.65567		 305.27265			43387.38302		66.22000		324.00000 
 43692.65567		 674.75042			43017.90525		219.71600		875.00000 
 43692.65567		 305.27265			43387.38302		66.22000		324.00000 
 43692.65567		 674.75042			43017.90525		219.71600		875.00000 
 43692.65567		 305.27265			43387.38302		66.22000		324.00000 
 43692.65567		 674.75042			43017.90525		219.71600		875.00000 
 43692.65567		 305.27265			43387.38302		66.22000		324.00000 
 43692.65567		 674.75042			43017.90525		219.71600		875.00000 
 43692.65567		 305.27265			43387.38302		66.22000		324.00000 
 43692.65567		 674.75042			43017.90525		219.71600		875.00000 
 43692.65567		 305.27265			43387.38302		66.22000		324.00000 
 43692.65567		 674.75042			43017.90525		219.71600		875.00000 
 43692.65567		 305.27265			43387.38302		66.22000		324.00000 
 43692.65567		 674.75042			43017.90525		219.71600		875.00000 
 43692.65567		 305.27265			43387.38302		66.22000		324.00000 
 43692.65567		 674.75042			43017.90525		219.71600		875.00000 
 43692.65567		 305.27265			43387.38302		66.22000		324.00000 
 43692.65567		 674.75042			43017.90525		219.71600		875.00000 
 43692.65567		 305.27265			43387.38302		66.22000		324.00000 
 43692.65567		 674.75042			43017.90525		219.71600		875.00000 
 43692.65567		 305.27265			43387.38302		66.22000		324.00000 
 43692.65567		 674.75042			43017.90525		219.71600		875.00000 
 43692.65567		 305.27265			43387.38302		66.22000		324.00000 
 43692.65567		 674.75042			43017.90525		219.71600		875.00000 
 43692.65567		 305.27265			43387.38302		66.22000		324.00000 
 43692.65567		 674.75042			43017.90525		219.71600		875.00000 
 43692.65567		 305.27265			43387.38302		66.22000		324.00000 
 43692.65567		 674.75042			43017.90525		219.71600		875.00000 
 43692.65567		 305.27265			43387.38302		66.22000		324.00000 
 43692.65567		 674.75042			43017.90525		219.71600		875.00000 
 43692.65567		 305.27265			43387.38302		66.22000		324.00000 
 43692.65567		 674.75042			43017.90525		219.71600		875.00000 
 43692.65567		 305.27265			43387.38302		66.22000		324.00000 
 43692.65567		 674.75042			43017.90525		219.71600		875.00000 
 43692.65567		 305.27265			43387.38302		66.22000		324.00000 
 43692.65567		 674.75042			43017.90525		219.71600		875.00000 
 43692.65567		 305.27265			43387.38302		66.22000		324.00000 
 43692.65567		 674.75042			43017.90525		219.71600		875.00000 
 43692.65567		 305.27265			43387.38302		66.22000		324.00000 
 43692.65567		 674.75042			43017.90525		219.71600		875.00000 
 43692.65567		 305.27265			43387.38302		66.22000		324.00000 
 43692.65567		 674.75042			43017.90525		219.71600		875.00000 
 43692.65567		 305.27265			43387.38302		66.22000		324.00000 
 43692.65567		 674.75042			43017.90525		219.71600		875.00000 
 43692.65567		 305.27265			43387.38302		66.22000		324.00000 
 43692.65567		 674.75042			43017.90525		219.71600		875.00000 
 43692.65567		 305.27265			43387.38302		66.22000		324.00000 
 43692.65567		 674.75042			43017.90525		219.71600		875.00000 
 43692.65567		 305.27265			43387.38302		66.22000		324.00000 
 43692.65567		 674.75042			43017.90525		219.71600		875.00000 
 43692.65567		 305.27265			43387.38302		66.22000		324.00000 
 43692.65567		 674.75042			43017.90525		219.71600		875.00000 
 43692.65567		 305.27265			43387.38302		66.22000		324.00000 
 43692.65567		 674.75042			43017.90525		219.71600		875.00000 
 43692.65567		 305.27265			43387.38302		66.22000		324.00000 
 43692.65567		 674.75042			43017.90525		219.71600		875.00000 
 43692.65567		 305.27265			43387.38302		66.22000		324.00000 
 43692.65567		 674.75042			43017.90525		219.71600		875.00000 
 43692.65567		 305.27265			43387.38302		66.22000		324.00000 
 43692.65567		 674.75042			43017.90525		219.71600		875.00000 
 43692.65567		 305.27265			43387.38302		66.22000		324.00000 
 43692.65567		 674.75042			43017.90525		220.26200		875.00000 
 43692.65567		 305.27265			43387.38302		66.22000		324.00000 
 43692.65567		 674.75042			43017.90525		220.26200		875.00000 
 43692.65567		 305.27265			43387.38302		66.22000		324.00000 
 43692.65567		 674.75042			43017.90525		220.26200		875.00000 
 43692.65567		 305.27265			43387.38302		66.22000		324.00000 
 43692.65567		 674.75042			43017.90525		220.26200		875.00000 
 43692.65567		 305.27265			43387.38302		66.22000		324.00000 
 43692.65567		 674.75042			43017.90525		220.26200		875.00000 
 43692.65567		 305.27265			43387.38302		66.22000		324.00000 
 43692.65567		 674.75042			43017.90525		220.26200		875.00000 
 43692.65567		 305.27265			43387.38302		66.22000		324.00000 
 43692.65567		 674.75042			43017.90525		220.26200		875.00000 
 43692.65567		 305.27265			43387.38302		66.22000		324.00000 
 43692.65567		 674.75042			43017.90525		220.26200		875.00000 
 43692.65567		 305.27265			43387.38302		66.22000		324.00000 
 43692.65567		 674.75042			43017.90525		220.26200		875.00000 
 43692.65567		 305.27265			43387.38302		66.22000		324.00000 
 43692.65567		 674.75042			43017.90525		220.26200		875.00000 
 43692.65567		 305.27265			43387.38302		66.22000		324.00000 
 43692.65567		 674.75042			43017.90525		220.26200		875.00000 
 43692.65567		 305.27265			43387.38302		66.22000		324.00000 
 43692.65567		 674.75042			43017.90525		220.26200		875.00000 
 43692.65567		 305.27265			43387.38302		66.22000		324.00000 
 43692.65567		 674.75042			43017.90525		220.26200		875.00000 
 43692.65567		 305.27265			43387.38302		66.22000		324.00000 
 43692.65567		 674.75042			43017.90525		220.26200		875.00000 
 43692.65567		 305.27265			43387.38302		66.22000		324.00000 
 43692.65567		 674.75042			43017.90525		220.26200		875.00000 
 43692.65567		 305.27265			43387.38302		66.22000		324.00000 
 43692.65567		 674.75042			43017.90525		220.26200		875.00000 
 43692.65567		 305.27265			43387.38302		66.22000		324.00000 
 43692.65567		 674.75042			43017.90525		220.26200		875.00000 
 43692.65567		 305.27265			43387.38302		66.22000		324.00000 
 43692.65567		 674.75042			43017.90525		220.26200		875.00000 
 43692.65567		 305.27265			43387.38302		66.22000		324.00000 
 43692.65567		 674.75042			43017.90525		220.26200		875.00000 
 43692.65567		 305.27265			43387.38302		66.22000		324.00000 
 43692.65567		 674.75042			43017.90525		220.26200		875.00000 
 43692.65567		 305.27265			43387.38302		66.22000		324.00000 
 43692.65567		 674.75042			43017.90525		220.26200		875.00000 
 43692.65567		 305.27265			43387.38302		66.22000		324.00000 
 43692.65567		 674.75042			43017.90525		220.26200		875.00000 
 43692.65567		 305.27265			43387.38302		66.22000		324.00000 
 43692.65567		 674.75042			43017.90525		220.26200		875.00000 
 43692.65567		 305.27265			43387.38302		66.22000		324.00000 
 43692.65567		 674.75042			43017.90525		220.26200		875.00000 
 43692.65567		 305.27265			43387.38302		66.22000		324.00000 
 43692.65567		 674.75042			43017.90525		220.26200		875.00000 
 43692.65567		 305.27265			43387.38302		66.22000		324.00000 
 43692.65567		 674.75042			43017.90525		220.26200		875.00000 
 43692.65567		 305.27265			43387.38302		66.22000		324.00000 
 43692.65567		 674.75042			43017.90525		220.26200		875.00000 
 43692.65567		 305.27265			43387.38302		66.22000		324.00000 
 43692.65567		 674.75042			43017.90525		220.26200		875.00000 
 43692.65567		 305.27265			43387.38302		66.22000		324.00000 
 43692.65567		 674.75042			43017.90525		220.26200		875.00000 
 43692.65567		 305.27265			43387.38302		66.22000		324.00000 
 43692.65567		 674.75042			43017.90525		220.26200		875.00000 
 43692.65567		 305.27265			43387.38302		66.22000		324.00000 
 43692.65567		 674.75042			43017.90525		220.26200		875.00000 
 43692.65567		 305.27265			43387.38302		66.22000		324.00000 
 43692.65567		 674.75042			43017.90525		220.26200		875.00000 
 43692.65567		 305.27265			43387.38302		66.22000		324.00000 
 43692.65567		 674.75042			43017.90525		220.26200		875.00000 
 43692.65567		 305.27265			43387.38302		66.22000		324.00000 
 43692.65567		 674.75042			43017.90525		220.26200		875.00000 
 43692.65567		 305.27265			43387.38302		66.22000		324.00000 
 43692.65567		 674.75042			43017.90525		220.26200		875.00000 
 43692.65567		 305.27265			43387.38302		66.22000		324.00000 
 43692.65567		 674.75042			43017.90525		220.26200		875.00000 
 43692.65567		 305.27265			43387.38302		66.22000		324.00000 
 43692.65567		 674.75042			43017.90525		220.26200		875.00000 
 43692.65567		 305.27265			43387.38302		66.22000		324.00000 
 43692.65567		 674.75042			43017.90525		220.26200		875.00000 
 43692.65567		 305.27265			43387.38302		66.22000		324.00000 
 43692.65567		 674.75042			43017.90525		220.26200		875.00000 
 43692.65567		 305.27265			43387.38302		66.22000		324.00000 
 43692.65567		 674.75042			43017.90525		220.26200		875.00000 
 43692.65567		 305.27265			43387.38302		66.22000		324.00000 
 43692.65567		 674.75042			43017.90525		220.26200		875.00000 
 43692.65567		 305.27265			43387.38302		66.22000		324.00000 
 43692.65567		 674.75042			43017.90525		220.26200		875.00000 
 43692.65567		 305.27265			43387.38302		66.22000		324.00000 
 43692.65567		 674.75042			43017.90525		220.26200		875.00000 
 43692.65567		 305.27265			43387.38302		66.22000		324.00000 
 43692.65567		 674.75042			43017.90525		220.26200		875.00000 
 43692.65567		 305.27265			43387.38302		66.22000		324.00000 
 43692.65567		 674.75042			43017.90525		220.26200		875.00000 
 43692.65567		 305.27265			43387.38302		66.22000		324.00000 
 43692.65567		 674.75042			43017.90525		220.26200		875.00000 
 43692.65567		 305.27265			43387.38302		66.22000		324.00000 
 43692.65567		 674.75042			43017.90525		220.26200		875.00000 
 43692.65567		 305.27265			43387.38302		66.22000		324.00000 
 43692.65567		 674.75042			43017.90525		220.26200		875.00000 
 43692.65567		 305.27265			43387.38302		66.22000		324.00000 
 43692.65567		 674.75042			43017.90525		220.26200		875.00000 
 43692.65567		 305.27265			43387.38302		66.22000		324.00000 
 43692.65567		 674.75042			43017.90525		220.26200		875.00000 
 43692.65567		 305.27265			43387.38302		66.22000		324.00000 
 43692.65567		 674.75042			43017.90525		220.26200		875.00000 
 43692.65567		 305.27265			43387.38302		66.22000		324.00000 
 43692.65567		 674.75042			43017.90525		220.26200		875.00000 
 43692.65567		 305.27265			43387.38302		66.22000		324.00000 
 43692.65567		 674.75042			43017.90525		220.26200		875.00000 
 43692.65567		 305.27265			43387.38302		66.22000		324.00000 
 43692.65567		 674.75042			43017.90525		220.26200		875.00000 
 43692.65567		 305.27265			43387.38302		66.22000		324.00000 
 43692.65567		 674.75042			43017.90525		220.26200		875.00000 
 43692.65567		 305.27265			43387.38302		66.22000		324.00000 
 43692.65567		 674.75042			43017.90525		220.26200		875.00000 
 43692.65567		 305.27265			43387.38302		66.22000		324.00000 
 43692.65567		 674.75042			43017.90525		220.26200		875.00000 
 43692.65567		 305.27265			43387.38302		66.22000		324.00000 
 43692.65567		 674.75042			43017.90525		220.26200		875.00000 
 43692.65567		 305.27265			43387.38302		66.22000		324.00000 
 43692.65567		 674.75042			43017.90525		220.26200		875.00000 
 43692.65567		 305.27265			43387.38302		66.22000		324.00000 
 43692.65567		 674.75042			43017.90525		220.26200		875.00000 
 43692.65567		 305.27265			43387.38302		66.22000		324.00000 
 43692.65567		 674.75042			43017.90525		220.26200		875.00000 
 43692.65567		 305.27265			43387.38302		66.22000		324.00000 
 43692.65567		 674.75042			43017.90525		220.26200		875.00000 
 43692.65567		 305.27265			43387.38302		66.22000		324.00000 
 43692.65567		 674.75042			43017.90525		220.26200		875.00000 
 43692.65567		 305.27265			43387.38302		66.22000		324.00000 
 43692.65567		 674.75042			43017.90525		220.26200		875.00000 
 43692.65567		 305.27265			43387.38302		66.22000		324.00000 
 43692.65567		 674.75042			43017.90525		220.26200		875.00000 
 43692.65567		 305.27265			43387.38302		66.22000		324.00000 
 43692.65567		 674.75042			43017.90525		220.26200		875.00000 
 43692.65567		 305.27265			43387.38302		66.22000		324.00000 
 43692.65567		 674.75042			43017.90525		220.26200		875.00000 
 43692.65567		 305.27265			43387.38302		66.22000		324.00000 
 43692.65567		 674.75042			43017.90525		220.26200		875.00000 
 43692.65567		 305.27265			43387.38302		66.22000		324.00000 
 43692.65567		 674.75042			43017.90525		220.26200		875.00000 
 43692.65567		 305.27265			43387.38302		66.22000		324.00000 
 43692.65567		 674.75042			43017.90525		220.26200		875.00000 
 43692.65567		 305.27265			43387.38302		66.22000		324.00000 
 43692.65567		 674.75042			43017.90525		220.26200		875.00000 
 43692.65567		 305.27265			43387.38302		66.22000		324.00000 
 43692.65567		 674.75042			43017.90525		220.26200		875.00000 
 43692.65567		 305.27265			43387.38302		66.22000		324.00000 
 43692.65567		 674.75042			43017.90525		220.26200		875.00000 
 43692.65567		 305.27265			43387.38302		66.22000		324.00000 
 43692.65567		 674.75042			43017.90525		220.26200		875.00000 
 43692.65567		 305.27265			43387.38302		66.22000		324.00000 
 43692.65567		 674.75042			43017.90525		220.26200		875.00000 
 43692.65567		 305.27265			43387.38302		66.22000		324.00000 
 43692.65567		 674.75042			43017.90525		220.26200		875.00000 
 43692.65567		 305.27265			43387.38302		66.22000		324.00000 
 43692.65567		 674.75042			43017.90525		220.26200		875.00000 
 43692.65567		 305.27265			43387.38302		66.22000		324.00000 
 43692.65567		 674.75042			43017.90525		220.26200		875.00000 
 43692.65567		 305.27265			43387.38302		66.22000		324.00000 
 43692.65567		 674.75042			43017.90525		220.26200		875.00000 
 43692.65567		 305.27265			43387.38302		66.22000		324.00000 
 43692.65567		 674.75042			43017.90525		220.26200		875.00000 
 43692.65567		 305.27265			43387.38302		66.22000		324.00000 
 43692.65567		 674.75042			43017.90525		220.26200		875.00000 
 43692.65567		 305.27265			43387.38302		66.22000		324.00000 
 43692.65567		 674.75042			43017.90525		220.26200		875.00000 
 43692.65567		 305.27265			43387.38302		66.22000		324.00000 
 43692.65567		 674.75042			43017.90525		220.26200		875.00000 
 43692.65567		 305.27265			43387.38302		66.22000		324.00000 
 43692.65567		 674.75042			43017.90525		220.26200		875.00000 
 43692.65567		 305.27265			43387.38302		66.22000		324.00000 
 43692.65567		 674.75042			43017.90525		220.26200		875.00000 
 43692.65567		 305.27265			43387.38302		66.22000		324.00000 
 43692.65567		 674.75042			43017.90525		220.26200		875.00000 
 43692.65567		 305.27265			43387.38302		66.22000		324.00000 
 43692.65567		 674.75042			43017.90525		220.26200		875.00000 
 43692.65567		 305.27265			43387.38302		66.22000		324.00000 
 43692.65567		 674.75042			43017.90525		220.26200		875.00000 
 43692.65567		 305.27265			43387.38302		66.22000		324.00000 
 43692.65567		 674.75042			43017.90525		220.26200		875.00000 
 43692.65567		 305.27265			43387.38302		66.22000		324.00000 
 43692.65567		 674.75042			43017.90525		220.26200		875.00000 
 43692.65567		 305.27265			43387.38302		66.22000		324.00000 
 43692.65567		 674.75042			43017.90525		220.26200		875.00000 
 43692.65567		 305.27265			43387.38302		66.22000		324.00000 
 43692.65567		 674.75042			43017.90525		220.26200		875.00000 
 43692.65567		 305.27265			43387.38302		66.22000		324.00000 
 43692.65567		 674.75042			43017.90525		220.26200		875.00000 
 43692.65567		 305.27265			43387.38302		66.22000		324.00000 
 43692.65567		 674.75042			43017.90525		220.26200		875.00000 
 43692.65567		 305.27265			43387.38302		66.22000		324.00000 
 43692.65567		 674.75042			43017.90525		220.26200		875.00000 
 43692.65567		 305.27265			43387.38302		66.22000		324.00000 
 43692.65567		 674.75042			43017.90525		220.26200		875.00000 
 43692.65567		 305.27265			43387.38302		66.22000		324.00000 
 43692.65567		 674.75042			43017.90525		220.26200		875.00000 
 43692.65567		 305.27265			43387.38302		66.22000		324.00000 
 43692.65567		 674.75042			43017.90525		220.26200		875.00000 
 43692.65567		 305.27265			43387.38302		66.22000		324.00000 
 43692.65567		 674.75042			43017.90525		220.26200		875.00000 
 43692.65567		 305.27265			43387.38302		66.22000		324.00000 
 43692.65567		 674.75042			43017.90525		220.26200		875.00000 
 43692.65567		 305.27265			43387.38302		66.22000		324.00000 
 43692.65567		 674.75042			43017.90525		220.26200		875.00000 
 43692.65567		 305.27265			43387.38302		66.22000		324.00000 
 43692.65567		 674.75042			43017.90525		220.26200		875.00000 
 43692.65567		 305.27265			43387.38302		66.22000		324.00000 
 43692.65567		 674.75042			43017.90525		220.26200		875.00000 
 43692.65567		 305.27265			43387.38302		66.22000		324.00000 
 43692.65567		 628.92372			43063.73195		220.26200		875.00000 
 43692.65567		 305.27265			43387.38302		66.22000		324.00000 
 43692.65567		 583.09702			43109.55865		220.26200		875.00000 
 43692.65567		 305.27265			43387.38302		66.22000		324.00000 
 43692.65567		 537.27032			43155.38535		220.26200		875.00000 
 43692.65567		 305.27265			43387.38302		66.22000		324.00000 
 43692.65567		 537.27032			43155.38535		220.26200		875.00000 
 43692.65567		 305.27265			43387.38302		66.22000		324.00000 
 43692.65567		 537.27032			43155.38535		220.26200		875.00000 
 43692.65567		 305.27265			43387.38302		66.22000		324.00000 
 43692.65567		 537.27032			43155.38535		220.26200		875.00000 
 43692.65567		 305.27265			43387.38302		66.22000		324.00000 
 43692.65567		 537.27032			43155.38535		220.26200		875.00000 
 43692.65567		 305.27265			43387.38302		66.22000		324.00000 
 43692.65567		 537.27032			43155.38535		220.26200		875.00000 
 43692.65567		 305.27265			43387.38302		66.22000		324.00000 
 43692.65567		 537.27032			43155.38535		220.26200		875.00000 
 43692.65567		 305.27265			43387.38302		66.22000		324.00000 
 43692.65567		 537.27032			43155.38535		220.26200		875.00000 
 43692.65567		 305.27265			43387.38302		66.22000		324.00000 
 43692.65567		 537.27032			43155.38535		220.26200		875.00000 
 43692.65567		 305.27265			43387.38302		66.22000		324.00000 
 43692.65567		 537.27032			43155.38535		220.26200		875.00000 
 43692.65567		 305.27265			43387.38302		66.22000		324.00000 
 43692.65567		 537.27032			43155.38535		220.26200		875.00000 
 43692.65567		 305.27265			43387.38302		66.22000		324.00000 
 43692.65567		 537.27032			43155.38535		220.26200		875.00000 
 43692.65567		 305.27265			43387.38302		66.22000		324.00000 
 43692.65567		 537.27032			43155.38535		220.26200		875.00000 
 43692.65567		 305.27265			43387.38302		66.22000		324.00000 
 43692.65567		 537.27032			43155.38535		220.26200		875.00000 
 43692.65567		 305.27265			43387.38302		66.22000		324.00000 
 43692.65567		 537.27032			43155.38535		220.26200		875.00000 
 43692.65567		 305.27265			43387.38302		66.22000		324.00000 
 43692.65567		 537.27032			43155.38535		220.26200		875.00000 
 43692.65567		 305.27265			43387.38302		66.22000		324.00000 
 43692.65567		 537.27032			43155.38535		220.26200		875.00000 
 43692.65567		 305.27265			43387.38302		66.22000		324.00000 
 43692.65567		 537.27032			43155.38535		220.26200		875.00000 
 43692.65567		 305.27265			43387.38302		66.22000		324.00000 
 43692.65567		 537.27032			43155.38535		220.26200		875.00000 
 43692.65567		 305.27265			43387.38302		66.22000		324.00000 
 43692.65567		 537.27032			43155.38535		190.97400		875.00000 
 43692.65567		 305.27265			43387.38302		66.22000		324.00000 
 43692.65567		 537.27032			43155.38535		190.97400		875.00000 
 43692.65567		 305.27265			43387.38302		66.22000		324.00000 
 43692.65567		 529.63254			43163.02313		190.97400		875.00000 
 43692.65567		 305.27265			43387.38302		66.22000		324.00000 
 43692.65567		 525.81365			43166.84203		190.97400		875.00000 
 43692.65567		 305.27265			43387.38302		66.22000		324.00000 
 43692.65567		 525.81365			43166.84203		190.97400		875.00000 
 43692.65567		 261.35540			43431.30027		66.22000		324.00000 
 43692.65567		 261.35540			43431.30027		190.97400		875.00000 
 43692.65567		 261.35540			43431.30027		66.22000		324.00000 
