Memory Total (MiB) 	 Memory Used (MiB) 	    Memory Free (MiB) 	 Power Drawed (W) 	 Clocks (Mhz) 	 
 43692.65567		 261.35540			43431.30027		175.75400		875.00000 
 43692.65567		 261.35540			43431.30027		68.70800		324.00000 
 43692.65567		 261.35540			43431.30027		175.75400		875.00000 
 43692.65567		 261.35540			43431.30027		68.70800		324.00000 
 43692.65567		 261.35540			43431.30027		175.75400		875.00000 
 43692.65567		 261.35540			43431.30027		68.70800		324.00000 
 43692.65567		 261.35540			43431.30027		175.75400		875.00000 
 43692.65567		 261.35540			43431.30027		68.70800		324.00000 
 43692.65567		 261.35540			43431.30027		175.75400		875.00000 
 43692.65567		 261.35540			43431.30027		68.70800		324.00000 
 43692.65567		 261.35540			43431.30027		175.75400		875.00000 
 43692.65567		 261.35540			43431.30027		68.70800		324.00000 
 43692.65567		 261.35540			43431.30027		175.75400		875.00000 
 43692.65567		 261.35540			43431.30027		68.70800		324.00000 
 43692.65567		 261.35540			43431.30027		175.75400		875.00000 
 43692.65567		 261.35540			43431.30027		68.70800		324.00000 
 43692.65567		 261.35540			43431.30027		175.75400		875.00000 
 43692.65567		 261.35540			43431.30027		68.70800		324.00000 
 43692.65567		 261.35540			43431.30027		175.75400		875.00000 
 43692.65567		 261.35540			43431.30027		68.70800		324.00000 
 43692.65567		 261.35540			43431.30027		175.75400		875.00000 
 43692.65567		 261.35540			43431.30027		68.70800		324.00000 
 43692.65567		 261.35540			43431.30027		175.75400		875.00000 
 43692.65567		 261.35540			43431.30027		68.70800		324.00000 
 43692.65567		 261.35540			43431.30027		175.75400		875.00000 
 43692.65567		 261.35540			43431.30027		68.70800		324.00000 
 43692.65567		 261.35540			43431.30027		175.75400		875.00000 
 43692.65567		 261.35540			43431.30027		68.70800		324.00000 
 43692.65567		 261.35540			43431.30027		175.75400		875.00000 
 43692.65567		 261.35540			43431.30027		68.70800		324.00000 
 43692.65567		 261.35540			43431.30027		175.75400		875.00000 
 43692.65567		 261.35540			43431.30027		68.70800		324.00000 
 43692.65567		 261.35540			43431.30027		175.75400		875.00000 
 43692.65567		 261.35540			43431.30027		68.70800		324.00000 
 43692.65567		 261.35540			43431.30027		175.75400		875.00000 
 43692.65567		 261.35540			43431.30027		68.70800		324.00000 
 43692.65567		 265.17429			43427.48138		175.75400		875.00000 
 43692.65567		 261.35540			43431.30027		68.70800		324.00000 
 43692.65567		 265.17429			43427.48138		175.75400		875.00000 
 43692.65567		 261.35540			43431.30027		68.70800		324.00000 
 43692.65567		 272.81207			43419.84360		175.75400		875.00000 
 43692.65567		 261.35540			43431.30027		68.70800		324.00000 
 43692.65567		 272.81207			43419.84360		175.75400		875.00000 
 43692.65567		 261.35540			43431.30027		68.70800		324.00000 
 43692.65567		 272.81207			43419.84360		175.75400		875.00000 
 43692.65567		 265.17429			43427.48138		68.70800		324.00000 
 43692.65567		 272.81207			43419.84360		175.75400		875.00000 
 43692.65567		 265.17429			43427.48138		68.70800		324.00000 
 43692.65567		 272.81207			43419.84360		175.75400		875.00000 
 43692.65567		 272.81207			43419.84360		68.70800		324.00000 
 43692.65567		 272.81207			43419.84360		175.75400		875.00000 
 43692.65567		 272.81207			43419.84360		68.70800		324.00000 
 43692.65567		 272.81207			43419.84360		175.75400		875.00000 
 43692.65567		 272.81207			43419.84360		68.70800		324.00000 
 43692.65567		 272.81207			43419.84360		175.75400		875.00000 
 43692.65567		 305.27265			43387.38302		68.70800		324.00000 
 43692.65567		 305.27265			43387.38302		175.75400		875.00000 
 43692.65567		 305.27265			43387.38302		68.70800		324.00000 
 43692.65567		 305.27265			43387.38302		175.75400		875.00000 
 43692.65567		 305.27265			43387.38302		68.70800		324.00000 
 43692.65567		 305.27265			43387.38302		175.75400		875.00000 
 43692.65567		 305.27265			43387.38302		68.70800		324.00000 
 43692.65567		 305.27265			43387.38302		175.75400		875.00000 
 43692.65567		 305.27265			43387.38302		68.70800		324.00000 
 43692.65567		 305.27265			43387.38302		148.09800		875.00000 
 43692.65567		 305.27265			43387.38302		68.70800		324.00000 
 43692.65567		 309.56891			43383.08677		148.09800		875.00000 
 43692.65567		 305.27265			43387.38302		68.70800		324.00000 
 43692.65567		 311.00099			43381.65468		148.09800		875.00000 
 43692.65567		 305.27265			43387.38302		68.70800		324.00000 
 43692.65567		 311.00099			43381.65468		148.09800		875.00000 
 43692.65567		 305.27265			43387.38302		68.70800		324.00000 
 43692.65567		 311.00099			43381.65468		148.09800		875.00000 
 43692.65567		 305.27265			43387.38302		68.70800		324.00000 
 43692.65567		 311.00099			43381.65468		148.09800		875.00000 
 43692.65567		 305.27265			43387.38302		68.70800		324.00000 
 43692.65567		 311.00099			43381.65468		148.09800		875.00000 
 43692.65567		 305.27265			43387.38302		68.70800		324.00000 
 43692.65567		 311.00099			43381.65468		148.09800		875.00000 
 43692.65567		 305.27265			43387.38302		68.70800		324.00000 
 43692.65567		 311.00099			43381.65468		148.09800		875.00000 
 43692.65567		 305.27265			43387.38302		68.70800		324.00000 
 43692.65567		 311.00099			43381.65468		148.09800		875.00000 
 43692.65567		 305.27265			43387.38302		68.70800		324.00000 
 43692.65567		 311.00099			43381.65468		148.09800		875.00000 
 43692.65567		 305.27265			43387.38302		68.70800		324.00000 
 43692.65567		 311.00099			43381.65468		148.09800		875.00000 
 43692.65567		 305.27265			43387.38302		68.70800		324.00000 
 43692.65567		 311.00099			43381.65468		148.09800		875.00000 
 43692.65567		 305.27265			43387.38302		68.70800		324.00000 
 43692.65567		 311.00099			43381.65468		148.09800		875.00000 
 43692.65567		 305.27265			43387.38302		68.70800		324.00000 
 43692.65567		 311.00099			43381.65468		148.09800		875.00000 
 43692.65567		 305.27265			43387.38302		68.70800		324.00000 
 43692.65567		 311.00099			43381.65468		148.09800		875.00000 
 43692.65567		 305.27265			43387.38302		68.70800		324.00000 
 43692.65567		 311.00099			43381.65468		148.09800		875.00000 
 43692.65567		 305.27265			43387.38302		68.70800		324.00000 
 43692.65567		 311.00099			43381.65468		148.09800		875.00000 
 43692.65567		 305.27265			43387.38302		68.70800		324.00000 
 43692.65567		 311.00099			43381.65468		148.09800		875.00000 
 43692.65567		 305.27265			43387.38302		68.70800		324.00000 
 43692.65567		 311.00099			43381.65468		148.09800		875.00000 
 43692.65567		 305.27265			43387.38302		68.70800		324.00000 
 43692.65567		 311.00099			43381.65468		148.09800		875.00000 
 43692.65567		 305.27265			43387.38302		68.70800		324.00000 
 43692.65567		 311.00099			43381.65468		148.09800		875.00000 
 43692.65567		 305.27265			43387.38302		68.70800		324.00000 
 43692.65567		 311.00099			43381.65468		148.09800		875.00000 
 43692.65567		 305.27265			43387.38302		68.70800		324.00000 
 43692.65567		 311.00099			43381.65468		148.09800		875.00000 
 43692.65567		 305.27265			43387.38302		68.70800		324.00000 
 43692.65567		 311.00099			43381.65468		148.09800		875.00000 
 43692.65567		 305.27265			43387.38302		68.70800		324.00000 
 43692.65567		 311.00099			43381.65468		148.09800		875.00000 
 43692.65567		 305.27265			43387.38302		68.70800		324.00000 
 43692.65567		 311.00099			43381.65468		148.09800		875.00000 
 43692.65567		 305.27265			43387.38302		68.70800		324.00000 
 43692.65567		 311.00099			43381.65468		148.09800		875.00000 
 43692.65567		 305.27265			43387.38302		68.70800		324.00000 
 43692.65567		 311.00099			43381.65468		148.09800		875.00000 
 43692.65567		 305.27265			43387.38302		68.70800		324.00000 
 43692.65567		 311.00099			43381.65468		148.09800		875.00000 
 43692.65567		 305.27265			43387.38302		68.70800		324.00000 
 43692.65567		 311.00099			43381.65468		148.09800		875.00000 
 43692.65567		 305.27265			43387.38302		68.70800		324.00000 
 43692.65567		 311.00099			43381.65468		148.09800		875.00000 
 43692.65567		 305.27265			43387.38302		68.70800		324.00000 
 43692.65567		 311.00099			43381.65468		138.09000		875.00000 
 43692.65567		 305.27265			43387.38302		68.70800		324.00000 
 43692.65567		 311.00099			43381.65468		138.09000		875.00000 
 43692.65567		 305.27265			43387.38302		68.70800		324.00000 
 43692.65567		 311.00099			43381.65468		138.09000		875.00000 
 43692.65567		 305.27265			43387.38302		68.70800		324.00000 
 43692.65567		 311.00099			43381.65468		138.09000		875.00000 
 43692.65567		 305.27265			43387.38302		68.70800		324.00000 
 43692.65567		 311.00099			43381.65468		138.09000		875.00000 
 43692.65567		 305.27265			43387.38302		68.70800		324.00000 
 43692.65567		 311.00099			43381.65468		138.09000		875.00000 
 43692.65567		 305.27265			43387.38302		68.70800		324.00000 
 43692.65567		 311.00099			43381.65468		138.09000		875.00000 
 43692.65567		 305.27265			43387.38302		68.70800		324.00000 
 43692.65567		 311.00099			43381.65468		138.09000		875.00000 
 43692.65567		 305.27265			43387.38302		68.70800		324.00000 
 43692.65567		 311.00099			43381.65468		138.09000		875.00000 
 43692.65567		 305.27265			43387.38302		68.70800		324.00000 
 43692.65567		 311.00099			43381.65468		138.09000		875.00000 
 43692.65567		 305.27265			43387.38302		68.70800		324.00000 
 43692.65567		 311.00099			43381.65468		138.09000		875.00000 
 43692.65567		 305.27265			43387.38302		68.70800		324.00000 
 43692.65567		 311.00099			43381.65468		138.09000		875.00000 
 43692.65567		 305.27265			43387.38302		68.70800		324.00000 
 43692.65567		 311.00099			43381.65468		138.09000		875.00000 
 43692.65567		 305.27265			43387.38302		68.70800		324.00000 
 43692.65567		 311.00099			43381.65468		138.09000		875.00000 
 43692.65567		 305.27265			43387.38302		68.70800		324.00000 
 43692.65567		 311.00099			43381.65468		138.09000		875.00000 
 43692.65567		 305.27265			43387.38302		68.70800		324.00000 
 43692.65567		 311.00099			43381.65468		138.09000		875.00000 
 43692.65567		 305.27265			43387.38302		68.70800		324.00000 
 43692.65567		 311.00099			43381.65468		138.09000		875.00000 
 43692.65567		 305.27265			43387.38302		68.70800		324.00000 
 43692.65567		 311.00099			43381.65468		138.09000		875.00000 
 43692.65567		 305.27265			43387.38302		68.70800		324.00000 
 43692.65567		 311.00099			43381.65468		138.09000		875.00000 
 43692.65567		 305.27265			43387.38302		68.70800		324.00000 
 43692.65567		 311.00099			43381.65468		138.09000		875.00000 
 43692.65567		 305.27265			43387.38302		68.70800		324.00000 
 43692.65567		 311.00099			43381.65468		138.09000		875.00000 
 43692.65567		 305.27265			43387.38302		68.70800		324.00000 
 43692.65567		 314.81988			43377.83579		138.09000		875.00000 
 43692.65567		 305.27265			43387.38302		68.70800		324.00000 
 43692.65567		 314.81988			43377.83579		138.09000		875.00000 
 43692.65567		 305.27265			43387.38302		68.70800		324.00000 
 43692.65567		 314.81988			43377.83579		138.09000		875.00000 
 43692.65567		 305.27265			43387.38302		68.70800		324.00000 
 43692.65567		 318.63877			43374.01690		138.09000		875.00000 
 43692.65567		 305.27265			43387.38302		68.70800		324.00000 
 43692.65567		 322.45767			43370.19801		138.09000		875.00000 
 43692.65567		 305.27265			43387.38302		68.70800		324.00000 
 43692.65567		 326.27656			43366.37912		138.09000		875.00000 
 43692.65567		 305.27265			43387.38302		68.70800		324.00000 
 43692.65567		 326.27656			43366.37912		138.09000		875.00000 
 43692.65567		 305.27265			43387.38302		68.70800		324.00000 
 43692.65567		 326.27656			43366.37912		138.09000		875.00000 
 43692.65567		 305.27265			43387.38302		68.70800		324.00000 
 43692.65567		 537.27032			43155.38535		138.09000		875.00000 
 43692.65567		 305.27265			43387.38302		68.70800		324.00000 
 43692.65567		 636.56151			43056.09417		138.09000		875.00000 
 43692.65567		 305.27265			43387.38302		68.70800		324.00000 
 43692.65567		 686.20710			43006.44858		138.09000		875.00000 
 43692.65567		 305.27265			43387.38302		68.70800		324.00000 
 43692.65567		 686.20710			43006.44858		138.09000		875.00000 
 43692.65567		 305.27265			43387.38302		68.70800		324.00000 
 43692.65567		 686.20710			43006.44858		138.09000		875.00000 
 43692.65567		 305.27265			43387.38302		68.70800		324.00000 
 43692.65567		 686.20710			43006.44858		138.09000		875.00000 
 43692.65567		 305.27265			43387.38302		68.70800		324.00000 
 43692.65567		 686.20710			43006.44858		140.09600		875.00000 
 43692.65567		 305.27265			43387.38302		68.70800		324.00000 
 43692.65567		 686.20710			43006.44858		140.09600		875.00000 
 43692.65567		 305.27265			43387.38302		68.70800		324.00000 
 43692.65567		 686.20710			43006.44858		140.09600		875.00000 
 43692.65567		 305.27265			43387.38302		68.70800		324.00000 
 43692.65567		 686.20710			43006.44858		140.09600		875.00000 
 43692.65567		 305.27265			43387.38302		68.70800		324.00000 
 43692.65567		 686.20710			43006.44858		140.09600		875.00000 
 43692.65567		 305.27265			43387.38302		68.70800		324.00000 
 43692.65567		 686.20710			43006.44858		140.09600		875.00000 
 43692.65567		 305.27265			43387.38302		68.70800		324.00000 
 43692.65567		 686.20710			43006.44858		140.09600		875.00000 
 43692.65567		 305.27265			43387.38302		68.70800		324.00000 
 43692.65567		 686.20710			43006.44858		140.09600		875.00000 
 43692.65567		 305.27265			43387.38302		68.70800		324.00000 
 43692.65567		 686.20710			43006.44858		140.09600		875.00000 
 43692.65567		 305.27265			43387.38302		68.70800		324.00000 
 43692.65567		 686.20710			43006.44858		140.09600		875.00000 
 43692.65567		 305.27265			43387.38302		68.70800		324.00000 
 43692.65567		 686.20710			43006.44858		140.09600		875.00000 
 43692.65567		 305.27265			43387.38302		68.70800		324.00000 
 43692.65567		 686.20710			43006.44858		140.09600		875.00000 
 43692.65567		 305.27265			43387.38302		68.70800		324.00000 
 43692.65567		 686.20710			43006.44858		140.09600		875.00000 
 43692.65567		 305.27265			43387.38302		68.70800		324.00000 
 43692.65567		 686.20710			43006.44858		140.09600		875.00000 
 43692.65567		 305.27265			43387.38302		68.70800		324.00000 
 43692.65567		 686.20710			43006.44858		140.09600		875.00000 
 43692.65567		 305.27265			43387.38302		68.70800		324.00000 
 43692.65567		 686.20710			43006.44858		140.09600		875.00000 
 43692.65567		 305.27265			43387.38302		68.70800		324.00000 
 43692.65567		 686.20710			43006.44858		140.09600		875.00000 
 43692.65567		 305.27265			43387.38302		68.70800		324.00000 
 43692.65567		 686.20710			43006.44858		140.09600		875.00000 
 43692.65567		 305.27265			43387.38302		68.70800		324.00000 
 43692.65567		 686.20710			43006.44858		140.09600		875.00000 
 43692.65567		 305.27265			43387.38302		68.70800		324.00000 
 43692.65567		 686.20710			43006.44858		140.09600		875.00000 
 43692.65567		 305.27265			43387.38302		68.70800		324.00000 
 43692.65567		 686.20710			43006.44858		140.09600		875.00000 
 43692.65567		 305.27265			43387.38302		68.70800		324.00000 
 43692.65567		 686.20710			43006.44858		140.09600		875.00000 
 43692.65567		 305.27265			43387.38302		68.70800		324.00000 
 43692.65567		 686.20710			43006.44858		140.09600		875.00000 
 43692.65567		 305.27265			43387.38302		68.70800		324.00000 
 43692.65567		 686.20710			43006.44858		140.09600		875.00000 
 43692.65567		 305.27265			43387.38302		68.70800		324.00000 
 43692.65567		 686.20710			43006.44858		140.09600		875.00000 
 43692.65567		 305.27265			43387.38302		68.70800		324.00000 
 43692.65567		 686.20710			43006.44858		140.09600		875.00000 
 43692.65567		 305.27265			43387.38302		68.70800		324.00000 
 43692.65567		 686.20710			43006.44858		140.09600		875.00000 
 43692.65567		 305.27265			43387.38302		68.70800		324.00000 
 43692.65567		 686.20710			43006.44858		140.09600		875.00000 
 43692.65567		 305.27265			43387.38302		68.70800		324.00000 
 43692.65567		 686.20710			43006.44858		140.09600		875.00000 
 43692.65567		 305.27265			43387.38302		68.70800		324.00000 
 43692.65567		 686.20710			43006.44858		140.09600		875.00000 
 43692.65567		 305.27265			43387.38302		68.70800		324.00000 
 43692.65567		 686.20710			43006.44858		140.09600		875.00000 
 43692.65567		 305.27265			43387.38302		68.70800		324.00000 
 43692.65567		 686.20710			43006.44858		140.09600		875.00000 
 43692.65567		 305.27265			43387.38302		68.70800		324.00000 
 43692.65567		 686.20710			43006.44858		140.09600		875.00000 
 43692.65567		 305.27265			43387.38302		68.70800		324.00000 
 43692.65567		 686.20710			43006.44858		140.09600		875.00000 
 43692.65567		 305.27265			43387.38302		68.70800		324.00000 
 43692.65567		 686.20710			43006.44858		140.09600		875.00000 
 43692.65567		 305.27265			43387.38302		68.70800		324.00000 
 43692.65567		 686.20710			43006.44858		140.09600		875.00000 
 43692.65567		 305.27265			43387.38302		68.70800		324.00000 
 43692.65567		 686.20710			43006.44858		140.09600		875.00000 
 43692.65567		 305.27265			43387.38302		68.70800		324.00000 
 43692.65567		 686.20710			43006.44858		140.09600		875.00000 
 43692.65567		 305.27265			43387.38302		68.70800		324.00000 
 43692.65567		 686.20710			43006.44858		140.09600		875.00000 
 43692.65567		 305.27265			43387.38302		68.70800		324.00000 
 43692.65567		 686.20710			43006.44858		140.09600		875.00000 
 43692.65567		 305.27265			43387.38302		68.70800		324.00000 
 43692.65567		 686.20710			43006.44858		140.09600		875.00000 
 43692.65567		 305.27265			43387.38302		68.70800		324.00000 
 43692.65567		 686.20710			43006.44858		140.09600		875.00000 
 43692.65567		 305.27265			43387.38302		68.70800		324.00000 
 43692.65567		 686.20710			43006.44858		140.09600		875.00000 
 43692.65567		 305.27265			43387.38302		68.70800		324.00000 
 43692.65567		 686.20710			43006.44858		140.09600		875.00000 
 43692.65567		 305.27265			43387.38302		68.70800		324.00000 
 43692.65567		 686.20710			43006.44858		140.09600		875.00000 
 43692.65567		 305.27265			43387.38302		68.70800		324.00000 
 43692.65567		 686.20710			43006.44858		140.09600		875.00000 
 43692.65567		 305.27265			43387.38302		68.70800		324.00000 
 43692.65567		 686.20710			43006.44858		140.09600		875.00000 
 43692.65567		 305.27265			43387.38302		68.70800		324.00000 
 43692.65567		 686.20710			43006.44858		140.09600		875.00000 
 43692.65567		 305.27265			43387.38302		68.70800		324.00000 
 43692.65567		 686.20710			43006.44858		140.09600		875.00000 
 43692.65567		 305.27265			43387.38302		68.70800		324.00000 
 43692.65567		 686.20710			43006.44858		140.09600		875.00000 
 43692.65567		 305.27265			43387.38302		68.70800		324.00000 
 43692.65567		 686.20710			43006.44858		140.09600		875.00000 
 43692.65567		 305.27265			43387.38302		68.70800		324.00000 
 43692.65567		 686.20710			43006.44858		140.09600		875.00000 
 43692.65567		 305.27265			43387.38302		68.70800		324.00000 
 43692.65567		 686.20710			43006.44858		140.09600		875.00000 
 43692.65567		 305.27265			43387.38302		68.70800		324.00000 
 43692.65567		 686.20710			43006.44858		140.09600		875.00000 
 43692.65567		 305.27265			43387.38302		68.70800		324.00000 
 43692.65567		 686.20710			43006.44858		140.09600		875.00000 
 43692.65567		 305.27265			43387.38302		68.70800		324.00000 
 43692.65567		 686.20710			43006.44858		140.09600		875.00000 
 43692.65567		 305.27265			43387.38302		68.70800		324.00000 
 43692.65567		 686.20710			43006.44858		140.09600		875.00000 
 43692.65567		 305.27265			43387.38302		68.70800		324.00000 
 43692.65567		 686.20710			43006.44858		140.09600		875.00000 
 43692.65567		 305.27265			43387.38302		68.70800		324.00000 
 43692.65567		 686.20710			43006.44858		140.09600		875.00000 
 43692.65567		 305.27265			43387.38302		68.70800		324.00000 
 43692.65567		 686.20710			43006.44858		140.09600		875.00000 
 43692.65567		 305.27265			43387.38302		68.70800		324.00000 
 43692.65567		 686.20710			43006.44858		140.09600		875.00000 
 43692.65567		 305.27265			43387.38302		68.70800		324.00000 
 43692.65567		 686.20710			43006.44858		140.09600		875.00000 
 43692.65567		 305.27265			43387.38302		68.70800		324.00000 
 43692.65567		 686.20710			43006.44858		140.09600		875.00000 
 43692.65567		 305.27265			43387.38302		68.70800		324.00000 
 43692.65567		 686.20710			43006.44858		140.09600		875.00000 
 43692.65567		 305.27265			43387.38302		68.70800		324.00000 
 43692.65567		 686.20710			43006.44858		190.19800		875.00000 
 43692.65567		 305.27265			43387.38302		68.70800		324.00000 
 43692.65567		 686.20710			43006.44858		190.19800		875.00000 
 43692.65567		 305.27265			43387.38302		68.70800		324.00000 
 43692.65567		 686.20710			43006.44858		190.19800		875.00000 
 43692.65567		 305.27265			43387.38302		68.70800		324.00000 
 43692.65567		 686.20710			43006.44858		190.19800		875.00000 
 43692.65567		 305.27265			43387.38302		68.70800		324.00000 
 43692.65567		 686.20710			43006.44858		190.19800		875.00000 
 43692.65567		 305.27265			43387.38302		68.70800		324.00000 
 43692.65567		 686.20710			43006.44858		190.19800		875.00000 
 43692.65567		 305.27265			43387.38302		68.70800		324.00000 
 43692.65567		 686.20710			43006.44858		190.19800		875.00000 
 43692.65567		 305.27265			43387.38302		68.70800		324.00000 
 43692.65567		 686.20710			43006.44858		190.19800		875.00000 
 43692.65567		 305.27265			43387.38302		68.70800		324.00000 
 43692.65567		 686.20710			43006.44858		190.19800		875.00000 
 43692.65567		 305.27265			43387.38302		68.70800		324.00000 
 43692.65567		 686.20710			43006.44858		190.19800		875.00000 
 43692.65567		 305.27265			43387.38302		68.70800		324.00000 
 43692.65567		 686.20710			43006.44858		190.19800		875.00000 
 43692.65567		 305.27265			43387.38302		68.70800		324.00000 
 43692.65567		 686.20710			43006.44858		190.19800		875.00000 
 43692.65567		 305.27265			43387.38302		68.70800		324.00000 
 43692.65567		 686.20710			43006.44858		190.19800		875.00000 
 43692.65567		 305.27265			43387.38302		68.70800		324.00000 
 43692.65567		 686.20710			43006.44858		190.19800		875.00000 
 43692.65567		 305.27265			43387.38302		68.70800		324.00000 
 43692.65567		 686.20710			43006.44858		190.19800		875.00000 
 43692.65567		 305.27265			43387.38302		68.70800		324.00000 
 43692.65567		 686.20710			43006.44858		190.19800		875.00000 
 43692.65567		 305.27265			43387.38302		68.70800		324.00000 
 43692.65567		 686.20710			43006.44858		190.19800		875.00000 
 43692.65567		 305.27265			43387.38302		68.70800		324.00000 
 43692.65567		 686.20710			43006.44858		190.19800		875.00000 
 43692.65567		 305.27265			43387.38302		68.70800		324.00000 
 43692.65567		 686.20710			43006.44858		190.19800		875.00000 
 43692.65567		 305.27265			43387.38302		68.70800		324.00000 
 43692.65567		 686.20710			43006.44858		190.19800		875.00000 
 43692.65567		 305.27265			43387.38302		68.70800		324.00000 
 43692.65567		 686.20710			43006.44858		190.19800		875.00000 
 43692.65567		 305.27265			43387.38302		68.70800		324.00000 
 43692.65567		 686.20710			43006.44858		190.19800		875.00000 
 43692.65567		 305.27265			43387.38302		68.70800		324.00000 
 43692.65567		 686.20710			43006.44858		190.19800		875.00000 
 43692.65567		 305.27265			43387.38302		68.70800		324.00000 
 43692.65567		 686.20710			43006.44858		190.19800		875.00000 
 43692.65567		 305.27265			43387.38302		68.70800		324.00000 
 43692.65567		 686.20710			43006.44858		190.19800		875.00000 
 43692.65567		 305.27265			43387.38302		68.70800		324.00000 
 43692.65567		 686.20710			43006.44858		190.19800		875.00000 
 43692.65567		 305.27265			43387.38302		68.70800		324.00000 
 43692.65567		 686.20710			43006.44858		190.19800		875.00000 
 43692.65567		 305.27265			43387.38302		68.70800		324.00000 
 43692.65567		 686.20710			43006.44858		190.19800		875.00000 
 43692.65567		 305.27265			43387.38302		68.70800		324.00000 
 43692.65567		 686.20710			43006.44858		190.19800		875.00000 
 43692.65567		 305.27265			43387.38302		68.70800		324.00000 
 43692.65567		 686.20710			43006.44858		190.19800		875.00000 
 43692.65567		 305.27265			43387.38302		68.70800		324.00000 
 43692.65567		 686.20710			43006.44858		190.19800		875.00000 
 43692.65567		 305.27265			43387.38302		68.70800		324.00000 
 43692.65567		 686.20710			43006.44858		190.19800		875.00000 
 43692.65567		 305.27265			43387.38302		68.70800		324.00000 
 43692.65567		 686.20710			43006.44858		190.19800		875.00000 
 43692.65567		 305.27265			43387.38302		68.70800		324.00000 
 43692.65567		 686.20710			43006.44858		190.19800		875.00000 
 43692.65567		 305.27265			43387.38302		68.70800		324.00000 
 43692.65567		 686.20710			43006.44858		190.19800		875.00000 
 43692.65567		 305.27265			43387.38302		68.70800		324.00000 
 43692.65567		 686.20710			43006.44858		190.19800		875.00000 
 43692.65567		 305.27265			43387.38302		68.70800		324.00000 
 43692.65567		 686.20710			43006.44858		190.19800		875.00000 
 43692.65567		 305.27265			43387.38302		68.70800		324.00000 
 43692.65567		 686.20710			43006.44858		190.19800		875.00000 
 43692.65567		 305.27265			43387.38302		68.70800		324.00000 
 43692.65567		 686.20710			43006.44858		190.19800		875.00000 
 43692.65567		 305.27265			43387.38302		68.70800		324.00000 
 43692.65567		 686.20710			43006.44858		190.19800		875.00000 
 43692.65567		 305.27265			43387.38302		68.70800		324.00000 
 43692.65567		 686.20710			43006.44858		190.19800		875.00000 
 43692.65567		 305.27265			43387.38302		68.70800		324.00000 
 43692.65567		 686.20710			43006.44858		190.19800		875.00000 
 43692.65567		 305.27265			43387.38302		68.70800		324.00000 
 43692.65567		 686.20710			43006.44858		190.19800		875.00000 
 43692.65567		 305.27265			43387.38302		68.70800		324.00000 
 43692.65567		 686.20710			43006.44858		190.19800		875.00000 
 43692.65567		 305.27265			43387.38302		68.70800		324.00000 
 43692.65567		 686.20710			43006.44858		190.19800		875.00000 
 43692.65567		 305.27265			43387.38302		68.70800		324.00000 
 43692.65567		 686.20710			43006.44858		190.19800		875.00000 
 43692.65567		 305.27265			43387.38302		68.70800		324.00000 
 43692.65567		 686.20710			43006.44858		190.19800		875.00000 
 43692.65567		 305.27265			43387.38302		68.70800		324.00000 
 43692.65567		 686.20710			43006.44858		190.19800		875.00000 
 43692.65567		 305.27265			43387.38302		68.70800		324.00000 
 43692.65567		 686.20710			43006.44858		190.19800		875.00000 
 43692.65567		 305.27265			43387.38302		68.70800		324.00000 
 43692.65567		 686.20710			43006.44858		190.19800		875.00000 
 43692.65567		 305.27265			43387.38302		68.70800		324.00000 
 43692.65567		 686.20710			43006.44858		190.19800		875.00000 
 43692.65567		 305.27265			43387.38302		68.70800		324.00000 
 43692.65567		 686.20710			43006.44858		190.19800		875.00000 
 43692.65567		 305.27265			43387.38302		68.70800		324.00000 
 43692.65567		 686.20710			43006.44858		190.19800		875.00000 
 43692.65567		 305.27265			43387.38302		68.70800		324.00000 
 43692.65567		 686.20710			43006.44858		190.19800		875.00000 
 43692.65567		 305.27265			43387.38302		68.70800		324.00000 
 43692.65567		 686.20710			43006.44858		190.19800		875.00000 
 43692.65567		 305.27265			43387.38302		68.70800		324.00000 
 43692.65567		 686.20710			43006.44858		190.19800		875.00000 
 43692.65567		 305.27265			43387.38302		68.70800		324.00000 
 43692.65567		 686.20710			43006.44858		190.19800		875.00000 
 43692.65567		 305.27265			43387.38302		68.70800		324.00000 
 43692.65567		 686.20710			43006.44858		190.19800		875.00000 
 43692.65567		 305.27265			43387.38302		68.70800		324.00000 
 43692.65567		 686.20710			43006.44858		190.19800		875.00000 
 43692.65567		 305.27265			43387.38302		68.70800		324.00000 
 43692.65567		 686.20710			43006.44858		190.19800		875.00000 
 43692.65567		 305.27265			43387.38302		68.70800		324.00000 
 43692.65567		 686.20710			43006.44858		190.19800		875.00000 
 43692.65567		 305.27265			43387.38302		68.70800		324.00000 
 43692.65567		 686.20710			43006.44858		190.19800		875.00000 
 43692.65567		 305.27265			43387.38302		68.70800		324.00000 
 43692.65567		 686.20710			43006.44858		190.19800		875.00000 
 43692.65567		 305.27265			43387.38302		68.70800		324.00000 
 43692.65567		 686.20710			43006.44858		190.19800		875.00000 
 43692.65567		 305.27265			43387.38302		68.70800		324.00000 
 43692.65567		 686.20710			43006.44858		209.00000		875.00000 
 43692.65567		 305.27265			43387.38302		68.70800		324.00000 
 43692.65567		 686.20710			43006.44858		209.00000		875.00000 
 43692.65567		 305.27265			43387.38302		68.70800		324.00000 
 43692.65567		 686.20710			43006.44858		209.00000		875.00000 
 43692.65567		 305.27265			43387.38302		68.70800		324.00000 
 43692.65567		 686.20710			43006.44858		209.00000		875.00000 
 43692.65567		 305.27265			43387.38302		68.70800		324.00000 
 43692.65567		 686.20710			43006.44858		209.00000		875.00000 
 43692.65567		 305.27265			43387.38302		68.70800		324.00000 
 43692.65567		 686.20710			43006.44858		209.00000		875.00000 
 43692.65567		 305.27265			43387.38302		68.70800		324.00000 
 43692.65567		 686.20710			43006.44858		209.00000		875.00000 
 43692.65567		 305.27265			43387.38302		68.70800		324.00000 
 43692.65567		 686.20710			43006.44858		209.00000		875.00000 
 43692.65567		 305.27265			43387.38302		68.70800		324.00000 
 43692.65567		 686.20710			43006.44858		209.00000		875.00000 
 43692.65567		 305.27265			43387.38302		68.70800		324.00000 
 43692.65567		 686.20710			43006.44858		209.00000		875.00000 
 43692.65567		 305.27265			43387.38302		68.70800		324.00000 
 43692.65567		 686.20710			43006.44858		209.00000		875.00000 
 43692.65567		 305.27265			43387.38302		68.70800		324.00000 
 43692.65567		 686.20710			43006.44858		209.00000		875.00000 
 43692.65567		 305.27265			43387.38302		68.70800		324.00000 
 43692.65567		 686.20710			43006.44858		209.00000		875.00000 
 43692.65567		 305.27265			43387.38302		68.70800		324.00000 
 43692.65567		 686.20710			43006.44858		209.00000		875.00000 
 43692.65567		 305.27265			43387.38302		68.70800		324.00000 
 43692.65567		 686.20710			43006.44858		209.00000		875.00000 
 43692.65567		 305.27265			43387.38302		68.70800		324.00000 
 43692.65567		 686.20710			43006.44858		209.00000		875.00000 
 43692.65567		 305.27265			43387.38302		68.70800		324.00000 
 43692.65567		 686.20710			43006.44858		209.00000		875.00000 
 43692.65567		 305.27265			43387.38302		68.70800		324.00000 
 43692.65567		 686.20710			43006.44858		209.00000		875.00000 
 43692.65567		 305.27265			43387.38302		68.70800		324.00000 
 43692.65567		 686.20710			43006.44858		209.00000		875.00000 
 43692.65567		 305.27265			43387.38302		68.70800		324.00000 
 43692.65567		 686.20710			43006.44858		209.00000		875.00000 
 43692.65567		 305.27265			43387.38302		68.70800		324.00000 
 43692.65567		 686.20710			43006.44858		209.00000		875.00000 
 43692.65567		 305.27265			43387.38302		68.70800		324.00000 
 43692.65567		 686.20710			43006.44858		209.00000		875.00000 
 43692.65567		 305.27265			43387.38302		68.70800		324.00000 
 43692.65567		 686.20710			43006.44858		209.00000		875.00000 
 43692.65567		 305.27265			43387.38302		68.70800		324.00000 
 43692.65567		 686.20710			43006.44858		209.00000		875.00000 
 43692.65567		 305.27265			43387.38302		68.70800		324.00000 
 43692.65567		 686.20710			43006.44858		209.00000		875.00000 
 43692.65567		 305.27265			43387.38302		68.70800		324.00000 
 43692.65567		 686.20710			43006.44858		209.00000		875.00000 
 43692.65567		 305.27265			43387.38302		68.70800		324.00000 
 43692.65567		 686.20710			43006.44858		209.00000		875.00000 
 43692.65567		 305.27265			43387.38302		68.70800		324.00000 
 43692.65567		 686.20710			43006.44858		209.00000		875.00000 
 43692.65567		 305.27265			43387.38302		68.70800		324.00000 
 43692.65567		 686.20710			43006.44858		209.00000		875.00000 
 43692.65567		 305.27265			43387.38302		68.70800		324.00000 
 43692.65567		 686.20710			43006.44858		209.00000		875.00000 
 43692.65567		 305.27265			43387.38302		68.70800		324.00000 
 43692.65567		 686.20710			43006.44858		209.00000		875.00000 
 43692.65567		 305.27265			43387.38302		68.70800		324.00000 
 43692.65567		 686.20710			43006.44858		209.00000		875.00000 
 43692.65567		 305.27265			43387.38302		68.70800		324.00000 
 43692.65567		 686.20710			43006.44858		209.00000		875.00000 
 43692.65567		 305.27265			43387.38302		68.70800		324.00000 
 43692.65567		 686.20710			43006.44858		209.00000		875.00000 
 43692.65567		 305.27265			43387.38302		68.70800		324.00000 
 43692.65567		 686.20710			43006.44858		209.00000		875.00000 
 43692.65567		 305.27265			43387.38302		68.70800		324.00000 
 43692.65567		 686.20710			43006.44858		209.00000		875.00000 
 43692.65567		 305.27265			43387.38302		68.70800		324.00000 
 43692.65567		 686.20710			43006.44858		209.00000		875.00000 
 43692.65567		 305.27265			43387.38302		68.70800		324.00000 
 43692.65567		 686.20710			43006.44858		209.00000		875.00000 
 43692.65567		 305.27265			43387.38302		68.70800		324.00000 
 43692.65567		 686.20710			43006.44858		209.00000		875.00000 
 43692.65567		 305.27265			43387.38302		68.70800		324.00000 
 43692.65567		 686.20710			43006.44858		209.00000		875.00000 
 43692.65567		 305.27265			43387.38302		68.70800		324.00000 
 43692.65567		 686.20710			43006.44858		209.00000		875.00000 
 43692.65567		 305.27265			43387.38302		68.70800		324.00000 
 43692.65567		 686.20710			43006.44858		209.00000		875.00000 
 43692.65567		 305.27265			43387.38302		68.70800		324.00000 
 43692.65567		 686.20710			43006.44858		209.00000		875.00000 
 43692.65567		 305.27265			43387.38302		68.70800		324.00000 
 43692.65567		 686.20710			43006.44858		209.00000		875.00000 
 43692.65567		 305.27265			43387.38302		68.70800		324.00000 
 43692.65567		 686.20710			43006.44858		209.00000		875.00000 
 43692.65567		 305.27265			43387.38302		68.70800		324.00000 
 43692.65567		 686.20710			43006.44858		209.00000		875.00000 
 43692.65567		 305.27265			43387.38302		68.70800		324.00000 
 43692.65567		 686.20710			43006.44858		209.00000		875.00000 
 43692.65567		 305.27265			43387.38302		68.70800		324.00000 
 43692.65567		 686.20710			43006.44858		209.00000		875.00000 
 43692.65567		 305.27265			43387.38302		68.70800		324.00000 
 43692.65567		 686.20710			43006.44858		209.00000		875.00000 
 43692.65567		 305.27265			43387.38302		68.70800		324.00000 
 43692.65567		 686.20710			43006.44858		209.00000		875.00000 
 43692.65567		 305.27265			43387.38302		68.70800		324.00000 
 43692.65567		 686.20710			43006.44858		209.00000		875.00000 
 43692.65567		 305.27265			43387.38302		68.70800		324.00000 
 43692.65567		 686.20710			43006.44858		209.00000		875.00000 
 43692.65567		 305.27265			43387.38302		68.70800		324.00000 
 43692.65567		 686.20710			43006.44858		209.00000		875.00000 
 43692.65567		 305.27265			43387.38302		68.70800		324.00000 
 43692.65567		 686.20710			43006.44858		209.00000		875.00000 
 43692.65567		 305.27265			43387.38302		68.70800		324.00000 
 43692.65567		 686.20710			43006.44858		209.00000		875.00000 
 43692.65567		 305.27265			43387.38302		68.70800		324.00000 
 43692.65567		 686.20710			43006.44858		209.00000		875.00000 
 43692.65567		 305.27265			43387.38302		68.70800		324.00000 
 43692.65567		 686.20710			43006.44858		209.00000		875.00000 
 43692.65567		 305.27265			43387.38302		68.70800		324.00000 
 43692.65567		 686.20710			43006.44858		209.00000		875.00000 
 43692.65567		 305.27265			43387.38302		68.70800		324.00000 
 43692.65567		 686.20710			43006.44858		209.00000		875.00000 
 43692.65567		 305.27265			43387.38302		68.70800		324.00000 
 43692.65567		 686.20710			43006.44858		209.00000		875.00000 
 43692.65567		 305.27265			43387.38302		68.70800		324.00000 
 43692.65567		 686.20710			43006.44858		209.00000		875.00000 
 43692.65567		 305.27265			43387.38302		68.70800		324.00000 
 43692.65567		 686.20710			43006.44858		209.00000		875.00000 
 43692.65567		 305.27265			43387.38302		68.70800		324.00000 
 43692.65567		 686.20710			43006.44858		209.00000		875.00000 
 43692.65567		 305.27265			43387.38302		68.70800		324.00000 
 43692.65567		 686.20710			43006.44858		209.00000		875.00000 
 43692.65567		 305.27265			43387.38302		68.70800		324.00000 
 43692.65567		 686.20710			43006.44858		215.60800		875.00000 
 43692.65567		 305.27265			43387.38302		68.70800		324.00000 
 43692.65567		 686.20710			43006.44858		215.60800		875.00000 
 43692.65567		 305.27265			43387.38302		68.70800		324.00000 
 43692.65567		 686.20710			43006.44858		215.60800		875.00000 
 43692.65567		 305.27265			43387.38302		68.70800		324.00000 
 43692.65567		 686.20710			43006.44858		215.60800		875.00000 
 43692.65567		 305.27265			43387.38302		68.70800		324.00000 
 43692.65567		 686.20710			43006.44858		215.60800		875.00000 
 43692.65567		 305.27265			43387.38302		68.70800		324.00000 
 43692.65567		 686.20710			43006.44858		215.60800		875.00000 
 43692.65567		 305.27265			43387.38302		68.70800		324.00000 
 43692.65567		 686.20710			43006.44858		215.60800		875.00000 
 43692.65567		 305.27265			43387.38302		68.70800		324.00000 
 43692.65567		 686.20710			43006.44858		215.60800		875.00000 
 43692.65567		 305.27265			43387.38302		68.70800		324.00000 
 43692.65567		 686.20710			43006.44858		215.60800		875.00000 
 43692.65567		 305.27265			43387.38302		68.70800		324.00000 
 43692.65567		 686.20710			43006.44858		215.60800		875.00000 
 43692.65567		 305.27265			43387.38302		68.70800		324.00000 
 43692.65567		 686.20710			43006.44858		215.60800		875.00000 
 43692.65567		 305.27265			43387.38302		68.70800		324.00000 
 43692.65567		 686.20710			43006.44858		215.60800		875.00000 
 43692.65567		 305.27265			43387.38302		68.70800		324.00000 
 43692.65567		 686.20710			43006.44858		215.60800		875.00000 
 43692.65567		 305.27265			43387.38302		68.70800		324.00000 
 43692.65567		 686.20710			43006.44858		215.60800		875.00000 
 43692.65567		 305.27265			43387.38302		68.70800		324.00000 
 43692.65567		 686.20710			43006.44858		215.60800		875.00000 
 43692.65567		 305.27265			43387.38302		68.70800		324.00000 
 43692.65567		 686.20710			43006.44858		215.60800		875.00000 
 43692.65567		 305.27265			43387.38302		68.70800		324.00000 
 43692.65567		 686.20710			43006.44858		215.60800		875.00000 
 43692.65567		 305.27265			43387.38302		68.70800		324.00000 
 43692.65567		 686.20710			43006.44858		215.60800		875.00000 
 43692.65567		 305.27265			43387.38302		68.70800		324.00000 
 43692.65567		 686.20710			43006.44858		215.60800		875.00000 
 43692.65567		 305.27265			43387.38302		68.70800		324.00000 
 43692.65567		 686.20710			43006.44858		215.60800		875.00000 
 43692.65567		 305.27265			43387.38302		68.70800		324.00000 
 43692.65567		 686.20710			43006.44858		215.60800		875.00000 
 43692.65567		 305.27265			43387.38302		68.70800		324.00000 
 43692.65567		 686.20710			43006.44858		215.60800		875.00000 
 43692.65567		 305.27265			43387.38302		68.70800		324.00000 
 43692.65567		 686.20710			43006.44858		215.60800		875.00000 
 43692.65567		 305.27265			43387.38302		68.70800		324.00000 
 43692.65567		 686.20710			43006.44858		215.60800		875.00000 
 43692.65567		 305.27265			43387.38302		68.70800		324.00000 
 43692.65567		 686.20710			43006.44858		215.60800		875.00000 
 43692.65567		 305.27265			43387.38302		68.70800		324.00000 
 43692.65567		 686.20710			43006.44858		215.60800		875.00000 
 43692.65567		 305.27265			43387.38302		68.70800		324.00000 
 43692.65567		 686.20710			43006.44858		215.60800		875.00000 
 43692.65567		 305.27265			43387.38302		68.70800		324.00000 
 43692.65567		 686.20710			43006.44858		215.60800		875.00000 
 43692.65567		 305.27265			43387.38302		68.70800		324.00000 
 43692.65567		 686.20710			43006.44858		215.60800		875.00000 
 43692.65567		 305.27265			43387.38302		68.70800		324.00000 
 43692.65567		 686.20710			43006.44858		215.60800		875.00000 
 43692.65567		 305.27265			43387.38302		68.70800		324.00000 
 43692.65567		 686.20710			43006.44858		215.60800		875.00000 
 43692.65567		 305.27265			43387.38302		68.70800		324.00000 
 43692.65567		 686.20710			43006.44858		215.60800		875.00000 
 43692.65567		 305.27265			43387.38302		68.70800		324.00000 
 43692.65567		 686.20710			43006.44858		215.60800		875.00000 
 43692.65567		 305.27265			43387.38302		68.70800		324.00000 
 43692.65567		 686.20710			43006.44858		215.60800		875.00000 
 43692.65567		 305.27265			43387.38302		68.70800		324.00000 
 43692.65567		 686.20710			43006.44858		215.60800		875.00000 
 43692.65567		 305.27265			43387.38302		68.70800		324.00000 
 43692.65567		 686.20710			43006.44858		215.60800		875.00000 
 43692.65567		 305.27265			43387.38302		68.70800		324.00000 
 43692.65567		 686.20710			43006.44858		215.60800		875.00000 
 43692.65567		 305.27265			43387.38302		68.70800		324.00000 
 43692.65567		 686.20710			43006.44858		215.60800		875.00000 
 43692.65567		 305.27265			43387.38302		68.70800		324.00000 
 43692.65567		 686.20710			43006.44858		215.60800		875.00000 
 43692.65567		 305.27265			43387.38302		68.70800		324.00000 
 43692.65567		 686.20710			43006.44858		215.60800		875.00000 
 43692.65567		 305.27265			43387.38302		68.70800		324.00000 
 43692.65567		 686.20710			43006.44858		215.60800		875.00000 
 43692.65567		 305.27265			43387.38302		68.70800		324.00000 
 43692.65567		 686.20710			43006.44858		215.60800		875.00000 
 43692.65567		 305.27265			43387.38302		68.70800		324.00000 
 43692.65567		 686.20710			43006.44858		215.60800		875.00000 
 43692.65567		 305.27265			43387.38302		68.70800		324.00000 
 43692.65567		 686.20710			43006.44858		215.60800		875.00000 
 43692.65567		 305.27265			43387.38302		68.70800		324.00000 
 43692.65567		 686.20710			43006.44858		215.60800		875.00000 
 43692.65567		 305.27265			43387.38302		68.70800		324.00000 
 43692.65567		 686.20710			43006.44858		215.60800		875.00000 
 43692.65567		 305.27265			43387.38302		68.70800		324.00000 
 43692.65567		 686.20710			43006.44858		215.60800		875.00000 
 43692.65567		 305.27265			43387.38302		68.70800		324.00000 
 43692.65567		 686.20710			43006.44858		215.60800		875.00000 
 43692.65567		 305.27265			43387.38302		68.70800		324.00000 
 43692.65567		 686.20710			43006.44858		215.60800		875.00000 
 43692.65567		 305.27265			43387.38302		68.70800		324.00000 
 43692.65567		 686.20710			43006.44858		215.60800		875.00000 
 43692.65567		 305.27265			43387.38302		68.70800		324.00000 
 43692.65567		 686.20710			43006.44858		215.60800		875.00000 
 43692.65567		 305.27265			43387.38302		68.70800		324.00000 
 43692.65567		 686.20710			43006.44858		215.60800		875.00000 
 43692.65567		 305.27265			43387.38302		68.70800		324.00000 
 43692.65567		 686.20710			43006.44858		215.60800		875.00000 
 43692.65567		 305.27265			43387.38302		68.70800		324.00000 
 43692.65567		 686.20710			43006.44858		215.60800		875.00000 
 43692.65567		 305.27265			43387.38302		68.70800		324.00000 
 43692.65567		 686.20710			43006.44858		215.60800		875.00000 
 43692.65567		 305.27265			43387.38302		68.70800		324.00000 
 43692.65567		 686.20710			43006.44858		215.60800		875.00000 
 43692.65567		 305.27265			43387.38302		68.70800		324.00000 
 43692.65567		 686.20710			43006.44858		215.60800		875.00000 
 43692.65567		 305.27265			43387.38302		68.70800		324.00000 
 43692.65567		 686.20710			43006.44858		215.60800		875.00000 
 43692.65567		 305.27265			43387.38302		68.70800		324.00000 
 43692.65567		 686.20710			43006.44858		215.60800		875.00000 
 43692.65567		 305.27265			43387.38302		68.70800		324.00000 
 43692.65567		 686.20710			43006.44858		215.60800		875.00000 
 43692.65567		 305.27265			43387.38302		68.70800		324.00000 
 43692.65567		 686.20710			43006.44858		215.60800		875.00000 
 43692.65567		 305.27265			43387.38302		68.70800		324.00000 
 43692.65567		 686.20710			43006.44858		215.60800		875.00000 
 43692.65567		 305.27265			43387.38302		68.70800		324.00000 
 43692.65567		 686.20710			43006.44858		215.60800		875.00000 
 43692.65567		 305.27265			43387.38302		68.70800		324.00000 
 43692.65567		 686.20710			43006.44858		215.60800		875.00000 
 43692.65567		 305.27265			43387.38302		68.70800		324.00000 
 43692.65567		 686.20710			43006.44858		218.52800		875.00000 
 43692.65567		 305.27265			43387.38302		68.70800		324.00000 
 43692.65567		 686.20710			43006.44858		218.52800		875.00000 
 43692.65567		 305.27265			43387.38302		68.70800		324.00000 
 43692.65567		 686.20710			43006.44858		218.52800		875.00000 
 43692.65567		 305.27265			43387.38302		68.70800		324.00000 
 43692.65567		 686.20710			43006.44858		218.52800		875.00000 
 43692.65567		 305.27265			43387.38302		68.70800		324.00000 
 43692.65567		 686.20710			43006.44858		218.52800		875.00000 
 43692.65567		 305.27265			43387.38302		68.70800		324.00000 
 43692.65567		 686.20710			43006.44858		218.52800		875.00000 
 43692.65567		 305.27265			43387.38302		68.70800		324.00000 
 43692.65567		 686.20710			43006.44858		218.52800		875.00000 
 43692.65567		 305.27265			43387.38302		68.70800		324.00000 
 43692.65567		 686.20710			43006.44858		218.52800		875.00000 
 43692.65567		 305.27265			43387.38302		68.70800		324.00000 
 43692.65567		 686.20710			43006.44858		218.52800		875.00000 
 43692.65567		 305.27265			43387.38302		68.70800		324.00000 
 43692.65567		 686.20710			43006.44858		218.52800		875.00000 
 43692.65567		 305.27265			43387.38302		68.70800		324.00000 
 43692.65567		 686.20710			43006.44858		218.52800		875.00000 
 43692.65567		 305.27265			43387.38302		68.70800		324.00000 
 43692.65567		 686.20710			43006.44858		218.52800		875.00000 
 43692.65567		 305.27265			43387.38302		68.70800		324.00000 
 43692.65567		 686.20710			43006.44858		218.52800		875.00000 
 43692.65567		 305.27265			43387.38302		68.70800		324.00000 
 43692.65567		 686.20710			43006.44858		218.52800		875.00000 
 43692.65567		 305.27265			43387.38302		68.70800		324.00000 
 43692.65567		 686.20710			43006.44858		218.52800		875.00000 
 43692.65567		 305.27265			43387.38302		68.70800		324.00000 
 43692.65567		 686.20710			43006.44858		218.52800		875.00000 
 43692.65567		 305.27265			43387.38302		68.70800		324.00000 
 43692.65567		 686.20710			43006.44858		218.52800		875.00000 
 43692.65567		 305.27265			43387.38302		68.70800		324.00000 
 43692.65567		 686.20710			43006.44858		218.52800		875.00000 
 43692.65567		 305.27265			43387.38302		68.70800		324.00000 
 43692.65567		 686.20710			43006.44858		218.52800		875.00000 
 43692.65567		 305.27265			43387.38302		68.70800		324.00000 
 43692.65567		 686.20710			43006.44858		218.52800		875.00000 
 43692.65567		 305.27265			43387.38302		68.70800		324.00000 
 43692.65567		 686.20710			43006.44858		218.52800		875.00000 
 43692.65567		 305.27265			43387.38302		68.70800		324.00000 
 43692.65567		 686.20710			43006.44858		218.52800		875.00000 
 43692.65567		 305.27265			43387.38302		68.70800		324.00000 
 43692.65567		 686.20710			43006.44858		218.52800		875.00000 
 43692.65567		 305.27265			43387.38302		68.70800		324.00000 
 43692.65567		 686.20710			43006.44858		218.52800		875.00000 
 43692.65567		 305.27265			43387.38302		68.70800		324.00000 
 43692.65567		 686.20710			43006.44858		218.52800		875.00000 
 43692.65567		 305.27265			43387.38302		68.70800		324.00000 
 43692.65567		 686.20710			43006.44858		218.52800		875.00000 
 43692.65567		 305.27265			43387.38302		68.70800		324.00000 
 43692.65567		 686.20710			43006.44858		218.52800		875.00000 
 43692.65567		 305.27265			43387.38302		68.70800		324.00000 
 43692.65567		 686.20710			43006.44858		218.52800		875.00000 
 43692.65567		 305.27265			43387.38302		68.70800		324.00000 
 43692.65567		 686.20710			43006.44858		218.52800		875.00000 
 43692.65567		 305.27265			43387.38302		68.70800		324.00000 
 43692.65567		 686.20710			43006.44858		218.52800		875.00000 
 43692.65567		 305.27265			43387.38302		68.70800		324.00000 
 43692.65567		 686.20710			43006.44858		218.52800		875.00000 
 43692.65567		 305.27265			43387.38302		68.70800		324.00000 
 43692.65567		 686.20710			43006.44858		218.52800		875.00000 
 43692.65567		 305.27265			43387.38302		68.70800		324.00000 
 43692.65567		 686.20710			43006.44858		218.52800		875.00000 
 43692.65567		 305.27265			43387.38302		68.70800		324.00000 
 43692.65567		 686.20710			43006.44858		218.52800		875.00000 
 43692.65567		 305.27265			43387.38302		68.70800		324.00000 
 43692.65567		 686.20710			43006.44858		218.52800		875.00000 
 43692.65567		 305.27265			43387.38302		68.70800		324.00000 
 43692.65567		 686.20710			43006.44858		218.52800		875.00000 
 43692.65567		 305.27265			43387.38302		68.70800		324.00000 
 43692.65567		 686.20710			43006.44858		218.52800		875.00000 
 43692.65567		 305.27265			43387.38302		68.70800		324.00000 
 43692.65567		 686.20710			43006.44858		218.52800		875.00000 
 43692.65567		 305.27265			43387.38302		68.70800		324.00000 
 43692.65567		 686.20710			43006.44858		218.52800		875.00000 
 43692.65567		 305.27265			43387.38302		68.70800		324.00000 
 43692.65567		 686.20710			43006.44858		218.52800		875.00000 
 43692.65567		 305.27265			43387.38302		68.70800		324.00000 
 43692.65567		 686.20710			43006.44858		218.52800		875.00000 
 43692.65567		 305.27265			43387.38302		68.70800		324.00000 
 43692.65567		 686.20710			43006.44858		218.52800		875.00000 
 43692.65567		 305.27265			43387.38302		68.70800		324.00000 
 43692.65567		 686.20710			43006.44858		218.52800		875.00000 
 43692.65567		 305.27265			43387.38302		68.70800		324.00000 
 43692.65567		 686.20710			43006.44858		218.52800		875.00000 
 43692.65567		 305.27265			43387.38302		68.70800		324.00000 
 43692.65567		 686.20710			43006.44858		218.52800		875.00000 
 43692.65567		 305.27265			43387.38302		68.70800		324.00000 
 43692.65567		 686.20710			43006.44858		218.52800		875.00000 
 43692.65567		 305.27265			43387.38302		68.70800		324.00000 
 43692.65567		 686.20710			43006.44858		218.52800		875.00000 
 43692.65567		 305.27265			43387.38302		68.70800		324.00000 
 43692.65567		 686.20710			43006.44858		218.52800		875.00000 
 43692.65567		 305.27265			43387.38302		68.70800		324.00000 
 43692.65567		 686.20710			43006.44858		218.52800		875.00000 
 43692.65567		 305.27265			43387.38302		68.70800		324.00000 
 43692.65567		 686.20710			43006.44858		218.52800		875.00000 
 43692.65567		 305.27265			43387.38302		68.70800		324.00000 
 43692.65567		 686.20710			43006.44858		218.52800		875.00000 
 43692.65567		 305.27265			43387.38302		68.70800		324.00000 
 43692.65567		 686.20710			43006.44858		218.52800		875.00000 
 43692.65567		 305.27265			43387.38302		68.70800		324.00000 
 43692.65567		 686.20710			43006.44858		218.52800		875.00000 
 43692.65567		 305.27265			43387.38302		68.70800		324.00000 
 43692.65567		 686.20710			43006.44858		218.52800		875.00000 
 43692.65567		 305.27265			43387.38302		68.70800		324.00000 
 43692.65567		 686.20710			43006.44858		218.52800		875.00000 
 43692.65567		 305.27265			43387.38302		68.70800		324.00000 
 43692.65567		 686.20710			43006.44858		218.52800		875.00000 
 43692.65567		 305.27265			43387.38302		68.70800		324.00000 
 43692.65567		 686.20710			43006.44858		218.52800		875.00000 
 43692.65567		 305.27265			43387.38302		68.70800		324.00000 
 43692.65567		 686.20710			43006.44858		218.52800		875.00000 
 43692.65567		 305.27265			43387.38302		68.70800		324.00000 
 43692.65567		 686.20710			43006.44858		218.52800		875.00000 
 43692.65567		 305.27265			43387.38302		68.70800		324.00000 
 43692.65567		 686.20710			43006.44858		218.52800		875.00000 
 43692.65567		 305.27265			43387.38302		68.70800		324.00000 
 43692.65567		 686.20710			43006.44858		218.52800		875.00000 
 43692.65567		 305.27265			43387.38302		68.70800		324.00000 
 43692.65567		 686.20710			43006.44858		218.52800		875.00000 
 43692.65567		 305.27265			43387.38302		68.70800		324.00000 
 43692.65567		 686.20710			43006.44858		218.52800		875.00000 
 43692.65567		 305.27265			43387.38302		68.70800		324.00000 
 43692.65567		 686.20710			43006.44858		218.52800		875.00000 
 43692.65567		 305.27265			43387.38302		68.70800		324.00000 
 43692.65567		 686.20710			43006.44858		219.30200		875.00000 
 43692.65567		 305.27265			43387.38302		68.70800		324.00000 
 43692.65567		 686.20710			43006.44858		219.30200		875.00000 
 43692.65567		 305.27265			43387.38302		68.70800		324.00000 
 43692.65567		 686.20710			43006.44858		219.30200		875.00000 
 43692.65567		 305.27265			43387.38302		68.70800		324.00000 
 43692.65567		 686.20710			43006.44858		219.30200		875.00000 
 43692.65567		 305.27265			43387.38302		68.70800		324.00000 
 43692.65567		 686.20710			43006.44858		219.30200		875.00000 
 43692.65567		 305.27265			43387.38302		68.70800		324.00000 
 43692.65567		 686.20710			43006.44858		219.30200		875.00000 
 43692.65567		 305.27265			43387.38302		68.70800		324.00000 
 43692.65567		 686.20710			43006.44858		219.30200		875.00000 
 43692.65567		 305.27265			43387.38302		68.70800		324.00000 
 43692.65567		 686.20710			43006.44858		219.30200		875.00000 
 43692.65567		 305.27265			43387.38302		68.70800		324.00000 
 43692.65567		 686.20710			43006.44858		219.30200		875.00000 
 43692.65567		 305.27265			43387.38302		68.70800		324.00000 
 43692.65567		 686.20710			43006.44858		219.30200		875.00000 
 43692.65567		 305.27265			43387.38302		68.70800		324.00000 
 43692.65567		 686.20710			43006.44858		219.30200		875.00000 
 43692.65567		 305.27265			43387.38302		68.70800		324.00000 
 43692.65567		 686.20710			43006.44858		219.30200		875.00000 
 43692.65567		 305.27265			43387.38302		68.70800		324.00000 
 43692.65567		 686.20710			43006.44858		219.30200		875.00000 
 43692.65567		 305.27265			43387.38302		68.70800		324.00000 
 43692.65567		 686.20710			43006.44858		219.30200		875.00000 
 43692.65567		 305.27265			43387.38302		68.70800		324.00000 
 43692.65567		 686.20710			43006.44858		219.30200		875.00000 
 43692.65567		 305.27265			43387.38302		68.70800		324.00000 
 43692.65567		 686.20710			43006.44858		219.30200		875.00000 
 43692.65567		 305.27265			43387.38302		68.70800		324.00000 
 43692.65567		 686.20710			43006.44858		219.30200		875.00000 
 43692.65567		 305.27265			43387.38302		68.70800		324.00000 
 43692.65567		 686.20710			43006.44858		219.30200		875.00000 
 43692.65567		 305.27265			43387.38302		68.70800		324.00000 
 43692.65567		 686.20710			43006.44858		219.30200		875.00000 
 43692.65567		 305.27265			43387.38302		68.70800		324.00000 
 43692.65567		 686.20710			43006.44858		219.30200		875.00000 
 43692.65567		 305.27265			43387.38302		68.70800		324.00000 
 43692.65567		 686.20710			43006.44858		219.30200		875.00000 
 43692.65567		 305.27265			43387.38302		68.70800		324.00000 
 43692.65567		 686.20710			43006.44858		219.30200		875.00000 
 43692.65567		 305.27265			43387.38302		68.70800		324.00000 
 43692.65567		 686.20710			43006.44858		219.30200		875.00000 
 43692.65567		 305.27265			43387.38302		68.70800		324.00000 
 43692.65567		 686.20710			43006.44858		219.30200		875.00000 
 43692.65567		 305.27265			43387.38302		68.70800		324.00000 
 43692.65567		 686.20710			43006.44858		219.30200		875.00000 
 43692.65567		 305.27265			43387.38302		68.70800		324.00000 
 43692.65567		 686.20710			43006.44858		219.30200		875.00000 
 43692.65567		 305.27265			43387.38302		68.70800		324.00000 
 43692.65567		 686.20710			43006.44858		219.30200		875.00000 
 43692.65567		 305.27265			43387.38302		68.70800		324.00000 
 43692.65567		 686.20710			43006.44858		219.30200		875.00000 
 43692.65567		 305.27265			43387.38302		68.70800		324.00000 
 43692.65567		 686.20710			43006.44858		219.30200		875.00000 
 43692.65567		 305.27265			43387.38302		68.70800		324.00000 
 43692.65567		 686.20710			43006.44858		219.30200		875.00000 
 43692.65567		 305.27265			43387.38302		68.70800		324.00000 
 43692.65567		 686.20710			43006.44858		219.30200		875.00000 
 43692.65567		 305.27265			43387.38302		68.70800		324.00000 
 43692.65567		 686.20710			43006.44858		219.30200		875.00000 
 43692.65567		 305.27265			43387.38302		68.70800		324.00000 
 43692.65567		 686.20710			43006.44858		219.30200		875.00000 
 43692.65567		 305.27265			43387.38302		68.70800		324.00000 
 43692.65567		 686.20710			43006.44858		219.30200		875.00000 
 43692.65567		 305.27265			43387.38302		68.70800		324.00000 
 43692.65567		 686.20710			43006.44858		219.30200		875.00000 
 43692.65567		 305.27265			43387.38302		68.70800		324.00000 
 43692.65567		 686.20710			43006.44858		219.30200		875.00000 
 43692.65567		 305.27265			43387.38302		68.70800		324.00000 
 43692.65567		 686.20710			43006.44858		219.30200		875.00000 
 43692.65567		 305.27265			43387.38302		68.70800		324.00000 
 43692.65567		 686.20710			43006.44858		219.30200		875.00000 
 43692.65567		 305.27265			43387.38302		68.70800		324.00000 
 43692.65567		 686.20710			43006.44858		219.30200		875.00000 
 43692.65567		 305.27265			43387.38302		68.70800		324.00000 
 43692.65567		 686.20710			43006.44858		219.30200		875.00000 
 43692.65567		 305.27265			43387.38302		68.70800		324.00000 
 43692.65567		 686.20710			43006.44858		219.30200		875.00000 
 43692.65567		 305.27265			43387.38302		68.70800		324.00000 
 43692.65567		 686.20710			43006.44858		219.30200		875.00000 
 43692.65567		 305.27265			43387.38302		68.70800		324.00000 
 43692.65567		 686.20710			43006.44858		219.30200		875.00000 
 43692.65567		 305.27265			43387.38302		68.70800		324.00000 
 43692.65567		 686.20710			43006.44858		219.30200		875.00000 
 43692.65567		 305.27265			43387.38302		68.70800		324.00000 
 43692.65567		 686.20710			43006.44858		219.30200		875.00000 
 43692.65567		 305.27265			43387.38302		68.70800		324.00000 
 43692.65567		 686.20710			43006.44858		219.30200		875.00000 
 43692.65567		 305.27265			43387.38302		68.70800		324.00000 
 43692.65567		 686.20710			43006.44858		219.30200		875.00000 
 43692.65567		 305.27265			43387.38302		68.70800		324.00000 
 43692.65567		 686.20710			43006.44858		219.30200		875.00000 
 43692.65567		 305.27265			43387.38302		68.70800		324.00000 
 43692.65567		 686.20710			43006.44858		219.30200		875.00000 
 43692.65567		 305.27265			43387.38302		68.70800		324.00000 
 43692.65567		 686.20710			43006.44858		219.30200		875.00000 
 43692.65567		 305.27265			43387.38302		68.70800		324.00000 
 43692.65567		 686.20710			43006.44858		219.30200		875.00000 
 43692.65567		 305.27265			43387.38302		68.70800		324.00000 
 43692.65567		 686.20710			43006.44858		219.30200		875.00000 
 43692.65567		 305.27265			43387.38302		68.70800		324.00000 
 43692.65567		 686.20710			43006.44858		219.30200		875.00000 
 43692.65567		 305.27265			43387.38302		68.70800		324.00000 
 43692.65567		 686.20710			43006.44858		219.30200		875.00000 
 43692.65567		 305.27265			43387.38302		68.70800		324.00000 
 43692.65567		 686.20710			43006.44858		219.30200		875.00000 
 43692.65567		 305.27265			43387.38302		68.70800		324.00000 
 43692.65567		 686.20710			43006.44858		219.30200		875.00000 
 43692.65567		 305.27265			43387.38302		68.70800		324.00000 
 43692.65567		 686.20710			43006.44858		219.30200		875.00000 
 43692.65567		 305.27265			43387.38302		68.70800		324.00000 
 43692.65567		 686.20710			43006.44858		219.30200		875.00000 
 43692.65567		 305.27265			43387.38302		68.70800		324.00000 
 43692.65567		 686.20710			43006.44858		219.30200		875.00000 
 43692.65567		 305.27265			43387.38302		68.70800		324.00000 
 43692.65567		 686.20710			43006.44858		219.30200		875.00000 
 43692.65567		 305.27265			43387.38302		68.70800		324.00000 
 43692.65567		 686.20710			43006.44858		219.30200		875.00000 
 43692.65567		 305.27265			43387.38302		68.70800		324.00000 
 43692.65567		 686.20710			43006.44858		219.30200		875.00000 
 43692.65567		 305.27265			43387.38302		68.70800		324.00000 
 43692.65567		 686.20710			43006.44858		219.30200		875.00000 
 43692.65567		 305.27265			43387.38302		68.70800		324.00000 
 43692.65567		 686.20710			43006.44858		219.30200		875.00000 
 43692.65567		 305.27265			43387.38302		68.70800		324.00000 
 43692.65567		 686.20710			43006.44858		220.26200		875.00000 
 43692.65567		 305.27265			43387.38302		68.70800		324.00000 
 43692.65567		 686.20710			43006.44858		220.26200		875.00000 
 43692.65567		 305.27265			43387.38302		68.70800		324.00000 
 43692.65567		 686.20710			43006.44858		220.26200		875.00000 
 43692.65567		 305.27265			43387.38302		68.70800		324.00000 
 43692.65567		 686.20710			43006.44858		220.26200		875.00000 
 43692.65567		 305.27265			43387.38302		68.70800		324.00000 
 43692.65567		 686.20710			43006.44858		220.26200		875.00000 
 43692.65567		 305.27265			43387.38302		68.70800		324.00000 
 43692.65567		 686.20710			43006.44858		220.26200		875.00000 
 43692.65567		 305.27265			43387.38302		68.70800		324.00000 
 43692.65567		 686.20710			43006.44858		220.26200		875.00000 
 43692.65567		 305.27265			43387.38302		68.70800		324.00000 
 43692.65567		 686.20710			43006.44858		220.26200		875.00000 
 43692.65567		 305.27265			43387.38302		68.70800		324.00000 
 43692.65567		 686.20710			43006.44858		220.26200		875.00000 
 43692.65567		 305.27265			43387.38302		68.70800		324.00000 
 43692.65567		 686.20710			43006.44858		220.26200		875.00000 
 43692.65567		 305.27265			43387.38302		68.70800		324.00000 
 43692.65567		 686.20710			43006.44858		220.26200		875.00000 
 43692.65567		 305.27265			43387.38302		68.70800		324.00000 
 43692.65567		 686.20710			43006.44858		220.26200		875.00000 
 43692.65567		 305.27265			43387.38302		68.70800		324.00000 
 43692.65567		 686.20710			43006.44858		220.26200		875.00000 
 43692.65567		 305.27265			43387.38302		68.70800		324.00000 
 43692.65567		 686.20710			43006.44858		220.26200		875.00000 
 43692.65567		 305.27265			43387.38302		68.70800		324.00000 
 43692.65567		 686.20710			43006.44858		220.26200		875.00000 
 43692.65567		 305.27265			43387.38302		68.70800		324.00000 
 43692.65567		 686.20710			43006.44858		220.26200		875.00000 
 43692.65567		 305.27265			43387.38302		68.70800		324.00000 
 43692.65567		 686.20710			43006.44858		220.26200		875.00000 
 43692.65567		 305.27265			43387.38302		68.70800		324.00000 
 43692.65567		 686.20710			43006.44858		220.26200		875.00000 
 43692.65567		 305.27265			43387.38302		68.70800		324.00000 
 43692.65567		 686.20710			43006.44858		220.26200		875.00000 
 43692.65567		 305.27265			43387.38302		68.70800		324.00000 
 43692.65567		 686.20710			43006.44858		220.26200		875.00000 
 43692.65567		 305.27265			43387.38302		68.70800		324.00000 
 43692.65567		 686.20710			43006.44858		220.26200		875.00000 
 43692.65567		 305.27265			43387.38302		68.70800		324.00000 
 43692.65567		 686.20710			43006.44858		220.26200		875.00000 
 43692.65567		 305.27265			43387.38302		68.70800		324.00000 
 43692.65567		 686.20710			43006.44858		220.26200		875.00000 
 43692.65567		 305.27265			43387.38302		68.70800		324.00000 
 43692.65567		 686.20710			43006.44858		220.26200		875.00000 
 43692.65567		 305.27265			43387.38302		68.70800		324.00000 
 43692.65567		 686.20710			43006.44858		220.26200		875.00000 
 43692.65567		 305.27265			43387.38302		68.70800		324.00000 
 43692.65567		 686.20710			43006.44858		220.26200		875.00000 
 43692.65567		 305.27265			43387.38302		68.70800		324.00000 
 43692.65567		 686.20710			43006.44858		220.26200		875.00000 
 43692.65567		 305.27265			43387.38302		68.70800		324.00000 
 43692.65567		 686.20710			43006.44858		220.26200		875.00000 
 43692.65567		 305.27265			43387.38302		68.70800		324.00000 
 43692.65567		 686.20710			43006.44858		220.26200		875.00000 
 43692.65567		 305.27265			43387.38302		68.70800		324.00000 
 43692.65567		 686.20710			43006.44858		220.26200		875.00000 
 43692.65567		 305.27265			43387.38302		68.70800		324.00000 
 43692.65567		 686.20710			43006.44858		220.26200		875.00000 
 43692.65567		 305.27265			43387.38302		68.70800		324.00000 
 43692.65567		 686.20710			43006.44858		220.26200		875.00000 
 43692.65567		 305.27265			43387.38302		68.70800		324.00000 
 43692.65567		 686.20710			43006.44858		220.26200		875.00000 
 43692.65567		 305.27265			43387.38302		68.70800		324.00000 
 43692.65567		 686.20710			43006.44858		220.26200		875.00000 
 43692.65567		 305.27265			43387.38302		68.70800		324.00000 
 43692.65567		 686.20710			43006.44858		220.26200		875.00000 
 43692.65567		 305.27265			43387.38302		68.70800		324.00000 
 43692.65567		 686.20710			43006.44858		220.26200		875.00000 
 43692.65567		 305.27265			43387.38302		68.70800		324.00000 
 43692.65567		 686.20710			43006.44858		220.26200		875.00000 
 43692.65567		 305.27265			43387.38302		68.70800		324.00000 
 43692.65567		 686.20710			43006.44858		220.26200		875.00000 
 43692.65567		 305.27265			43387.38302		68.70800		324.00000 
 43692.65567		 686.20710			43006.44858		220.26200		875.00000 
 43692.65567		 305.27265			43387.38302		68.70800		324.00000 
 43692.65567		 686.20710			43006.44858		220.26200		875.00000 
 43692.65567		 305.27265			43387.38302		68.70800		324.00000 
 43692.65567		 686.20710			43006.44858		220.26200		875.00000 
 43692.65567		 305.27265			43387.38302		68.70800		324.00000 
 43692.65567		 686.20710			43006.44858		220.26200		875.00000 
 43692.65567		 305.27265			43387.38302		68.70800		324.00000 
 43692.65567		 686.20710			43006.44858		220.26200		875.00000 
 43692.65567		 305.27265			43387.38302		68.70800		324.00000 
 43692.65567		 686.20710			43006.44858		220.26200		875.00000 
 43692.65567		 305.27265			43387.38302		68.70800		324.00000 
 43692.65567		 686.20710			43006.44858		220.26200		875.00000 
 43692.65567		 305.27265			43387.38302		68.70800		324.00000 
 43692.65567		 686.20710			43006.44858		220.26200		875.00000 
 43692.65567		 305.27265			43387.38302		68.70800		324.00000 
 43692.65567		 686.20710			43006.44858		220.26200		875.00000 
 43692.65567		 305.27265			43387.38302		68.70800		324.00000 
 43692.65567		 686.20710			43006.44858		220.26200		875.00000 
 43692.65567		 305.27265			43387.38302		68.70800		324.00000 
 43692.65567		 686.20710			43006.44858		220.26200		875.00000 
 43692.65567		 305.27265			43387.38302		68.70800		324.00000 
 43692.65567		 686.20710			43006.44858		220.26200		875.00000 
 43692.65567		 305.27265			43387.38302		68.70800		324.00000 
 43692.65567		 686.20710			43006.44858		220.26200		875.00000 
 43692.65567		 305.27265			43387.38302		68.70800		324.00000 
 43692.65567		 686.20710			43006.44858		220.26200		875.00000 
 43692.65567		 305.27265			43387.38302		68.70800		324.00000 
 43692.65567		 686.20710			43006.44858		220.26200		875.00000 
 43692.65567		 305.27265			43387.38302		68.70800		324.00000 
 43692.65567		 686.20710			43006.44858		220.26200		875.00000 
 43692.65567		 305.27265			43387.38302		68.70800		324.00000 
 43692.65567		 686.20710			43006.44858		220.26200		875.00000 
 43692.65567		 305.27265			43387.38302		68.70800		324.00000 
 43692.65567		 686.20710			43006.44858		220.26200		875.00000 
 43692.65567		 305.27265			43387.38302		68.70800		324.00000 
 43692.65567		 686.20710			43006.44858		220.26200		875.00000 
 43692.65567		 305.27265			43387.38302		68.70800		324.00000 
 43692.65567		 686.20710			43006.44858		220.26200		875.00000 
 43692.65567		 305.27265			43387.38302		68.70800		324.00000 
 43692.65567		 686.20710			43006.44858		220.26200		875.00000 
 43692.65567		 305.27265			43387.38302		68.70800		324.00000 
 43692.65567		 686.20710			43006.44858		220.26200		875.00000 
 43692.65567		 305.27265			43387.38302		70.12600		324.00000 
 43692.65567		 686.20710			43006.44858		220.26200		875.00000 
 43692.65567		 305.27265			43387.38302		70.12600		324.00000 
 43692.65567		 686.20710			43006.44858		220.26200		875.00000 
 43692.65567		 305.27265			43387.38302		70.12600		324.00000 
 43692.65567		 686.20710			43006.44858		220.26200		875.00000 
 43692.65567		 305.27265			43387.38302		70.12600		324.00000 
 43692.65567		 686.20710			43006.44858		220.26200		875.00000 
 43692.65567		 305.27265			43387.38302		70.12600		324.00000 
 43692.65567		 686.20710			43006.44858		220.26200		875.00000 
 43692.65567		 305.27265			43387.38302		70.12600		324.00000 
 43692.65567		 686.20710			43006.44858		220.26200		875.00000 
 43692.65567		 305.27265			43387.38302		70.12600		324.00000 
 43692.65567		 686.20710			43006.44858		220.26200		875.00000 
 43692.65567		 305.27265			43387.38302		70.12600		324.00000 
 43692.65567		 686.20710			43006.44858		220.26200		875.00000 
 43692.65567		 305.27265			43387.38302		70.12600		324.00000 
 43692.65567		 686.20710			43006.44858		220.26200		875.00000 
 43692.65567		 305.27265			43387.38302		70.12600		324.00000 
 43692.65567		 686.20710			43006.44858		220.26200		875.00000 
 43692.65567		 305.27265			43387.38302		70.12600		324.00000 
 43692.65567		 686.20710			43006.44858		220.26200		875.00000 
 43692.65567		 305.27265			43387.38302		70.12600		324.00000 
 43692.65567		 686.20710			43006.44858		220.26200		875.00000 
 43692.65567		 305.27265			43387.38302		70.12600		324.00000 
 43692.65567		 686.20710			43006.44858		220.26200		875.00000 
 43692.65567		 305.27265			43387.38302		70.12600		324.00000 
 43692.65567		 686.20710			43006.44858		220.26200		875.00000 
 43692.65567		 305.27265			43387.38302		70.12600		324.00000 
 43692.65567		 686.20710			43006.44858		220.26200		875.00000 
 43692.65567		 305.27265			43387.38302		70.12600		324.00000 
 43692.65567		 686.20710			43006.44858		220.26200		875.00000 
 43692.65567		 305.27265			43387.38302		70.12600		324.00000 
 43692.65567		 686.20710			43006.44858		220.26200		875.00000 
 43692.65567		 305.27265			43387.38302		70.12600		324.00000 
 43692.65567		 686.20710			43006.44858		220.26200		875.00000 
 43692.65567		 305.27265			43387.38302		70.12600		324.00000 
 43692.65567		 686.20710			43006.44858		220.26200		875.00000 
 43692.65567		 305.27265			43387.38302		70.12600		324.00000 
 43692.65567		 686.20710			43006.44858		220.26200		875.00000 
 43692.65567		 305.27265			43387.38302		70.12600		324.00000 
 43692.65567		 686.20710			43006.44858		220.26200		875.00000 
 43692.65567		 305.27265			43387.38302		70.12600		324.00000 
 43692.65567		 686.20710			43006.44858		220.26200		875.00000 
 43692.65567		 305.27265			43387.38302		70.12600		324.00000 
 43692.65567		 686.20710			43006.44858		220.26200		875.00000 
 43692.65567		 305.27265			43387.38302		70.12600		324.00000 
 43692.65567		 686.20710			43006.44858		220.26200		875.00000 
 43692.65567		 305.27265			43387.38302		70.12600		324.00000 
 43692.65567		 686.20710			43006.44858		220.26200		875.00000 
 43692.65567		 305.27265			43387.38302		70.12600		324.00000 
 43692.65567		 686.20710			43006.44858		220.26200		875.00000 
 43692.65567		 305.27265			43387.38302		70.12600		324.00000 
 43692.65567		 686.20710			43006.44858		220.26200		875.00000 
 43692.65567		 305.27265			43387.38302		70.12600		324.00000 
 43692.65567		 686.20710			43006.44858		220.26200		875.00000 
 43692.65567		 305.27265			43387.38302		70.12600		324.00000 
 43692.65567		 686.20710			43006.44858		220.26200		875.00000 
 43692.65567		 305.27265			43387.38302		70.12600		324.00000 
 43692.65567		 686.20710			43006.44858		220.26200		875.00000 
 43692.65567		 305.27265			43387.38302		70.12600		324.00000 
 43692.65567		 686.20710			43006.44858		220.26200		875.00000 
 43692.65567		 305.27265			43387.38302		70.12600		324.00000 
 43692.65567		 686.20710			43006.44858		220.26200		875.00000 
 43692.65567		 305.27265			43387.38302		70.12600		324.00000 
 43692.65567		 686.20710			43006.44858		220.26200		875.00000 
 43692.65567		 305.27265			43387.38302		70.12600		324.00000 
 43692.65567		 686.20710			43006.44858		220.26200		875.00000 
 43692.65567		 305.27265			43387.38302		70.12600		324.00000 
 43692.65567		 686.20710			43006.44858		220.26200		875.00000 
 43692.65567		 305.27265			43387.38302		70.12600		324.00000 
 43692.65567		 686.20710			43006.44858		220.26200		875.00000 
 43692.65567		 305.27265			43387.38302		70.12600		324.00000 
 43692.65567		 686.20710			43006.44858		220.26200		875.00000 
 43692.65567		 305.27265			43387.38302		70.12600		324.00000 
 43692.65567		 686.20710			43006.44858		220.26200		875.00000 
 43692.65567		 305.27265			43387.38302		70.12600		324.00000 
 43692.65567		 686.20710			43006.44858		220.26200		875.00000 
 43692.65567		 305.27265			43387.38302		70.12600		324.00000 
 43692.65567		 686.20710			43006.44858		220.26200		875.00000 
 43692.65567		 305.27265			43387.38302		70.12600		324.00000 
 43692.65567		 686.20710			43006.44858		220.26200		875.00000 
 43692.65567		 305.27265			43387.38302		70.12600		324.00000 
 43692.65567		 686.20710			43006.44858		220.26200		875.00000 
 43692.65567		 305.27265			43387.38302		70.12600		324.00000 
 43692.65567		 686.20710			43006.44858		220.26200		875.00000 
 43692.65567		 305.27265			43387.38302		70.12600		324.00000 
 43692.65567		 686.20710			43006.44858		220.26200		875.00000 
 43692.65567		 305.27265			43387.38302		70.12600		324.00000 
 43692.65567		 686.20710			43006.44858		220.26200		875.00000 
 43692.65567		 305.27265			43387.38302		70.12600		324.00000 
 43692.65567		 686.20710			43006.44858		220.26200		875.00000 
 43692.65567		 305.27265			43387.38302		70.12600		324.00000 
 43692.65567		 686.20710			43006.44858		220.26200		875.00000 
 43692.65567		 305.27265			43387.38302		70.12600		324.00000 
 43692.65567		 686.20710			43006.44858		220.26200		875.00000 
 43692.65567		 305.27265			43387.38302		70.12600		324.00000 
 43692.65567		 686.20710			43006.44858		220.26200		875.00000 
 43692.65567		 305.27265			43387.38302		70.12600		324.00000 
 43692.65567		 686.20710			43006.44858		220.26200		875.00000 
 43692.65567		 305.27265			43387.38302		70.12600		324.00000 
 43692.65567		 686.20710			43006.44858		220.26200		875.00000 
 43692.65567		 305.27265			43387.38302		70.12600		324.00000 
 43692.65567		 686.20710			43006.44858		220.26200		875.00000 
 43692.65567		 305.27265			43387.38302		70.12600		324.00000 
 43692.65567		 686.20710			43006.44858		220.26200		875.00000 
 43692.65567		 305.27265			43387.38302		70.12600		324.00000 
 43692.65567		 686.20710			43006.44858		220.26200		875.00000 
 43692.65567		 305.27265			43387.38302		70.12600		324.00000 
 43692.65567		 686.20710			43006.44858		220.26200		875.00000 
 43692.65567		 305.27265			43387.38302		70.12600		324.00000 
 43692.65567		 686.20710			43006.44858		220.26200		875.00000 
 43692.65567		 305.27265			43387.38302		70.12600		324.00000 
 43692.65567		 686.20710			43006.44858		220.26200		875.00000 
 43692.65567		 305.27265			43387.38302		70.12600		324.00000 
 43692.65567		 686.20710			43006.44858		220.26200		875.00000 
 43692.65567		 305.27265			43387.38302		70.12600		324.00000 
 43692.65567		 686.20710			43006.44858		220.26200		875.00000 
 43692.65567		 305.27265			43387.38302		70.12600		324.00000 
 43692.65567		 686.20710			43006.44858		220.26200		875.00000 
 43692.65567		 305.27265			43387.38302		70.12600		324.00000 
 43692.65567		 686.20710			43006.44858		220.26200		875.00000 
 43692.65567		 305.27265			43387.38302		70.12600		324.00000 
 43692.65567		 686.20710			43006.44858		220.26200		875.00000 
 43692.65567		 305.27265			43387.38302		70.12600		324.00000 
 43692.65567		 686.20710			43006.44858		220.26200		875.00000 
 43692.65567		 305.27265			43387.38302		70.12600		324.00000 
 43692.65567		 686.20710			43006.44858		220.26200		875.00000 
 43692.65567		 305.27265			43387.38302		70.12600		324.00000 
 43692.65567		 686.20710			43006.44858		220.26200		875.00000 
 43692.65567		 305.27265			43387.38302		70.12600		324.00000 
 43692.65567		 686.20710			43006.44858		220.26200		875.00000 
 43692.65567		 305.27265			43387.38302		70.12600		324.00000 
 43692.65567		 686.20710			43006.44858		220.26200		875.00000 
 43692.65567		 305.27265			43387.38302		70.12600		324.00000 
 43692.65567		 686.20710			43006.44858		220.26200		875.00000 
 43692.65567		 305.27265			43387.38302		70.12600		324.00000 
 43692.65567		 686.20710			43006.44858		220.26200		875.00000 
 43692.65567		 305.27265			43387.38302		70.12600		324.00000 
 43692.65567		 686.20710			43006.44858		220.26200		875.00000 
 43692.65567		 305.27265			43387.38302		70.12600		324.00000 
 43692.65567		 686.20710			43006.44858		220.26200		875.00000 
 43692.65567		 305.27265			43387.38302		70.12600		324.00000 
 43692.65567		 686.20710			43006.44858		220.26200		875.00000 
 43692.65567		 305.27265			43387.38302		70.12600		324.00000 
 43692.65567		 686.20710			43006.44858		220.26200		875.00000 
 43692.65567		 305.27265			43387.38302		70.12600		324.00000 
 43692.65567		 686.20710			43006.44858		220.26200		875.00000 
 43692.65567		 305.27265			43387.38302		70.12600		324.00000 
 43692.65567		 686.20710			43006.44858		220.26200		875.00000 
 43692.65567		 305.27265			43387.38302		70.12600		324.00000 
 43692.65567		 686.20710			43006.44858		220.26200		875.00000 
 43692.65567		 305.27265			43387.38302		70.12600		324.00000 
 43692.65567		 686.20710			43006.44858		220.26200		875.00000 
 43692.65567		 305.27265			43387.38302		70.12600		324.00000 
 43692.65567		 686.20710			43006.44858		220.26200		875.00000 
 43692.65567		 305.27265			43387.38302		70.12600		324.00000 
 43692.65567		 686.20710			43006.44858		220.26200		875.00000 
 43692.65567		 305.27265			43387.38302		70.12600		324.00000 
 43692.65567		 686.20710			43006.44858		220.26200		875.00000 
 43692.65567		 305.27265			43387.38302		70.12600		324.00000 
 43692.65567		 686.20710			43006.44858		220.26200		875.00000 
 43692.65567		 305.27265			43387.38302		70.12600		324.00000 
 43692.65567		 686.20710			43006.44858		220.26200		875.00000 
 43692.65567		 305.27265			43387.38302		70.12600		324.00000 
 43692.65567		 686.20710			43006.44858		220.26200		875.00000 
 43692.65567		 305.27265			43387.38302		70.12600		324.00000 
 43692.65567		 686.20710			43006.44858		220.26200		875.00000 
 43692.65567		 305.27265			43387.38302		70.12600		324.00000 
 43692.65567		 686.20710			43006.44858		220.26200		875.00000 
 43692.65567		 305.27265			43387.38302		70.12600		324.00000 
 43692.65567		 686.20710			43006.44858		220.26200		875.00000 
 43692.65567		 305.27265			43387.38302		70.12600		324.00000 
 43692.65567		 686.20710			43006.44858		220.26200		875.00000 
 43692.65567		 305.27265			43387.38302		70.12600		324.00000 
 43692.65567		 686.20710			43006.44858		220.26200		875.00000 
 43692.65567		 305.27265			43387.38302		70.12600		324.00000 
 43692.65567		 686.20710			43006.44858		220.26200		875.00000 
 43692.65567		 305.27265			43387.38302		70.12600		324.00000 
 43692.65567		 686.20710			43006.44858		220.26200		875.00000 
 43692.65567		 305.27265			43387.38302		70.12600		324.00000 
 43692.65567		 686.20710			43006.44858		220.26200		875.00000 
 43692.65567		 305.27265			43387.38302		70.12600		324.00000 
 43692.65567		 686.20710			43006.44858		220.26200		875.00000 
 43692.65567		 305.27265			43387.38302		70.12600		324.00000 
 43692.65567		 686.20710			43006.44858		220.26200		875.00000 
 43692.65567		 305.27265			43387.38302		70.12600		324.00000 
 43692.65567		 686.20710			43006.44858		220.26200		875.00000 
 43692.65567		 305.27265			43387.38302		70.12600		324.00000 
 43692.65567		 686.20710			43006.44858		220.26200		875.00000 
 43692.65567		 305.27265			43387.38302		70.12600		324.00000 
 43692.65567		 686.20710			43006.44858		220.26200		875.00000 
 43692.65567		 305.27265			43387.38302		70.12600		324.00000 
 43692.65567		 686.20710			43006.44858		220.26200		875.00000 
 43692.65567		 305.27265			43387.38302		70.12600		324.00000 
 43692.65567		 686.20710			43006.44858		220.26200		875.00000 
 43692.65567		 305.27265			43387.38302		70.12600		324.00000 
 43692.65567		 686.20710			43006.44858		220.26200		875.00000 
 43692.65567		 305.27265			43387.38302		70.12600		324.00000 
 43692.65567		 686.20710			43006.44858		220.26200		875.00000 
 43692.65567		 305.27265			43387.38302		70.12600		324.00000 
 43692.65567		 686.20710			43006.44858		220.26200		875.00000 
 43692.65567		 305.27265			43387.38302		70.12600		324.00000 
 43692.65567		 636.56151			43056.09417		220.26200		875.00000 
 43692.65567		 305.27265			43387.38302		70.12600		324.00000 
 43692.65567		 586.91591			43105.73976		220.26200		875.00000 
 43692.65567		 305.27265			43387.38302		70.12600		324.00000 
 43692.65567		 537.27032			43155.38535		220.26200		875.00000 
 43692.65567		 305.27265			43387.38302		70.12600		324.00000 
 43692.65567		 537.27032			43155.38535		220.26200		875.00000 
 43692.65567		 305.27265			43387.38302		70.12600		324.00000 
 43692.65567		 537.27032			43155.38535		220.26200		875.00000 
 43692.65567		 305.27265			43387.38302		70.12600		324.00000 
 43692.65567		 537.27032			43155.38535		220.26200		875.00000 
 43692.65567		 305.27265			43387.38302		70.12600		324.00000 
 43692.65567		 537.27032			43155.38535		220.26200		875.00000 
 43692.65567		 305.27265			43387.38302		70.12600		324.00000 
 43692.65567		 537.27032			43155.38535		220.26200		875.00000 
 43692.65567		 305.27265			43387.38302		70.12600		324.00000 
 43692.65567		 537.27032			43155.38535		220.26200		875.00000 
 43692.65567		 305.27265			43387.38302		70.12600		324.00000 
 43692.65567		 537.27032			43155.38535		220.26200		875.00000 
 43692.65567		 305.27265			43387.38302		70.12600		324.00000 
 43692.65567		 537.27032			43155.38535		220.26200		875.00000 
 43692.65567		 305.27265			43387.38302		70.12600		324.00000 
 43692.65567		 537.27032			43155.38535		220.26200		875.00000 
 43692.65567		 305.27265			43387.38302		70.12600		324.00000 
 43692.65567		 537.27032			43155.38535		220.26200		875.00000 
 43692.65567		 305.27265			43387.38302		70.12600		324.00000 
 43692.65567		 537.27032			43155.38535		220.26200		875.00000 
 43692.65567		 305.27265			43387.38302		70.12600		324.00000 
 43692.65567		 537.27032			43155.38535		220.26200		875.00000 
 43692.65567		 305.27265			43387.38302		70.12600		324.00000 
 43692.65567		 537.27032			43155.38535		220.26200		875.00000 
 43692.65567		 305.27265			43387.38302		70.12600		324.00000 
 43692.65567		 537.27032			43155.38535		220.26200		875.00000 
 43692.65567		 305.27265			43387.38302		70.12600		324.00000 
 43692.65567		 537.27032			43155.38535		220.26200		875.00000 
 43692.65567		 305.27265			43387.38302		70.12600		324.00000 
 43692.65567		 537.27032			43155.38535		220.26200		875.00000 
 43692.65567		 305.27265			43387.38302		70.12600		324.00000 
 43692.65567		 537.27032			43155.38535		220.26200		875.00000 
 43692.65567		 305.27265			43387.38302		70.12600		324.00000 
 43692.65567		 537.27032			43155.38535		220.26200		875.00000 
 43692.65567		 305.27265			43387.38302		70.12600		324.00000 
 43692.65567		 537.27032			43155.38535		220.26200		875.00000 
 43692.65567		 305.27265			43387.38302		70.12600		324.00000 
 43692.65567		 537.27032			43155.38535		187.60800		875.00000 
 43692.65567		 305.27265			43387.38302		70.12600		324.00000 
 43692.65567		 525.81365			43166.84203		187.60800		875.00000 
 43692.65567		 305.27265			43387.38302		70.12600		324.00000 
 43692.65567		 525.81365			43166.84203		187.60800		875.00000 
 43692.65567		 261.35540			43431.30027		70.12600		324.00000 
 43692.65567		 261.35540			43431.30027		187.60800		875.00000 
 43692.65567		 261.35540			43431.30027		70.12600		324.00000 
