Memory Total (MiB) 	 Memory Used (MiB) 	    Memory Free (MiB) 	 Power Drawed (W) 	 Clocks (Mhz) 	 
 43692.65567		 261.35540			43431.30027		175.75400		875.00000 
 43692.65567		 261.35540			43431.30027		69.64400		324.00000 
 43692.65567		 261.35540			43431.30027		175.75400		875.00000 
 43692.65567		 261.35540			43431.30027		69.64400		324.00000 
 43692.65567		 261.35540			43431.30027		175.75400		875.00000 
 43692.65567		 261.35540			43431.30027		69.64400		324.00000 
 43692.65567		 261.35540			43431.30027		175.75400		875.00000 
 43692.65567		 261.35540			43431.30027		69.64400		324.00000 
 43692.65567		 261.35540			43431.30027		175.75400		875.00000 
 43692.65567		 261.35540			43431.30027		69.64400		324.00000 
 43692.65567		 261.35540			43431.30027		175.75400		875.00000 
 43692.65567		 261.35540			43431.30027		69.64400		324.00000 
 43692.65567		 261.35540			43431.30027		175.75400		875.00000 
 43692.65567		 261.35540			43431.30027		69.64400		324.00000 
 43692.65567		 261.35540			43431.30027		175.75400		875.00000 
 43692.65567		 261.35540			43431.30027		69.64400		324.00000 
 43692.65567		 261.35540			43431.30027		175.75400		875.00000 
 43692.65567		 261.35540			43431.30027		69.64400		324.00000 
 43692.65567		 261.35540			43431.30027		175.75400		875.00000 
 43692.65567		 261.35540			43431.30027		69.64400		324.00000 
 43692.65567		 261.35540			43431.30027		175.75400		875.00000 
 43692.65567		 261.35540			43431.30027		69.64400		324.00000 
 43692.65567		 261.35540			43431.30027		175.75400		875.00000 
 43692.65567		 261.35540			43431.30027		69.64400		324.00000 
 43692.65567		 261.35540			43431.30027		175.75400		875.00000 
 43692.65567		 261.35540			43431.30027		69.64400		324.00000 
 43692.65567		 261.35540			43431.30027		175.75400		875.00000 
 43692.65567		 261.35540			43431.30027		69.64400		324.00000 
 43692.65567		 261.35540			43431.30027		175.75400		875.00000 
 43692.65567		 261.35540			43431.30027		69.64400		324.00000 
 43692.65567		 261.35540			43431.30027		175.75400		875.00000 
 43692.65567		 261.35540			43431.30027		69.64400		324.00000 
 43692.65567		 261.35540			43431.30027		175.75400		875.00000 
 43692.65567		 261.35540			43431.30027		69.64400		324.00000 
 43692.65567		 261.35540			43431.30027		175.75400		875.00000 
 43692.65567		 261.35540			43431.30027		69.64400		324.00000 
 43692.65567		 261.35540			43431.30027		175.75400		875.00000 
 43692.65567		 261.35540			43431.30027		69.64400		324.00000 
 43692.65567		 265.17429			43427.48138		175.75400		875.00000 
 43692.65567		 261.35540			43431.30027		69.64400		324.00000 
 43692.65567		 272.81207			43419.84360		175.75400		875.00000 
 43692.65567		 261.35540			43431.30027		69.64400		324.00000 
 43692.65567		 272.81207			43419.84360		175.75400		875.00000 
 43692.65567		 261.35540			43431.30027		69.64400		324.00000 
 43692.65567		 272.81207			43419.84360		175.75400		875.00000 
 43692.65567		 265.17429			43427.48138		69.64400		324.00000 
 43692.65567		 272.81207			43419.84360		175.75400		875.00000 
 43692.65567		 265.17429			43427.48138		69.64400		324.00000 
 43692.65567		 272.81207			43419.84360		175.75400		875.00000 
 43692.65567		 272.81207			43419.84360		69.64400		324.00000 
 43692.65567		 272.81207			43419.84360		175.75400		875.00000 
 43692.65567		 272.81207			43419.84360		69.64400		324.00000 
 43692.65567		 305.27265			43387.38302		148.09800		875.00000 
 43692.65567		 305.27265			43387.38302		69.64400		324.00000 
 43692.65567		 305.27265			43387.38302		148.09800		875.00000 
 43692.65567		 305.27265			43387.38302		69.64400		324.00000 
 43692.65567		 305.27265			43387.38302		148.09800		875.00000 
 43692.65567		 305.27265			43387.38302		69.64400		324.00000 
 43692.65567		 305.27265			43387.38302		148.09800		875.00000 
 43692.65567		 305.27265			43387.38302		69.64400		324.00000 
 43692.65567		 305.27265			43387.38302		148.09800		875.00000 
 43692.65567		 305.27265			43387.38302		69.64400		324.00000 
 43692.65567		 309.09154			43383.56413		148.09800		875.00000 
 43692.65567		 305.27265			43387.38302		69.64400		324.00000 
 43692.65567		 310.52363			43382.13204		148.09800		875.00000 
 43692.65567		 305.27265			43387.38302		69.64400		324.00000 
 43692.65567		 311.00099			43381.65468		148.09800		875.00000 
 43692.65567		 305.27265			43387.38302		69.64400		324.00000 
 43692.65567		 311.00099			43381.65468		148.09800		875.00000 
 43692.65567		 305.27265			43387.38302		69.64400		324.00000 
 43692.65567		 311.00099			43381.65468		148.09800		875.00000 
 43692.65567		 305.27265			43387.38302		69.64400		324.00000 
 43692.65567		 311.00099			43381.65468		148.09800		875.00000 
 43692.65567		 305.27265			43387.38302		69.64400		324.00000 
 43692.65567		 311.00099			43381.65468		148.09800		875.00000 
 43692.65567		 305.27265			43387.38302		69.64400		324.00000 
 43692.65567		 311.00099			43381.65468		148.09800		875.00000 
 43692.65567		 305.27265			43387.38302		69.64400		324.00000 
 43692.65567		 311.00099			43381.65468		148.09800		875.00000 
 43692.65567		 305.27265			43387.38302		69.64400		324.00000 
 43692.65567		 311.00099			43381.65468		148.09800		875.00000 
 43692.65567		 305.27265			43387.38302		69.64400		324.00000 
 43692.65567		 311.00099			43381.65468		148.09800		875.00000 
 43692.65567		 305.27265			43387.38302		69.64400		324.00000 
 43692.65567		 311.00099			43381.65468		148.09800		875.00000 
 43692.65567		 305.27265			43387.38302		69.64400		324.00000 
 43692.65567		 311.00099			43381.65468		148.09800		875.00000 
 43692.65567		 305.27265			43387.38302		69.64400		324.00000 
 43692.65567		 311.00099			43381.65468		148.09800		875.00000 
 43692.65567		 305.27265			43387.38302		69.64400		324.00000 
 43692.65567		 311.00099			43381.65468		148.09800		875.00000 
 43692.65567		 305.27265			43387.38302		69.64400		324.00000 
 43692.65567		 311.00099			43381.65468		148.09800		875.00000 
 43692.65567		 305.27265			43387.38302		69.64400		324.00000 
 43692.65567		 311.00099			43381.65468		148.09800		875.00000 
 43692.65567		 305.27265			43387.38302		69.64400		324.00000 
 43692.65567		 311.00099			43381.65468		148.09800		875.00000 
 43692.65567		 305.27265			43387.38302		69.64400		324.00000 
 43692.65567		 311.00099			43381.65468		148.09800		875.00000 
 43692.65567		 305.27265			43387.38302		69.64400		324.00000 
 43692.65567		 311.00099			43381.65468		148.09800		875.00000 
 43692.65567		 305.27265			43387.38302		69.64400		324.00000 
 43692.65567		 311.00099			43381.65468		148.09800		875.00000 
 43692.65567		 305.27265			43387.38302		69.64400		324.00000 
 43692.65567		 311.00099			43381.65468		148.09800		875.00000 
 43692.65567		 305.27265			43387.38302		69.64400		324.00000 
 43692.65567		 311.00099			43381.65468		148.09800		875.00000 
 43692.65567		 305.27265			43387.38302		69.64400		324.00000 
 43692.65567		 311.00099			43381.65468		148.09800		875.00000 
 43692.65567		 305.27265			43387.38302		69.64400		324.00000 
 43692.65567		 311.00099			43381.65468		148.09800		875.00000 
 43692.65567		 305.27265			43387.38302		69.64400		324.00000 
 43692.65567		 311.00099			43381.65468		148.09800		875.00000 
 43692.65567		 305.27265			43387.38302		69.64400		324.00000 
 43692.65567		 311.00099			43381.65468		148.09800		875.00000 
 43692.65567		 305.27265			43387.38302		69.64400		324.00000 
 43692.65567		 311.00099			43381.65468		148.09800		875.00000 
 43692.65567		 305.27265			43387.38302		69.64400		324.00000 
 43692.65567		 311.00099			43381.65468		138.09000		875.00000 
 43692.65567		 305.27265			43387.38302		69.64400		324.00000 
 43692.65567		 311.00099			43381.65468		138.09000		875.00000 
 43692.65567		 305.27265			43387.38302		69.64400		324.00000 
 43692.65567		 311.00099			43381.65468		138.09000		875.00000 
 43692.65567		 305.27265			43387.38302		69.64400		324.00000 
 43692.65567		 311.00099			43381.65468		138.09000		875.00000 
 43692.65567		 305.27265			43387.38302		69.64400		324.00000 
 43692.65567		 311.00099			43381.65468		138.09000		875.00000 
 43692.65567		 305.27265			43387.38302		69.64400		324.00000 
 43692.65567		 311.00099			43381.65468		138.09000		875.00000 
 43692.65567		 305.27265			43387.38302		69.64400		324.00000 
 43692.65567		 311.00099			43381.65468		138.09000		875.00000 
 43692.65567		 305.27265			43387.38302		69.64400		324.00000 
 43692.65567		 311.00099			43381.65468		138.09000		875.00000 
 43692.65567		 305.27265			43387.38302		69.64400		324.00000 
 43692.65567		 311.00099			43381.65468		138.09000		875.00000 
 43692.65567		 305.27265			43387.38302		69.64400		324.00000 
 43692.65567		 311.00099			43381.65468		138.09000		875.00000 
 43692.65567		 305.27265			43387.38302		69.64400		324.00000 
 43692.65567		 311.00099			43381.65468		138.09000		875.00000 
 43692.65567		 305.27265			43387.38302		69.64400		324.00000 
 43692.65567		 311.00099			43381.65468		138.09000		875.00000 
 43692.65567		 305.27265			43387.38302		69.64400		324.00000 
 43692.65567		 311.00099			43381.65468		138.09000		875.00000 
 43692.65567		 305.27265			43387.38302		69.64400		324.00000 
 43692.65567		 311.00099			43381.65468		138.09000		875.00000 
 43692.65567		 305.27265			43387.38302		69.64400		324.00000 
 43692.65567		 311.00099			43381.65468		138.09000		875.00000 
 43692.65567		 305.27265			43387.38302		69.64400		324.00000 
 43692.65567		 311.00099			43381.65468		138.09000		875.00000 
 43692.65567		 305.27265			43387.38302		69.64400		324.00000 
 43692.65567		 311.00099			43381.65468		138.09000		875.00000 
 43692.65567		 305.27265			43387.38302		69.64400		324.00000 
 43692.65567		 311.00099			43381.65468		138.09000		875.00000 
 43692.65567		 305.27265			43387.38302		69.64400		324.00000 
 43692.65567		 311.00099			43381.65468		138.09000		875.00000 
 43692.65567		 305.27265			43387.38302		69.64400		324.00000 
 43692.65567		 311.00099			43381.65468		138.09000		875.00000 
 43692.65567		 305.27265			43387.38302		69.64400		324.00000 
 43692.65567		 311.00099			43381.65468		138.09000		875.00000 
 43692.65567		 305.27265			43387.38302		69.64400		324.00000 
 43692.65567		 311.00099			43381.65468		138.09000		875.00000 
 43692.65567		 305.27265			43387.38302		69.64400		324.00000 
 43692.65567		 311.00099			43381.65468		138.09000		875.00000 
 43692.65567		 305.27265			43387.38302		69.64400		324.00000 
 43692.65567		 311.00099			43381.65468		138.09000		875.00000 
 43692.65567		 305.27265			43387.38302		69.64400		324.00000 
 43692.65567		 311.00099			43381.65468		138.09000		875.00000 
 43692.65567		 305.27265			43387.38302		69.64400		324.00000 
 43692.65567		 314.81988			43377.83579		138.09000		875.00000 
 43692.65567		 305.27265			43387.38302		69.64400		324.00000 
 43692.65567		 314.81988			43377.83579		138.09000		875.00000 
 43692.65567		 305.27265			43387.38302		69.64400		324.00000 
 43692.65567		 314.81988			43377.83579		138.09000		875.00000 
 43692.65567		 305.27265			43387.38302		69.64400		324.00000 
 43692.65567		 318.63877			43374.01690		138.09000		875.00000 
 43692.65567		 305.27265			43387.38302		69.64400		324.00000 
 43692.65567		 322.45767			43370.19801		138.09000		875.00000 
 43692.65567		 305.27265			43387.38302		69.64400		324.00000 
 43692.65567		 326.27656			43366.37912		138.09000		875.00000 
 43692.65567		 305.27265			43387.38302		69.64400		324.00000 
 43692.65567		 326.27656			43366.37912		133.48400		875.00000 
 43692.65567		 305.27265			43387.38302		69.64400		324.00000 
 43692.65567		 537.27032			43155.38535		133.48400		875.00000 
 43692.65567		 305.27265			43387.38302		69.64400		324.00000 
 43692.65567		 537.27032			43155.38535		133.48400		875.00000 
 43692.65567		 305.27265			43387.38302		69.64400		324.00000 
 43692.65567		 639.42567			43053.23000		133.48400		875.00000 
 43692.65567		 305.27265			43387.38302		69.64400		324.00000 
 43692.65567		 690.50335			43002.15232		133.48400		875.00000 
 43692.65567		 305.27265			43387.38302		69.64400		324.00000 
 43692.65567		 690.50335			43002.15232		133.48400		875.00000 
 43692.65567		 305.27265			43387.38302		69.64400		324.00000 
 43692.65567		 690.50335			43002.15232		133.48400		875.00000 
 43692.65567		 305.27265			43387.38302		69.64400		324.00000 
 43692.65567		 690.50335			43002.15232		133.48400		875.00000 
 43692.65567		 305.27265			43387.38302		69.64400		324.00000 
 43692.65567		 690.50335			43002.15232		133.48400		875.00000 
 43692.65567		 305.27265			43387.38302		69.64400		324.00000 
 43692.65567		 690.50335			43002.15232		133.48400		875.00000 
 43692.65567		 305.27265			43387.38302		69.64400		324.00000 
 43692.65567		 690.50335			43002.15232		133.48400		875.00000 
 43692.65567		 305.27265			43387.38302		69.64400		324.00000 
 43692.65567		 690.50335			43002.15232		133.48400		875.00000 
 43692.65567		 305.27265			43387.38302		69.64400		324.00000 
 43692.65567		 690.50335			43002.15232		133.48400		875.00000 
 43692.65567		 305.27265			43387.38302		69.64400		324.00000 
 43692.65567		 690.50335			43002.15232		133.48400		875.00000 
 43692.65567		 305.27265			43387.38302		69.64400		324.00000 
 43692.65567		 690.50335			43002.15232		133.48400		875.00000 
 43692.65567		 305.27265			43387.38302		69.64400		324.00000 
 43692.65567		 690.50335			43002.15232		133.48400		875.00000 
 43692.65567		 305.27265			43387.38302		69.64400		324.00000 
 43692.65567		 690.50335			43002.15232		133.48400		875.00000 
 43692.65567		 305.27265			43387.38302		69.64400		324.00000 
 43692.65567		 690.50335			43002.15232		133.48400		875.00000 
 43692.65567		 305.27265			43387.38302		69.64400		324.00000 
 43692.65567		 690.50335			43002.15232		133.48400		875.00000 
 43692.65567		 305.27265			43387.38302		69.64400		324.00000 
 43692.65567		 690.50335			43002.15232		133.48400		875.00000 
 43692.65567		 305.27265			43387.38302		69.64400		324.00000 
 43692.65567		 690.50335			43002.15232		133.48400		875.00000 
 43692.65567		 305.27265			43387.38302		69.64400		324.00000 
 43692.65567		 690.50335			43002.15232		133.48400		875.00000 
 43692.65567		 305.27265			43387.38302		69.64400		324.00000 
 43692.65567		 690.50335			43002.15232		133.48400		875.00000 
 43692.65567		 305.27265			43387.38302		69.64400		324.00000 
 43692.65567		 690.50335			43002.15232		133.48400		875.00000 
 43692.65567		 305.27265			43387.38302		69.64400		324.00000 
 43692.65567		 690.50335			43002.15232		133.48400		875.00000 
 43692.65567		 305.27265			43387.38302		69.64400		324.00000 
 43692.65567		 690.50335			43002.15232		133.48400		875.00000 
 43692.65567		 305.27265			43387.38302		69.64400		324.00000 
 43692.65567		 690.50335			43002.15232		133.48400		875.00000 
 43692.65567		 305.27265			43387.38302		69.64400		324.00000 
 43692.65567		 690.50335			43002.15232		133.48400		875.00000 
 43692.65567		 305.27265			43387.38302		69.64400		324.00000 
 43692.65567		 690.50335			43002.15232		133.48400		875.00000 
 43692.65567		 305.27265			43387.38302		69.64400		324.00000 
 43692.65567		 690.50335			43002.15232		133.48400		875.00000 
 43692.65567		 305.27265			43387.38302		69.64400		324.00000 
 43692.65567		 690.50335			43002.15232		133.48400		875.00000 
 43692.65567		 305.27265			43387.38302		69.64400		324.00000 
 43692.65567		 690.50335			43002.15232		133.48400		875.00000 
 43692.65567		 305.27265			43387.38302		69.64400		324.00000 
 43692.65567		 690.50335			43002.15232		133.48400		875.00000 
 43692.65567		 305.27265			43387.38302		69.64400		324.00000 
 43692.65567		 690.50335			43002.15232		133.48400		875.00000 
 43692.65567		 305.27265			43387.38302		69.64400		324.00000 
 43692.65567		 690.50335			43002.15232		133.48400		875.00000 
 43692.65567		 305.27265			43387.38302		69.64400		324.00000 
 43692.65567		 690.50335			43002.15232		133.48400		875.00000 
 43692.65567		 305.27265			43387.38302		69.64400		324.00000 
 43692.65567		 690.50335			43002.15232		133.48400		875.00000 
 43692.65567		 305.27265			43387.38302		69.64400		324.00000 
 43692.65567		 690.50335			43002.15232		133.48400		875.00000 
 43692.65567		 305.27265			43387.38302		69.64400		324.00000 
 43692.65567		 690.50335			43002.15232		133.48400		875.00000 
 43692.65567		 305.27265			43387.38302		69.64400		324.00000 
 43692.65567		 690.50335			43002.15232		133.48400		875.00000 
 43692.65567		 305.27265			43387.38302		69.64400		324.00000 
 43692.65567		 690.50335			43002.15232		133.48400		875.00000 
 43692.65567		 305.27265			43387.38302		69.64400		324.00000 
 43692.65567		 690.50335			43002.15232		133.48400		875.00000 
 43692.65567		 305.27265			43387.38302		69.64400		324.00000 
 43692.65567		 690.50335			43002.15232		133.48400		875.00000 
 43692.65567		 305.27265			43387.38302		69.64400		324.00000 
 43692.65567		 690.50335			43002.15232		133.48400		875.00000 
 43692.65567		 305.27265			43387.38302		69.64400		324.00000 
 43692.65567		 690.50335			43002.15232		133.48400		875.00000 
 43692.65567		 305.27265			43387.38302		69.64400		324.00000 
 43692.65567		 690.50335			43002.15232		133.48400		875.00000 
 43692.65567		 305.27265			43387.38302		69.64400		324.00000 
 43692.65567		 690.50335			43002.15232		133.48400		875.00000 
 43692.65567		 305.27265			43387.38302		69.64400		324.00000 
 43692.65567		 690.50335			43002.15232		133.48400		875.00000 
 43692.65567		 305.27265			43387.38302		69.64400		324.00000 
 43692.65567		 690.50335			43002.15232		133.48400		875.00000 
 43692.65567		 305.27265			43387.38302		69.64400		324.00000 
 43692.65567		 690.50335			43002.15232		133.48400		875.00000 
 43692.65567		 305.27265			43387.38302		69.64400		324.00000 
 43692.65567		 690.50335			43002.15232		133.48400		875.00000 
 43692.65567		 305.27265			43387.38302		69.64400		324.00000 
 43692.65567		 690.50335			43002.15232		133.48400		875.00000 
 43692.65567		 305.27265			43387.38302		69.64400		324.00000 
 43692.65567		 690.50335			43002.15232		133.48400		875.00000 
 43692.65567		 305.27265			43387.38302		69.64400		324.00000 
 43692.65567		 690.50335			43002.15232		133.48400		875.00000 
 43692.65567		 305.27265			43387.38302		69.64400		324.00000 
 43692.65567		 690.50335			43002.15232		133.48400		875.00000 
 43692.65567		 305.27265			43387.38302		69.64400		324.00000 
 43692.65567		 690.50335			43002.15232		133.48400		875.00000 
 43692.65567		 305.27265			43387.38302		69.64400		324.00000 
 43692.65567		 690.50335			43002.15232		133.48400		875.00000 
 43692.65567		 305.27265			43387.38302		69.64400		324.00000 
 43692.65567		 690.50335			43002.15232		133.48400		875.00000 
 43692.65567		 305.27265			43387.38302		69.64400		324.00000 
 43692.65567		 690.50335			43002.15232		133.48400		875.00000 
 43692.65567		 305.27265			43387.38302		69.64400		324.00000 
 43692.65567		 690.50335			43002.15232		184.66200		875.00000 
 43692.65567		 305.27265			43387.38302		69.64400		324.00000 
 43692.65567		 690.50335			43002.15232		184.66200		875.00000 
 43692.65567		 305.27265			43387.38302		69.64400		324.00000 
 43692.65567		 690.50335			43002.15232		184.66200		875.00000 
 43692.65567		 305.27265			43387.38302		69.64400		324.00000 
 43692.65567		 690.50335			43002.15232		184.66200		875.00000 
 43692.65567		 305.27265			43387.38302		69.64400		324.00000 
 43692.65567		 690.50335			43002.15232		184.66200		875.00000 
 43692.65567		 305.27265			43387.38302		69.64400		324.00000 
 43692.65567		 690.50335			43002.15232		184.66200		875.00000 
 43692.65567		 305.27265			43387.38302		69.64400		324.00000 
 43692.65567		 690.50335			43002.15232		184.66200		875.00000 
 43692.65567		 305.27265			43387.38302		69.64400		324.00000 
 43692.65567		 690.50335			43002.15232		184.66200		875.00000 
 43692.65567		 305.27265			43387.38302		69.64400		324.00000 
 43692.65567		 690.50335			43002.15232		184.66200		875.00000 
 43692.65567		 305.27265			43387.38302		69.64400		324.00000 
 43692.65567		 690.50335			43002.15232		184.66200		875.00000 
 43692.65567		 305.27265			43387.38302		69.64400		324.00000 
 43692.65567		 690.50335			43002.15232		184.66200		875.00000 
 43692.65567		 305.27265			43387.38302		69.64400		324.00000 
 43692.65567		 690.50335			43002.15232		184.66200		875.00000 
 43692.65567		 305.27265			43387.38302		69.64400		324.00000 
 43692.65567		 690.50335			43002.15232		184.66200		875.00000 
 43692.65567		 305.27265			43387.38302		69.64400		324.00000 
 43692.65567		 690.50335			43002.15232		184.66200		875.00000 
 43692.65567		 305.27265			43387.38302		69.64400		324.00000 
 43692.65567		 690.50335			43002.15232		184.66200		875.00000 
 43692.65567		 305.27265			43387.38302		69.64400		324.00000 
 43692.65567		 690.50335			43002.15232		184.66200		875.00000 
 43692.65567		 305.27265			43387.38302		69.64400		324.00000 
 43692.65567		 690.50335			43002.15232		184.66200		875.00000 
 43692.65567		 305.27265			43387.38302		69.64400		324.00000 
 43692.65567		 690.50335			43002.15232		184.66200		875.00000 
 43692.65567		 305.27265			43387.38302		69.64400		324.00000 
 43692.65567		 690.50335			43002.15232		184.66200		875.00000 
 43692.65567		 305.27265			43387.38302		69.64400		324.00000 
 43692.65567		 690.50335			43002.15232		184.66200		875.00000 
 43692.65567		 305.27265			43387.38302		69.64400		324.00000 
 43692.65567		 690.50335			43002.15232		184.66200		875.00000 
 43692.65567		 305.27265			43387.38302		69.64400		324.00000 
 43692.65567		 690.50335			43002.15232		184.66200		875.00000 
 43692.65567		 305.27265			43387.38302		69.64400		324.00000 
 43692.65567		 690.50335			43002.15232		184.66200		875.00000 
 43692.65567		 305.27265			43387.38302		69.64400		324.00000 
 43692.65567		 690.50335			43002.15232		184.66200		875.00000 
 43692.65567		 305.27265			43387.38302		69.64400		324.00000 
 43692.65567		 690.50335			43002.15232		184.66200		875.00000 
 43692.65567		 305.27265			43387.38302		69.64400		324.00000 
 43692.65567		 690.50335			43002.15232		184.66200		875.00000 
 43692.65567		 305.27265			43387.38302		69.64400		324.00000 
 43692.65567		 690.50335			43002.15232		184.66200		875.00000 
 43692.65567		 305.27265			43387.38302		69.64400		324.00000 
 43692.65567		 690.50335			43002.15232		184.66200		875.00000 
 43692.65567		 305.27265			43387.38302		69.64400		324.00000 
 43692.65567		 690.50335			43002.15232		184.66200		875.00000 
 43692.65567		 305.27265			43387.38302		69.64400		324.00000 
 43692.65567		 690.50335			43002.15232		184.66200		875.00000 
 43692.65567		 305.27265			43387.38302		69.64400		324.00000 
 43692.65567		 690.50335			43002.15232		184.66200		875.00000 
 43692.65567		 305.27265			43387.38302		69.64400		324.00000 
 43692.65567		 690.50335			43002.15232		184.66200		875.00000 
 43692.65567		 305.27265			43387.38302		69.64400		324.00000 
 43692.65567		 690.50335			43002.15232		184.66200		875.00000 
 43692.65567		 305.27265			43387.38302		69.64400		324.00000 
 43692.65567		 690.50335			43002.15232		184.66200		875.00000 
 43692.65567		 305.27265			43387.38302		69.64400		324.00000 
 43692.65567		 690.50335			43002.15232		184.66200		875.00000 
 43692.65567		 305.27265			43387.38302		69.64400		324.00000 
 43692.65567		 690.50335			43002.15232		184.66200		875.00000 
 43692.65567		 305.27265			43387.38302		69.64400		324.00000 
 43692.65567		 690.50335			43002.15232		184.66200		875.00000 
 43692.65567		 305.27265			43387.38302		69.64400		324.00000 
 43692.65567		 690.50335			43002.15232		184.66200		875.00000 
 43692.65567		 305.27265			43387.38302		69.64400		324.00000 
 43692.65567		 690.50335			43002.15232		184.66200		875.00000 
 43692.65567		 305.27265			43387.38302		69.64400		324.00000 
 43692.65567		 690.50335			43002.15232		184.66200		875.00000 
 43692.65567		 305.27265			43387.38302		69.64400		324.00000 
 43692.65567		 690.50335			43002.15232		184.66200		875.00000 
 43692.65567		 305.27265			43387.38302		69.64400		324.00000 
 43692.65567		 690.50335			43002.15232		184.66200		875.00000 
 43692.65567		 305.27265			43387.38302		69.64400		324.00000 
 43692.65567		 690.50335			43002.15232		184.66200		875.00000 
 43692.65567		 305.27265			43387.38302		69.64400		324.00000 
 43692.65567		 690.50335			43002.15232		184.66200		875.00000 
 43692.65567		 305.27265			43387.38302		69.64400		324.00000 
 43692.65567		 690.50335			43002.15232		184.66200		875.00000 
 43692.65567		 305.27265			43387.38302		69.64400		324.00000 
 43692.65567		 690.50335			43002.15232		184.66200		875.00000 
 43692.65567		 305.27265			43387.38302		69.64400		324.00000 
 43692.65567		 690.50335			43002.15232		184.66200		875.00000 
 43692.65567		 305.27265			43387.38302		69.64400		324.00000 
 43692.65567		 690.50335			43002.15232		184.66200		875.00000 
 43692.65567		 305.27265			43387.38302		69.64400		324.00000 
 43692.65567		 690.50335			43002.15232		184.66200		875.00000 
 43692.65567		 305.27265			43387.38302		69.64400		324.00000 
 43692.65567		 690.50335			43002.15232		184.66200		875.00000 
 43692.65567		 305.27265			43387.38302		69.64400		324.00000 
 43692.65567		 690.50335			43002.15232		184.66200		875.00000 
 43692.65567		 305.27265			43387.38302		69.64400		324.00000 
 43692.65567		 690.50335			43002.15232		184.66200		875.00000 
 43692.65567		 305.27265			43387.38302		69.64400		324.00000 
 43692.65567		 690.50335			43002.15232		184.66200		875.00000 
 43692.65567		 305.27265			43387.38302		69.64400		324.00000 
 43692.65567		 690.50335			43002.15232		184.66200		875.00000 
 43692.65567		 305.27265			43387.38302		69.64400		324.00000 
 43692.65567		 690.50335			43002.15232		184.66200		875.00000 
 43692.65567		 305.27265			43387.38302		69.64400		324.00000 
 43692.65567		 690.50335			43002.15232		184.66200		875.00000 
 43692.65567		 305.27265			43387.38302		69.64400		324.00000 
 43692.65567		 690.50335			43002.15232		207.23800		875.00000 
 43692.65567		 305.27265			43387.38302		68.69600		324.00000 
 43692.65567		 690.50335			43002.15232		207.23800		875.00000 
 43692.65567		 305.27265			43387.38302		68.69600		324.00000 
 43692.65567		 690.50335			43002.15232		207.23800		875.00000 
 43692.65567		 305.27265			43387.38302		68.69600		324.00000 
 43692.65567		 690.50335			43002.15232		207.23800		875.00000 
 43692.65567		 305.27265			43387.38302		68.69600		324.00000 
 43692.65567		 690.50335			43002.15232		207.23800		875.00000 
 43692.65567		 305.27265			43387.38302		68.69600		324.00000 
 43692.65567		 690.50335			43002.15232		207.23800		875.00000 
 43692.65567		 305.27265			43387.38302		68.69600		324.00000 
 43692.65567		 690.50335			43002.15232		207.23800		875.00000 
 43692.65567		 305.27265			43387.38302		68.69600		324.00000 
 43692.65567		 690.50335			43002.15232		207.23800		875.00000 
 43692.65567		 305.27265			43387.38302		68.69600		324.00000 
 43692.65567		 690.50335			43002.15232		207.23800		875.00000 
 43692.65567		 305.27265			43387.38302		68.69600		324.00000 
 43692.65567		 690.50335			43002.15232		207.23800		875.00000 
 43692.65567		 305.27265			43387.38302		68.69600		324.00000 
 43692.65567		 690.50335			43002.15232		207.23800		875.00000 
 43692.65567		 305.27265			43387.38302		68.69600		324.00000 
 43692.65567		 690.50335			43002.15232		207.23800		875.00000 
 43692.65567		 305.27265			43387.38302		68.69600		324.00000 
 43692.65567		 690.50335			43002.15232		207.23800		875.00000 
 43692.65567		 305.27265			43387.38302		68.69600		324.00000 
 43692.65567		 690.50335			43002.15232		207.23800		875.00000 
 43692.65567		 305.27265			43387.38302		68.69600		324.00000 
 43692.65567		 690.50335			43002.15232		207.23800		875.00000 
 43692.65567		 305.27265			43387.38302		68.69600		324.00000 
 43692.65567		 690.50335			43002.15232		207.23800		875.00000 
 43692.65567		 305.27265			43387.38302		68.69600		324.00000 
 43692.65567		 690.50335			43002.15232		207.23800		875.00000 
 43692.65567		 305.27265			43387.38302		68.69600		324.00000 
 43692.65567		 690.50335			43002.15232		207.23800		875.00000 
 43692.65567		 305.27265			43387.38302		68.69600		324.00000 
 43692.65567		 690.50335			43002.15232		207.23800		875.00000 
 43692.65567		 305.27265			43387.38302		68.69600		324.00000 
 43692.65567		 690.50335			43002.15232		207.23800		875.00000 
 43692.65567		 305.27265			43387.38302		68.69600		324.00000 
 43692.65567		 690.50335			43002.15232		207.23800		875.00000 
 43692.65567		 305.27265			43387.38302		68.69600		324.00000 
 43692.65567		 690.50335			43002.15232		207.23800		875.00000 
 43692.65567		 305.27265			43387.38302		68.69600		324.00000 
 43692.65567		 690.50335			43002.15232		207.23800		875.00000 
 43692.65567		 305.27265			43387.38302		68.69600		324.00000 
 43692.65567		 690.50335			43002.15232		207.23800		875.00000 
 43692.65567		 305.27265			43387.38302		68.69600		324.00000 
 43692.65567		 690.50335			43002.15232		207.23800		875.00000 
 43692.65567		 305.27265			43387.38302		68.69600		324.00000 
 43692.65567		 690.50335			43002.15232		207.23800		875.00000 
 43692.65567		 305.27265			43387.38302		68.69600		324.00000 
 43692.65567		 690.50335			43002.15232		207.23800		875.00000 
 43692.65567		 305.27265			43387.38302		68.69600		324.00000 
 43692.65567		 690.50335			43002.15232		207.23800		875.00000 
 43692.65567		 305.27265			43387.38302		68.69600		324.00000 
 43692.65567		 690.50335			43002.15232		207.23800		875.00000 
 43692.65567		 305.27265			43387.38302		68.69600		324.00000 
 43692.65567		 690.50335			43002.15232		207.23800		875.00000 
 43692.65567		 305.27265			43387.38302		68.69600		324.00000 
 43692.65567		 690.50335			43002.15232		207.23800		875.00000 
 43692.65567		 305.27265			43387.38302		68.69600		324.00000 
 43692.65567		 690.50335			43002.15232		207.23800		875.00000 
 43692.65567		 305.27265			43387.38302		68.69600		324.00000 
 43692.65567		 690.50335			43002.15232		207.23800		875.00000 
 43692.65567		 305.27265			43387.38302		68.69600		324.00000 
 43692.65567		 690.50335			43002.15232		207.23800		875.00000 
 43692.65567		 305.27265			43387.38302		68.69600		324.00000 
 43692.65567		 690.50335			43002.15232		207.23800		875.00000 
 43692.65567		 305.27265			43387.38302		68.69600		324.00000 
 43692.65567		 690.50335			43002.15232		207.23800		875.00000 
 43692.65567		 305.27265			43387.38302		68.69600		324.00000 
 43692.65567		 690.50335			43002.15232		207.23800		875.00000 
 43692.65567		 305.27265			43387.38302		68.69600		324.00000 
 43692.65567		 690.50335			43002.15232		207.23800		875.00000 
 43692.65567		 305.27265			43387.38302		68.69600		324.00000 
 43692.65567		 690.50335			43002.15232		207.23800		875.00000 
 43692.65567		 305.27265			43387.38302		68.69600		324.00000 
 43692.65567		 690.50335			43002.15232		207.23800		875.00000 
 43692.65567		 305.27265			43387.38302		68.69600		324.00000 
 43692.65567		 690.50335			43002.15232		207.23800		875.00000 
 43692.65567		 305.27265			43387.38302		68.69600		324.00000 
 43692.65567		 690.50335			43002.15232		207.23800		875.00000 
 43692.65567		 305.27265			43387.38302		68.69600		324.00000 
 43692.65567		 690.50335			43002.15232		207.23800		875.00000 
 43692.65567		 305.27265			43387.38302		68.69600		324.00000 
 43692.65567		 690.50335			43002.15232		207.23800		875.00000 
 43692.65567		 305.27265			43387.38302		68.69600		324.00000 
 43692.65567		 690.50335			43002.15232		207.23800		875.00000 
 43692.65567		 305.27265			43387.38302		68.69600		324.00000 
 43692.65567		 690.50335			43002.15232		207.23800		875.00000 
 43692.65567		 305.27265			43387.38302		68.69600		324.00000 
 43692.65567		 690.50335			43002.15232		207.23800		875.00000 
 43692.65567		 305.27265			43387.38302		68.69600		324.00000 
 43692.65567		 690.50335			43002.15232		207.23800		875.00000 
 43692.65567		 305.27265			43387.38302		68.69600		324.00000 
 43692.65567		 690.50335			43002.15232		207.23800		875.00000 
 43692.65567		 305.27265			43387.38302		68.69600		324.00000 
 43692.65567		 690.50335			43002.15232		207.23800		875.00000 
 43692.65567		 305.27265			43387.38302		68.69600		324.00000 
 43692.65567		 690.50335			43002.15232		207.23800		875.00000 
 43692.65567		 305.27265			43387.38302		68.69600		324.00000 
 43692.65567		 690.50335			43002.15232		207.23800		875.00000 
 43692.65567		 305.27265			43387.38302		68.69600		324.00000 
 43692.65567		 690.50335			43002.15232		207.23800		875.00000 
 43692.65567		 305.27265			43387.38302		68.69600		324.00000 
 43692.65567		 690.50335			43002.15232		207.23800		875.00000 
 43692.65567		 305.27265			43387.38302		68.69600		324.00000 
 43692.65567		 690.50335			43002.15232		207.23800		875.00000 
 43692.65567		 305.27265			43387.38302		68.69600		324.00000 
 43692.65567		 690.50335			43002.15232		207.23800		875.00000 
 43692.65567		 305.27265			43387.38302		68.69600		324.00000 
 43692.65567		 690.50335			43002.15232		207.23800		875.00000 
 43692.65567		 305.27265			43387.38302		68.69600		324.00000 
 43692.65567		 690.50335			43002.15232		207.23800		875.00000 
 43692.65567		 305.27265			43387.38302		68.69600		324.00000 
 43692.65567		 690.50335			43002.15232		207.23800		875.00000 
 43692.65567		 305.27265			43387.38302		68.69600		324.00000 
 43692.65567		 690.50335			43002.15232		215.60800		875.00000 
 43692.65567		 305.27265			43387.38302		68.69600		324.00000 
 43692.65567		 690.50335			43002.15232		215.60800		875.00000 
 43692.65567		 305.27265			43387.38302		68.69600		324.00000 
 43692.65567		 690.50335			43002.15232		215.60800		875.00000 
 43692.65567		 305.27265			43387.38302		68.69600		324.00000 
 43692.65567		 690.50335			43002.15232		215.60800		875.00000 
 43692.65567		 305.27265			43387.38302		68.69600		324.00000 
 43692.65567		 690.50335			43002.15232		215.60800		875.00000 
 43692.65567		 305.27265			43387.38302		68.69600		324.00000 
 43692.65567		 690.50335			43002.15232		215.60800		875.00000 
 43692.65567		 305.27265			43387.38302		68.69600		324.00000 
 43692.65567		 690.50335			43002.15232		215.60800		875.00000 
 43692.65567		 305.27265			43387.38302		68.69600		324.00000 
 43692.65567		 690.50335			43002.15232		215.60800		875.00000 
 43692.65567		 305.27265			43387.38302		68.69600		324.00000 
 43692.65567		 690.50335			43002.15232		215.60800		875.00000 
 43692.65567		 305.27265			43387.38302		68.69600		324.00000 
 43692.65567		 690.50335			43002.15232		215.60800		875.00000 
 43692.65567		 305.27265			43387.38302		68.69600		324.00000 
 43692.65567		 690.50335			43002.15232		215.60800		875.00000 
 43692.65567		 305.27265			43387.38302		68.69600		324.00000 
 43692.65567		 690.50335			43002.15232		215.60800		875.00000 
 43692.65567		 305.27265			43387.38302		68.69600		324.00000 
 43692.65567		 690.50335			43002.15232		215.60800		875.00000 
 43692.65567		 305.27265			43387.38302		68.69600		324.00000 
 43692.65567		 690.50335			43002.15232		215.60800		875.00000 
 43692.65567		 305.27265			43387.38302		68.69600		324.00000 
 43692.65567		 690.50335			43002.15232		215.60800		875.00000 
 43692.65567		 305.27265			43387.38302		68.69600		324.00000 
 43692.65567		 690.50335			43002.15232		215.60800		875.00000 
 43692.65567		 305.27265			43387.38302		68.69600		324.00000 
 43692.65567		 690.50335			43002.15232		215.60800		875.00000 
 43692.65567		 305.27265			43387.38302		68.69600		324.00000 
 43692.65567		 690.50335			43002.15232		215.60800		875.00000 
 43692.65567		 305.27265			43387.38302		68.69600		324.00000 
 43692.65567		 690.50335			43002.15232		215.60800		875.00000 
 43692.65567		 305.27265			43387.38302		68.69600		324.00000 
 43692.65567		 690.50335			43002.15232		215.60800		875.00000 
 43692.65567		 305.27265			43387.38302		68.69600		324.00000 
 43692.65567		 690.50335			43002.15232		215.60800		875.00000 
 43692.65567		 305.27265			43387.38302		68.69600		324.00000 
 43692.65567		 690.50335			43002.15232		215.60800		875.00000 
 43692.65567		 305.27265			43387.38302		68.69600		324.00000 
 43692.65567		 690.50335			43002.15232		215.60800		875.00000 
 43692.65567		 305.27265			43387.38302		68.69600		324.00000 
 43692.65567		 690.50335			43002.15232		215.60800		875.00000 
 43692.65567		 305.27265			43387.38302		68.69600		324.00000 
 43692.65567		 690.50335			43002.15232		215.60800		875.00000 
 43692.65567		 305.27265			43387.38302		68.69600		324.00000 
 43692.65567		 690.50335			43002.15232		215.60800		875.00000 
 43692.65567		 305.27265			43387.38302		68.69600		324.00000 
 43692.65567		 690.50335			43002.15232		215.60800		875.00000 
 43692.65567		 305.27265			43387.38302		68.69600		324.00000 
 43692.65567		 690.50335			43002.15232		215.60800		875.00000 
 43692.65567		 305.27265			43387.38302		68.69600		324.00000 
 43692.65567		 690.50335			43002.15232		215.60800		875.00000 
 43692.65567		 305.27265			43387.38302		68.69600		324.00000 
 43692.65567		 690.50335			43002.15232		215.60800		875.00000 
 43692.65567		 305.27265			43387.38302		68.69600		324.00000 
 43692.65567		 690.50335			43002.15232		215.60800		875.00000 
 43692.65567		 305.27265			43387.38302		68.69600		324.00000 
 43692.65567		 690.50335			43002.15232		215.60800		875.00000 
 43692.65567		 305.27265			43387.38302		68.69600		324.00000 
 43692.65567		 690.50335			43002.15232		215.60800		875.00000 
 43692.65567		 305.27265			43387.38302		68.69600		324.00000 
 43692.65567		 690.50335			43002.15232		215.60800		875.00000 
 43692.65567		 305.27265			43387.38302		68.69600		324.00000 
 43692.65567		 690.50335			43002.15232		215.60800		875.00000 
 43692.65567		 305.27265			43387.38302		68.69600		324.00000 
 43692.65567		 690.50335			43002.15232		215.60800		875.00000 
 43692.65567		 305.27265			43387.38302		68.69600		324.00000 
 43692.65567		 690.50335			43002.15232		215.60800		875.00000 
 43692.65567		 305.27265			43387.38302		68.69600		324.00000 
 43692.65567		 690.50335			43002.15232		215.60800		875.00000 
 43692.65567		 305.27265			43387.38302		68.69600		324.00000 
 43692.65567		 690.50335			43002.15232		215.60800		875.00000 
 43692.65567		 305.27265			43387.38302		68.69600		324.00000 
 43692.65567		 690.50335			43002.15232		215.60800		875.00000 
 43692.65567		 305.27265			43387.38302		68.69600		324.00000 
 43692.65567		 690.50335			43002.15232		215.60800		875.00000 
 43692.65567		 305.27265			43387.38302		68.69600		324.00000 
 43692.65567		 690.50335			43002.15232		215.60800		875.00000 
 43692.65567		 305.27265			43387.38302		68.69600		324.00000 
 43692.65567		 690.50335			43002.15232		215.60800		875.00000 
 43692.65567		 305.27265			43387.38302		68.69600		324.00000 
 43692.65567		 690.50335			43002.15232		215.60800		875.00000 
 43692.65567		 305.27265			43387.38302		68.69600		324.00000 
 43692.65567		 690.50335			43002.15232		215.60800		875.00000 
 43692.65567		 305.27265			43387.38302		68.69600		324.00000 
 43692.65567		 690.50335			43002.15232		215.60800		875.00000 
 43692.65567		 305.27265			43387.38302		68.69600		324.00000 
 43692.65567		 690.50335			43002.15232		215.60800		875.00000 
 43692.65567		 305.27265			43387.38302		68.69600		324.00000 
 43692.65567		 690.50335			43002.15232		215.60800		875.00000 
 43692.65567		 305.27265			43387.38302		68.69600		324.00000 
 43692.65567		 690.50335			43002.15232		215.60800		875.00000 
 43692.65567		 305.27265			43387.38302		68.69600		324.00000 
 43692.65567		 690.50335			43002.15232		215.60800		875.00000 
 43692.65567		 305.27265			43387.38302		68.69600		324.00000 
 43692.65567		 690.50335			43002.15232		215.60800		875.00000 
 43692.65567		 305.27265			43387.38302		68.69600		324.00000 
 43692.65567		 690.50335			43002.15232		215.60800		875.00000 
 43692.65567		 305.27265			43387.38302		68.69600		324.00000 
 43692.65567		 690.50335			43002.15232		215.60800		875.00000 
 43692.65567		 305.27265			43387.38302		68.69600		324.00000 
 43692.65567		 690.50335			43002.15232		215.60800		875.00000 
 43692.65567		 305.27265			43387.38302		68.69600		324.00000 
 43692.65567		 690.50335			43002.15232		215.60800		875.00000 
 43692.65567		 305.27265			43387.38302		68.69600		324.00000 
 43692.65567		 690.50335			43002.15232		215.60800		875.00000 
 43692.65567		 305.27265			43387.38302		68.69600		324.00000 
 43692.65567		 690.50335			43002.15232		215.60800		875.00000 
 43692.65567		 305.27265			43387.38302		68.69600		324.00000 
 43692.65567		 690.50335			43002.15232		215.60800		875.00000 
 43692.65567		 305.27265			43387.38302		68.69600		324.00000 
 43692.65567		 690.50335			43002.15232		215.60800		875.00000 
 43692.65567		 305.27265			43387.38302		68.69600		324.00000 
 43692.65567		 690.50335			43002.15232		215.60800		875.00000 
 43692.65567		 305.27265			43387.38302		68.69600		324.00000 
 43692.65567		 690.50335			43002.15232		215.60800		875.00000 
 43692.65567		 305.27265			43387.38302		68.69600		324.00000 
 43692.65567		 690.50335			43002.15232		215.60800		875.00000 
 43692.65567		 305.27265			43387.38302		68.69600		324.00000 
 43692.65567		 690.50335			43002.15232		215.60800		875.00000 
 43692.65567		 305.27265			43387.38302		68.69600		324.00000 
 43692.65567		 690.50335			43002.15232		219.12400		875.00000 
 43692.65567		 305.27265			43387.38302		68.69600		324.00000 
 43692.65567		 690.50335			43002.15232		219.12400		875.00000 
 43692.65567		 305.27265			43387.38302		68.69600		324.00000 
 43692.65567		 690.50335			43002.15232		219.12400		875.00000 
 43692.65567		 305.27265			43387.38302		68.69600		324.00000 
 43692.65567		 690.50335			43002.15232		219.12400		875.00000 
 43692.65567		 305.27265			43387.38302		68.69600		324.00000 
 43692.65567		 690.50335			43002.15232		219.12400		875.00000 
 43692.65567		 305.27265			43387.38302		68.69600		324.00000 
 43692.65567		 690.50335			43002.15232		219.12400		875.00000 
 43692.65567		 305.27265			43387.38302		68.69600		324.00000 
 43692.65567		 690.50335			43002.15232		219.12400		875.00000 
 43692.65567		 305.27265			43387.38302		68.69600		324.00000 
 43692.65567		 690.50335			43002.15232		219.12400		875.00000 
 43692.65567		 305.27265			43387.38302		68.69600		324.00000 
 43692.65567		 690.50335			43002.15232		219.12400		875.00000 
 43692.65567		 305.27265			43387.38302		68.69600		324.00000 
 43692.65567		 690.50335			43002.15232		219.12400		875.00000 
 43692.65567		 305.27265			43387.38302		68.69600		324.00000 
 43692.65567		 690.50335			43002.15232		219.12400		875.00000 
 43692.65567		 305.27265			43387.38302		68.69600		324.00000 
 43692.65567		 690.50335			43002.15232		219.12400		875.00000 
 43692.65567		 305.27265			43387.38302		68.69600		324.00000 
 43692.65567		 690.50335			43002.15232		219.12400		875.00000 
 43692.65567		 305.27265			43387.38302		68.69600		324.00000 
 43692.65567		 690.50335			43002.15232		219.12400		875.00000 
 43692.65567		 305.27265			43387.38302		68.69600		324.00000 
 43692.65567		 690.50335			43002.15232		219.12400		875.00000 
 43692.65567		 305.27265			43387.38302		68.69600		324.00000 
 43692.65567		 690.50335			43002.15232		219.12400		875.00000 
 43692.65567		 305.27265			43387.38302		68.69600		324.00000 
 43692.65567		 690.50335			43002.15232		219.12400		875.00000 
 43692.65567		 305.27265			43387.38302		68.69600		324.00000 
 43692.65567		 690.50335			43002.15232		219.12400		875.00000 
 43692.65567		 305.27265			43387.38302		68.69600		324.00000 
 43692.65567		 690.50335			43002.15232		219.12400		875.00000 
 43692.65567		 305.27265			43387.38302		68.69600		324.00000 
 43692.65567		 690.50335			43002.15232		219.12400		875.00000 
 43692.65567		 305.27265			43387.38302		68.69600		324.00000 
 43692.65567		 690.50335			43002.15232		219.12400		875.00000 
 43692.65567		 305.27265			43387.38302		68.69600		324.00000 
 43692.65567		 690.50335			43002.15232		219.12400		875.00000 
 43692.65567		 305.27265			43387.38302		68.69600		324.00000 
 43692.65567		 690.50335			43002.15232		219.12400		875.00000 
 43692.65567		 305.27265			43387.38302		68.69600		324.00000 
 43692.65567		 690.50335			43002.15232		219.12400		875.00000 
 43692.65567		 305.27265			43387.38302		68.69600		324.00000 
 43692.65567		 690.50335			43002.15232		219.12400		875.00000 
 43692.65567		 305.27265			43387.38302		68.69600		324.00000 
 43692.65567		 690.50335			43002.15232		219.12400		875.00000 
 43692.65567		 305.27265			43387.38302		68.69600		324.00000 
 43692.65567		 690.50335			43002.15232		219.12400		875.00000 
 43692.65567		 305.27265			43387.38302		68.69600		324.00000 
 43692.65567		 690.50335			43002.15232		219.12400		875.00000 
 43692.65567		 305.27265			43387.38302		68.69600		324.00000 
 43692.65567		 690.50335			43002.15232		219.12400		875.00000 
 43692.65567		 305.27265			43387.38302		68.69600		324.00000 
 43692.65567		 690.50335			43002.15232		219.12400		875.00000 
 43692.65567		 305.27265			43387.38302		68.69600		324.00000 
 43692.65567		 690.50335			43002.15232		219.12400		875.00000 
 43692.65567		 305.27265			43387.38302		68.69600		324.00000 
 43692.65567		 690.50335			43002.15232		219.12400		875.00000 
 43692.65567		 305.27265			43387.38302		68.69600		324.00000 
 43692.65567		 690.50335			43002.15232		219.12400		875.00000 
 43692.65567		 305.27265			43387.38302		68.69600		324.00000 
 43692.65567		 690.50335			43002.15232		219.12400		875.00000 
 43692.65567		 305.27265			43387.38302		68.69600		324.00000 
 43692.65567		 690.50335			43002.15232		219.12400		875.00000 
 43692.65567		 305.27265			43387.38302		68.69600		324.00000 
 43692.65567		 690.50335			43002.15232		219.12400		875.00000 
 43692.65567		 305.27265			43387.38302		68.69600		324.00000 
 43692.65567		 690.50335			43002.15232		219.12400		875.00000 
 43692.65567		 305.27265			43387.38302		68.69600		324.00000 
 43692.65567		 690.50335			43002.15232		219.12400		875.00000 
 43692.65567		 305.27265			43387.38302		68.69600		324.00000 
 43692.65567		 690.50335			43002.15232		219.12400		875.00000 
 43692.65567		 305.27265			43387.38302		68.69600		324.00000 
 43692.65567		 690.50335			43002.15232		219.12400		875.00000 
 43692.65567		 305.27265			43387.38302		68.69600		324.00000 
 43692.65567		 690.50335			43002.15232		219.12400		875.00000 
 43692.65567		 305.27265			43387.38302		68.69600		324.00000 
 43692.65567		 690.50335			43002.15232		219.12400		875.00000 
 43692.65567		 305.27265			43387.38302		68.69600		324.00000 
 43692.65567		 690.50335			43002.15232		219.12400		875.00000 
 43692.65567		 305.27265			43387.38302		68.69600		324.00000 
 43692.65567		 690.50335			43002.15232		219.12400		875.00000 
 43692.65567		 305.27265			43387.38302		68.69600		324.00000 
 43692.65567		 690.50335			43002.15232		219.12400		875.00000 
 43692.65567		 305.27265			43387.38302		68.69600		324.00000 
 43692.65567		 690.50335			43002.15232		219.12400		875.00000 
 43692.65567		 305.27265			43387.38302		68.69600		324.00000 
 43692.65567		 690.50335			43002.15232		219.12400		875.00000 
 43692.65567		 305.27265			43387.38302		68.69600		324.00000 
 43692.65567		 690.50335			43002.15232		219.12400		875.00000 
 43692.65567		 305.27265			43387.38302		68.69600		324.00000 
 43692.65567		 690.50335			43002.15232		219.12400		875.00000 
 43692.65567		 305.27265			43387.38302		68.69600		324.00000 
 43692.65567		 690.50335			43002.15232		219.12400		875.00000 
 43692.65567		 305.27265			43387.38302		68.69600		324.00000 
 43692.65567		 690.50335			43002.15232		219.12400		875.00000 
 43692.65567		 305.27265			43387.38302		68.69600		324.00000 
 43692.65567		 690.50335			43002.15232		219.12400		875.00000 
 43692.65567		 305.27265			43387.38302		68.69600		324.00000 
 43692.65567		 690.50335			43002.15232		219.12400		875.00000 
 43692.65567		 305.27265			43387.38302		68.69600		324.00000 
 43692.65567		 690.50335			43002.15232		219.12400		875.00000 
 43692.65567		 305.27265			43387.38302		68.69600		324.00000 
 43692.65567		 690.50335			43002.15232		219.12400		875.00000 
 43692.65567		 305.27265			43387.38302		68.69600		324.00000 
 43692.65567		 690.50335			43002.15232		219.12400		875.00000 
 43692.65567		 305.27265			43387.38302		68.69600		324.00000 
 43692.65567		 690.50335			43002.15232		219.12400		875.00000 
 43692.65567		 305.27265			43387.38302		68.69600		324.00000 
 43692.65567		 690.50335			43002.15232		219.12400		875.00000 
 43692.65567		 305.27265			43387.38302		68.69600		324.00000 
 43692.65567		 690.50335			43002.15232		219.12400		875.00000 
 43692.65567		 305.27265			43387.38302		68.69600		324.00000 
 43692.65567		 690.50335			43002.15232		219.12400		875.00000 
 43692.65567		 305.27265			43387.38302		68.69600		324.00000 
 43692.65567		 690.50335			43002.15232		219.30200		875.00000 
 43692.65567		 305.27265			43387.38302		68.69600		324.00000 
 43692.65567		 690.50335			43002.15232		219.30200		875.00000 
 43692.65567		 305.27265			43387.38302		68.69600		324.00000 
 43692.65567		 690.50335			43002.15232		219.30200		875.00000 
 43692.65567		 305.27265			43387.38302		68.69600		324.00000 
 43692.65567		 690.50335			43002.15232		219.30200		875.00000 
 43692.65567		 305.27265			43387.38302		68.69600		324.00000 
 43692.65567		 690.50335			43002.15232		219.30200		875.00000 
 43692.65567		 305.27265			43387.38302		68.69600		324.00000 
 43692.65567		 690.50335			43002.15232		219.30200		875.00000 
 43692.65567		 305.27265			43387.38302		68.69600		324.00000 
 43692.65567		 690.50335			43002.15232		219.30200		875.00000 
 43692.65567		 305.27265			43387.38302		68.69600		324.00000 
 43692.65567		 690.50335			43002.15232		219.30200		875.00000 
 43692.65567		 305.27265			43387.38302		68.69600		324.00000 
 43692.65567		 690.50335			43002.15232		219.30200		875.00000 
 43692.65567		 305.27265			43387.38302		68.69600		324.00000 
 43692.65567		 690.50335			43002.15232		219.30200		875.00000 
 43692.65567		 305.27265			43387.38302		68.69600		324.00000 
 43692.65567		 690.50335			43002.15232		219.30200		875.00000 
 43692.65567		 305.27265			43387.38302		68.69600		324.00000 
 43692.65567		 690.50335			43002.15232		219.30200		875.00000 
 43692.65567		 305.27265			43387.38302		68.69600		324.00000 
 43692.65567		 690.50335			43002.15232		219.30200		875.00000 
 43692.65567		 305.27265			43387.38302		68.69600		324.00000 
 43692.65567		 690.50335			43002.15232		219.30200		875.00000 
 43692.65567		 305.27265			43387.38302		68.69600		324.00000 
 43692.65567		 690.50335			43002.15232		219.30200		875.00000 
 43692.65567		 305.27265			43387.38302		68.69600		324.00000 
 43692.65567		 690.50335			43002.15232		219.30200		875.00000 
 43692.65567		 305.27265			43387.38302		68.69600		324.00000 
 43692.65567		 690.50335			43002.15232		219.30200		875.00000 
 43692.65567		 305.27265			43387.38302		68.69600		324.00000 
 43692.65567		 690.50335			43002.15232		219.30200		875.00000 
 43692.65567		 305.27265			43387.38302		68.69600		324.00000 
 43692.65567		 690.50335			43002.15232		219.30200		875.00000 
 43692.65567		 305.27265			43387.38302		68.69600		324.00000 
 43692.65567		 690.50335			43002.15232		219.30200		875.00000 
 43692.65567		 305.27265			43387.38302		68.69600		324.00000 
 43692.65567		 690.50335			43002.15232		219.30200		875.00000 
 43692.65567		 305.27265			43387.38302		68.69600		324.00000 
 43692.65567		 690.50335			43002.15232		219.30200		875.00000 
 43692.65567		 305.27265			43387.38302		68.69600		324.00000 
 43692.65567		 690.50335			43002.15232		219.30200		875.00000 
 43692.65567		 305.27265			43387.38302		68.69600		324.00000 
 43692.65567		 690.50335			43002.15232		219.30200		875.00000 
 43692.65567		 305.27265			43387.38302		68.69600		324.00000 
 43692.65567		 690.50335			43002.15232		219.30200		875.00000 
 43692.65567		 305.27265			43387.38302		68.69600		324.00000 
 43692.65567		 690.50335			43002.15232		219.30200		875.00000 
 43692.65567		 305.27265			43387.38302		68.69600		324.00000 
 43692.65567		 690.50335			43002.15232		219.30200		875.00000 
 43692.65567		 305.27265			43387.38302		68.69600		324.00000 
 43692.65567		 690.50335			43002.15232		219.30200		875.00000 
 43692.65567		 305.27265			43387.38302		68.69600		324.00000 
 43692.65567		 690.50335			43002.15232		219.30200		875.00000 
 43692.65567		 305.27265			43387.38302		68.69600		324.00000 
 43692.65567		 690.50335			43002.15232		219.30200		875.00000 
 43692.65567		 305.27265			43387.38302		68.69600		324.00000 
 43692.65567		 690.50335			43002.15232		219.30200		875.00000 
 43692.65567		 305.27265			43387.38302		68.69600		324.00000 
 43692.65567		 690.50335			43002.15232		219.30200		875.00000 
 43692.65567		 305.27265			43387.38302		68.69600		324.00000 
 43692.65567		 690.50335			43002.15232		219.30200		875.00000 
 43692.65567		 305.27265			43387.38302		68.69600		324.00000 
 43692.65567		 690.50335			43002.15232		219.30200		875.00000 
 43692.65567		 305.27265			43387.38302		68.69600		324.00000 
 43692.65567		 690.50335			43002.15232		219.30200		875.00000 
 43692.65567		 305.27265			43387.38302		68.69600		324.00000 
 43692.65567		 690.50335			43002.15232		219.30200		875.00000 
 43692.65567		 305.27265			43387.38302		68.69600		324.00000 
 43692.65567		 690.50335			43002.15232		219.30200		875.00000 
 43692.65567		 305.27265			43387.38302		68.69600		324.00000 
 43692.65567		 690.50335			43002.15232		219.30200		875.00000 
 43692.65567		 305.27265			43387.38302		68.69600		324.00000 
 43692.65567		 690.50335			43002.15232		219.30200		875.00000 
 43692.65567		 305.27265			43387.38302		68.69600		324.00000 
 43692.65567		 690.50335			43002.15232		219.30200		875.00000 
 43692.65567		 305.27265			43387.38302		68.69600		324.00000 
 43692.65567		 690.50335			43002.15232		219.30200		875.00000 
 43692.65567		 305.27265			43387.38302		68.69600		324.00000 
 43692.65567		 690.50335			43002.15232		219.30200		875.00000 
 43692.65567		 305.27265			43387.38302		68.69600		324.00000 
 43692.65567		 690.50335			43002.15232		219.30200		875.00000 
 43692.65567		 305.27265			43387.38302		68.69600		324.00000 
 43692.65567		 690.50335			43002.15232		219.30200		875.00000 
 43692.65567		 305.27265			43387.38302		68.69600		324.00000 
 43692.65567		 690.50335			43002.15232		219.30200		875.00000 
 43692.65567		 305.27265			43387.38302		68.69600		324.00000 
 43692.65567		 690.50335			43002.15232		219.30200		875.00000 
 43692.65567		 305.27265			43387.38302		68.69600		324.00000 
 43692.65567		 690.50335			43002.15232		219.30200		875.00000 
 43692.65567		 305.27265			43387.38302		68.69600		324.00000 
 43692.65567		 690.50335			43002.15232		219.30200		875.00000 
 43692.65567		 305.27265			43387.38302		68.69600		324.00000 
 43692.65567		 690.50335			43002.15232		219.30200		875.00000 
 43692.65567		 305.27265			43387.38302		68.69600		324.00000 
 43692.65567		 690.50335			43002.15232		219.30200		875.00000 
 43692.65567		 305.27265			43387.38302		68.69600		324.00000 
 43692.65567		 690.50335			43002.15232		219.30200		875.00000 
 43692.65567		 305.27265			43387.38302		68.69600		324.00000 
 43692.65567		 690.50335			43002.15232		219.30200		875.00000 
 43692.65567		 305.27265			43387.38302		68.69600		324.00000 
 43692.65567		 690.50335			43002.15232		219.30200		875.00000 
 43692.65567		 305.27265			43387.38302		68.69600		324.00000 
 43692.65567		 690.50335			43002.15232		219.30200		875.00000 
 43692.65567		 305.27265			43387.38302		68.69600		324.00000 
 43692.65567		 690.50335			43002.15232		219.30200		875.00000 
 43692.65567		 305.27265			43387.38302		68.69600		324.00000 
 43692.65567		 690.50335			43002.15232		219.30200		875.00000 
 43692.65567		 305.27265			43387.38302		68.69600		324.00000 
 43692.65567		 690.50335			43002.15232		219.30200		875.00000 
 43692.65567		 305.27265			43387.38302		68.69600		324.00000 
 43692.65567		 690.50335			43002.15232		219.30200		875.00000 
 43692.65567		 305.27265			43387.38302		68.69600		324.00000 
 43692.65567		 690.50335			43002.15232		219.30200		875.00000 
 43692.65567		 305.27265			43387.38302		68.69600		324.00000 
 43692.65567		 690.50335			43002.15232		219.30200		875.00000 
 43692.65567		 305.27265			43387.38302		68.69600		324.00000 
 43692.65567		 690.50335			43002.15232		219.30200		875.00000 
 43692.65567		 305.27265			43387.38302		68.69600		324.00000 
 43692.65567		 690.50335			43002.15232		219.30200		875.00000 
 43692.65567		 305.27265			43387.38302		68.69600		324.00000 
 43692.65567		 690.50335			43002.15232		219.30200		875.00000 
 43692.65567		 305.27265			43387.38302		68.69600		324.00000 
 43692.65567		 690.50335			43002.15232		220.26200		875.00000 
 43692.65567		 305.27265			43387.38302		68.69600		324.00000 
 43692.65567		 690.50335			43002.15232		220.26200		875.00000 
 43692.65567		 305.27265			43387.38302		68.69600		324.00000 
 43692.65567		 690.50335			43002.15232		220.26200		875.00000 
 43692.65567		 305.27265			43387.38302		68.69600		324.00000 
 43692.65567		 690.50335			43002.15232		220.26200		875.00000 
 43692.65567		 305.27265			43387.38302		68.69600		324.00000 
 43692.65567		 690.50335			43002.15232		220.26200		875.00000 
 43692.65567		 305.27265			43387.38302		68.69600		324.00000 
 43692.65567		 690.50335			43002.15232		220.26200		875.00000 
 43692.65567		 305.27265			43387.38302		68.69600		324.00000 
 43692.65567		 690.50335			43002.15232		220.26200		875.00000 
 43692.65567		 305.27265			43387.38302		68.69600		324.00000 
 43692.65567		 690.50335			43002.15232		220.26200		875.00000 
 43692.65567		 305.27265			43387.38302		68.69600		324.00000 
 43692.65567		 690.50335			43002.15232		220.26200		875.00000 
 43692.65567		 305.27265			43387.38302		68.69600		324.00000 
 43692.65567		 690.50335			43002.15232		220.26200		875.00000 
 43692.65567		 305.27265			43387.38302		68.69600		324.00000 
 43692.65567		 690.50335			43002.15232		220.26200		875.00000 
 43692.65567		 305.27265			43387.38302		68.69600		324.00000 
 43692.65567		 690.50335			43002.15232		220.26200		875.00000 
 43692.65567		 305.27265			43387.38302		68.69600		324.00000 
 43692.65567		 690.50335			43002.15232		220.26200		875.00000 
 43692.65567		 305.27265			43387.38302		68.69600		324.00000 
 43692.65567		 690.50335			43002.15232		220.26200		875.00000 
 43692.65567		 305.27265			43387.38302		68.69600		324.00000 
 43692.65567		 690.50335			43002.15232		220.26200		875.00000 
 43692.65567		 305.27265			43387.38302		68.69600		324.00000 
 43692.65567		 690.50335			43002.15232		220.26200		875.00000 
 43692.65567		 305.27265			43387.38302		68.69600		324.00000 
 43692.65567		 690.50335			43002.15232		220.26200		875.00000 
 43692.65567		 305.27265			43387.38302		68.69600		324.00000 
 43692.65567		 690.50335			43002.15232		220.26200		875.00000 
 43692.65567		 305.27265			43387.38302		68.69600		324.00000 
 43692.65567		 690.50335			43002.15232		220.26200		875.00000 
 43692.65567		 305.27265			43387.38302		68.69600		324.00000 
 43692.65567		 690.50335			43002.15232		220.26200		875.00000 
 43692.65567		 305.27265			43387.38302		68.69600		324.00000 
 43692.65567		 690.50335			43002.15232		220.26200		875.00000 
 43692.65567		 305.27265			43387.38302		68.69600		324.00000 
 43692.65567		 690.50335			43002.15232		220.26200		875.00000 
 43692.65567		 305.27265			43387.38302		68.69600		324.00000 
 43692.65567		 690.50335			43002.15232		220.26200		875.00000 
 43692.65567		 305.27265			43387.38302		68.69600		324.00000 
 43692.65567		 690.50335			43002.15232		220.26200		875.00000 
 43692.65567		 305.27265			43387.38302		68.69600		324.00000 
 43692.65567		 690.50335			43002.15232		220.26200		875.00000 
 43692.65567		 305.27265			43387.38302		68.69600		324.00000 
 43692.65567		 690.50335			43002.15232		220.26200		875.00000 
 43692.65567		 305.27265			43387.38302		68.69600		324.00000 
 43692.65567		 690.50335			43002.15232		220.26200		875.00000 
 43692.65567		 305.27265			43387.38302		68.69600		324.00000 
 43692.65567		 690.50335			43002.15232		220.26200		875.00000 
 43692.65567		 305.27265			43387.38302		68.69600		324.00000 
 43692.65567		 690.50335			43002.15232		220.26200		875.00000 
 43692.65567		 305.27265			43387.38302		68.69600		324.00000 
 43692.65567		 690.50335			43002.15232		220.26200		875.00000 
 43692.65567		 305.27265			43387.38302		68.69600		324.00000 
 43692.65567		 690.50335			43002.15232		220.26200		875.00000 
 43692.65567		 305.27265			43387.38302		68.69600		324.00000 
 43692.65567		 690.50335			43002.15232		220.26200		875.00000 
 43692.65567		 305.27265			43387.38302		68.69600		324.00000 
 43692.65567		 690.50335			43002.15232		220.26200		875.00000 
 43692.65567		 305.27265			43387.38302		68.69600		324.00000 
 43692.65567		 690.50335			43002.15232		220.26200		875.00000 
 43692.65567		 305.27265			43387.38302		68.69600		324.00000 
 43692.65567		 690.50335			43002.15232		220.26200		875.00000 
 43692.65567		 305.27265			43387.38302		68.69600		324.00000 
 43692.65567		 690.50335			43002.15232		220.26200		875.00000 
 43692.65567		 305.27265			43387.38302		68.69600		324.00000 
 43692.65567		 690.50335			43002.15232		220.26200		875.00000 
 43692.65567		 305.27265			43387.38302		68.69600		324.00000 
 43692.65567		 690.50335			43002.15232		220.26200		875.00000 
 43692.65567		 305.27265			43387.38302		68.69600		324.00000 
 43692.65567		 690.50335			43002.15232		220.26200		875.00000 
 43692.65567		 305.27265			43387.38302		68.69600		324.00000 
 43692.65567		 690.50335			43002.15232		220.26200		875.00000 
 43692.65567		 305.27265			43387.38302		68.69600		324.00000 
 43692.65567		 690.50335			43002.15232		220.26200		875.00000 
 43692.65567		 305.27265			43387.38302		68.69600		324.00000 
 43692.65567		 690.50335			43002.15232		220.26200		875.00000 
 43692.65567		 305.27265			43387.38302		68.69600		324.00000 
 43692.65567		 690.50335			43002.15232		220.26200		875.00000 
 43692.65567		 305.27265			43387.38302		68.69600		324.00000 
 43692.65567		 690.50335			43002.15232		220.26200		875.00000 
 43692.65567		 305.27265			43387.38302		68.69600		324.00000 
 43692.65567		 690.50335			43002.15232		220.26200		875.00000 
 43692.65567		 305.27265			43387.38302		68.69600		324.00000 
 43692.65567		 690.50335			43002.15232		220.26200		875.00000 
 43692.65567		 305.27265			43387.38302		68.69600		324.00000 
 43692.65567		 690.50335			43002.15232		220.26200		875.00000 
 43692.65567		 305.27265			43387.38302		68.69600		324.00000 
 43692.65567		 690.50335			43002.15232		220.26200		875.00000 
 43692.65567		 305.27265			43387.38302		68.69600		324.00000 
 43692.65567		 690.50335			43002.15232		220.26200		875.00000 
 43692.65567		 305.27265			43387.38302		68.69600		324.00000 
 43692.65567		 690.50335			43002.15232		220.26200		875.00000 
 43692.65567		 305.27265			43387.38302		68.69600		324.00000 
 43692.65567		 690.50335			43002.15232		220.26200		875.00000 
 43692.65567		 305.27265			43387.38302		68.69600		324.00000 
 43692.65567		 690.50335			43002.15232		220.26200		875.00000 
 43692.65567		 305.27265			43387.38302		68.69600		324.00000 
 43692.65567		 690.50335			43002.15232		220.26200		875.00000 
 43692.65567		 305.27265			43387.38302		68.69600		324.00000 
 43692.65567		 690.50335			43002.15232		220.26200		875.00000 
 43692.65567		 305.27265			43387.38302		68.69600		324.00000 
 43692.65567		 690.50335			43002.15232		220.26200		875.00000 
 43692.65567		 305.27265			43387.38302		68.69600		324.00000 
 43692.65567		 690.50335			43002.15232		220.26200		875.00000 
 43692.65567		 305.27265			43387.38302		68.69600		324.00000 
 43692.65567		 690.50335			43002.15232		220.26200		875.00000 
 43692.65567		 305.27265			43387.38302		68.69600		324.00000 
 43692.65567		 690.50335			43002.15232		220.26200		875.00000 
 43692.65567		 305.27265			43387.38302		68.69600		324.00000 
 43692.65567		 690.50335			43002.15232		220.26200		875.00000 
 43692.65567		 305.27265			43387.38302		68.69600		324.00000 
 43692.65567		 690.50335			43002.15232		220.26200		875.00000 
 43692.65567		 305.27265			43387.38302		68.69600		324.00000 
 43692.65567		 690.50335			43002.15232		220.26200		875.00000 
 43692.65567		 305.27265			43387.38302		68.69600		324.00000 
 43692.65567		 690.50335			43002.15232		220.26200		875.00000 
 43692.65567		 305.27265			43387.38302		68.69600		324.00000 
 43692.65567		 690.50335			43002.15232		220.26200		875.00000 
 43692.65567		 305.27265			43387.38302		68.69600		324.00000 
 43692.65567		 690.50335			43002.15232		220.26200		875.00000 
 43692.65567		 305.27265			43387.38302		68.69600		324.00000 
 43692.65567		 690.50335			43002.15232		220.26200		875.00000 
 43692.65567		 305.27265			43387.38302		68.69600		324.00000 
 43692.65567		 690.50335			43002.15232		219.66200		875.00000 
 43692.65567		 305.27265			43387.38302		68.69600		324.00000 
 43692.65567		 690.50335			43002.15232		219.66200		875.00000 
 43692.65567		 305.27265			43387.38302		68.69600		324.00000 
 43692.65567		 690.50335			43002.15232		219.66200		875.00000 
 43692.65567		 305.27265			43387.38302		68.69600		324.00000 
 43692.65567		 690.50335			43002.15232		219.66200		875.00000 
 43692.65567		 305.27265			43387.38302		68.69600		324.00000 
 43692.65567		 690.50335			43002.15232		219.66200		875.00000 
 43692.65567		 305.27265			43387.38302		68.69600		324.00000 
 43692.65567		 690.50335			43002.15232		219.66200		875.00000 
 43692.65567		 305.27265			43387.38302		68.69600		324.00000 
 43692.65567		 690.50335			43002.15232		219.66200		875.00000 
 43692.65567		 305.27265			43387.38302		68.69600		324.00000 
 43692.65567		 690.50335			43002.15232		219.66200		875.00000 
 43692.65567		 305.27265			43387.38302		68.69600		324.00000 
 43692.65567		 690.50335			43002.15232		219.66200		875.00000 
 43692.65567		 305.27265			43387.38302		68.69600		324.00000 
 43692.65567		 690.50335			43002.15232		219.66200		875.00000 
 43692.65567		 305.27265			43387.38302		68.69600		324.00000 
 43692.65567		 690.50335			43002.15232		219.66200		875.00000 
 43692.65567		 305.27265			43387.38302		68.69600		324.00000 
 43692.65567		 690.50335			43002.15232		219.66200		875.00000 
 43692.65567		 305.27265			43387.38302		68.69600		324.00000 
 43692.65567		 690.50335			43002.15232		219.66200		875.00000 
 43692.65567		 305.27265			43387.38302		68.69600		324.00000 
 43692.65567		 690.50335			43002.15232		219.66200		875.00000 
 43692.65567		 305.27265			43387.38302		68.69600		324.00000 
 43692.65567		 690.50335			43002.15232		219.66200		875.00000 
 43692.65567		 305.27265			43387.38302		68.69600		324.00000 
 43692.65567		 690.50335			43002.15232		219.66200		875.00000 
 43692.65567		 305.27265			43387.38302		68.69600		324.00000 
 43692.65567		 690.50335			43002.15232		219.66200		875.00000 
 43692.65567		 305.27265			43387.38302		68.69600		324.00000 
 43692.65567		 690.50335			43002.15232		219.66200		875.00000 
 43692.65567		 305.27265			43387.38302		68.69600		324.00000 
 43692.65567		 690.50335			43002.15232		219.66200		875.00000 
 43692.65567		 305.27265			43387.38302		68.69600		324.00000 
 43692.65567		 690.50335			43002.15232		219.66200		875.00000 
 43692.65567		 305.27265			43387.38302		68.69600		324.00000 
 43692.65567		 690.50335			43002.15232		219.66200		875.00000 
 43692.65567		 305.27265			43387.38302		68.69600		324.00000 
 43692.65567		 690.50335			43002.15232		219.66200		875.00000 
 43692.65567		 305.27265			43387.38302		68.69600		324.00000 
 43692.65567		 690.50335			43002.15232		219.66200		875.00000 
 43692.65567		 305.27265			43387.38302		68.69600		324.00000 
 43692.65567		 690.50335			43002.15232		219.66200		875.00000 
 43692.65567		 305.27265			43387.38302		68.69600		324.00000 
 43692.65567		 690.50335			43002.15232		219.66200		875.00000 
 43692.65567		 305.27265			43387.38302		68.69600		324.00000 
 43692.65567		 690.50335			43002.15232		219.66200		875.00000 
 43692.65567		 305.27265			43387.38302		68.69600		324.00000 
 43692.65567		 690.50335			43002.15232		219.66200		875.00000 
 43692.65567		 305.27265			43387.38302		68.69600		324.00000 
 43692.65567		 690.50335			43002.15232		219.66200		875.00000 
 43692.65567		 305.27265			43387.38302		68.69600		324.00000 
 43692.65567		 690.50335			43002.15232		219.66200		875.00000 
 43692.65567		 305.27265			43387.38302		68.69600		324.00000 
 43692.65567		 690.50335			43002.15232		219.66200		875.00000 
 43692.65567		 305.27265			43387.38302		68.69600		324.00000 
 43692.65567		 690.50335			43002.15232		219.66200		875.00000 
 43692.65567		 305.27265			43387.38302		68.69600		324.00000 
 43692.65567		 690.50335			43002.15232		219.66200		875.00000 
 43692.65567		 305.27265			43387.38302		68.69600		324.00000 
 43692.65567		 690.50335			43002.15232		219.66200		875.00000 
 43692.65567		 305.27265			43387.38302		68.69600		324.00000 
 43692.65567		 690.50335			43002.15232		219.66200		875.00000 
 43692.65567		 305.27265			43387.38302		68.69600		324.00000 
 43692.65567		 690.50335			43002.15232		219.66200		875.00000 
 43692.65567		 305.27265			43387.38302		68.69600		324.00000 
 43692.65567		 690.50335			43002.15232		219.66200		875.00000 
 43692.65567		 305.27265			43387.38302		68.69600		324.00000 
 43692.65567		 690.50335			43002.15232		219.66200		875.00000 
 43692.65567		 305.27265			43387.38302		68.69600		324.00000 
 43692.65567		 690.50335			43002.15232		219.66200		875.00000 
 43692.65567		 305.27265			43387.38302		68.69600		324.00000 
 43692.65567		 690.50335			43002.15232		219.66200		875.00000 
 43692.65567		 305.27265			43387.38302		68.69600		324.00000 
 43692.65567		 690.50335			43002.15232		219.66200		875.00000 
 43692.65567		 305.27265			43387.38302		68.69600		324.00000 
 43692.65567		 690.50335			43002.15232		219.66200		875.00000 
 43692.65567		 305.27265			43387.38302		68.69600		324.00000 
 43692.65567		 690.50335			43002.15232		219.66200		875.00000 
 43692.65567		 305.27265			43387.38302		68.69600		324.00000 
 43692.65567		 690.50335			43002.15232		219.66200		875.00000 
 43692.65567		 305.27265			43387.38302		68.69600		324.00000 
 43692.65567		 690.50335			43002.15232		219.66200		875.00000 
 43692.65567		 305.27265			43387.38302		68.69600		324.00000 
 43692.65567		 690.50335			43002.15232		219.66200		875.00000 
 43692.65567		 305.27265			43387.38302		68.69600		324.00000 
 43692.65567		 690.50335			43002.15232		219.66200		875.00000 
 43692.65567		 305.27265			43387.38302		68.69600		324.00000 
 43692.65567		 690.50335			43002.15232		219.66200		875.00000 
 43692.65567		 305.27265			43387.38302		68.69600		324.00000 
 43692.65567		 690.50335			43002.15232		219.66200		875.00000 
 43692.65567		 305.27265			43387.38302		68.69600		324.00000 
 43692.65567		 690.50335			43002.15232		219.66200		875.00000 
 43692.65567		 305.27265			43387.38302		68.69600		324.00000 
 43692.65567		 690.50335			43002.15232		219.66200		875.00000 
 43692.65567		 305.27265			43387.38302		68.69600		324.00000 
 43692.65567		 690.50335			43002.15232		219.66200		875.00000 
 43692.65567		 305.27265			43387.38302		68.69600		324.00000 
 43692.65567		 690.50335			43002.15232		219.66200		875.00000 
 43692.65567		 305.27265			43387.38302		68.69600		324.00000 
 43692.65567		 690.50335			43002.15232		219.66200		875.00000 
 43692.65567		 305.27265			43387.38302		68.69600		324.00000 
 43692.65567		 690.50335			43002.15232		219.66200		875.00000 
 43692.65567		 305.27265			43387.38302		68.69600		324.00000 
 43692.65567		 690.50335			43002.15232		219.66200		875.00000 
 43692.65567		 305.27265			43387.38302		68.69600		324.00000 
 43692.65567		 690.50335			43002.15232		219.66200		875.00000 
 43692.65567		 305.27265			43387.38302		68.69600		324.00000 
 43692.65567		 690.50335			43002.15232		219.66200		875.00000 
 43692.65567		 305.27265			43387.38302		68.69600		324.00000 
 43692.65567		 690.50335			43002.15232		219.66200		875.00000 
 43692.65567		 305.27265			43387.38302		68.69600		324.00000 
 43692.65567		 690.50335			43002.15232		219.66200		875.00000 
 43692.65567		 305.27265			43387.38302		68.69600		324.00000 
 43692.65567		 690.50335			43002.15232		219.66200		875.00000 
 43692.65567		 305.27265			43387.38302		68.69600		324.00000 
 43692.65567		 690.50335			43002.15232		219.66200		875.00000 
 43692.65567		 305.27265			43387.38302		68.69600		324.00000 
 43692.65567		 690.50335			43002.15232		219.66200		875.00000 
 43692.65567		 305.27265			43387.38302		68.69600		324.00000 
 43692.65567		 690.50335			43002.15232		219.66200		875.00000 
 43692.65567		 305.27265			43387.38302		68.69600		324.00000 
 43692.65567		 690.50335			43002.15232		219.66200		875.00000 
 43692.65567		 305.27265			43387.38302		68.69600		324.00000 
 43692.65567		 690.50335			43002.15232		219.66200		875.00000 
 43692.65567		 305.27265			43387.38302		68.69600		324.00000 
 43692.65567		 690.50335			43002.15232		220.86200		875.00000 
 43692.65567		 305.27265			43387.38302		68.69600		324.00000 
 43692.65567		 690.50335			43002.15232		220.86200		875.00000 
 43692.65567		 305.27265			43387.38302		68.69600		324.00000 
 43692.65567		 690.50335			43002.15232		220.86200		875.00000 
 43692.65567		 305.27265			43387.38302		68.69600		324.00000 
 43692.65567		 690.50335			43002.15232		220.86200		875.00000 
 43692.65567		 305.27265			43387.38302		68.69600		324.00000 
 43692.65567		 690.50335			43002.15232		220.86200		875.00000 
 43692.65567		 305.27265			43387.38302		68.69600		324.00000 
 43692.65567		 690.50335			43002.15232		220.86200		875.00000 
 43692.65567		 305.27265			43387.38302		68.69600		324.00000 
 43692.65567		 690.50335			43002.15232		220.86200		875.00000 
 43692.65567		 305.27265			43387.38302		68.69600		324.00000 
 43692.65567		 690.50335			43002.15232		220.86200		875.00000 
 43692.65567		 305.27265			43387.38302		68.69600		324.00000 
 43692.65567		 690.50335			43002.15232		220.86200		875.00000 
 43692.65567		 305.27265			43387.38302		68.69600		324.00000 
 43692.65567		 690.50335			43002.15232		220.86200		875.00000 
 43692.65567		 305.27265			43387.38302		68.69600		324.00000 
 43692.65567		 690.50335			43002.15232		220.86200		875.00000 
 43692.65567		 305.27265			43387.38302		68.69600		324.00000 
 43692.65567		 690.50335			43002.15232		220.86200		875.00000 
 43692.65567		 305.27265			43387.38302		68.69600		324.00000 
 43692.65567		 690.50335			43002.15232		220.86200		875.00000 
 43692.65567		 305.27265			43387.38302		68.69600		324.00000 
 43692.65567		 690.50335			43002.15232		220.86200		875.00000 
 43692.65567		 305.27265			43387.38302		68.69600		324.00000 
 43692.65567		 690.50335			43002.15232		220.86200		875.00000 
 43692.65567		 305.27265			43387.38302		68.69600		324.00000 
 43692.65567		 690.50335			43002.15232		220.86200		875.00000 
 43692.65567		 305.27265			43387.38302		68.69600		324.00000 
 43692.65567		 690.50335			43002.15232		220.86200		875.00000 
 43692.65567		 305.27265			43387.38302		68.69600		324.00000 
 43692.65567		 690.50335			43002.15232		220.86200		875.00000 
 43692.65567		 305.27265			43387.38302		68.69600		324.00000 
 43692.65567		 690.50335			43002.15232		220.86200		875.00000 
 43692.65567		 305.27265			43387.38302		68.69600		324.00000 
 43692.65567		 690.50335			43002.15232		220.86200		875.00000 
 43692.65567		 305.27265			43387.38302		68.69600		324.00000 
 43692.65567		 690.50335			43002.15232		220.86200		875.00000 
 43692.65567		 305.27265			43387.38302		68.69600		324.00000 
 43692.65567		 690.50335			43002.15232		220.86200		875.00000 
 43692.65567		 305.27265			43387.38302		68.69600		324.00000 
 43692.65567		 690.50335			43002.15232		220.86200		875.00000 
 43692.65567		 305.27265			43387.38302		68.69600		324.00000 
 43692.65567		 690.50335			43002.15232		220.86200		875.00000 
 43692.65567		 305.27265			43387.38302		68.69600		324.00000 
 43692.65567		 690.50335			43002.15232		220.86200		875.00000 
 43692.65567		 305.27265			43387.38302		68.69600		324.00000 
 43692.65567		 690.50335			43002.15232		220.86200		875.00000 
 43692.65567		 305.27265			43387.38302		68.69600		324.00000 
 43692.65567		 690.50335			43002.15232		220.86200		875.00000 
 43692.65567		 305.27265			43387.38302		68.69600		324.00000 
 43692.65567		 690.50335			43002.15232		220.86200		875.00000 
 43692.65567		 305.27265			43387.38302		68.69600		324.00000 
 43692.65567		 690.50335			43002.15232		220.86200		875.00000 
 43692.65567		 305.27265			43387.38302		68.69600		324.00000 
 43692.65567		 690.50335			43002.15232		220.86200		875.00000 
 43692.65567		 305.27265			43387.38302		68.69600		324.00000 
 43692.65567		 690.50335			43002.15232		220.86200		875.00000 
 43692.65567		 305.27265			43387.38302		68.69600		324.00000 
 43692.65567		 690.50335			43002.15232		220.86200		875.00000 
 43692.65567		 305.27265			43387.38302		68.69600		324.00000 
 43692.65567		 690.50335			43002.15232		220.86200		875.00000 
 43692.65567		 305.27265			43387.38302		68.69600		324.00000 
 43692.65567		 690.50335			43002.15232		220.86200		875.00000 
 43692.65567		 305.27265			43387.38302		68.69600		324.00000 
 43692.65567		 690.50335			43002.15232		220.86200		875.00000 
 43692.65567		 305.27265			43387.38302		68.69600		324.00000 
 43692.65567		 690.50335			43002.15232		220.86200		875.00000 
 43692.65567		 305.27265			43387.38302		68.69600		324.00000 
 43692.65567		 690.50335			43002.15232		220.86200		875.00000 
 43692.65567		 305.27265			43387.38302		68.69600		324.00000 
 43692.65567		 690.50335			43002.15232		220.86200		875.00000 
 43692.65567		 305.27265			43387.38302		68.69600		324.00000 
 43692.65567		 690.50335			43002.15232		220.86200		875.00000 
 43692.65567		 305.27265			43387.38302		68.69600		324.00000 
 43692.65567		 690.50335			43002.15232		220.86200		875.00000 
 43692.65567		 305.27265			43387.38302		68.69600		324.00000 
 43692.65567		 690.50335			43002.15232		220.86200		875.00000 
 43692.65567		 305.27265			43387.38302		68.69600		324.00000 
 43692.65567		 690.50335			43002.15232		220.86200		875.00000 
 43692.65567		 305.27265			43387.38302		68.69600		324.00000 
 43692.65567		 690.50335			43002.15232		220.86200		875.00000 
 43692.65567		 305.27265			43387.38302		68.69600		324.00000 
 43692.65567		 690.50335			43002.15232		220.86200		875.00000 
 43692.65567		 305.27265			43387.38302		68.69600		324.00000 
 43692.65567		 690.50335			43002.15232		220.86200		875.00000 
 43692.65567		 305.27265			43387.38302		68.69600		324.00000 
 43692.65567		 690.50335			43002.15232		220.86200		875.00000 
 43692.65567		 305.27265			43387.38302		68.69600		324.00000 
 43692.65567		 690.50335			43002.15232		220.86200		875.00000 
 43692.65567		 305.27265			43387.38302		68.69600		324.00000 
 43692.65567		 690.50335			43002.15232		220.86200		875.00000 
 43692.65567		 305.27265			43387.38302		68.69600		324.00000 
 43692.65567		 690.50335			43002.15232		220.86200		875.00000 
 43692.65567		 305.27265			43387.38302		68.69600		324.00000 
 43692.65567		 690.50335			43002.15232		220.86200		875.00000 
 43692.65567		 305.27265			43387.38302		68.69600		324.00000 
 43692.65567		 690.50335			43002.15232		220.86200		875.00000 
 43692.65567		 305.27265			43387.38302		68.69600		324.00000 
 43692.65567		 690.50335			43002.15232		220.86200		875.00000 
 43692.65567		 305.27265			43387.38302		68.69600		324.00000 
 43692.65567		 690.50335			43002.15232		220.86200		875.00000 
 43692.65567		 305.27265			43387.38302		68.69600		324.00000 
 43692.65567		 690.50335			43002.15232		220.86200		875.00000 
 43692.65567		 305.27265			43387.38302		68.69600		324.00000 
 43692.65567		 690.50335			43002.15232		220.86200		875.00000 
 43692.65567		 305.27265			43387.38302		68.69600		324.00000 
 43692.65567		 690.50335			43002.15232		220.86200		875.00000 
 43692.65567		 305.27265			43387.38302		68.69600		324.00000 
 43692.65567		 690.50335			43002.15232		220.86200		875.00000 
 43692.65567		 305.27265			43387.38302		68.69600		324.00000 
 43692.65567		 690.50335			43002.15232		220.86200		875.00000 
 43692.65567		 305.27265			43387.38302		68.69600		324.00000 
 43692.65567		 690.50335			43002.15232		220.86200		875.00000 
 43692.65567		 305.27265			43387.38302		68.69600		324.00000 
 43692.65567		 690.50335			43002.15232		220.86200		875.00000 
 43692.65567		 305.27265			43387.38302		68.69600		324.00000 
 43692.65567		 690.50335			43002.15232		220.86200		875.00000 
 43692.65567		 305.27265			43387.38302		68.69600		324.00000 
 43692.65567		 639.42567			43053.23000		220.86200		875.00000 
 43692.65567		 305.27265			43387.38302		68.69600		324.00000 
 43692.65567		 588.34800			43104.30767		220.86200		875.00000 
 43692.65567		 305.27265			43387.38302		68.69600		324.00000 
 43692.65567		 537.27032			43155.38535		220.86200		875.00000 
 43692.65567		 305.27265			43387.38302		68.69600		324.00000 
 43692.65567		 537.27032			43155.38535		214.74000		875.00000 
 43692.65567		 305.27265			43387.38302		68.69600		324.00000 
 43692.65567		 537.27032			43155.38535		214.74000		875.00000 
 43692.65567		 305.27265			43387.38302		68.69600		324.00000 
 43692.65567		 537.27032			43155.38535		214.74000		875.00000 
 43692.65567		 305.27265			43387.38302		68.69600		324.00000 
 43692.65567		 537.27032			43155.38535		214.74000		875.00000 
 43692.65567		 305.27265			43387.38302		68.69600		324.00000 
 43692.65567		 537.27032			43155.38535		214.74000		875.00000 
 43692.65567		 305.27265			43387.38302		68.69600		324.00000 
 43692.65567		 537.27032			43155.38535		214.74000		875.00000 
 43692.65567		 305.27265			43387.38302		68.69600		324.00000 
 43692.65567		 537.27032			43155.38535		214.74000		875.00000 
 43692.65567		 305.27265			43387.38302		68.69600		324.00000 
 43692.65567		 537.27032			43155.38535		214.74000		875.00000 
 43692.65567		 305.27265			43387.38302		68.69600		324.00000 
 43692.65567		 537.27032			43155.38535		214.74000		875.00000 
 43692.65567		 305.27265			43387.38302		68.69600		324.00000 
 43692.65567		 537.27032			43155.38535		214.74000		875.00000 
 43692.65567		 305.27265			43387.38302		68.69600		324.00000 
 43692.65567		 537.27032			43155.38535		214.74000		875.00000 
 43692.65567		 305.27265			43387.38302		68.69600		324.00000 
 43692.65567		 537.27032			43155.38535		214.74000		875.00000 
 43692.65567		 305.27265			43387.38302		68.69600		324.00000 
 43692.65567		 537.27032			43155.38535		214.74000		875.00000 
 43692.65567		 305.27265			43387.38302		68.69600		324.00000 
 43692.65567		 537.27032			43155.38535		214.74000		875.00000 
 43692.65567		 305.27265			43387.38302		68.69600		324.00000 
 43692.65567		 537.27032			43155.38535		214.74000		875.00000 
 43692.65567		 305.27265			43387.38302		68.69600		324.00000 
 43692.65567		 537.27032			43155.38535		214.74000		875.00000 
 43692.65567		 305.27265			43387.38302		68.69600		324.00000 
 43692.65567		 537.27032			43155.38535		214.74000		875.00000 
 43692.65567		 305.27265			43387.38302		68.69600		324.00000 
 43692.65567		 537.27032			43155.38535		214.74000		875.00000 
 43692.65567		 305.27265			43387.38302		68.69600		324.00000 
 43692.65567		 537.27032			43155.38535		214.74000		875.00000 
 43692.65567		 305.27265			43387.38302		68.69600		324.00000 
 43692.65567		 525.81365			43166.84203		214.74000		875.00000 
 43692.65567		 305.27265			43387.38302		68.69600		324.00000 
 43692.65567		 525.81365			43166.84203		214.74000		875.00000 
 43692.65567		 261.35540			43431.30027		68.69600		324.00000 
 43692.65567		 261.35540			43431.30027		214.74000		875.00000 
 43692.65567		 261.35540			43431.30027		68.69600		324.00000 
