Memory Total (MiB) 	 Memory Used (MiB) 	    Memory Free (MiB) 	 Power Drawed (W) 	 Clocks (Mhz) 	 
 43692.65567		 261.35540			43431.30027		198.15400		875.00000 
 43692.65567		 261.35540			43431.30027		70.12600		324.00000 
 43692.65567		 261.35540			43431.30027		198.15400		875.00000 
 43692.65567		 261.35540			43431.30027		70.12600		324.00000 
 43692.65567		 261.35540			43431.30027		198.15400		875.00000 
 43692.65567		 261.35540			43431.30027		70.12600		324.00000 
 43692.65567		 261.35540			43431.30027		198.15400		875.00000 
 43692.65567		 261.35540			43431.30027		70.12600		324.00000 
 43692.65567		 261.35540			43431.30027		198.15400		875.00000 
 43692.65567		 261.35540			43431.30027		70.12600		324.00000 
 43692.65567		 261.35540			43431.30027		198.15400		875.00000 
 43692.65567		 261.35540			43431.30027		70.12600		324.00000 
 43692.65567		 261.35540			43431.30027		198.15400		875.00000 
 43692.65567		 261.35540			43431.30027		70.12600		324.00000 
 43692.65567		 261.35540			43431.30027		198.15400		875.00000 
 43692.65567		 261.35540			43431.30027		70.12600		324.00000 
 43692.65567		 261.35540			43431.30027		198.15400		875.00000 
 43692.65567		 261.35540			43431.30027		70.12600		324.00000 
 43692.65567		 261.35540			43431.30027		198.15400		875.00000 
 43692.65567		 261.35540			43431.30027		70.12600		324.00000 
 43692.65567		 261.35540			43431.30027		198.15400		875.00000 
 43692.65567		 261.35540			43431.30027		70.12600		324.00000 
 43692.65567		 261.35540			43431.30027		198.15400		875.00000 
 43692.65567		 261.35540			43431.30027		70.12600		324.00000 
 43692.65567		 261.35540			43431.30027		198.15400		875.00000 
 43692.65567		 261.35540			43431.30027		70.12600		324.00000 
 43692.65567		 261.35540			43431.30027		198.15400		875.00000 
 43692.65567		 261.35540			43431.30027		70.12600		324.00000 
 43692.65567		 261.35540			43431.30027		198.15400		875.00000 
 43692.65567		 261.35540			43431.30027		70.12600		324.00000 
 43692.65567		 261.35540			43431.30027		157.44200		875.00000 
 43692.65567		 261.35540			43431.30027		70.12600		324.00000 
 43692.65567		 261.35540			43431.30027		157.44200		875.00000 
 43692.65567		 261.35540			43431.30027		70.12600		324.00000 
 43692.65567		 261.35540			43431.30027		157.44200		875.00000 
 43692.65567		 261.35540			43431.30027		70.12600		324.00000 
 43692.65567		 265.17429			43427.48138		157.44200		875.00000 
 43692.65567		 261.35540			43431.30027		70.12600		324.00000 
 43692.65567		 272.81207			43419.84360		157.44200		875.00000 
 43692.65567		 261.35540			43431.30027		70.12600		324.00000 
 43692.65567		 272.81207			43419.84360		157.44200		875.00000 
 43692.65567		 261.35540			43431.30027		70.12600		324.00000 
 43692.65567		 272.81207			43419.84360		157.44200		875.00000 
 43692.65567		 265.17429			43427.48138		70.12600		324.00000 
 43692.65567		 272.81207			43419.84360		157.44200		875.00000 
 43692.65567		 265.17429			43427.48138		70.12600		324.00000 
 43692.65567		 272.81207			43419.84360		157.44200		875.00000 
 43692.65567		 272.81207			43419.84360		70.12600		324.00000 
 43692.65567		 272.81207			43419.84360		157.44200		875.00000 
 43692.65567		 272.81207			43419.84360		70.12600		324.00000 
 43692.65567		 272.81207			43419.84360		157.44200		875.00000 
 43692.65567		 272.81207			43419.84360		70.12600		324.00000 
 43692.65567		 272.81207			43419.84360		157.44200		875.00000 
 43692.65567		 272.81207			43419.84360		70.12600		324.00000 
 43692.65567		 305.27265			43387.38302		157.44200		875.00000 
 43692.65567		 305.27265			43387.38302		70.12600		324.00000 
 43692.65567		 305.27265			43387.38302		157.44200		875.00000 
 43692.65567		 305.27265			43387.38302		70.12600		324.00000 
 43692.65567		 305.27265			43387.38302		157.44200		875.00000 
 43692.65567		 305.27265			43387.38302		70.12600		324.00000 
 43692.65567		 305.27265			43387.38302		157.44200		875.00000 
 43692.65567		 305.27265			43387.38302		70.12600		324.00000 
 43692.65567		 305.27265			43387.38302		157.44200		875.00000 
 43692.65567		 305.27265			43387.38302		70.12600		324.00000 
 43692.65567		 309.56891			43383.08677		157.44200		875.00000 
 43692.65567		 305.27265			43387.38302		70.12600		324.00000 
 43692.65567		 311.00099			43381.65468		157.44200		875.00000 
 43692.65567		 305.27265			43387.38302		70.12600		324.00000 
 43692.65567		 311.00099			43381.65468		157.44200		875.00000 
 43692.65567		 305.27265			43387.38302		70.12600		324.00000 
 43692.65567		 311.00099			43381.65468		157.44200		875.00000 
 43692.65567		 305.27265			43387.38302		70.12600		324.00000 
 43692.65567		 311.00099			43381.65468		157.44200		875.00000 
 43692.65567		 305.27265			43387.38302		70.12600		324.00000 
 43692.65567		 311.00099			43381.65468		157.44200		875.00000 
 43692.65567		 305.27265			43387.38302		70.12600		324.00000 
 43692.65567		 311.00099			43381.65468		157.44200		875.00000 
 43692.65567		 305.27265			43387.38302		70.12600		324.00000 
 43692.65567		 311.00099			43381.65468		157.44200		875.00000 
 43692.65567		 305.27265			43387.38302		70.12600		324.00000 
 43692.65567		 311.00099			43381.65468		157.44200		875.00000 
 43692.65567		 305.27265			43387.38302		70.12600		324.00000 
 43692.65567		 311.00099			43381.65468		157.44200		875.00000 
 43692.65567		 305.27265			43387.38302		70.12600		324.00000 
 43692.65567		 311.00099			43381.65468		157.44200		875.00000 
 43692.65567		 305.27265			43387.38302		70.12600		324.00000 
 43692.65567		 311.00099			43381.65468		157.44200		875.00000 
 43692.65567		 305.27265			43387.38302		70.12600		324.00000 
 43692.65567		 311.00099			43381.65468		157.44200		875.00000 
 43692.65567		 305.27265			43387.38302		70.12600		324.00000 
 43692.65567		 311.00099			43381.65468		157.44200		875.00000 
 43692.65567		 305.27265			43387.38302		70.12600		324.00000 
 43692.65567		 311.00099			43381.65468		141.99800		875.00000 
 43692.65567		 305.27265			43387.38302		70.12600		324.00000 
 43692.65567		 311.00099			43381.65468		141.99800		875.00000 
 43692.65567		 305.27265			43387.38302		70.12600		324.00000 
 43692.65567		 311.00099			43381.65468		141.99800		875.00000 
 43692.65567		 305.27265			43387.38302		70.12600		324.00000 
 43692.65567		 311.00099			43381.65468		141.99800		875.00000 
 43692.65567		 305.27265			43387.38302		70.12600		324.00000 
 43692.65567		 311.00099			43381.65468		141.99800		875.00000 
 43692.65567		 305.27265			43387.38302		70.12600		324.00000 
 43692.65567		 311.00099			43381.65468		141.99800		875.00000 
 43692.65567		 305.27265			43387.38302		70.12600		324.00000 
 43692.65567		 311.00099			43381.65468		141.99800		875.00000 
 43692.65567		 305.27265			43387.38302		70.12600		324.00000 
 43692.65567		 311.00099			43381.65468		141.99800		875.00000 
 43692.65567		 305.27265			43387.38302		70.12600		324.00000 
 43692.65567		 311.00099			43381.65468		141.99800		875.00000 
 43692.65567		 305.27265			43387.38302		70.12600		324.00000 
 43692.65567		 311.00099			43381.65468		141.99800		875.00000 
 43692.65567		 305.27265			43387.38302		70.12600		324.00000 
 43692.65567		 311.00099			43381.65468		141.99800		875.00000 
 43692.65567		 305.27265			43387.38302		70.12600		324.00000 
 43692.65567		 311.00099			43381.65468		141.99800		875.00000 
 43692.65567		 305.27265			43387.38302		70.12600		324.00000 
 43692.65567		 311.00099			43381.65468		141.99800		875.00000 
 43692.65567		 305.27265			43387.38302		70.12600		324.00000 
 43692.65567		 311.00099			43381.65468		141.99800		875.00000 
 43692.65567		 305.27265			43387.38302		70.12600		324.00000 
 43692.65567		 311.00099			43381.65468		141.99800		875.00000 
 43692.65567		 305.27265			43387.38302		70.12600		324.00000 
 43692.65567		 311.00099			43381.65468		141.99800		875.00000 
 43692.65567		 305.27265			43387.38302		70.12600		324.00000 
 43692.65567		 311.00099			43381.65468		141.99800		875.00000 
 43692.65567		 305.27265			43387.38302		70.12600		324.00000 
 43692.65567		 311.00099			43381.65468		141.99800		875.00000 
 43692.65567		 305.27265			43387.38302		70.12600		324.00000 
 43692.65567		 311.00099			43381.65468		141.99800		875.00000 
 43692.65567		 305.27265			43387.38302		70.12600		324.00000 
 43692.65567		 311.00099			43381.65468		141.99800		875.00000 
 43692.65567		 305.27265			43387.38302		70.12600		324.00000 
 43692.65567		 311.00099			43381.65468		141.99800		875.00000 
 43692.65567		 305.27265			43387.38302		70.12600		324.00000 
 43692.65567		 311.00099			43381.65468		141.99800		875.00000 
 43692.65567		 305.27265			43387.38302		70.12600		324.00000 
 43692.65567		 311.00099			43381.65468		141.99800		875.00000 
 43692.65567		 305.27265			43387.38302		70.12600		324.00000 
 43692.65567		 311.00099			43381.65468		141.99800		875.00000 
 43692.65567		 305.27265			43387.38302		70.12600		324.00000 
 43692.65567		 311.00099			43381.65468		141.99800		875.00000 
 43692.65567		 305.27265			43387.38302		70.12600		324.00000 
 43692.65567		 311.00099			43381.65468		141.99800		875.00000 
 43692.65567		 305.27265			43387.38302		70.12600		324.00000 
 43692.65567		 311.00099			43381.65468		141.99800		875.00000 
 43692.65567		 305.27265			43387.38302		70.12600		324.00000 
 43692.65567		 311.00099			43381.65468		141.99800		875.00000 
 43692.65567		 305.27265			43387.38302		70.12600		324.00000 
 43692.65567		 311.00099			43381.65468		141.99800		875.00000 
 43692.65567		 305.27265			43387.38302		70.12600		324.00000 
 43692.65567		 311.00099			43381.65468		141.99800		875.00000 
 43692.65567		 305.27265			43387.38302		70.12600		324.00000 
 43692.65567		 311.00099			43381.65468		141.99800		875.00000 
 43692.65567		 305.27265			43387.38302		70.12600		324.00000 
 43692.65567		 311.00099			43381.65468		135.62600		875.00000 
 43692.65567		 305.27265			43387.38302		70.12600		324.00000 
 43692.65567		 311.00099			43381.65468		135.62600		875.00000 
 43692.65567		 305.27265			43387.38302		70.12600		324.00000 
 43692.65567		 311.00099			43381.65468		135.62600		875.00000 
 43692.65567		 305.27265			43387.38302		70.12600		324.00000 
 43692.65567		 311.00099			43381.65468		135.62600		875.00000 
 43692.65567		 305.27265			43387.38302		70.12600		324.00000 
 43692.65567		 311.00099			43381.65468		135.62600		875.00000 
 43692.65567		 305.27265			43387.38302		70.12600		324.00000 
 43692.65567		 311.00099			43381.65468		135.62600		875.00000 
 43692.65567		 305.27265			43387.38302		64.65000		324.00000 
 43692.65567		 311.00099			43381.65468		135.62600		875.00000 
 43692.65567		 305.27265			43387.38302		64.65000		324.00000 
 43692.65567		 314.81988			43377.83579		135.62600		875.00000 
 43692.65567		 305.27265			43387.38302		64.65000		324.00000 
 43692.65567		 314.81988			43377.83579		135.62600		875.00000 
 43692.65567		 305.27265			43387.38302		64.65000		324.00000 
 43692.65567		 314.81988			43377.83579		135.62600		875.00000 
 43692.65567		 305.27265			43387.38302		64.65000		324.00000 
 43692.65567		 322.45767			43370.19801		135.62600		875.00000 
 43692.65567		 305.27265			43387.38302		64.65000		324.00000 
 43692.65567		 326.27656			43366.37912		135.62600		875.00000 
 43692.65567		 305.27265			43387.38302		64.65000		324.00000 
 43692.65567		 326.27656			43366.37912		135.62600		875.00000 
 43692.65567		 305.27265			43387.38302		64.65000		324.00000 
 43692.65567		 326.27656			43366.37912		135.62600		875.00000 
 43692.65567		 305.27265			43387.38302		64.65000		324.00000 
 43692.65567		 326.27656			43366.37912		135.62600		875.00000 
 43692.65567		 305.27265			43387.38302		64.65000		324.00000 
 43692.65567		 537.27032			43155.38535		135.62600		875.00000 
 43692.65567		 305.27265			43387.38302		64.65000		324.00000 
 43692.65567		 666.15792			43026.49776		135.62600		875.00000 
 43692.65567		 305.27265			43387.38302		64.65000		324.00000 
 43692.65567		 730.60171			42962.05396		135.62600		875.00000 
 43692.65567		 305.27265			43387.38302		64.65000		324.00000 
 43692.65567		 730.60171			42962.05396		135.62600		875.00000 
 43692.65567		 305.27265			43387.38302		64.65000		324.00000 
 43692.65567		 730.60171			42962.05396		135.62600		875.00000 
 43692.65567		 305.27265			43387.38302		64.65000		324.00000 
 43692.65567		 730.60171			42962.05396		135.62600		875.00000 
 43692.65567		 305.27265			43387.38302		64.65000		324.00000 
 43692.65567		 730.60171			42962.05396		135.62600		875.00000 
 43692.65567		 305.27265			43387.38302		64.65000		324.00000 
 43692.65567		 730.60171			42962.05396		135.62600		875.00000 
 43692.65567		 305.27265			43387.38302		64.65000		324.00000 
 43692.65567		 730.60171			42962.05396		135.62600		875.00000 
 43692.65567		 305.27265			43387.38302		64.65000		324.00000 
 43692.65567		 730.60171			42962.05396		135.62600		875.00000 
 43692.65567		 305.27265			43387.38302		64.65000		324.00000 
 43692.65567		 730.60171			42962.05396		135.62600		875.00000 
 43692.65567		 305.27265			43387.38302		64.65000		324.00000 
 43692.65567		 730.60171			42962.05396		135.62600		875.00000 
 43692.65567		 305.27265			43387.38302		64.65000		324.00000 
 43692.65567		 730.60171			42962.05396		135.62600		875.00000 
 43692.65567		 305.27265			43387.38302		64.65000		324.00000 
 43692.65567		 730.60171			42962.05396		135.62600		875.00000 
 43692.65567		 305.27265			43387.38302		64.65000		324.00000 
 43692.65567		 730.60171			42962.05396		135.62600		875.00000 
 43692.65567		 305.27265			43387.38302		64.65000		324.00000 
 43692.65567		 730.60171			42962.05396		135.62600		875.00000 
 43692.65567		 305.27265			43387.38302		64.65000		324.00000 
 43692.65567		 730.60171			42962.05396		135.62600		875.00000 
 43692.65567		 305.27265			43387.38302		64.65000		324.00000 
 43692.65567		 730.60171			42962.05396		135.62600		875.00000 
 43692.65567		 305.27265			43387.38302		64.65000		324.00000 
 43692.65567		 730.60171			42962.05396		135.62600		875.00000 
 43692.65567		 305.27265			43387.38302		64.65000		324.00000 
 43692.65567		 730.60171			42962.05396		135.62600		875.00000 
 43692.65567		 305.27265			43387.38302		64.65000		324.00000 
 43692.65567		 730.60171			42962.05396		135.62600		875.00000 
 43692.65567		 305.27265			43387.38302		64.65000		324.00000 
 43692.65567		 730.60171			42962.05396		135.62600		875.00000 
 43692.65567		 305.27265			43387.38302		64.65000		324.00000 
 43692.65567		 730.60171			42962.05396		135.62600		875.00000 
 43692.65567		 305.27265			43387.38302		64.65000		324.00000 
 43692.65567		 730.60171			42962.05396		135.62600		875.00000 
 43692.65567		 305.27265			43387.38302		64.65000		324.00000 
 43692.65567		 730.60171			42962.05396		135.62600		875.00000 
 43692.65567		 305.27265			43387.38302		64.65000		324.00000 
 43692.65567		 730.60171			42962.05396		135.62600		875.00000 
 43692.65567		 305.27265			43387.38302		64.65000		324.00000 
 43692.65567		 730.60171			42962.05396		135.62600		875.00000 
 43692.65567		 305.27265			43387.38302		64.65000		324.00000 
 43692.65567		 730.60171			42962.05396		135.62600		875.00000 
 43692.65567		 305.27265			43387.38302		64.65000		324.00000 
 43692.65567		 730.60171			42962.05396		135.62600		875.00000 
 43692.65567		 305.27265			43387.38302		64.65000		324.00000 
 43692.65567		 730.60171			42962.05396		135.62600		875.00000 
 43692.65567		 305.27265			43387.38302		64.65000		324.00000 
 43692.65567		 730.60171			42962.05396		135.62600		875.00000 
 43692.65567		 305.27265			43387.38302		64.65000		324.00000 
 43692.65567		 730.60171			42962.05396		135.62600		875.00000 
 43692.65567		 305.27265			43387.38302		64.65000		324.00000 
 43692.65567		 730.60171			42962.05396		135.62600		875.00000 
 43692.65567		 305.27265			43387.38302		64.65000		324.00000 
 43692.65567		 730.60171			42962.05396		135.62600		875.00000 
 43692.65567		 305.27265			43387.38302		64.65000		324.00000 
 43692.65567		 730.60171			42962.05396		135.62600		875.00000 
 43692.65567		 305.27265			43387.38302		64.65000		324.00000 
 43692.65567		 730.60171			42962.05396		135.62600		875.00000 
 43692.65567		 305.27265			43387.38302		64.65000		324.00000 
 43692.65567		 730.60171			42962.05396		169.18800		875.00000 
 43692.65567		 305.27265			43387.38302		64.65000		324.00000 
 43692.65567		 730.60171			42962.05396		169.18800		875.00000 
 43692.65567		 305.27265			43387.38302		64.65000		324.00000 
 43692.65567		 730.60171			42962.05396		169.18800		875.00000 
 43692.65567		 305.27265			43387.38302		64.65000		324.00000 
 43692.65567		 730.60171			42962.05396		169.18800		875.00000 
 43692.65567		 305.27265			43387.38302		64.65000		324.00000 
 43692.65567		 730.60171			42962.05396		169.18800		875.00000 
 43692.65567		 305.27265			43387.38302		64.65000		324.00000 
 43692.65567		 730.60171			42962.05396		169.18800		875.00000 
 43692.65567		 305.27265			43387.38302		64.65000		324.00000 
 43692.65567		 730.60171			42962.05396		169.18800		875.00000 
 43692.65567		 305.27265			43387.38302		64.65000		324.00000 
 43692.65567		 730.60171			42962.05396		169.18800		875.00000 
 43692.65567		 305.27265			43387.38302		64.65000		324.00000 
 43692.65567		 730.60171			42962.05396		169.18800		875.00000 
 43692.65567		 305.27265			43387.38302		64.65000		324.00000 
 43692.65567		 730.60171			42962.05396		169.18800		875.00000 
 43692.65567		 305.27265			43387.38302		64.65000		324.00000 
 43692.65567		 730.60171			42962.05396		169.18800		875.00000 
 43692.65567		 305.27265			43387.38302		64.65000		324.00000 
 43692.65567		 730.60171			42962.05396		169.18800		875.00000 
 43692.65567		 305.27265			43387.38302		64.65000		324.00000 
 43692.65567		 730.60171			42962.05396		169.18800		875.00000 
 43692.65567		 305.27265			43387.38302		64.65000		324.00000 
 43692.65567		 730.60171			42962.05396		169.18800		875.00000 
 43692.65567		 305.27265			43387.38302		64.65000		324.00000 
 43692.65567		 730.60171			42962.05396		169.18800		875.00000 
 43692.65567		 305.27265			43387.38302		64.65000		324.00000 
 43692.65567		 730.60171			42962.05396		169.18800		875.00000 
 43692.65567		 305.27265			43387.38302		64.65000		324.00000 
 43692.65567		 730.60171			42962.05396		169.18800		875.00000 
 43692.65567		 305.27265			43387.38302		64.65000		324.00000 
 43692.65567		 730.60171			42962.05396		169.18800		875.00000 
 43692.65567		 305.27265			43387.38302		64.65000		324.00000 
 43692.65567		 730.60171			42962.05396		169.18800		875.00000 
 43692.65567		 305.27265			43387.38302		64.65000		324.00000 
 43692.65567		 730.60171			42962.05396		169.18800		875.00000 
 43692.65567		 305.27265			43387.38302		64.65000		324.00000 
 43692.65567		 730.60171			42962.05396		169.18800		875.00000 
 43692.65567		 305.27265			43387.38302		64.65000		324.00000 
 43692.65567		 730.60171			42962.05396		169.18800		875.00000 
 43692.65567		 305.27265			43387.38302		64.65000		324.00000 
 43692.65567		 730.60171			42962.05396		169.18800		875.00000 
 43692.65567		 305.27265			43387.38302		64.65000		324.00000 
 43692.65567		 730.60171			42962.05396		169.18800		875.00000 
 43692.65567		 305.27265			43387.38302		64.65000		324.00000 
 43692.65567		 730.60171			42962.05396		169.18800		875.00000 
 43692.65567		 305.27265			43387.38302		64.65000		324.00000 
 43692.65567		 730.60171			42962.05396		169.18800		875.00000 
 43692.65567		 305.27265			43387.38302		64.65000		324.00000 
 43692.65567		 730.60171			42962.05396		169.18800		875.00000 
 43692.65567		 305.27265			43387.38302		64.65000		324.00000 
 43692.65567		 730.60171			42962.05396		169.18800		875.00000 
 43692.65567		 305.27265			43387.38302		64.65000		324.00000 
 43692.65567		 730.60171			42962.05396		169.18800		875.00000 
 43692.65567		 305.27265			43387.38302		64.65000		324.00000 
 43692.65567		 730.60171			42962.05396		169.18800		875.00000 
 43692.65567		 305.27265			43387.38302		64.65000		324.00000 
 43692.65567		 730.60171			42962.05396		169.18800		875.00000 
 43692.65567		 305.27265			43387.38302		64.65000		324.00000 
 43692.65567		 730.60171			42962.05396		169.18800		875.00000 
 43692.65567		 305.27265			43387.38302		64.65000		324.00000 
 43692.65567		 730.60171			42962.05396		169.18800		875.00000 
 43692.65567		 305.27265			43387.38302		64.65000		324.00000 
 43692.65567		 730.60171			42962.05396		169.18800		875.00000 
 43692.65567		 305.27265			43387.38302		64.65000		324.00000 
 43692.65567		 730.60171			42962.05396		169.18800		875.00000 
 43692.65567		 305.27265			43387.38302		64.65000		324.00000 
 43692.65567		 730.60171			42962.05396		169.18800		875.00000 
 43692.65567		 305.27265			43387.38302		64.65000		324.00000 
 43692.65567		 730.60171			42962.05396		169.18800		875.00000 
 43692.65567		 305.27265			43387.38302		64.65000		324.00000 
 43692.65567		 730.60171			42962.05396		169.18800		875.00000 
 43692.65567		 305.27265			43387.38302		64.65000		324.00000 
 43692.65567		 730.60171			42962.05396		169.18800		875.00000 
 43692.65567		 305.27265			43387.38302		64.65000		324.00000 
 43692.65567		 730.60171			42962.05396		169.18800		875.00000 
 43692.65567		 305.27265			43387.38302		64.65000		324.00000 
 43692.65567		 730.60171			42962.05396		169.18800		875.00000 
 43692.65567		 305.27265			43387.38302		64.65000		324.00000 
 43692.65567		 730.60171			42962.05396		169.18800		875.00000 
 43692.65567		 305.27265			43387.38302		64.65000		324.00000 
 43692.65567		 730.60171			42962.05396		169.18800		875.00000 
 43692.65567		 305.27265			43387.38302		64.65000		324.00000 
 43692.65567		 730.60171			42962.05396		169.18800		875.00000 
 43692.65567		 305.27265			43387.38302		64.65000		324.00000 
 43692.65567		 730.60171			42962.05396		169.18800		875.00000 
 43692.65567		 305.27265			43387.38302		64.65000		324.00000 
 43692.65567		 730.60171			42962.05396		169.18800		875.00000 
 43692.65567		 305.27265			43387.38302		64.65000		324.00000 
 43692.65567		 730.60171			42962.05396		169.18800		875.00000 
 43692.65567		 305.27265			43387.38302		64.65000		324.00000 
 43692.65567		 730.60171			42962.05396		169.18800		875.00000 
 43692.65567		 305.27265			43387.38302		64.65000		324.00000 
 43692.65567		 730.60171			42962.05396		169.18800		875.00000 
 43692.65567		 305.27265			43387.38302		64.65000		324.00000 
 43692.65567		 730.60171			42962.05396		169.18800		875.00000 
 43692.65567		 305.27265			43387.38302		64.65000		324.00000 
 43692.65567		 730.60171			42962.05396		169.18800		875.00000 
 43692.65567		 305.27265			43387.38302		64.65000		324.00000 
 43692.65567		 730.60171			42962.05396		169.18800		875.00000 
 43692.65567		 305.27265			43387.38302		64.65000		324.00000 
 43692.65567		 730.60171			42962.05396		169.18800		875.00000 
 43692.65567		 305.27265			43387.38302		64.65000		324.00000 
 43692.65567		 730.60171			42962.05396		169.18800		875.00000 
 43692.65567		 305.27265			43387.38302		64.65000		324.00000 
 43692.65567		 730.60171			42962.05396		169.18800		875.00000 
 43692.65567		 305.27265			43387.38302		64.65000		324.00000 
 43692.65567		 730.60171			42962.05396		169.18800		875.00000 
 43692.65567		 305.27265			43387.38302		64.65000		324.00000 
 43692.65567		 730.60171			42962.05396		169.18800		875.00000 
 43692.65567		 305.27265			43387.38302		64.65000		324.00000 
 43692.65567		 730.60171			42962.05396		169.18800		875.00000 
 43692.65567		 305.27265			43387.38302		64.65000		324.00000 
 43692.65567		 730.60171			42962.05396		169.18800		875.00000 
 43692.65567		 305.27265			43387.38302		64.65000		324.00000 
 43692.65567		 730.60171			42962.05396		169.18800		875.00000 
 43692.65567		 305.27265			43387.38302		64.65000		324.00000 
 43692.65567		 730.60171			42962.05396		169.18800		875.00000 
 43692.65567		 305.27265			43387.38302		64.65000		324.00000 
 43692.65567		 730.60171			42962.05396		169.18800		875.00000 
 43692.65567		 305.27265			43387.38302		64.65000		324.00000 
 43692.65567		 730.60171			42962.05396		169.18800		875.00000 
 43692.65567		 305.27265			43387.38302		64.65000		324.00000 
 43692.65567		 730.60171			42962.05396		169.18800		875.00000 
 43692.65567		 305.27265			43387.38302		64.65000		324.00000 
 43692.65567		 730.60171			42962.05396		200.47400		875.00000 
 43692.65567		 305.27265			43387.38302		64.65000		324.00000 
 43692.65567		 730.60171			42962.05396		200.47400		875.00000 
 43692.65567		 305.27265			43387.38302		64.65000		324.00000 
 43692.65567		 730.60171			42962.05396		200.47400		875.00000 
 43692.65567		 305.27265			43387.38302		64.65000		324.00000 
 43692.65567		 730.60171			42962.05396		200.47400		875.00000 
 43692.65567		 305.27265			43387.38302		64.65000		324.00000 
 43692.65567		 730.60171			42962.05396		200.47400		875.00000 
 43692.65567		 305.27265			43387.38302		64.65000		324.00000 
 43692.65567		 730.60171			42962.05396		200.47400		875.00000 
 43692.65567		 305.27265			43387.38302		64.65000		324.00000 
 43692.65567		 730.60171			42962.05396		200.47400		875.00000 
 43692.65567		 305.27265			43387.38302		64.65000		324.00000 
 43692.65567		 730.60171			42962.05396		200.47400		875.00000 
 43692.65567		 305.27265			43387.38302		64.65000		324.00000 
 43692.65567		 730.60171			42962.05396		200.47400		875.00000 
 43692.65567		 305.27265			43387.38302		64.65000		324.00000 
 43692.65567		 730.60171			42962.05396		200.47400		875.00000 
 43692.65567		 305.27265			43387.38302		64.65000		324.00000 
 43692.65567		 730.60171			42962.05396		200.47400		875.00000 
 43692.65567		 305.27265			43387.38302		64.65000		324.00000 
 43692.65567		 730.60171			42962.05396		200.47400		875.00000 
 43692.65567		 305.27265			43387.38302		64.65000		324.00000 
 43692.65567		 730.60171			42962.05396		200.47400		875.00000 
 43692.65567		 305.27265			43387.38302		64.65000		324.00000 
 43692.65567		 730.60171			42962.05396		200.47400		875.00000 
 43692.65567		 305.27265			43387.38302		64.65000		324.00000 
 43692.65567		 730.60171			42962.05396		200.47400		875.00000 
 43692.65567		 305.27265			43387.38302		64.65000		324.00000 
 43692.65567		 730.60171			42962.05396		200.47400		875.00000 
 43692.65567		 305.27265			43387.38302		64.65000		324.00000 
 43692.65567		 730.60171			42962.05396		200.47400		875.00000 
 43692.65567		 305.27265			43387.38302		64.65000		324.00000 
 43692.65567		 730.60171			42962.05396		200.47400		875.00000 
 43692.65567		 305.27265			43387.38302		64.65000		324.00000 
 43692.65567		 730.60171			42962.05396		200.47400		875.00000 
 43692.65567		 305.27265			43387.38302		64.65000		324.00000 
 43692.65567		 730.60171			42962.05396		200.47400		875.00000 
 43692.65567		 305.27265			43387.38302		64.65000		324.00000 
 43692.65567		 730.60171			42962.05396		200.47400		875.00000 
 43692.65567		 305.27265			43387.38302		64.65000		324.00000 
 43692.65567		 730.60171			42962.05396		200.47400		875.00000 
 43692.65567		 305.27265			43387.38302		64.65000		324.00000 
 43692.65567		 730.60171			42962.05396		200.47400		875.00000 
 43692.65567		 305.27265			43387.38302		64.65000		324.00000 
 43692.65567		 730.60171			42962.05396		200.47400		875.00000 
 43692.65567		 305.27265			43387.38302		64.65000		324.00000 
 43692.65567		 730.60171			42962.05396		200.47400		875.00000 
 43692.65567		 305.27265			43387.38302		64.65000		324.00000 
 43692.65567		 730.60171			42962.05396		200.47400		875.00000 
 43692.65567		 305.27265			43387.38302		64.65000		324.00000 
 43692.65567		 730.60171			42962.05396		200.47400		875.00000 
 43692.65567		 305.27265			43387.38302		64.65000		324.00000 
 43692.65567		 730.60171			42962.05396		200.47400		875.00000 
 43692.65567		 305.27265			43387.38302		64.65000		324.00000 
 43692.65567		 730.60171			42962.05396		200.47400		875.00000 
 43692.65567		 305.27265			43387.38302		64.65000		324.00000 
 43692.65567		 730.60171			42962.05396		200.47400		875.00000 
 43692.65567		 305.27265			43387.38302		64.65000		324.00000 
 43692.65567		 730.60171			42962.05396		200.47400		875.00000 
 43692.65567		 305.27265			43387.38302		64.65000		324.00000 
 43692.65567		 730.60171			42962.05396		200.47400		875.00000 
 43692.65567		 305.27265			43387.38302		64.65000		324.00000 
 43692.65567		 730.60171			42962.05396		200.47400		875.00000 
 43692.65567		 305.27265			43387.38302		64.65000		324.00000 
 43692.65567		 730.60171			42962.05396		200.47400		875.00000 
 43692.65567		 305.27265			43387.38302		64.65000		324.00000 
 43692.65567		 730.60171			42962.05396		200.47400		875.00000 
 43692.65567		 305.27265			43387.38302		64.65000		324.00000 
 43692.65567		 730.60171			42962.05396		200.47400		875.00000 
 43692.65567		 305.27265			43387.38302		64.65000		324.00000 
 43692.65567		 730.60171			42962.05396		200.47400		875.00000 
 43692.65567		 305.27265			43387.38302		64.65000		324.00000 
 43692.65567		 730.60171			42962.05396		200.47400		875.00000 
 43692.65567		 305.27265			43387.38302		64.65000		324.00000 
 43692.65567		 730.60171			42962.05396		200.47400		875.00000 
 43692.65567		 305.27265			43387.38302		64.65000		324.00000 
 43692.65567		 730.60171			42962.05396		200.47400		875.00000 
 43692.65567		 305.27265			43387.38302		64.65000		324.00000 
 43692.65567		 730.60171			42962.05396		200.47400		875.00000 
 43692.65567		 305.27265			43387.38302		64.65000		324.00000 
 43692.65567		 730.60171			42962.05396		200.47400		875.00000 
 43692.65567		 305.27265			43387.38302		64.65000		324.00000 
 43692.65567		 730.60171			42962.05396		200.47400		875.00000 
 43692.65567		 305.27265			43387.38302		64.65000		324.00000 
 43692.65567		 730.60171			42962.05396		200.47400		875.00000 
 43692.65567		 305.27265			43387.38302		64.65000		324.00000 
 43692.65567		 730.60171			42962.05396		200.47400		875.00000 
 43692.65567		 305.27265			43387.38302		64.65000		324.00000 
 43692.65567		 730.60171			42962.05396		200.47400		875.00000 
 43692.65567		 305.27265			43387.38302		64.65000		324.00000 
 43692.65567		 730.60171			42962.05396		200.47400		875.00000 
 43692.65567		 305.27265			43387.38302		64.65000		324.00000 
 43692.65567		 730.60171			42962.05396		200.47400		875.00000 
 43692.65567		 305.27265			43387.38302		64.65000		324.00000 
 43692.65567		 730.60171			42962.05396		200.47400		875.00000 
 43692.65567		 305.27265			43387.38302		64.65000		324.00000 
 43692.65567		 730.60171			42962.05396		200.47400		875.00000 
 43692.65567		 305.27265			43387.38302		64.65000		324.00000 
 43692.65567		 730.60171			42962.05396		200.47400		875.00000 
 43692.65567		 305.27265			43387.38302		64.65000		324.00000 
 43692.65567		 730.60171			42962.05396		200.47400		875.00000 
 43692.65567		 305.27265			43387.38302		64.65000		324.00000 
 43692.65567		 730.60171			42962.05396		200.47400		875.00000 
 43692.65567		 305.27265			43387.38302		64.65000		324.00000 
 43692.65567		 730.60171			42962.05396		200.47400		875.00000 
 43692.65567		 305.27265			43387.38302		64.65000		324.00000 
 43692.65567		 730.60171			42962.05396		200.47400		875.00000 
 43692.65567		 305.27265			43387.38302		64.65000		324.00000 
 43692.65567		 730.60171			42962.05396		200.47400		875.00000 
 43692.65567		 305.27265			43387.38302		64.65000		324.00000 
 43692.65567		 730.60171			42962.05396		200.47400		875.00000 
 43692.65567		 305.27265			43387.38302		64.65000		324.00000 
 43692.65567		 730.60171			42962.05396		200.47400		875.00000 
 43692.65567		 305.27265			43387.38302		64.65000		324.00000 
 43692.65567		 730.60171			42962.05396		200.47400		875.00000 
 43692.65567		 305.27265			43387.38302		64.65000		324.00000 
 43692.65567		 730.60171			42962.05396		200.47400		875.00000 
 43692.65567		 305.27265			43387.38302		64.65000		324.00000 
 43692.65567		 730.60171			42962.05396		200.47400		875.00000 
 43692.65567		 305.27265			43387.38302		64.65000		324.00000 
 43692.65567		 730.60171			42962.05396		200.47400		875.00000 
 43692.65567		 305.27265			43387.38302		64.65000		324.00000 
 43692.65567		 730.60171			42962.05396		200.47400		875.00000 
 43692.65567		 305.27265			43387.38302		64.65000		324.00000 
 43692.65567		 730.60171			42962.05396		200.47400		875.00000 
 43692.65567		 305.27265			43387.38302		64.65000		324.00000 
 43692.65567		 730.60171			42962.05396		200.47400		875.00000 
 43692.65567		 305.27265			43387.38302		64.65000		324.00000 
 43692.65567		 730.60171			42962.05396		212.97200		875.00000 
 43692.65567		 305.27265			43387.38302		64.65000		324.00000 
 43692.65567		 730.60171			42962.05396		212.97200		875.00000 
 43692.65567		 305.27265			43387.38302		64.65000		324.00000 
 43692.65567		 730.60171			42962.05396		212.97200		875.00000 
 43692.65567		 305.27265			43387.38302		64.65000		324.00000 
 43692.65567		 730.60171			42962.05396		212.97200		875.00000 
 43692.65567		 305.27265			43387.38302		64.65000		324.00000 
 43692.65567		 730.60171			42962.05396		212.97200		875.00000 
 43692.65567		 305.27265			43387.38302		64.65000		324.00000 
 43692.65567		 730.60171			42962.05396		212.97200		875.00000 
 43692.65567		 305.27265			43387.38302		64.65000		324.00000 
 43692.65567		 730.60171			42962.05396		212.97200		875.00000 
 43692.65567		 305.27265			43387.38302		64.65000		324.00000 
 43692.65567		 730.60171			42962.05396		212.97200		875.00000 
 43692.65567		 305.27265			43387.38302		64.65000		324.00000 
 43692.65567		 730.60171			42962.05396		212.97200		875.00000 
 43692.65567		 305.27265			43387.38302		64.65000		324.00000 
 43692.65567		 730.60171			42962.05396		212.97200		875.00000 
 43692.65567		 305.27265			43387.38302		64.65000		324.00000 
 43692.65567		 730.60171			42962.05396		212.97200		875.00000 
 43692.65567		 305.27265			43387.38302		64.65000		324.00000 
 43692.65567		 730.60171			42962.05396		212.97200		875.00000 
 43692.65567		 305.27265			43387.38302		64.65000		324.00000 
 43692.65567		 730.60171			42962.05396		212.97200		875.00000 
 43692.65567		 305.27265			43387.38302		64.65000		324.00000 
 43692.65567		 730.60171			42962.05396		212.97200		875.00000 
 43692.65567		 305.27265			43387.38302		64.65000		324.00000 
 43692.65567		 730.60171			42962.05396		212.97200		875.00000 
 43692.65567		 305.27265			43387.38302		64.65000		324.00000 
 43692.65567		 730.60171			42962.05396		212.97200		875.00000 
 43692.65567		 305.27265			43387.38302		64.65000		324.00000 
 43692.65567		 730.60171			42962.05396		212.97200		875.00000 
 43692.65567		 305.27265			43387.38302		64.65000		324.00000 
 43692.65567		 730.60171			42962.05396		212.97200		875.00000 
 43692.65567		 305.27265			43387.38302		64.65000		324.00000 
 43692.65567		 730.60171			42962.05396		212.97200		875.00000 
 43692.65567		 305.27265			43387.38302		64.65000		324.00000 
 43692.65567		 730.60171			42962.05396		212.97200		875.00000 
 43692.65567		 305.27265			43387.38302		64.65000		324.00000 
 43692.65567		 730.60171			42962.05396		212.97200		875.00000 
 43692.65567		 305.27265			43387.38302		64.65000		324.00000 
 43692.65567		 730.60171			42962.05396		212.97200		875.00000 
 43692.65567		 305.27265			43387.38302		64.65000		324.00000 
 43692.65567		 730.60171			42962.05396		212.97200		875.00000 
 43692.65567		 305.27265			43387.38302		64.65000		324.00000 
 43692.65567		 730.60171			42962.05396		212.97200		875.00000 
 43692.65567		 305.27265			43387.38302		64.65000		324.00000 
 43692.65567		 730.60171			42962.05396		212.97200		875.00000 
 43692.65567		 305.27265			43387.38302		64.65000		324.00000 
 43692.65567		 730.60171			42962.05396		212.97200		875.00000 
 43692.65567		 305.27265			43387.38302		64.65000		324.00000 
 43692.65567		 730.60171			42962.05396		212.97200		875.00000 
 43692.65567		 305.27265			43387.38302		64.65000		324.00000 
 43692.65567		 730.60171			42962.05396		212.97200		875.00000 
 43692.65567		 305.27265			43387.38302		64.65000		324.00000 
 43692.65567		 730.60171			42962.05396		212.97200		875.00000 
 43692.65567		 305.27265			43387.38302		64.65000		324.00000 
 43692.65567		 730.60171			42962.05396		212.97200		875.00000 
 43692.65567		 305.27265			43387.38302		64.65000		324.00000 
 43692.65567		 730.60171			42962.05396		212.97200		875.00000 
 43692.65567		 305.27265			43387.38302		64.65000		324.00000 
 43692.65567		 730.60171			42962.05396		212.97200		875.00000 
 43692.65567		 305.27265			43387.38302		64.65000		324.00000 
 43692.65567		 730.60171			42962.05396		212.97200		875.00000 
 43692.65567		 305.27265			43387.38302		64.65000		324.00000 
 43692.65567		 730.60171			42962.05396		212.97200		875.00000 
 43692.65567		 305.27265			43387.38302		64.65000		324.00000 
 43692.65567		 730.60171			42962.05396		212.97200		875.00000 
 43692.65567		 305.27265			43387.38302		64.65000		324.00000 
 43692.65567		 730.60171			42962.05396		212.97200		875.00000 
 43692.65567		 305.27265			43387.38302		64.65000		324.00000 
 43692.65567		 730.60171			42962.05396		212.97200		875.00000 
 43692.65567		 305.27265			43387.38302		64.65000		324.00000 
 43692.65567		 730.60171			42962.05396		212.97200		875.00000 
 43692.65567		 305.27265			43387.38302		64.65000		324.00000 
 43692.65567		 730.60171			42962.05396		212.97200		875.00000 
 43692.65567		 305.27265			43387.38302		64.65000		324.00000 
 43692.65567		 730.60171			42962.05396		212.97200		875.00000 
 43692.65567		 305.27265			43387.38302		64.65000		324.00000 
 43692.65567		 730.60171			42962.05396		212.97200		875.00000 
 43692.65567		 305.27265			43387.38302		64.65000		324.00000 
 43692.65567		 730.60171			42962.05396		212.97200		875.00000 
 43692.65567		 305.27265			43387.38302		64.65000		324.00000 
 43692.65567		 730.60171			42962.05396		212.97200		875.00000 
 43692.65567		 305.27265			43387.38302		64.65000		324.00000 
 43692.65567		 730.60171			42962.05396		212.97200		875.00000 
 43692.65567		 305.27265			43387.38302		64.65000		324.00000 
 43692.65567		 730.60171			42962.05396		212.97200		875.00000 
 43692.65567		 305.27265			43387.38302		64.65000		324.00000 
 43692.65567		 730.60171			42962.05396		212.97200		875.00000 
 43692.65567		 305.27265			43387.38302		64.65000		324.00000 
 43692.65567		 730.60171			42962.05396		212.97200		875.00000 
 43692.65567		 305.27265			43387.38302		64.65000		324.00000 
 43692.65567		 730.60171			42962.05396		212.97200		875.00000 
 43692.65567		 305.27265			43387.38302		64.65000		324.00000 
 43692.65567		 730.60171			42962.05396		212.97200		875.00000 
 43692.65567		 305.27265			43387.38302		64.65000		324.00000 
 43692.65567		 730.60171			42962.05396		212.97200		875.00000 
 43692.65567		 305.27265			43387.38302		64.65000		324.00000 
 43692.65567		 730.60171			42962.05396		212.97200		875.00000 
 43692.65567		 305.27265			43387.38302		64.65000		324.00000 
 43692.65567		 730.60171			42962.05396		212.97200		875.00000 
 43692.65567		 305.27265			43387.38302		64.65000		324.00000 
 43692.65567		 730.60171			42962.05396		212.97200		875.00000 
 43692.65567		 305.27265			43387.38302		64.65000		324.00000 
 43692.65567		 730.60171			42962.05396		212.97200		875.00000 
 43692.65567		 305.27265			43387.38302		64.65000		324.00000 
 43692.65567		 730.60171			42962.05396		212.97200		875.00000 
 43692.65567		 305.27265			43387.38302		64.65000		324.00000 
 43692.65567		 730.60171			42962.05396		212.97200		875.00000 
 43692.65567		 305.27265			43387.38302		64.65000		324.00000 
 43692.65567		 730.60171			42962.05396		212.97200		875.00000 
 43692.65567		 305.27265			43387.38302		64.65000		324.00000 
 43692.65567		 730.60171			42962.05396		212.97200		875.00000 
 43692.65567		 305.27265			43387.38302		64.65000		324.00000 
 43692.65567		 730.60171			42962.05396		212.97200		875.00000 
 43692.65567		 305.27265			43387.38302		64.65000		324.00000 
 43692.65567		 730.60171			42962.05396		212.97200		875.00000 
 43692.65567		 305.27265			43387.38302		64.65000		324.00000 
 43692.65567		 730.60171			42962.05396		212.97200		875.00000 
 43692.65567		 305.27265			43387.38302		64.65000		324.00000 
 43692.65567		 730.60171			42962.05396		212.97200		875.00000 
 43692.65567		 305.27265			43387.38302		64.65000		324.00000 
 43692.65567		 730.60171			42962.05396		212.97200		875.00000 
 43692.65567		 305.27265			43387.38302		64.65000		324.00000 
 43692.65567		 730.60171			42962.05396		212.97200		875.00000 
 43692.65567		 305.27265			43387.38302		64.65000		324.00000 
 43692.65567		 730.60171			42962.05396		212.97200		875.00000 
 43692.65567		 305.27265			43387.38302		64.65000		324.00000 
 43692.65567		 730.60171			42962.05396		217.58600		875.00000 
 43692.65567		 305.27265			43387.38302		64.65000		324.00000 
 43692.65567		 730.60171			42962.05396		217.58600		875.00000 
 43692.65567		 305.27265			43387.38302		64.65000		324.00000 
 43692.65567		 730.60171			42962.05396		217.58600		875.00000 
 43692.65567		 305.27265			43387.38302		64.65000		324.00000 
 43692.65567		 730.60171			42962.05396		217.58600		875.00000 
 43692.65567		 305.27265			43387.38302		64.65000		324.00000 
 43692.65567		 730.60171			42962.05396		217.58600		875.00000 
 43692.65567		 305.27265			43387.38302		64.65000		324.00000 
 43692.65567		 730.60171			42962.05396		217.58600		875.00000 
 43692.65567		 305.27265			43387.38302		64.65000		324.00000 
 43692.65567		 730.60171			42962.05396		217.58600		875.00000 
 43692.65567		 305.27265			43387.38302		64.65000		324.00000 
 43692.65567		 730.60171			42962.05396		217.58600		875.00000 
 43692.65567		 305.27265			43387.38302		64.65000		324.00000 
 43692.65567		 730.60171			42962.05396		217.58600		875.00000 
 43692.65567		 305.27265			43387.38302		64.65000		324.00000 
 43692.65567		 730.60171			42962.05396		217.58600		875.00000 
 43692.65567		 305.27265			43387.38302		64.65000		324.00000 
 43692.65567		 730.60171			42962.05396		217.58600		875.00000 
 43692.65567		 305.27265			43387.38302		64.65000		324.00000 
 43692.65567		 730.60171			42962.05396		217.58600		875.00000 
 43692.65567		 305.27265			43387.38302		64.65000		324.00000 
 43692.65567		 730.60171			42962.05396		217.58600		875.00000 
 43692.65567		 305.27265			43387.38302		64.65000		324.00000 
 43692.65567		 730.60171			42962.05396		217.58600		875.00000 
 43692.65567		 305.27265			43387.38302		64.65000		324.00000 
 43692.65567		 730.60171			42962.05396		217.58600		875.00000 
 43692.65567		 305.27265			43387.38302		64.65000		324.00000 
 43692.65567		 730.60171			42962.05396		217.58600		875.00000 
 43692.65567		 305.27265			43387.38302		64.65000		324.00000 
 43692.65567		 730.60171			42962.05396		217.58600		875.00000 
 43692.65567		 305.27265			43387.38302		64.65000		324.00000 
 43692.65567		 730.60171			42962.05396		217.58600		875.00000 
 43692.65567		 305.27265			43387.38302		64.65000		324.00000 
 43692.65567		 730.60171			42962.05396		217.58600		875.00000 
 43692.65567		 305.27265			43387.38302		64.65000		324.00000 
 43692.65567		 730.60171			42962.05396		217.58600		875.00000 
 43692.65567		 305.27265			43387.38302		64.65000		324.00000 
 43692.65567		 730.60171			42962.05396		217.58600		875.00000 
 43692.65567		 305.27265			43387.38302		64.65000		324.00000 
 43692.65567		 730.60171			42962.05396		217.58600		875.00000 
 43692.65567		 305.27265			43387.38302		64.65000		324.00000 
 43692.65567		 730.60171			42962.05396		217.58600		875.00000 
 43692.65567		 305.27265			43387.38302		64.65000		324.00000 
 43692.65567		 730.60171			42962.05396		217.58600		875.00000 
 43692.65567		 305.27265			43387.38302		64.65000		324.00000 
 43692.65567		 730.60171			42962.05396		217.58600		875.00000 
 43692.65567		 305.27265			43387.38302		64.65000		324.00000 
 43692.65567		 730.60171			42962.05396		217.58600		875.00000 
 43692.65567		 305.27265			43387.38302		64.65000		324.00000 
 43692.65567		 730.60171			42962.05396		217.58600		875.00000 
 43692.65567		 305.27265			43387.38302		64.65000		324.00000 
 43692.65567		 730.60171			42962.05396		217.58600		875.00000 
 43692.65567		 305.27265			43387.38302		64.65000		324.00000 
 43692.65567		 730.60171			42962.05396		217.58600		875.00000 
 43692.65567		 305.27265			43387.38302		64.65000		324.00000 
 43692.65567		 730.60171			42962.05396		217.58600		875.00000 
 43692.65567		 305.27265			43387.38302		64.65000		324.00000 
 43692.65567		 730.60171			42962.05396		217.58600		875.00000 
 43692.65567		 305.27265			43387.38302		64.65000		324.00000 
 43692.65567		 730.60171			42962.05396		217.58600		875.00000 
 43692.65567		 305.27265			43387.38302		64.65000		324.00000 
 43692.65567		 730.60171			42962.05396		217.58600		875.00000 
 43692.65567		 305.27265			43387.38302		64.65000		324.00000 
 43692.65567		 730.60171			42962.05396		217.58600		875.00000 
 43692.65567		 305.27265			43387.38302		64.65000		324.00000 
 43692.65567		 730.60171			42962.05396		217.58600		875.00000 
 43692.65567		 305.27265			43387.38302		64.65000		324.00000 
 43692.65567		 730.60171			42962.05396		217.58600		875.00000 
 43692.65567		 305.27265			43387.38302		64.65000		324.00000 
 43692.65567		 730.60171			42962.05396		217.58600		875.00000 
 43692.65567		 305.27265			43387.38302		64.65000		324.00000 
 43692.65567		 730.60171			42962.05396		217.58600		875.00000 
 43692.65567		 305.27265			43387.38302		64.65000		324.00000 
 43692.65567		 730.60171			42962.05396		217.58600		875.00000 
 43692.65567		 305.27265			43387.38302		64.65000		324.00000 
 43692.65567		 730.60171			42962.05396		217.58600		875.00000 
 43692.65567		 305.27265			43387.38302		64.65000		324.00000 
 43692.65567		 730.60171			42962.05396		217.58600		875.00000 
 43692.65567		 305.27265			43387.38302		64.65000		324.00000 
 43692.65567		 730.60171			42962.05396		217.58600		875.00000 
 43692.65567		 305.27265			43387.38302		64.65000		324.00000 
 43692.65567		 730.60171			42962.05396		217.58600		875.00000 
 43692.65567		 305.27265			43387.38302		64.65000		324.00000 
 43692.65567		 730.60171			42962.05396		217.58600		875.00000 
 43692.65567		 305.27265			43387.38302		64.65000		324.00000 
 43692.65567		 730.60171			42962.05396		217.58600		875.00000 
 43692.65567		 305.27265			43387.38302		64.65000		324.00000 
 43692.65567		 730.60171			42962.05396		217.58600		875.00000 
 43692.65567		 305.27265			43387.38302		64.65000		324.00000 
 43692.65567		 730.60171			42962.05396		217.58600		875.00000 
 43692.65567		 305.27265			43387.38302		64.65000		324.00000 
 43692.65567		 730.60171			42962.05396		217.58600		875.00000 
 43692.65567		 305.27265			43387.38302		64.65000		324.00000 
 43692.65567		 730.60171			42962.05396		217.58600		875.00000 
 43692.65567		 305.27265			43387.38302		64.65000		324.00000 
 43692.65567		 730.60171			42962.05396		217.58600		875.00000 
 43692.65567		 305.27265			43387.38302		64.65000		324.00000 
 43692.65567		 730.60171			42962.05396		217.58600		875.00000 
 43692.65567		 305.27265			43387.38302		64.65000		324.00000 
 43692.65567		 730.60171			42962.05396		217.58600		875.00000 
 43692.65567		 305.27265			43387.38302		64.65000		324.00000 
 43692.65567		 730.60171			42962.05396		217.58600		875.00000 
 43692.65567		 305.27265			43387.38302		64.65000		324.00000 
 43692.65567		 730.60171			42962.05396		217.58600		875.00000 
 43692.65567		 305.27265			43387.38302		64.65000		324.00000 
 43692.65567		 730.60171			42962.05396		217.58600		875.00000 
 43692.65567		 305.27265			43387.38302		64.65000		324.00000 
 43692.65567		 730.60171			42962.05396		217.58600		875.00000 
 43692.65567		 305.27265			43387.38302		64.65000		324.00000 
 43692.65567		 730.60171			42962.05396		217.58600		875.00000 
 43692.65567		 305.27265			43387.38302		64.65000		324.00000 
 43692.65567		 730.60171			42962.05396		217.58600		875.00000 
 43692.65567		 305.27265			43387.38302		64.65000		324.00000 
 43692.65567		 730.60171			42962.05396		217.58600		875.00000 
 43692.65567		 305.27265			43387.38302		64.65000		324.00000 
 43692.65567		 730.60171			42962.05396		217.58600		875.00000 
 43692.65567		 305.27265			43387.38302		64.65000		324.00000 
 43692.65567		 730.60171			42962.05396		217.58600		875.00000 
 43692.65567		 305.27265			43387.38302		64.65000		324.00000 
 43692.65567		 730.60171			42962.05396		217.58600		875.00000 
 43692.65567		 305.27265			43387.38302		64.65000		324.00000 
 43692.65567		 730.60171			42962.05396		217.58600		875.00000 
 43692.65567		 305.27265			43387.38302		64.65000		324.00000 
 43692.65567		 730.60171			42962.05396		217.58600		875.00000 
 43692.65567		 305.27265			43387.38302		64.65000		324.00000 
 43692.65567		 730.60171			42962.05396		217.58600		875.00000 
 43692.65567		 305.27265			43387.38302		64.65000		324.00000 
 43692.65567		 730.60171			42962.05396		218.34400		875.00000 
 43692.65567		 305.27265			43387.38302		64.65000		324.00000 
 43692.65567		 730.60171			42962.05396		218.34400		875.00000 
 43692.65567		 305.27265			43387.38302		64.65000		324.00000 
 43692.65567		 730.60171			42962.05396		218.34400		875.00000 
 43692.65567		 305.27265			43387.38302		64.65000		324.00000 
 43692.65567		 730.60171			42962.05396		218.34400		875.00000 
 43692.65567		 305.27265			43387.38302		64.65000		324.00000 
 43692.65567		 730.60171			42962.05396		218.34400		875.00000 
 43692.65567		 305.27265			43387.38302		64.65000		324.00000 
 43692.65567		 730.60171			42962.05396		218.34400		875.00000 
 43692.65567		 305.27265			43387.38302		64.65000		324.00000 
 43692.65567		 730.60171			42962.05396		218.34400		875.00000 
 43692.65567		 305.27265			43387.38302		64.65000		324.00000 
 43692.65567		 730.60171			42962.05396		218.34400		875.00000 
 43692.65567		 305.27265			43387.38302		64.65000		324.00000 
 43692.65567		 730.60171			42962.05396		218.34400		875.00000 
 43692.65567		 305.27265			43387.38302		64.65000		324.00000 
 43692.65567		 730.60171			42962.05396		218.34400		875.00000 
 43692.65567		 305.27265			43387.38302		64.65000		324.00000 
 43692.65567		 730.60171			42962.05396		218.34400		875.00000 
 43692.65567		 305.27265			43387.38302		64.65000		324.00000 
 43692.65567		 730.60171			42962.05396		218.34400		875.00000 
 43692.65567		 305.27265			43387.38302		64.65000		324.00000 
 43692.65567		 730.60171			42962.05396		218.34400		875.00000 
 43692.65567		 305.27265			43387.38302		64.65000		324.00000 
 43692.65567		 730.60171			42962.05396		218.34400		875.00000 
 43692.65567		 305.27265			43387.38302		64.65000		324.00000 
 43692.65567		 730.60171			42962.05396		218.34400		875.00000 
 43692.65567		 305.27265			43387.38302		64.65000		324.00000 
 43692.65567		 730.60171			42962.05396		218.34400		875.00000 
 43692.65567		 305.27265			43387.38302		64.65000		324.00000 
 43692.65567		 730.60171			42962.05396		218.34400		875.00000 
 43692.65567		 305.27265			43387.38302		64.65000		324.00000 
 43692.65567		 730.60171			42962.05396		218.34400		875.00000 
 43692.65567		 305.27265			43387.38302		64.65000		324.00000 
 43692.65567		 730.60171			42962.05396		218.34400		875.00000 
 43692.65567		 305.27265			43387.38302		64.65000		324.00000 
 43692.65567		 730.60171			42962.05396		218.34400		875.00000 
 43692.65567		 305.27265			43387.38302		64.65000		324.00000 
 43692.65567		 730.60171			42962.05396		218.34400		875.00000 
 43692.65567		 305.27265			43387.38302		64.65000		324.00000 
 43692.65567		 730.60171			42962.05396		218.34400		875.00000 
 43692.65567		 305.27265			43387.38302		64.65000		324.00000 
 43692.65567		 730.60171			42962.05396		218.34400		875.00000 
 43692.65567		 305.27265			43387.38302		64.65000		324.00000 
 43692.65567		 730.60171			42962.05396		218.34400		875.00000 
 43692.65567		 305.27265			43387.38302		64.65000		324.00000 
 43692.65567		 730.60171			42962.05396		218.34400		875.00000 
 43692.65567		 305.27265			43387.38302		64.65000		324.00000 
 43692.65567		 730.60171			42962.05396		218.34400		875.00000 
 43692.65567		 305.27265			43387.38302		64.65000		324.00000 
 43692.65567		 730.60171			42962.05396		218.34400		875.00000 
 43692.65567		 305.27265			43387.38302		64.65000		324.00000 
 43692.65567		 730.60171			42962.05396		218.34400		875.00000 
 43692.65567		 305.27265			43387.38302		64.65000		324.00000 
 43692.65567		 730.60171			42962.05396		218.34400		875.00000 
 43692.65567		 305.27265			43387.38302		64.65000		324.00000 
 43692.65567		 730.60171			42962.05396		218.34400		875.00000 
 43692.65567		 305.27265			43387.38302		64.65000		324.00000 
 43692.65567		 730.60171			42962.05396		218.34400		875.00000 
 43692.65567		 305.27265			43387.38302		64.65000		324.00000 
 43692.65567		 730.60171			42962.05396		218.34400		875.00000 
 43692.65567		 305.27265			43387.38302		64.65000		324.00000 
 43692.65567		 730.60171			42962.05396		218.34400		875.00000 
 43692.65567		 305.27265			43387.38302		64.65000		324.00000 
 43692.65567		 730.60171			42962.05396		218.34400		875.00000 
 43692.65567		 305.27265			43387.38302		64.65000		324.00000 
 43692.65567		 730.60171			42962.05396		218.34400		875.00000 
 43692.65567		 305.27265			43387.38302		64.65000		324.00000 
 43692.65567		 730.60171			42962.05396		218.34400		875.00000 
 43692.65567		 305.27265			43387.38302		64.65000		324.00000 
 43692.65567		 730.60171			42962.05396		218.34400		875.00000 
 43692.65567		 305.27265			43387.38302		64.65000		324.00000 
 43692.65567		 730.60171			42962.05396		218.34400		875.00000 
 43692.65567		 305.27265			43387.38302		64.65000		324.00000 
 43692.65567		 730.60171			42962.05396		218.34400		875.00000 
 43692.65567		 305.27265			43387.38302		64.65000		324.00000 
 43692.65567		 730.60171			42962.05396		218.34400		875.00000 
 43692.65567		 305.27265			43387.38302		64.65000		324.00000 
 43692.65567		 730.60171			42962.05396		218.34400		875.00000 
 43692.65567		 305.27265			43387.38302		64.65000		324.00000 
 43692.65567		 730.60171			42962.05396		218.34400		875.00000 
 43692.65567		 305.27265			43387.38302		64.65000		324.00000 
 43692.65567		 730.60171			42962.05396		218.34400		875.00000 
 43692.65567		 305.27265			43387.38302		64.65000		324.00000 
 43692.65567		 730.60171			42962.05396		218.34400		875.00000 
 43692.65567		 305.27265			43387.38302		64.65000		324.00000 
 43692.65567		 730.60171			42962.05396		218.34400		875.00000 
 43692.65567		 305.27265			43387.38302		64.65000		324.00000 
 43692.65567		 730.60171			42962.05396		218.34400		875.00000 
 43692.65567		 305.27265			43387.38302		64.65000		324.00000 
 43692.65567		 730.60171			42962.05396		218.34400		875.00000 
 43692.65567		 305.27265			43387.38302		64.65000		324.00000 
 43692.65567		 730.60171			42962.05396		218.34400		875.00000 
 43692.65567		 305.27265			43387.38302		64.65000		324.00000 
 43692.65567		 730.60171			42962.05396		218.34400		875.00000 
 43692.65567		 305.27265			43387.38302		64.65000		324.00000 
 43692.65567		 730.60171			42962.05396		218.34400		875.00000 
 43692.65567		 305.27265			43387.38302		64.65000		324.00000 
 43692.65567		 730.60171			42962.05396		218.34400		875.00000 
 43692.65567		 305.27265			43387.38302		64.65000		324.00000 
 43692.65567		 730.60171			42962.05396		218.34400		875.00000 
 43692.65567		 305.27265			43387.38302		64.65000		324.00000 
 43692.65567		 730.60171			42962.05396		218.34400		875.00000 
 43692.65567		 305.27265			43387.38302		64.65000		324.00000 
 43692.65567		 730.60171			42962.05396		218.34400		875.00000 
 43692.65567		 305.27265			43387.38302		64.65000		324.00000 
 43692.65567		 730.60171			42962.05396		218.34400		875.00000 
 43692.65567		 305.27265			43387.38302		64.65000		324.00000 
 43692.65567		 730.60171			42962.05396		218.34400		875.00000 
 43692.65567		 305.27265			43387.38302		64.65000		324.00000 
 43692.65567		 730.60171			42962.05396		218.34400		875.00000 
 43692.65567		 305.27265			43387.38302		64.65000		324.00000 
 43692.65567		 730.60171			42962.05396		218.34400		875.00000 
 43692.65567		 305.27265			43387.38302		64.65000		324.00000 
 43692.65567		 730.60171			42962.05396		218.34400		875.00000 
 43692.65567		 305.27265			43387.38302		64.65000		324.00000 
 43692.65567		 730.60171			42962.05396		218.34400		875.00000 
 43692.65567		 305.27265			43387.38302		64.65000		324.00000 
 43692.65567		 730.60171			42962.05396		218.34400		875.00000 
 43692.65567		 305.27265			43387.38302		64.65000		324.00000 
 43692.65567		 730.60171			42962.05396		218.34400		875.00000 
 43692.65567		 305.27265			43387.38302		64.65000		324.00000 
 43692.65567		 730.60171			42962.05396		218.34400		875.00000 
 43692.65567		 305.27265			43387.38302		64.65000		324.00000 
 43692.65567		 730.60171			42962.05396		218.34400		875.00000 
 43692.65567		 305.27265			43387.38302		64.65000		324.00000 
 43692.65567		 730.60171			42962.05396		219.48800		875.00000 
 43692.65567		 305.27265			43387.38302		64.65000		324.00000 
 43692.65567		 730.60171			42962.05396		219.48800		875.00000 
 43692.65567		 305.27265			43387.38302		64.65000		324.00000 
 43692.65567		 730.60171			42962.05396		219.48800		875.00000 
 43692.65567		 305.27265			43387.38302		64.65000		324.00000 
 43692.65567		 730.60171			42962.05396		219.48800		875.00000 
 43692.65567		 305.27265			43387.38302		64.65000		324.00000 
 43692.65567		 730.60171			42962.05396		219.48800		875.00000 
 43692.65567		 305.27265			43387.38302		64.65000		324.00000 
 43692.65567		 730.60171			42962.05396		219.48800		875.00000 
 43692.65567		 305.27265			43387.38302		64.65000		324.00000 
 43692.65567		 730.60171			42962.05396		219.48800		875.00000 
 43692.65567		 305.27265			43387.38302		64.65000		324.00000 
 43692.65567		 730.60171			42962.05396		219.48800		875.00000 
 43692.65567		 305.27265			43387.38302		64.65000		324.00000 
 43692.65567		 730.60171			42962.05396		219.48800		875.00000 
 43692.65567		 305.27265			43387.38302		64.65000		324.00000 
 43692.65567		 730.60171			42962.05396		219.48800		875.00000 
 43692.65567		 305.27265			43387.38302		64.65000		324.00000 
 43692.65567		 730.60171			42962.05396		219.48800		875.00000 
 43692.65567		 305.27265			43387.38302		64.65000		324.00000 
 43692.65567		 730.60171			42962.05396		219.48800		875.00000 
 43692.65567		 305.27265			43387.38302		64.65000		324.00000 
 43692.65567		 730.60171			42962.05396		219.48800		875.00000 
 43692.65567		 305.27265			43387.38302		64.65000		324.00000 
 43692.65567		 730.60171			42962.05396		219.48800		875.00000 
 43692.65567		 305.27265			43387.38302		64.65000		324.00000 
 43692.65567		 730.60171			42962.05396		219.48800		875.00000 
 43692.65567		 305.27265			43387.38302		64.65000		324.00000 
 43692.65567		 730.60171			42962.05396		219.48800		875.00000 
 43692.65567		 305.27265			43387.38302		64.65000		324.00000 
 43692.65567		 730.60171			42962.05396		219.48800		875.00000 
 43692.65567		 305.27265			43387.38302		64.65000		324.00000 
 43692.65567		 730.60171			42962.05396		219.48800		875.00000 
 43692.65567		 305.27265			43387.38302		64.65000		324.00000 
 43692.65567		 730.60171			42962.05396		219.48800		875.00000 
 43692.65567		 305.27265			43387.38302		64.65000		324.00000 
 43692.65567		 730.60171			42962.05396		219.48800		875.00000 
 43692.65567		 305.27265			43387.38302		64.65000		324.00000 
 43692.65567		 730.60171			42962.05396		219.48800		875.00000 
 43692.65567		 305.27265			43387.38302		64.65000		324.00000 
 43692.65567		 730.60171			42962.05396		219.48800		875.00000 
 43692.65567		 305.27265			43387.38302		64.65000		324.00000 
 43692.65567		 730.60171			42962.05396		219.48800		875.00000 
 43692.65567		 305.27265			43387.38302		64.65000		324.00000 
 43692.65567		 730.60171			42962.05396		219.48800		875.00000 
 43692.65567		 305.27265			43387.38302		64.65000		324.00000 
 43692.65567		 730.60171			42962.05396		219.48800		875.00000 
 43692.65567		 305.27265			43387.38302		64.65000		324.00000 
 43692.65567		 730.60171			42962.05396		219.48800		875.00000 
 43692.65567		 305.27265			43387.38302		64.65000		324.00000 
 43692.65567		 730.60171			42962.05396		219.48800		875.00000 
 43692.65567		 305.27265			43387.38302		64.65000		324.00000 
 43692.65567		 730.60171			42962.05396		219.48800		875.00000 
 43692.65567		 305.27265			43387.38302		64.65000		324.00000 
 43692.65567		 730.60171			42962.05396		219.48800		875.00000 
 43692.65567		 305.27265			43387.38302		64.65000		324.00000 
 43692.65567		 730.60171			42962.05396		219.48800		875.00000 
 43692.65567		 305.27265			43387.38302		64.65000		324.00000 
 43692.65567		 730.60171			42962.05396		219.48800		875.00000 
 43692.65567		 305.27265			43387.38302		64.65000		324.00000 
 43692.65567		 730.60171			42962.05396		219.48800		875.00000 
 43692.65567		 305.27265			43387.38302		64.65000		324.00000 
 43692.65567		 730.60171			42962.05396		219.48800		875.00000 
 43692.65567		 305.27265			43387.38302		64.65000		324.00000 
 43692.65567		 730.60171			42962.05396		219.48800		875.00000 
 43692.65567		 305.27265			43387.38302		64.65000		324.00000 
 43692.65567		 730.60171			42962.05396		219.48800		875.00000 
 43692.65567		 305.27265			43387.38302		64.65000		324.00000 
 43692.65567		 730.60171			42962.05396		219.48800		875.00000 
 43692.65567		 305.27265			43387.38302		64.65000		324.00000 
 43692.65567		 730.60171			42962.05396		219.48800		875.00000 
 43692.65567		 305.27265			43387.38302		64.65000		324.00000 
 43692.65567		 730.60171			42962.05396		219.48800		875.00000 
 43692.65567		 305.27265			43387.38302		64.65000		324.00000 
 43692.65567		 730.60171			42962.05396		219.48800		875.00000 
 43692.65567		 305.27265			43387.38302		64.65000		324.00000 
 43692.65567		 730.60171			42962.05396		219.48800		875.00000 
 43692.65567		 305.27265			43387.38302		64.65000		324.00000 
 43692.65567		 730.60171			42962.05396		219.48800		875.00000 
 43692.65567		 305.27265			43387.38302		64.65000		324.00000 
 43692.65567		 730.60171			42962.05396		219.48800		875.00000 
 43692.65567		 305.27265			43387.38302		64.65000		324.00000 
 43692.65567		 730.60171			42962.05396		219.48800		875.00000 
 43692.65567		 305.27265			43387.38302		64.65000		324.00000 
 43692.65567		 730.60171			42962.05396		219.48800		875.00000 
 43692.65567		 305.27265			43387.38302		64.65000		324.00000 
 43692.65567		 730.60171			42962.05396		219.48800		875.00000 
 43692.65567		 305.27265			43387.38302		64.65000		324.00000 
 43692.65567		 730.60171			42962.05396		219.48800		875.00000 
 43692.65567		 305.27265			43387.38302		64.65000		324.00000 
 43692.65567		 730.60171			42962.05396		219.48800		875.00000 
 43692.65567		 305.27265			43387.38302		64.65000		324.00000 
 43692.65567		 730.60171			42962.05396		219.48800		875.00000 
 43692.65567		 305.27265			43387.38302		64.65000		324.00000 
 43692.65567		 730.60171			42962.05396		219.48800		875.00000 
 43692.65567		 305.27265			43387.38302		64.65000		324.00000 
 43692.65567		 730.60171			42962.05396		219.48800		875.00000 
 43692.65567		 305.27265			43387.38302		64.65000		324.00000 
 43692.65567		 730.60171			42962.05396		219.48800		875.00000 
 43692.65567		 305.27265			43387.38302		64.65000		324.00000 
 43692.65567		 730.60171			42962.05396		219.48800		875.00000 
 43692.65567		 305.27265			43387.38302		64.65000		324.00000 
 43692.65567		 730.60171			42962.05396		219.48800		875.00000 
 43692.65567		 305.27265			43387.38302		64.65000		324.00000 
 43692.65567		 730.60171			42962.05396		219.48800		875.00000 
 43692.65567		 305.27265			43387.38302		64.65000		324.00000 
 43692.65567		 730.60171			42962.05396		219.48800		875.00000 
 43692.65567		 305.27265			43387.38302		64.65000		324.00000 
 43692.65567		 730.60171			42962.05396		219.48800		875.00000 
 43692.65567		 305.27265			43387.38302		64.65000		324.00000 
 43692.65567		 730.60171			42962.05396		219.48800		875.00000 
 43692.65567		 305.27265			43387.38302		64.65000		324.00000 
 43692.65567		 730.60171			42962.05396		219.48800		875.00000 
 43692.65567		 305.27265			43387.38302		64.65000		324.00000 
 43692.65567		 730.60171			42962.05396		219.48800		875.00000 
 43692.65567		 305.27265			43387.38302		64.65000		324.00000 
 43692.65567		 730.60171			42962.05396		219.48800		875.00000 
 43692.65567		 305.27265			43387.38302		64.65000		324.00000 
 43692.65567		 730.60171			42962.05396		219.48800		875.00000 
 43692.65567		 305.27265			43387.38302		64.65000		324.00000 
 43692.65567		 730.60171			42962.05396		219.48800		875.00000 
 43692.65567		 305.27265			43387.38302		64.65000		324.00000 
 43692.65567		 730.60171			42962.05396		219.48800		875.00000 
 43692.65567		 305.27265			43387.38302		64.65000		324.00000 
 43692.65567		 730.60171			42962.05396		219.48800		875.00000 
 43692.65567		 305.27265			43387.38302		64.65000		324.00000 
 43692.65567		 730.60171			42962.05396		219.66200		875.00000 
 43692.65567		 305.27265			43387.38302		64.65000		324.00000 
 43692.65567		 730.60171			42962.05396		219.66200		875.00000 
 43692.65567		 305.27265			43387.38302		64.65000		324.00000 
 43692.65567		 730.60171			42962.05396		219.66200		875.00000 
 43692.65567		 305.27265			43387.38302		64.65000		324.00000 
 43692.65567		 730.60171			42962.05396		219.66200		875.00000 
 43692.65567		 305.27265			43387.38302		64.65000		324.00000 
 43692.65567		 730.60171			42962.05396		219.66200		875.00000 
 43692.65567		 305.27265			43387.38302		64.65000		324.00000 
 43692.65567		 730.60171			42962.05396		219.66200		875.00000 
 43692.65567		 305.27265			43387.38302		64.65000		324.00000 
 43692.65567		 730.60171			42962.05396		219.66200		875.00000 
 43692.65567		 305.27265			43387.38302		64.65000		324.00000 
 43692.65567		 730.60171			42962.05396		219.66200		875.00000 
 43692.65567		 305.27265			43387.38302		64.65000		324.00000 
 43692.65567		 730.60171			42962.05396		219.66200		875.00000 
 43692.65567		 305.27265			43387.38302		64.65000		324.00000 
 43692.65567		 730.60171			42962.05396		219.66200		875.00000 
 43692.65567		 305.27265			43387.38302		64.65000		324.00000 
 43692.65567		 730.60171			42962.05396		219.66200		875.00000 
 43692.65567		 305.27265			43387.38302		64.65000		324.00000 
 43692.65567		 730.60171			42962.05396		219.66200		875.00000 
 43692.65567		 305.27265			43387.38302		64.65000		324.00000 
 43692.65567		 730.60171			42962.05396		219.66200		875.00000 
 43692.65567		 305.27265			43387.38302		64.65000		324.00000 
 43692.65567		 730.60171			42962.05396		219.66200		875.00000 
 43692.65567		 305.27265			43387.38302		64.65000		324.00000 
 43692.65567		 730.60171			42962.05396		219.66200		875.00000 
 43692.65567		 305.27265			43387.38302		64.65000		324.00000 
 43692.65567		 730.60171			42962.05396		219.66200		875.00000 
 43692.65567		 305.27265			43387.38302		64.65000		324.00000 
 43692.65567		 730.60171			42962.05396		219.66200		875.00000 
 43692.65567		 305.27265			43387.38302		64.65000		324.00000 
 43692.65567		 730.60171			42962.05396		219.66200		875.00000 
 43692.65567		 305.27265			43387.38302		64.65000		324.00000 
 43692.65567		 730.60171			42962.05396		219.66200		875.00000 
 43692.65567		 305.27265			43387.38302		64.65000		324.00000 
 43692.65567		 730.60171			42962.05396		219.66200		875.00000 
 43692.65567		 305.27265			43387.38302		64.65000		324.00000 
 43692.65567		 730.60171			42962.05396		219.66200		875.00000 
 43692.65567		 305.27265			43387.38302		64.65000		324.00000 
 43692.65567		 730.60171			42962.05396		219.66200		875.00000 
 43692.65567		 305.27265			43387.38302		64.65000		324.00000 
 43692.65567		 730.60171			42962.05396		219.66200		875.00000 
 43692.65567		 305.27265			43387.38302		64.65000		324.00000 
 43692.65567		 730.60171			42962.05396		219.66200		875.00000 
 43692.65567		 305.27265			43387.38302		64.65000		324.00000 
 43692.65567		 730.60171			42962.05396		219.66200		875.00000 
 43692.65567		 305.27265			43387.38302		64.65000		324.00000 
 43692.65567		 730.60171			42962.05396		219.66200		875.00000 
 43692.65567		 305.27265			43387.38302		64.65000		324.00000 
 43692.65567		 730.60171			42962.05396		219.66200		875.00000 
 43692.65567		 305.27265			43387.38302		64.65000		324.00000 
 43692.65567		 730.60171			42962.05396		219.66200		875.00000 
 43692.65567		 305.27265			43387.38302		64.65000		324.00000 
 43692.65567		 730.60171			42962.05396		219.66200		875.00000 
 43692.65567		 305.27265			43387.38302		64.65000		324.00000 
 43692.65567		 730.60171			42962.05396		219.66200		875.00000 
 43692.65567		 305.27265			43387.38302		64.65000		324.00000 
 43692.65567		 730.60171			42962.05396		219.66200		875.00000 
 43692.65567		 305.27265			43387.38302		64.65000		324.00000 
 43692.65567		 730.60171			42962.05396		219.66200		875.00000 
 43692.65567		 305.27265			43387.38302		64.65000		324.00000 
 43692.65567		 730.60171			42962.05396		219.66200		875.00000 
 43692.65567		 305.27265			43387.38302		64.65000		324.00000 
 43692.65567		 730.60171			42962.05396		219.66200		875.00000 
 43692.65567		 305.27265			43387.38302		64.65000		324.00000 
 43692.65567		 730.60171			42962.05396		219.66200		875.00000 
 43692.65567		 305.27265			43387.38302		64.65000		324.00000 
 43692.65567		 730.60171			42962.05396		219.66200		875.00000 
 43692.65567		 305.27265			43387.38302		64.65000		324.00000 
 43692.65567		 730.60171			42962.05396		219.66200		875.00000 
 43692.65567		 305.27265			43387.38302		64.65000		324.00000 
 43692.65567		 730.60171			42962.05396		219.66200		875.00000 
 43692.65567		 305.27265			43387.38302		64.65000		324.00000 
 43692.65567		 730.60171			42962.05396		219.66200		875.00000 
 43692.65567		 305.27265			43387.38302		64.65000		324.00000 
 43692.65567		 730.60171			42962.05396		219.66200		875.00000 
 43692.65567		 305.27265			43387.38302		64.65000		324.00000 
 43692.65567		 730.60171			42962.05396		219.66200		875.00000 
 43692.65567		 305.27265			43387.38302		64.65000		324.00000 
 43692.65567		 730.60171			42962.05396		219.66200		875.00000 
 43692.65567		 305.27265			43387.38302		64.65000		324.00000 
 43692.65567		 730.60171			42962.05396		219.66200		875.00000 
 43692.65567		 305.27265			43387.38302		64.65000		324.00000 
 43692.65567		 730.60171			42962.05396		219.66200		875.00000 
 43692.65567		 305.27265			43387.38302		64.65000		324.00000 
 43692.65567		 730.60171			42962.05396		219.66200		875.00000 
 43692.65567		 305.27265			43387.38302		64.65000		324.00000 
 43692.65567		 730.60171			42962.05396		219.66200		875.00000 
 43692.65567		 305.27265			43387.38302		64.65000		324.00000 
 43692.65567		 730.60171			42962.05396		219.66200		875.00000 
 43692.65567		 305.27265			43387.38302		64.65000		324.00000 
 43692.65567		 730.60171			42962.05396		219.66200		875.00000 
 43692.65567		 305.27265			43387.38302		64.65000		324.00000 
 43692.65567		 730.60171			42962.05396		219.66200		875.00000 
 43692.65567		 305.27265			43387.38302		64.65000		324.00000 
 43692.65567		 730.60171			42962.05396		219.66200		875.00000 
 43692.65567		 305.27265			43387.38302		64.65000		324.00000 
 43692.65567		 730.60171			42962.05396		219.66200		875.00000 
 43692.65567		 305.27265			43387.38302		64.65000		324.00000 
 43692.65567		 730.60171			42962.05396		219.66200		875.00000 
 43692.65567		 305.27265			43387.38302		64.65000		324.00000 
 43692.65567		 730.60171			42962.05396		219.66200		875.00000 
 43692.65567		 305.27265			43387.38302		64.65000		324.00000 
 43692.65567		 730.60171			42962.05396		219.66200		875.00000 
 43692.65567		 305.27265			43387.38302		64.65000		324.00000 
 43692.65567		 730.60171			42962.05396		219.66200		875.00000 
 43692.65567		 305.27265			43387.38302		64.65000		324.00000 
 43692.65567		 730.60171			42962.05396		219.66200		875.00000 
 43692.65567		 305.27265			43387.38302		64.65000		324.00000 
 43692.65567		 730.60171			42962.05396		219.66200		875.00000 
 43692.65567		 305.27265			43387.38302		64.65000		324.00000 
 43692.65567		 730.60171			42962.05396		219.66200		875.00000 
 43692.65567		 305.27265			43387.38302		64.65000		324.00000 
 43692.65567		 730.60171			42962.05396		219.66200		875.00000 
 43692.65567		 305.27265			43387.38302		64.65000		324.00000 
 43692.65567		 730.60171			42962.05396		219.66200		875.00000 
 43692.65567		 305.27265			43387.38302		64.65000		324.00000 
 43692.65567		 730.60171			42962.05396		219.66200		875.00000 
 43692.65567		 305.27265			43387.38302		64.65000		324.00000 
 43692.65567		 730.60171			42962.05396		219.66200		875.00000 
 43692.65567		 305.27265			43387.38302		64.65000		324.00000 
 43692.65567		 730.60171			42962.05396		219.66200		875.00000 
 43692.65567		 305.27265			43387.38302		64.65000		324.00000 
 43692.65567		 730.60171			42962.05396		219.66200		875.00000 
 43692.65567		 305.27265			43387.38302		64.65000		324.00000 
 43692.65567		 730.60171			42962.05396		219.06200		875.00000 
 43692.65567		 305.27265			43387.38302		64.65000		324.00000 
 43692.65567		 730.60171			42962.05396		219.06200		875.00000 
 43692.65567		 305.27265			43387.38302		64.65000		324.00000 
 43692.65567		 730.60171			42962.05396		219.06200		875.00000 
 43692.65567		 305.27265			43387.38302		64.65000		324.00000 
 43692.65567		 730.60171			42962.05396		219.06200		875.00000 
 43692.65567		 305.27265			43387.38302		64.65000		324.00000 
 43692.65567		 730.60171			42962.05396		219.06200		875.00000 
 43692.65567		 305.27265			43387.38302		64.65000		324.00000 
 43692.65567		 730.60171			42962.05396		219.06200		875.00000 
 43692.65567		 305.27265			43387.38302		64.65000		324.00000 
 43692.65567		 730.60171			42962.05396		219.06200		875.00000 
 43692.65567		 305.27265			43387.38302		64.65000		324.00000 
 43692.65567		 730.60171			42962.05396		219.06200		875.00000 
 43692.65567		 305.27265			43387.38302		64.65000		324.00000 
 43692.65567		 730.60171			42962.05396		219.06200		875.00000 
 43692.65567		 305.27265			43387.38302		64.65000		324.00000 
 43692.65567		 730.60171			42962.05396		219.06200		875.00000 
 43692.65567		 305.27265			43387.38302		64.65000		324.00000 
 43692.65567		 730.60171			42962.05396		219.06200		875.00000 
 43692.65567		 305.27265			43387.38302		64.65000		324.00000 
 43692.65567		 730.60171			42962.05396		219.06200		875.00000 
 43692.65567		 305.27265			43387.38302		64.65000		324.00000 
 43692.65567		 730.60171			42962.05396		219.06200		875.00000 
 43692.65567		 305.27265			43387.38302		64.65000		324.00000 
 43692.65567		 730.60171			42962.05396		219.06200		875.00000 
 43692.65567		 305.27265			43387.38302		64.65000		324.00000 
 43692.65567		 730.60171			42962.05396		219.06200		875.00000 
 43692.65567		 305.27265			43387.38302		64.65000		324.00000 
 43692.65567		 730.60171			42962.05396		219.06200		875.00000 
 43692.65567		 305.27265			43387.38302		64.65000		324.00000 
 43692.65567		 730.60171			42962.05396		219.06200		875.00000 
 43692.65567		 305.27265			43387.38302		64.65000		324.00000 
 43692.65567		 730.60171			42962.05396		219.06200		875.00000 
 43692.65567		 305.27265			43387.38302		64.65000		324.00000 
 43692.65567		 730.60171			42962.05396		219.06200		875.00000 
 43692.65567		 305.27265			43387.38302		64.65000		324.00000 
 43692.65567		 730.60171			42962.05396		219.06200		875.00000 
 43692.65567		 305.27265			43387.38302		64.65000		324.00000 
 43692.65567		 730.60171			42962.05396		219.06200		875.00000 
 43692.65567		 305.27265			43387.38302		64.65000		324.00000 
 43692.65567		 730.60171			42962.05396		219.06200		875.00000 
 43692.65567		 305.27265			43387.38302		64.65000		324.00000 
 43692.65567		 730.60171			42962.05396		219.06200		875.00000 
 43692.65567		 305.27265			43387.38302		64.65000		324.00000 
 43692.65567		 730.60171			42962.05396		219.06200		875.00000 
 43692.65567		 305.27265			43387.38302		64.65000		324.00000 
 43692.65567		 730.60171			42962.05396		219.06200		875.00000 
 43692.65567		 305.27265			43387.38302		64.65000		324.00000 
 43692.65567		 730.60171			42962.05396		219.06200		875.00000 
 43692.65567		 305.27265			43387.38302		64.65000		324.00000 
 43692.65567		 730.60171			42962.05396		219.06200		875.00000 
 43692.65567		 305.27265			43387.38302		64.65000		324.00000 
 43692.65567		 730.60171			42962.05396		219.06200		875.00000 
 43692.65567		 305.27265			43387.38302		64.65000		324.00000 
 43692.65567		 730.60171			42962.05396		219.06200		875.00000 
 43692.65567		 305.27265			43387.38302		64.65000		324.00000 
 43692.65567		 730.60171			42962.05396		219.06200		875.00000 
 43692.65567		 305.27265			43387.38302		64.65000		324.00000 
 43692.65567		 730.60171			42962.05396		219.06200		875.00000 
 43692.65567		 305.27265			43387.38302		64.65000		324.00000 
 43692.65567		 730.60171			42962.05396		219.06200		875.00000 
 43692.65567		 305.27265			43387.38302		64.65000		324.00000 
 43692.65567		 730.60171			42962.05396		219.06200		875.00000 
 43692.65567		 305.27265			43387.38302		64.65000		324.00000 
 43692.65567		 730.60171			42962.05396		219.06200		875.00000 
 43692.65567		 305.27265			43387.38302		64.65000		324.00000 
 43692.65567		 730.60171			42962.05396		219.06200		875.00000 
 43692.65567		 305.27265			43387.38302		64.65000		324.00000 
 43692.65567		 730.60171			42962.05396		219.06200		875.00000 
 43692.65567		 305.27265			43387.38302		64.65000		324.00000 
 43692.65567		 730.60171			42962.05396		219.06200		875.00000 
 43692.65567		 305.27265			43387.38302		64.65000		324.00000 
 43692.65567		 730.60171			42962.05396		219.06200		875.00000 
 43692.65567		 305.27265			43387.38302		64.65000		324.00000 
 43692.65567		 730.60171			42962.05396		219.06200		875.00000 
 43692.65567		 305.27265			43387.38302		64.65000		324.00000 
 43692.65567		 730.60171			42962.05396		219.06200		875.00000 
 43692.65567		 305.27265			43387.38302		64.65000		324.00000 
 43692.65567		 730.60171			42962.05396		219.06200		875.00000 
 43692.65567		 305.27265			43387.38302		64.65000		324.00000 
 43692.65567		 730.60171			42962.05396		219.06200		875.00000 
 43692.65567		 305.27265			43387.38302		64.65000		324.00000 
 43692.65567		 730.60171			42962.05396		219.06200		875.00000 
 43692.65567		 305.27265			43387.38302		64.65000		324.00000 
 43692.65567		 730.60171			42962.05396		219.06200		875.00000 
 43692.65567		 305.27265			43387.38302		64.65000		324.00000 
 43692.65567		 730.60171			42962.05396		219.06200		875.00000 
 43692.65567		 305.27265			43387.38302		64.65000		324.00000 
 43692.65567		 730.60171			42962.05396		219.06200		875.00000 
 43692.65567		 305.27265			43387.38302		64.65000		324.00000 
 43692.65567		 730.60171			42962.05396		219.06200		875.00000 
 43692.65567		 305.27265			43387.38302		64.65000		324.00000 
 43692.65567		 730.60171			42962.05396		219.06200		875.00000 
 43692.65567		 305.27265			43387.38302		64.65000		324.00000 
 43692.65567		 730.60171			42962.05396		219.06200		875.00000 
 43692.65567		 305.27265			43387.38302		64.65000		324.00000 
 43692.65567		 730.60171			42962.05396		219.06200		875.00000 
 43692.65567		 305.27265			43387.38302		64.65000		324.00000 
 43692.65567		 730.60171			42962.05396		219.06200		875.00000 
 43692.65567		 305.27265			43387.38302		64.65000		324.00000 
 43692.65567		 730.60171			42962.05396		219.06200		875.00000 
 43692.65567		 305.27265			43387.38302		64.65000		324.00000 
 43692.65567		 730.60171			42962.05396		219.06200		875.00000 
 43692.65567		 305.27265			43387.38302		64.65000		324.00000 
 43692.65567		 730.60171			42962.05396		219.06200		875.00000 
 43692.65567		 305.27265			43387.38302		64.65000		324.00000 
 43692.65567		 730.60171			42962.05396		219.06200		875.00000 
 43692.65567		 305.27265			43387.38302		64.65000		324.00000 
 43692.65567		 730.60171			42962.05396		219.06200		875.00000 
 43692.65567		 305.27265			43387.38302		64.65000		324.00000 
 43692.65567		 730.60171			42962.05396		219.06200		875.00000 
 43692.65567		 305.27265			43387.38302		64.65000		324.00000 
 43692.65567		 730.60171			42962.05396		219.06200		875.00000 
 43692.65567		 305.27265			43387.38302		64.65000		324.00000 
 43692.65567		 730.60171			42962.05396		219.06200		875.00000 
 43692.65567		 305.27265			43387.38302		64.65000		324.00000 
 43692.65567		 730.60171			42962.05396		219.06200		875.00000 
 43692.65567		 305.27265			43387.38302		64.65000		324.00000 
 43692.65567		 730.60171			42962.05396		219.06200		875.00000 
 43692.65567		 305.27265			43387.38302		64.65000		324.00000 
 43692.65567		 730.60171			42962.05396		219.06200		875.00000 
 43692.65567		 305.27265			43387.38302		64.65000		324.00000 
 43692.65567		 730.60171			42962.05396		219.06200		875.00000 
 43692.65567		 305.27265			43387.38302		64.65000		324.00000 
 43692.65567		 730.60171			42962.05396		219.06200		875.00000 
 43692.65567		 305.27265			43387.38302		64.65000		324.00000 
 43692.65567		 730.60171			42962.05396		219.06200		875.00000 
 43692.65567		 305.27265			43387.38302		64.65000		324.00000 
 43692.65567		 730.60171			42962.05396		219.06200		875.00000 
 43692.65567		 305.27265			43387.38302		64.65000		324.00000 
 43692.65567		 730.60171			42962.05396		219.06200		875.00000 
 43692.65567		 305.27265			43387.38302		64.65000		324.00000 
 43692.65567		 730.60171			42962.05396		219.06200		875.00000 
 43692.65567		 305.27265			43387.38302		64.65000		324.00000 
 43692.65567		 730.60171			42962.05396		219.06200		875.00000 
 43692.65567		 305.27265			43387.38302		64.65000		324.00000 
 43692.65567		 730.60171			42962.05396		219.06200		875.00000 
 43692.65567		 305.27265			43387.38302		64.65000		324.00000 
 43692.65567		 730.60171			42962.05396		219.06200		875.00000 
 43692.65567		 305.27265			43387.38302		64.65000		324.00000 
 43692.65567		 730.60171			42962.05396		219.06200		875.00000 
 43692.65567		 305.27265			43387.38302		64.65000		324.00000 
 43692.65567		 730.60171			42962.05396		219.06200		875.00000 
 43692.65567		 305.27265			43387.38302		64.65000		324.00000 
 43692.65567		 730.60171			42962.05396		219.06200		875.00000 
 43692.65567		 305.27265			43387.38302		64.65000		324.00000 
 43692.65567		 730.60171			42962.05396		219.06200		875.00000 
 43692.65567		 305.27265			43387.38302		64.65000		324.00000 
 43692.65567		 730.60171			42962.05396		219.06200		875.00000 
 43692.65567		 305.27265			43387.38302		64.65000		324.00000 
 43692.65567		 730.60171			42962.05396		219.06200		875.00000 
 43692.65567		 305.27265			43387.38302		64.65000		324.00000 
 43692.65567		 730.60171			42962.05396		219.06200		875.00000 
 43692.65567		 305.27265			43387.38302		64.65000		324.00000 
 43692.65567		 730.60171			42962.05396		219.06200		875.00000 
 43692.65567		 305.27265			43387.38302		64.65000		324.00000 
 43692.65567		 730.60171			42962.05396		219.06200		875.00000 
 43692.65567		 305.27265			43387.38302		64.65000		324.00000 
 43692.65567		 730.60171			42962.05396		219.06200		875.00000 
 43692.65567		 305.27265			43387.38302		64.65000		324.00000 
 43692.65567		 730.60171			42962.05396		219.06200		875.00000 
 43692.65567		 305.27265			43387.38302		64.65000		324.00000 
 43692.65567		 730.60171			42962.05396		219.06200		875.00000 
 43692.65567		 305.27265			43387.38302		64.65000		324.00000 
 43692.65567		 730.60171			42962.05396		219.06200		875.00000 
 43692.65567		 305.27265			43387.38302		64.65000		324.00000 
 43692.65567		 730.60171			42962.05396		219.06200		875.00000 
 43692.65567		 305.27265			43387.38302		64.65000		324.00000 
 43692.65567		 730.60171			42962.05396		219.06200		875.00000 
 43692.65567		 305.27265			43387.38302		64.65000		324.00000 
 43692.65567		 730.60171			42962.05396		219.06200		875.00000 
 43692.65567		 305.27265			43387.38302		64.65000		324.00000 
 43692.65567		 730.60171			42962.05396		219.06200		875.00000 
 43692.65567		 305.27265			43387.38302		64.65000		324.00000 
 43692.65567		 730.60171			42962.05396		219.06200		875.00000 
 43692.65567		 305.27265			43387.38302		64.65000		324.00000 
 43692.65567		 730.60171			42962.05396		219.06200		875.00000 
 43692.65567		 305.27265			43387.38302		64.65000		324.00000 
 43692.65567		 730.60171			42962.05396		219.06200		875.00000 
 43692.65567		 305.27265			43387.38302		64.65000		324.00000 
 43692.65567		 730.60171			42962.05396		219.06200		875.00000 
 43692.65567		 305.27265			43387.38302		64.65000		324.00000 
 43692.65567		 730.60171			42962.05396		219.06200		875.00000 
 43692.65567		 305.27265			43387.38302		64.65000		324.00000 
 43692.65567		 730.60171			42962.05396		219.06200		875.00000 
 43692.65567		 305.27265			43387.38302		64.65000		324.00000 
 43692.65567		 730.60171			42962.05396		219.06200		875.00000 
 43692.65567		 305.27265			43387.38302		64.65000		324.00000 
 43692.65567		 730.60171			42962.05396		219.06200		875.00000 
 43692.65567		 305.27265			43387.38302		64.65000		324.00000 
 43692.65567		 730.60171			42962.05396		219.06200		875.00000 
 43692.65567		 305.27265			43387.38302		64.65000		324.00000 
 43692.65567		 730.60171			42962.05396		219.06200		875.00000 
 43692.65567		 305.27265			43387.38302		64.65000		324.00000 
 43692.65567		 730.60171			42962.05396		219.06200		875.00000 
 43692.65567		 305.27265			43387.38302		64.65000		324.00000 
 43692.65567		 730.60171			42962.05396		219.06200		875.00000 
 43692.65567		 305.27265			43387.38302		64.65000		324.00000 
 43692.65567		 730.60171			42962.05396		219.06200		875.00000 
 43692.65567		 305.27265			43387.38302		64.65000		324.00000 
 43692.65567		 730.60171			42962.05396		219.06200		875.00000 
 43692.65567		 305.27265			43387.38302		64.65000		324.00000 
 43692.65567		 730.60171			42962.05396		219.06200		875.00000 
 43692.65567		 305.27265			43387.38302		64.65000		324.00000 
 43692.65567		 730.60171			42962.05396		219.06200		875.00000 
 43692.65567		 305.27265			43387.38302		64.65000		324.00000 
 43692.65567		 730.60171			42962.05396		219.06200		875.00000 
 43692.65567		 305.27265			43387.38302		64.65000		324.00000 
 43692.65567		 730.60171			42962.05396		219.06200		875.00000 
 43692.65567		 305.27265			43387.38302		64.65000		324.00000 
 43692.65567		 730.60171			42962.05396		219.06200		875.00000 
 43692.65567		 305.27265			43387.38302		64.65000		324.00000 
 43692.65567		 730.60171			42962.05396		219.06200		875.00000 
 43692.65567		 305.27265			43387.38302		64.65000		324.00000 
 43692.65567		 730.60171			42962.05396		219.06200		875.00000 
 43692.65567		 305.27265			43387.38302		64.65000		324.00000 
 43692.65567		 730.60171			42962.05396		219.06200		875.00000 
 43692.65567		 305.27265			43387.38302		64.65000		324.00000 
 43692.65567		 730.60171			42962.05396		219.06200		875.00000 
 43692.65567		 305.27265			43387.38302		64.65000		324.00000 
 43692.65567		 730.60171			42962.05396		219.06200		875.00000 
 43692.65567		 305.27265			43387.38302		64.65000		324.00000 
 43692.65567		 730.60171			42962.05396		219.06200		875.00000 
 43692.65567		 305.27265			43387.38302		64.65000		324.00000 
 43692.65567		 730.60171			42962.05396		219.06200		875.00000 
 43692.65567		 305.27265			43387.38302		64.65000		324.00000 
 43692.65567		 730.60171			42962.05396		219.06200		875.00000 
 43692.65567		 305.27265			43387.38302		64.65000		324.00000 
 43692.65567		 730.60171			42962.05396		219.06200		875.00000 
 43692.65567		 305.27265			43387.38302		64.65000		324.00000 
 43692.65567		 730.60171			42962.05396		219.06200		875.00000 
 43692.65567		 305.27265			43387.38302		64.65000		324.00000 
 43692.65567		 730.60171			42962.05396		219.06200		875.00000 
 43692.65567		 305.27265			43387.38302		64.65000		324.00000 
 43692.65567		 730.60171			42962.05396		219.06200		875.00000 
 43692.65567		 305.27265			43387.38302		64.65000		324.00000 
 43692.65567		 730.60171			42962.05396		219.06200		875.00000 
 43692.65567		 305.27265			43387.38302		64.65000		324.00000 
 43692.65567		 730.60171			42962.05396		219.06200		875.00000 
 43692.65567		 305.27265			43387.38302		64.65000		324.00000 
 43692.65567		 730.60171			42962.05396		219.06200		875.00000 
 43692.65567		 305.27265			43387.38302		64.65000		324.00000 
 43692.65567		 730.60171			42962.05396		219.06200		875.00000 
 43692.65567		 305.27265			43387.38302		64.65000		324.00000 
 43692.65567		 730.60171			42962.05396		219.06200		875.00000 
 43692.65567		 305.27265			43387.38302		64.65000		324.00000 
 43692.65567		 730.60171			42962.05396		219.06200		875.00000 
 43692.65567		 305.27265			43387.38302		64.65000		324.00000 
 43692.65567		 730.60171			42962.05396		219.06200		875.00000 
 43692.65567		 305.27265			43387.38302		64.65000		324.00000 
 43692.65567		 730.60171			42962.05396		219.06200		875.00000 
 43692.65567		 305.27265			43387.38302		64.65000		324.00000 
 43692.65567		 730.60171			42962.05396		219.06200		875.00000 
 43692.65567		 305.27265			43387.38302		64.65000		324.00000 
 43692.65567		 730.60171			42962.05396		219.06200		875.00000 
 43692.65567		 305.27265			43387.38302		64.65000		324.00000 
 43692.65567		 730.60171			42962.05396		219.06200		875.00000 
 43692.65567		 305.27265			43387.38302		64.65000		324.00000 
 43692.65567		 730.60171			42962.05396		219.06200		875.00000 
 43692.65567		 305.27265			43387.38302		64.65000		324.00000 
 43692.65567		 730.60171			42962.05396		219.06200		875.00000 
 43692.65567		 305.27265			43387.38302		64.65000		324.00000 
 43692.65567		 730.60171			42962.05396		219.06200		875.00000 
 43692.65567		 305.27265			43387.38302		64.65000		324.00000 
 43692.65567		 730.60171			42962.05396		219.06200		875.00000 
 43692.65567		 305.27265			43387.38302		64.65000		324.00000 
 43692.65567		 730.60171			42962.05396		219.06200		875.00000 
 43692.65567		 305.27265			43387.38302		64.65000		324.00000 
 43692.65567		 730.60171			42962.05396		219.06200		875.00000 
 43692.65567		 305.27265			43387.38302		64.65000		324.00000 
 43692.65567		 730.60171			42962.05396		219.06200		875.00000 
 43692.65567		 305.27265			43387.38302		64.65000		324.00000 
 43692.65567		 730.60171			42962.05396		219.06200		875.00000 
 43692.65567		 305.27265			43387.38302		64.65000		324.00000 
 43692.65567		 730.60171			42962.05396		219.06200		875.00000 
 43692.65567		 305.27265			43387.38302		64.65000		324.00000 
 43692.65567		 730.60171			42962.05396		219.06200		875.00000 
 43692.65567		 305.27265			43387.38302		64.65000		324.00000 
 43692.65567		 730.60171			42962.05396		219.06200		875.00000 
 43692.65567		 305.27265			43387.38302		64.65000		324.00000 
 43692.65567		 730.60171			42962.05396		219.06200		875.00000 
 43692.65567		 305.27265			43387.38302		64.65000		324.00000 
 43692.65567		 730.60171			42962.05396		219.06200		875.00000 
 43692.65567		 305.27265			43387.38302		64.65000		324.00000 
 43692.65567		 730.60171			42962.05396		219.06200		875.00000 
 43692.65567		 305.27265			43387.38302		64.65000		324.00000 
 43692.65567		 730.60171			42962.05396		219.06200		875.00000 
 43692.65567		 305.27265			43387.38302		64.65000		324.00000 
 43692.65567		 730.60171			42962.05396		219.06200		875.00000 
 43692.65567		 305.27265			43387.38302		64.65000		324.00000 
 43692.65567		 730.60171			42962.05396		219.06200		875.00000 
 43692.65567		 305.27265			43387.38302		64.65000		324.00000 
 43692.65567		 730.60171			42962.05396		219.06200		875.00000 
 43692.65567		 305.27265			43387.38302		64.65000		324.00000 
 43692.65567		 730.60171			42962.05396		219.06200		875.00000 
 43692.65567		 305.27265			43387.38302		64.65000		324.00000 
 43692.65567		 730.60171			42962.05396		219.06200		875.00000 
 43692.65567		 305.27265			43387.38302		64.65000		324.00000 
 43692.65567		 730.60171			42962.05396		219.06200		875.00000 
 43692.65567		 305.27265			43387.38302		64.65000		324.00000 
 43692.65567		 730.60171			42962.05396		219.06200		875.00000 
 43692.65567		 305.27265			43387.38302		64.65000		324.00000 
 43692.65567		 730.60171			42962.05396		219.06200		875.00000 
 43692.65567		 305.27265			43387.38302		64.65000		324.00000 
 43692.65567		 730.60171			42962.05396		219.06200		875.00000 
 43692.65567		 305.27265			43387.38302		64.65000		324.00000 
 43692.65567		 730.60171			42962.05396		219.06200		875.00000 
 43692.65567		 305.27265			43387.38302		64.65000		324.00000 
 43692.65567		 730.60171			42962.05396		219.06200		875.00000 
 43692.65567		 305.27265			43387.38302		64.65000		324.00000 
 43692.65567		 730.60171			42962.05396		219.06200		875.00000 
 43692.65567		 305.27265			43387.38302		64.65000		324.00000 
 43692.65567		 730.60171			42962.05396		219.06200		875.00000 
 43692.65567		 305.27265			43387.38302		69.65600		324.00000 
 43692.65567		 730.60171			42962.05396		219.06200		875.00000 
 43692.65567		 305.27265			43387.38302		69.65600		324.00000 
 43692.65567		 730.60171			42962.05396		219.06200		875.00000 
 43692.65567		 305.27265			43387.38302		69.65600		324.00000 
 43692.65567		 730.60171			42962.05396		219.06200		875.00000 
 43692.65567		 305.27265			43387.38302		69.65600		324.00000 
 43692.65567		 730.60171			42962.05396		219.06200		875.00000 
 43692.65567		 305.27265			43387.38302		69.65600		324.00000 
 43692.65567		 730.60171			42962.05396		219.06200		875.00000 
 43692.65567		 305.27265			43387.38302		69.65600		324.00000 
 43692.65567		 730.60171			42962.05396		219.06200		875.00000 
 43692.65567		 305.27265			43387.38302		69.65600		324.00000 
 43692.65567		 730.60171			42962.05396		219.06200		875.00000 
 43692.65567		 305.27265			43387.38302		69.65600		324.00000 
 43692.65567		 730.60171			42962.05396		219.06200		875.00000 
 43692.65567		 305.27265			43387.38302		69.65600		324.00000 
 43692.65567		 730.60171			42962.05396		219.06200		875.00000 
 43692.65567		 305.27265			43387.38302		69.65600		324.00000 
 43692.65567		 730.60171			42962.05396		219.06200		875.00000 
 43692.65567		 305.27265			43387.38302		69.65600		324.00000 
 43692.65567		 730.60171			42962.05396		219.06200		875.00000 
 43692.65567		 305.27265			43387.38302		69.65600		324.00000 
 43692.65567		 730.60171			42962.05396		219.06200		875.00000 
 43692.65567		 305.27265			43387.38302		69.65600		324.00000 
 43692.65567		 730.60171			42962.05396		219.06200		875.00000 
 43692.65567		 305.27265			43387.38302		69.65600		324.00000 
 43692.65567		 730.60171			42962.05396		219.06200		875.00000 
 43692.65567		 305.27265			43387.38302		69.65600		324.00000 
 43692.65567		 730.60171			42962.05396		219.06200		875.00000 
 43692.65567		 305.27265			43387.38302		69.65600		324.00000 
 43692.65567		 730.60171			42962.05396		219.06200		875.00000 
 43692.65567		 305.27265			43387.38302		69.65600		324.00000 
 43692.65567		 730.60171			42962.05396		219.06200		875.00000 
 43692.65567		 305.27265			43387.38302		69.65600		324.00000 
 43692.65567		 730.60171			42962.05396		219.06200		875.00000 
 43692.65567		 305.27265			43387.38302		69.65600		324.00000 
 43692.65567		 730.60171			42962.05396		219.06200		875.00000 
 43692.65567		 305.27265			43387.38302		69.65600		324.00000 
 43692.65567		 730.60171			42962.05396		219.06200		875.00000 
 43692.65567		 305.27265			43387.38302		69.65600		324.00000 
 43692.65567		 730.60171			42962.05396		219.06200		875.00000 
 43692.65567		 305.27265			43387.38302		69.65600		324.00000 
 43692.65567		 730.60171			42962.05396		219.06200		875.00000 
 43692.65567		 305.27265			43387.38302		69.65600		324.00000 
 43692.65567		 730.60171			42962.05396		219.06200		875.00000 
 43692.65567		 305.27265			43387.38302		69.65600		324.00000 
 43692.65567		 730.60171			42962.05396		219.06200		875.00000 
 43692.65567		 305.27265			43387.38302		69.65600		324.00000 
 43692.65567		 730.60171			42962.05396		219.06200		875.00000 
 43692.65567		 305.27265			43387.38302		69.65600		324.00000 
 43692.65567		 730.60171			42962.05396		219.06200		875.00000 
 43692.65567		 305.27265			43387.38302		69.65600		324.00000 
 43692.65567		 730.60171			42962.05396		219.06200		875.00000 
 43692.65567		 305.27265			43387.38302		69.65600		324.00000 
 43692.65567		 730.60171			42962.05396		219.06200		875.00000 
 43692.65567		 305.27265			43387.38302		69.65600		324.00000 
 43692.65567		 730.60171			42962.05396		219.06200		875.00000 
 43692.65567		 305.27265			43387.38302		69.65600		324.00000 
 43692.65567		 730.60171			42962.05396		219.06200		875.00000 
 43692.65567		 305.27265			43387.38302		69.65600		324.00000 
 43692.65567		 730.60171			42962.05396		219.06200		875.00000 
 43692.65567		 305.27265			43387.38302		69.65600		324.00000 
 43692.65567		 730.60171			42962.05396		219.06200		875.00000 
 43692.65567		 305.27265			43387.38302		69.65600		324.00000 
 43692.65567		 730.60171			42962.05396		219.06200		875.00000 
 43692.65567		 305.27265			43387.38302		69.65600		324.00000 
 43692.65567		 730.60171			42962.05396		219.06200		875.00000 
 43692.65567		 305.27265			43387.38302		69.65600		324.00000 
 43692.65567		 730.60171			42962.05396		219.06200		875.00000 
 43692.65567		 305.27265			43387.38302		69.65600		324.00000 
 43692.65567		 730.60171			42962.05396		219.06200		875.00000 
 43692.65567		 305.27265			43387.38302		69.65600		324.00000 
 43692.65567		 730.60171			42962.05396		219.06200		875.00000 
 43692.65567		 305.27265			43387.38302		69.65600		324.00000 
 43692.65567		 730.60171			42962.05396		219.06200		875.00000 
 43692.65567		 305.27265			43387.38302		69.65600		324.00000 
 43692.65567		 730.60171			42962.05396		219.06200		875.00000 
 43692.65567		 305.27265			43387.38302		69.65600		324.00000 
 43692.65567		 730.60171			42962.05396		219.06200		875.00000 
 43692.65567		 305.27265			43387.38302		69.65600		324.00000 
 43692.65567		 730.60171			42962.05396		219.06200		875.00000 
 43692.65567		 305.27265			43387.38302		69.65600		324.00000 
 43692.65567		 730.60171			42962.05396		219.06200		875.00000 
 43692.65567		 305.27265			43387.38302		69.65600		324.00000 
 43692.65567		 730.60171			42962.05396		219.06200		875.00000 
 43692.65567		 305.27265			43387.38302		69.65600		324.00000 
 43692.65567		 730.60171			42962.05396		219.06200		875.00000 
 43692.65567		 305.27265			43387.38302		69.65600		324.00000 
 43692.65567		 730.60171			42962.05396		219.06200		875.00000 
 43692.65567		 305.27265			43387.38302		69.65600		324.00000 
 43692.65567		 730.60171			42962.05396		219.06200		875.00000 
 43692.65567		 305.27265			43387.38302		69.65600		324.00000 
 43692.65567		 730.60171			42962.05396		219.06200		875.00000 
 43692.65567		 305.27265			43387.38302		69.65600		324.00000 
 43692.65567		 730.60171			42962.05396		219.06200		875.00000 
 43692.65567		 305.27265			43387.38302		69.65600		324.00000 
 43692.65567		 730.60171			42962.05396		219.06200		875.00000 
 43692.65567		 305.27265			43387.38302		69.65600		324.00000 
 43692.65567		 730.60171			42962.05396		219.06200		875.00000 
 43692.65567		 305.27265			43387.38302		69.65600		324.00000 
 43692.65567		 730.60171			42962.05396		219.06200		875.00000 
 43692.65567		 305.27265			43387.38302		69.65600		324.00000 
 43692.65567		 730.60171			42962.05396		219.06200		875.00000 
 43692.65567		 305.27265			43387.38302		69.65600		324.00000 
 43692.65567		 730.60171			42962.05396		219.06200		875.00000 
 43692.65567		 305.27265			43387.38302		69.65600		324.00000 
 43692.65567		 730.60171			42962.05396		219.06200		875.00000 
 43692.65567		 305.27265			43387.38302		69.65600		324.00000 
 43692.65567		 730.60171			42962.05396		219.06200		875.00000 
 43692.65567		 305.27265			43387.38302		69.65600		324.00000 
 43692.65567		 730.60171			42962.05396		219.06200		875.00000 
 43692.65567		 305.27265			43387.38302		69.65600		324.00000 
 43692.65567		 730.60171			42962.05396		219.06200		875.00000 
 43692.65567		 305.27265			43387.38302		69.65600		324.00000 
 43692.65567		 730.60171			42962.05396		219.06200		875.00000 
 43692.65567		 305.27265			43387.38302		69.65600		324.00000 
 43692.65567		 730.60171			42962.05396		219.06200		875.00000 
 43692.65567		 305.27265			43387.38302		69.65600		324.00000 
 43692.65567		 730.60171			42962.05396		219.06200		875.00000 
 43692.65567		 305.27265			43387.38302		69.65600		324.00000 
 43692.65567		 730.60171			42962.05396		219.06200		875.00000 
 43692.65567		 305.27265			43387.38302		69.65600		324.00000 
 43692.65567		 730.60171			42962.05396		219.06200		875.00000 
 43692.65567		 305.27265			43387.38302		69.65600		324.00000 
 43692.65567		 730.60171			42962.05396		219.06200		875.00000 
 43692.65567		 305.27265			43387.38302		69.65600		324.00000 
 43692.65567		 730.60171			42962.05396		219.06200		875.00000 
 43692.65567		 305.27265			43387.38302		69.65600		324.00000 
 43692.65567		 730.60171			42962.05396		219.06200		875.00000 
 43692.65567		 305.27265			43387.38302		69.65600		324.00000 
 43692.65567		 730.60171			42962.05396		219.06200		875.00000 
 43692.65567		 305.27265			43387.38302		69.65600		324.00000 
 43692.65567		 730.60171			42962.05396		219.06200		875.00000 
 43692.65567		 305.27265			43387.38302		69.65600		324.00000 
 43692.65567		 730.60171			42962.05396		219.06200		875.00000 
 43692.65567		 305.27265			43387.38302		69.65600		324.00000 
 43692.65567		 730.60171			42962.05396		219.06200		875.00000 
 43692.65567		 305.27265			43387.38302		69.65600		324.00000 
 43692.65567		 730.60171			42962.05396		219.06200		875.00000 
 43692.65567		 305.27265			43387.38302		69.65600		324.00000 
 43692.65567		 730.60171			42962.05396		219.06200		875.00000 
 43692.65567		 305.27265			43387.38302		69.65600		324.00000 
 43692.65567		 730.60171			42962.05396		219.06200		875.00000 
 43692.65567		 305.27265			43387.38302		69.65600		324.00000 
 43692.65567		 730.60171			42962.05396		219.06200		875.00000 
 43692.65567		 305.27265			43387.38302		69.65600		324.00000 
 43692.65567		 730.60171			42962.05396		219.06200		875.00000 
 43692.65567		 305.27265			43387.38302		69.65600		324.00000 
 43692.65567		 730.60171			42962.05396		219.06200		875.00000 
 43692.65567		 305.27265			43387.38302		69.65600		324.00000 
 43692.65567		 730.60171			42962.05396		219.06200		875.00000 
 43692.65567		 305.27265			43387.38302		69.65600		324.00000 
 43692.65567		 730.60171			42962.05396		219.06200		875.00000 
 43692.65567		 305.27265			43387.38302		69.65600		324.00000 
 43692.65567		 730.60171			42962.05396		219.06200		875.00000 
 43692.65567		 305.27265			43387.38302		69.65600		324.00000 
 43692.65567		 666.15792			43026.49776		219.06200		875.00000 
 43692.65567		 305.27265			43387.38302		69.65600		324.00000 
 43692.65567		 601.71412			43090.94155		219.06200		875.00000 
 43692.65567		 305.27265			43387.38302		69.65600		324.00000 
 43692.65567		 537.27032			43155.38535		219.06200		875.00000 
 43692.65567		 305.27265			43387.38302		69.65600		324.00000 
 43692.65567		 537.27032			43155.38535		219.06200		875.00000 
 43692.65567		 305.27265			43387.38302		69.65600		324.00000 
 43692.65567		 537.27032			43155.38535		219.06200		875.00000 
 43692.65567		 305.27265			43387.38302		69.65600		324.00000 
 43692.65567		 537.27032			43155.38535		219.06200		875.00000 
 43692.65567		 305.27265			43387.38302		69.65600		324.00000 
 43692.65567		 537.27032			43155.38535		219.06200		875.00000 
 43692.65567		 305.27265			43387.38302		69.65600		324.00000 
 43692.65567		 537.27032			43155.38535		219.06200		875.00000 
 43692.65567		 305.27265			43387.38302		69.65600		324.00000 
 43692.65567		 537.27032			43155.38535		219.06200		875.00000 
 43692.65567		 305.27265			43387.38302		69.65600		324.00000 
 43692.65567		 537.27032			43155.38535		219.06200		875.00000 
 43692.65567		 305.27265			43387.38302		69.65600		324.00000 
 43692.65567		 537.27032			43155.38535		219.06200		875.00000 
 43692.65567		 305.27265			43387.38302		69.65600		324.00000 
 43692.65567		 537.27032			43155.38535		219.06200		875.00000 
 43692.65567		 305.27265			43387.38302		69.65600		324.00000 
 43692.65567		 537.27032			43155.38535		219.06200		875.00000 
 43692.65567		 305.27265			43387.38302		69.65600		324.00000 
 43692.65567		 537.27032			43155.38535		219.06200		875.00000 
 43692.65567		 305.27265			43387.38302		69.65600		324.00000 
 43692.65567		 537.27032			43155.38535		219.06200		875.00000 
 43692.65567		 305.27265			43387.38302		69.65600		324.00000 
 43692.65567		 537.27032			43155.38535		196.95400		875.00000 
 43692.65567		 305.27265			43387.38302		69.65600		324.00000 
 43692.65567		 537.27032			43155.38535		196.95400		875.00000 
 43692.65567		 305.27265			43387.38302		69.65600		324.00000 
 43692.65567		 537.27032			43155.38535		196.95400		875.00000 
 43692.65567		 305.27265			43387.38302		69.65600		324.00000 
 43692.65567		 537.27032			43155.38535		196.95400		875.00000 
 43692.65567		 305.27265			43387.38302		69.65600		324.00000 
 43692.65567		 537.27032			43155.38535		196.95400		875.00000 
 43692.65567		 305.27265			43387.38302		69.65600		324.00000 
 43692.65567		 537.27032			43155.38535		196.95400		875.00000 
 43692.65567		 305.27265			43387.38302		69.65600		324.00000 
 43692.65567		 529.63254			43163.02313		196.95400		875.00000 
 43692.65567		 305.27265			43387.38302		69.65600		324.00000 
 43692.65567		 525.81365			43166.84203		196.95400		875.00000 
 43692.65567		 305.27265			43387.38302		69.65600		324.00000 
 43692.65567		 525.81365			43166.84203		196.95400		875.00000 
 43692.65567		 261.35540			43431.30027		69.65600		324.00000 
