Memory Total (MiB) 	 Memory Used (MiB) 	    Memory Free (MiB) 	 Power Drawed (W) 	 Clocks (Mhz) 	 
 43692.65567		 261.35540			43431.30027		163.42000		875.00000 
 43692.65567		 261.35540			43431.30027		70.74000		324.00000 
 43692.65567		 261.35540			43431.30027		163.42000		875.00000 
 43692.65567		 261.35540			43431.30027		70.74000		324.00000 
 43692.65567		 261.35540			43431.30027		163.42000		875.00000 
 43692.65567		 261.35540			43431.30027		70.74000		324.00000 
 43692.65567		 261.35540			43431.30027		163.42000		875.00000 
 43692.65567		 261.35540			43431.30027		70.74000		324.00000 
 43692.65567		 261.35540			43431.30027		163.42000		875.00000 
 43692.65567		 261.35540			43431.30027		70.74000		324.00000 
 43692.65567		 261.35540			43431.30027		163.42000		875.00000 
 43692.65567		 261.35540			43431.30027		70.74000		324.00000 
 43692.65567		 261.35540			43431.30027		163.42000		875.00000 
 43692.65567		 261.35540			43431.30027		70.74000		324.00000 
 43692.65567		 261.35540			43431.30027		163.42000		875.00000 
 43692.65567		 261.35540			43431.30027		70.74000		324.00000 
 43692.65567		 261.35540			43431.30027		163.42000		875.00000 
 43692.65567		 261.35540			43431.30027		70.74000		324.00000 
 43692.65567		 261.35540			43431.30027		163.42000		875.00000 
 43692.65567		 261.35540			43431.30027		70.74000		324.00000 
 43692.65567		 261.35540			43431.30027		163.42000		875.00000 
 43692.65567		 261.35540			43431.30027		70.74000		324.00000 
 43692.65567		 261.35540			43431.30027		163.42000		875.00000 
 43692.65567		 261.35540			43431.30027		70.74000		324.00000 
 43692.65567		 261.35540			43431.30027		163.42000		875.00000 
 43692.65567		 261.35540			43431.30027		70.74000		324.00000 
 43692.65567		 261.35540			43431.30027		163.42000		875.00000 
 43692.65567		 261.35540			43431.30027		70.74000		324.00000 
 43692.65567		 261.35540			43431.30027		163.42000		875.00000 
 43692.65567		 261.35540			43431.30027		70.74000		324.00000 
 43692.65567		 261.35540			43431.30027		163.42000		875.00000 
 43692.65567		 261.35540			43431.30027		70.74000		324.00000 
 43692.65567		 261.35540			43431.30027		163.42000		875.00000 
 43692.65567		 261.35540			43431.30027		70.74000		324.00000 
 43692.65567		 261.35540			43431.30027		163.42000		875.00000 
 43692.65567		 261.35540			43431.30027		70.74000		324.00000 
 43692.65567		 261.35540			43431.30027		163.42000		875.00000 
 43692.65567		 261.35540			43431.30027		70.74000		324.00000 
 43692.65567		 265.17429			43427.48138		163.42000		875.00000 
 43692.65567		 261.35540			43431.30027		70.74000		324.00000 
 43692.65567		 272.81207			43419.84360		163.42000		875.00000 
 43692.65567		 261.35540			43431.30027		70.74000		324.00000 
 43692.65567		 272.81207			43419.84360		163.42000		875.00000 
 43692.65567		 261.35540			43431.30027		70.74000		324.00000 
 43692.65567		 272.81207			43419.84360		163.42000		875.00000 
 43692.65567		 265.17429			43427.48138		70.74000		324.00000 
 43692.65567		 272.81207			43419.84360		163.42000		875.00000 
 43692.65567		 265.17429			43427.48138		70.74000		324.00000 
 43692.65567		 272.81207			43419.84360		163.42000		875.00000 
 43692.65567		 272.81207			43419.84360		70.74000		324.00000 
 43692.65567		 272.81207			43419.84360		163.42000		875.00000 
 43692.65567		 272.81207			43419.84360		70.74000		324.00000 
 43692.65567		 272.81207			43419.84360		163.42000		875.00000 
 43692.65567		 272.81207			43419.84360		70.74000		324.00000 
 43692.65567		 272.81207			43419.84360		163.42000		875.00000 
 43692.65567		 272.81207			43419.84360		70.74000		324.00000 
 43692.65567		 305.27265			43387.38302		163.42000		875.00000 
 43692.65567		 305.27265			43387.38302		70.74000		324.00000 
 43692.65567		 305.27265			43387.38302		163.42000		875.00000 
 43692.65567		 305.27265			43387.38302		70.74000		324.00000 
 43692.65567		 305.27265			43387.38302		163.42000		875.00000 
 43692.65567		 305.27265			43387.38302		70.74000		324.00000 
 43692.65567		 305.27265			43387.38302		163.42000		875.00000 
 43692.65567		 305.27265			43387.38302		70.74000		324.00000 
 43692.65567		 305.27265			43387.38302		163.42000		875.00000 
 43692.65567		 305.27265			43387.38302		70.74000		324.00000 
 43692.65567		 310.04627			43382.60941		163.42000		875.00000 
 43692.65567		 305.27265			43387.38302		70.74000		324.00000 
 43692.65567		 311.00099			43381.65468		143.54600		875.00000 
 43692.65567		 305.27265			43387.38302		70.74000		324.00000 
 43692.65567		 311.00099			43381.65468		143.54600		875.00000 
 43692.65567		 305.27265			43387.38302		70.74000		324.00000 
 43692.65567		 311.00099			43381.65468		143.54600		875.00000 
 43692.65567		 305.27265			43387.38302		70.74000		324.00000 
 43692.65567		 311.00099			43381.65468		143.54600		875.00000 
 43692.65567		 305.27265			43387.38302		70.74000		324.00000 
 43692.65567		 311.00099			43381.65468		143.54600		875.00000 
 43692.65567		 305.27265			43387.38302		70.74000		324.00000 
 43692.65567		 311.00099			43381.65468		143.54600		875.00000 
 43692.65567		 305.27265			43387.38302		70.74000		324.00000 
 43692.65567		 311.00099			43381.65468		143.54600		875.00000 
 43692.65567		 305.27265			43387.38302		70.74000		324.00000 
 43692.65567		 311.00099			43381.65468		143.54600		875.00000 
 43692.65567		 305.27265			43387.38302		70.74000		324.00000 
 43692.65567		 311.00099			43381.65468		143.54600		875.00000 
 43692.65567		 305.27265			43387.38302		70.74000		324.00000 
 43692.65567		 311.00099			43381.65468		143.54600		875.00000 
 43692.65567		 305.27265			43387.38302		70.74000		324.00000 
 43692.65567		 311.00099			43381.65468		143.54600		875.00000 
 43692.65567		 305.27265			43387.38302		70.74000		324.00000 
 43692.65567		 311.00099			43381.65468		143.54600		875.00000 
 43692.65567		 305.27265			43387.38302		70.74000		324.00000 
 43692.65567		 311.00099			43381.65468		143.54600		875.00000 
 43692.65567		 305.27265			43387.38302		70.74000		324.00000 
 43692.65567		 311.00099			43381.65468		143.54600		875.00000 
 43692.65567		 305.27265			43387.38302		70.74000		324.00000 
 43692.65567		 311.00099			43381.65468		143.54600		875.00000 
 43692.65567		 305.27265			43387.38302		70.74000		324.00000 
 43692.65567		 311.00099			43381.65468		143.54600		875.00000 
 43692.65567		 305.27265			43387.38302		70.74000		324.00000 
 43692.65567		 311.00099			43381.65468		143.54600		875.00000 
 43692.65567		 305.27265			43387.38302		70.74000		324.00000 
 43692.65567		 311.00099			43381.65468		143.54600		875.00000 
 43692.65567		 305.27265			43387.38302		70.74000		324.00000 
 43692.65567		 311.00099			43381.65468		143.54600		875.00000 
 43692.65567		 305.27265			43387.38302		70.74000		324.00000 
 43692.65567		 311.00099			43381.65468		143.54600		875.00000 
 43692.65567		 305.27265			43387.38302		70.74000		324.00000 
 43692.65567		 311.00099			43381.65468		143.54600		875.00000 
 43692.65567		 305.27265			43387.38302		70.74000		324.00000 
 43692.65567		 311.00099			43381.65468		143.54600		875.00000 
 43692.65567		 305.27265			43387.38302		70.74000		324.00000 
 43692.65567		 311.00099			43381.65468		143.54600		875.00000 
 43692.65567		 305.27265			43387.38302		70.74000		324.00000 
 43692.65567		 311.00099			43381.65468		143.54600		875.00000 
 43692.65567		 305.27265			43387.38302		70.74000		324.00000 
 43692.65567		 311.00099			43381.65468		143.54600		875.00000 
 43692.65567		 305.27265			43387.38302		70.74000		324.00000 
 43692.65567		 311.00099			43381.65468		143.54600		875.00000 
 43692.65567		 305.27265			43387.38302		70.74000		324.00000 
 43692.65567		 311.00099			43381.65468		143.54600		875.00000 
 43692.65567		 305.27265			43387.38302		70.74000		324.00000 
 43692.65567		 311.00099			43381.65468		143.54600		875.00000 
 43692.65567		 305.27265			43387.38302		70.74000		324.00000 
 43692.65567		 311.00099			43381.65468		143.54600		875.00000 
 43692.65567		 305.27265			43387.38302		70.74000		324.00000 
 43692.65567		 311.00099			43381.65468		143.54600		875.00000 
 43692.65567		 305.27265			43387.38302		70.74000		324.00000 
 43692.65567		 311.00099			43381.65468		143.54600		875.00000 
 43692.65567		 305.27265			43387.38302		70.74000		324.00000 
 43692.65567		 311.00099			43381.65468		143.54600		875.00000 
 43692.65567		 305.27265			43387.38302		70.74000		324.00000 
 43692.65567		 311.00099			43381.65468		143.54600		875.00000 
 43692.65567		 305.27265			43387.38302		70.74000		324.00000 
 43692.65567		 311.00099			43381.65468		136.53400		875.00000 
 43692.65567		 305.27265			43387.38302		70.74000		324.00000 
 43692.65567		 311.00099			43381.65468		136.53400		875.00000 
 43692.65567		 305.27265			43387.38302		70.74000		324.00000 
 43692.65567		 311.00099			43381.65468		136.53400		875.00000 
 43692.65567		 305.27265			43387.38302		70.74000		324.00000 
 43692.65567		 311.00099			43381.65468		136.53400		875.00000 
 43692.65567		 305.27265			43387.38302		70.74000		324.00000 
 43692.65567		 311.00099			43381.65468		136.53400		875.00000 
 43692.65567		 305.27265			43387.38302		70.74000		324.00000 
 43692.65567		 311.00099			43381.65468		136.53400		875.00000 
 43692.65567		 305.27265			43387.38302		70.74000		324.00000 
 43692.65567		 311.00099			43381.65468		136.53400		875.00000 
 43692.65567		 305.27265			43387.38302		70.74000		324.00000 
 43692.65567		 311.00099			43381.65468		136.53400		875.00000 
 43692.65567		 305.27265			43387.38302		70.74000		324.00000 
 43692.65567		 311.00099			43381.65468		136.53400		875.00000 
 43692.65567		 305.27265			43387.38302		70.74000		324.00000 
 43692.65567		 311.00099			43381.65468		136.53400		875.00000 
 43692.65567		 305.27265			43387.38302		70.74000		324.00000 
 43692.65567		 311.00099			43381.65468		136.53400		875.00000 
 43692.65567		 305.27265			43387.38302		70.74000		324.00000 
 43692.65567		 311.00099			43381.65468		136.53400		875.00000 
 43692.65567		 305.27265			43387.38302		70.74000		324.00000 
 43692.65567		 311.00099			43381.65468		136.53400		875.00000 
 43692.65567		 305.27265			43387.38302		70.74000		324.00000 
 43692.65567		 311.00099			43381.65468		136.53400		875.00000 
 43692.65567		 305.27265			43387.38302		70.74000		324.00000 
 43692.65567		 311.00099			43381.65468		136.53400		875.00000 
 43692.65567		 305.27265			43387.38302		70.74000		324.00000 
 43692.65567		 311.00099			43381.65468		136.53400		875.00000 
 43692.65567		 305.27265			43387.38302		70.74000		324.00000 
 43692.65567		 311.00099			43381.65468		136.53400		875.00000 
 43692.65567		 305.27265			43387.38302		70.74000		324.00000 
 43692.65567		 314.81988			43377.83579		136.53400		875.00000 
 43692.65567		 305.27265			43387.38302		70.74000		324.00000 
 43692.65567		 314.81988			43377.83579		136.53400		875.00000 
 43692.65567		 305.27265			43387.38302		70.74000		324.00000 
 43692.65567		 314.81988			43377.83579		136.53400		875.00000 
 43692.65567		 305.27265			43387.38302		70.74000		324.00000 
 43692.65567		 318.63877			43374.01690		136.53400		875.00000 
 43692.65567		 305.27265			43387.38302		70.74000		324.00000 
 43692.65567		 322.45767			43370.19801		136.53400		875.00000 
 43692.65567		 305.27265			43387.38302		70.74000		324.00000 
 43692.65567		 326.27656			43366.37912		136.53400		875.00000 
 43692.65567		 305.27265			43387.38302		70.74000		324.00000 
 43692.65567		 326.27656			43366.37912		136.53400		875.00000 
 43692.65567		 305.27265			43387.38302		70.74000		324.00000 
 43692.65567		 326.27656			43366.37912		136.53400		875.00000 
 43692.65567		 305.27265			43387.38302		70.74000		324.00000 
 43692.65567		 537.27032			43155.38535		136.53400		875.00000 
 43692.65567		 305.27265			43387.38302		70.74000		324.00000 
 43692.65567		 772.13216			42920.52351		136.53400		875.00000 
 43692.65567		 305.27265			43387.38302		70.74000		324.00000 
 43692.65567		 889.56308			42803.09259		136.53400		875.00000 
 43692.65567		 305.27265			43387.38302		70.74000		324.00000 
 43692.65567		 889.56308			42803.09259		136.53400		875.00000 
 43692.65567		 305.27265			43387.38302		70.74000		324.00000 
 43692.65567		 889.56308			42803.09259		136.53400		875.00000 
 43692.65567		 305.27265			43387.38302		70.74000		324.00000 
 43692.65567		 889.56308			42803.09259		136.53400		875.00000 
 43692.65567		 305.27265			43387.38302		70.74000		324.00000 
 43692.65567		 889.56308			42803.09259		136.53400		875.00000 
 43692.65567		 305.27265			43387.38302		70.74000		324.00000 
 43692.65567		 889.56308			42803.09259		136.53400		875.00000 
 43692.65567		 305.27265			43387.38302		70.74000		324.00000 
 43692.65567		 889.56308			42803.09259		136.53400		875.00000 
 43692.65567		 305.27265			43387.38302		70.74000		324.00000 
 43692.65567		 889.56308			42803.09259		136.53400		875.00000 
 43692.65567		 305.27265			43387.38302		70.74000		324.00000 
 43692.65567		 889.56308			42803.09259		136.53400		875.00000 
 43692.65567		 305.27265			43387.38302		70.74000		324.00000 
 43692.65567		 889.56308			42803.09259		136.53400		875.00000 
 43692.65567		 305.27265			43387.38302		70.74000		324.00000 
 43692.65567		 889.56308			42803.09259		136.53400		875.00000 
 43692.65567		 305.27265			43387.38302		70.74000		324.00000 
 43692.65567		 889.56308			42803.09259		136.53400		875.00000 
 43692.65567		 305.27265			43387.38302		70.74000		324.00000 
 43692.65567		 889.56308			42803.09259		136.53400		875.00000 
 43692.65567		 305.27265			43387.38302		70.74000		324.00000 
 43692.65567		 889.56308			42803.09259		136.53400		875.00000 
 43692.65567		 305.27265			43387.38302		70.74000		324.00000 
 43692.65567		 889.56308			42803.09259		153.84800		875.00000 
 43692.65567		 305.27265			43387.38302		70.74000		324.00000 
 43692.65567		 889.56308			42803.09259		153.84800		875.00000 
 43692.65567		 305.27265			43387.38302		70.74000		324.00000 
 43692.65567		 889.56308			42803.09259		153.84800		875.00000 
 43692.65567		 305.27265			43387.38302		70.74000		324.00000 
 43692.65567		 889.56308			42803.09259		153.84800		875.00000 
 43692.65567		 305.27265			43387.38302		70.74000		324.00000 
 43692.65567		 889.56308			42803.09259		153.84800		875.00000 
 43692.65567		 305.27265			43387.38302		70.74000		324.00000 
 43692.65567		 889.56308			42803.09259		153.84800		875.00000 
 43692.65567		 305.27265			43387.38302		70.74000		324.00000 
 43692.65567		 889.56308			42803.09259		153.84800		875.00000 
 43692.65567		 305.27265			43387.38302		70.74000		324.00000 
 43692.65567		 889.56308			42803.09259		153.84800		875.00000 
 43692.65567		 305.27265			43387.38302		70.74000		324.00000 
 43692.65567		 889.56308			42803.09259		153.84800		875.00000 
 43692.65567		 305.27265			43387.38302		70.74000		324.00000 
 43692.65567		 889.56308			42803.09259		153.84800		875.00000 
 43692.65567		 305.27265			43387.38302		70.74000		324.00000 
 43692.65567		 889.56308			42803.09259		153.84800		875.00000 
 43692.65567		 305.27265			43387.38302		70.74000		324.00000 
 43692.65567		 889.56308			42803.09259		153.84800		875.00000 
 43692.65567		 305.27265			43387.38302		70.74000		324.00000 
 43692.65567		 889.56308			42803.09259		153.84800		875.00000 
 43692.65567		 305.27265			43387.38302		70.74000		324.00000 
 43692.65567		 889.56308			42803.09259		153.84800		875.00000 
 43692.65567		 305.27265			43387.38302		70.74000		324.00000 
 43692.65567		 889.56308			42803.09259		153.84800		875.00000 
 43692.65567		 305.27265			43387.38302		70.74000		324.00000 
 43692.65567		 889.56308			42803.09259		153.84800		875.00000 
 43692.65567		 305.27265			43387.38302		70.74000		324.00000 
 43692.65567		 889.56308			42803.09259		153.84800		875.00000 
 43692.65567		 305.27265			43387.38302		70.74000		324.00000 
 43692.65567		 889.56308			42803.09259		153.84800		875.00000 
 43692.65567		 305.27265			43387.38302		70.74000		324.00000 
 43692.65567		 889.56308			42803.09259		153.84800		875.00000 
 43692.65567		 305.27265			43387.38302		70.74000		324.00000 
 43692.65567		 889.56308			42803.09259		153.84800		875.00000 
 43692.65567		 305.27265			43387.38302		70.74000		324.00000 
 43692.65567		 889.56308			42803.09259		153.84800		875.00000 
 43692.65567		 305.27265			43387.38302		70.74000		324.00000 
 43692.65567		 889.56308			42803.09259		153.84800		875.00000 
 43692.65567		 305.27265			43387.38302		70.74000		324.00000 
 43692.65567		 889.56308			42803.09259		153.84800		875.00000 
 43692.65567		 305.27265			43387.38302		70.74000		324.00000 
 43692.65567		 889.56308			42803.09259		153.84800		875.00000 
 43692.65567		 305.27265			43387.38302		70.74000		324.00000 
 43692.65567		 889.56308			42803.09259		153.84800		875.00000 
 43692.65567		 305.27265			43387.38302		70.74000		324.00000 
 43692.65567		 889.56308			42803.09259		153.84800		875.00000 
 43692.65567		 305.27265			43387.38302		70.74000		324.00000 
 43692.65567		 889.56308			42803.09259		153.84800		875.00000 
 43692.65567		 305.27265			43387.38302		70.74000		324.00000 
 43692.65567		 889.56308			42803.09259		153.84800		875.00000 
 43692.65567		 305.27265			43387.38302		70.74000		324.00000 
 43692.65567		 889.56308			42803.09259		153.84800		875.00000 
 43692.65567		 305.27265			43387.38302		70.74000		324.00000 
 43692.65567		 889.56308			42803.09259		153.84800		875.00000 
 43692.65567		 305.27265			43387.38302		70.74000		324.00000 
 43692.65567		 889.56308			42803.09259		153.84800		875.00000 
 43692.65567		 305.27265			43387.38302		70.74000		324.00000 
 43692.65567		 889.56308			42803.09259		153.84800		875.00000 
 43692.65567		 305.27265			43387.38302		70.74000		324.00000 
 43692.65567		 889.56308			42803.09259		153.84800		875.00000 
 43692.65567		 305.27265			43387.38302		70.74000		324.00000 
 43692.65567		 889.56308			42803.09259		153.84800		875.00000 
 43692.65567		 305.27265			43387.38302		70.74000		324.00000 
 43692.65567		 889.56308			42803.09259		153.84800		875.00000 
 43692.65567		 305.27265			43387.38302		70.74000		324.00000 
 43692.65567		 889.56308			42803.09259		153.84800		875.00000 
 43692.65567		 305.27265			43387.38302		70.74000		324.00000 
 43692.65567		 889.56308			42803.09259		153.84800		875.00000 
 43692.65567		 305.27265			43387.38302		70.74000		324.00000 
 43692.65567		 889.56308			42803.09259		153.84800		875.00000 
 43692.65567		 305.27265			43387.38302		70.74000		324.00000 
 43692.65567		 889.56308			42803.09259		153.84800		875.00000 
 43692.65567		 305.27265			43387.38302		70.74000		324.00000 
 43692.65567		 889.56308			42803.09259		153.84800		875.00000 
 43692.65567		 305.27265			43387.38302		70.74000		324.00000 
 43692.65567		 889.56308			42803.09259		153.84800		875.00000 
 43692.65567		 305.27265			43387.38302		70.74000		324.00000 
 43692.65567		 889.56308			42803.09259		153.84800		875.00000 
 43692.65567		 305.27265			43387.38302		70.74000		324.00000 
 43692.65567		 889.56308			42803.09259		153.84800		875.00000 
 43692.65567		 305.27265			43387.38302		70.74000		324.00000 
 43692.65567		 889.56308			42803.09259		153.84800		875.00000 
 43692.65567		 305.27265			43387.38302		70.74000		324.00000 
 43692.65567		 889.56308			42803.09259		153.84800		875.00000 
 43692.65567		 305.27265			43387.38302		70.74000		324.00000 
 43692.65567		 889.56308			42803.09259		153.84800		875.00000 
 43692.65567		 305.27265			43387.38302		70.74000		324.00000 
 43692.65567		 889.56308			42803.09259		153.84800		875.00000 
 43692.65567		 305.27265			43387.38302		70.74000		324.00000 
 43692.65567		 889.56308			42803.09259		153.84800		875.00000 
 43692.65567		 305.27265			43387.38302		70.74000		324.00000 
 43692.65567		 889.56308			42803.09259		153.84800		875.00000 
 43692.65567		 305.27265			43387.38302		70.74000		324.00000 
 43692.65567		 889.56308			42803.09259		153.84800		875.00000 
 43692.65567		 305.27265			43387.38302		70.74000		324.00000 
 43692.65567		 889.56308			42803.09259		153.84800		875.00000 
 43692.65567		 305.27265			43387.38302		70.74000		324.00000 
 43692.65567		 889.56308			42803.09259		153.84800		875.00000 
 43692.65567		 305.27265			43387.38302		70.74000		324.00000 
 43692.65567		 889.56308			42803.09259		153.84800		875.00000 
 43692.65567		 305.27265			43387.38302		70.74000		324.00000 
 43692.65567		 889.56308			42803.09259		153.84800		875.00000 
 43692.65567		 305.27265			43387.38302		70.74000		324.00000 
 43692.65567		 889.56308			42803.09259		153.84800		875.00000 
 43692.65567		 305.27265			43387.38302		70.74000		324.00000 
 43692.65567		 889.56308			42803.09259		153.84800		875.00000 
 43692.65567		 305.27265			43387.38302		70.74000		324.00000 
 43692.65567		 889.56308			42803.09259		153.84800		875.00000 
 43692.65567		 305.27265			43387.38302		70.74000		324.00000 
 43692.65567		 889.56308			42803.09259		201.33800		875.00000 
 43692.65567		 305.27265			43387.38302		70.74000		324.00000 
 43692.65567		 889.56308			42803.09259		201.33800		875.00000 
 43692.65567		 305.27265			43387.38302		70.74000		324.00000 
 43692.65567		 889.56308			42803.09259		201.33800		875.00000 
 43692.65567		 305.27265			43387.38302		70.74000		324.00000 
 43692.65567		 889.56308			42803.09259		201.33800		875.00000 
 43692.65567		 305.27265			43387.38302		70.74000		324.00000 
 43692.65567		 889.56308			42803.09259		201.33800		875.00000 
 43692.65567		 305.27265			43387.38302		70.74000		324.00000 
 43692.65567		 889.56308			42803.09259		201.33800		875.00000 
 43692.65567		 305.27265			43387.38302		70.74000		324.00000 
 43692.65567		 889.56308			42803.09259		201.33800		875.00000 
 43692.65567		 305.27265			43387.38302		70.74000		324.00000 
 43692.65567		 889.56308			42803.09259		201.33800		875.00000 
 43692.65567		 305.27265			43387.38302		70.74000		324.00000 
 43692.65567		 889.56308			42803.09259		201.33800		875.00000 
 43692.65567		 305.27265			43387.38302		70.74000		324.00000 
 43692.65567		 889.56308			42803.09259		201.33800		875.00000 
 43692.65567		 305.27265			43387.38302		70.74000		324.00000 
 43692.65567		 889.56308			42803.09259		201.33800		875.00000 
 43692.65567		 305.27265			43387.38302		70.74000		324.00000 
 43692.65567		 889.56308			42803.09259		201.33800		875.00000 
 43692.65567		 305.27265			43387.38302		70.74000		324.00000 
 43692.65567		 889.56308			42803.09259		201.33800		875.00000 
 43692.65567		 305.27265			43387.38302		70.74000		324.00000 
 43692.65567		 889.56308			42803.09259		201.33800		875.00000 
 43692.65567		 305.27265			43387.38302		70.74000		324.00000 
 43692.65567		 889.56308			42803.09259		201.33800		875.00000 
 43692.65567		 305.27265			43387.38302		70.74000		324.00000 
 43692.65567		 889.56308			42803.09259		201.33800		875.00000 
 43692.65567		 305.27265			43387.38302		70.74000		324.00000 
 43692.65567		 889.56308			42803.09259		201.33800		875.00000 
 43692.65567		 305.27265			43387.38302		70.74000		324.00000 
 43692.65567		 889.56308			42803.09259		201.33800		875.00000 
 43692.65567		 305.27265			43387.38302		70.74000		324.00000 
 43692.65567		 889.56308			42803.09259		201.33800		875.00000 
 43692.65567		 305.27265			43387.38302		70.74000		324.00000 
 43692.65567		 889.56308			42803.09259		201.33800		875.00000 
 43692.65567		 305.27265			43387.38302		70.74000		324.00000 
 43692.65567		 889.56308			42803.09259		201.33800		875.00000 
 43692.65567		 305.27265			43387.38302		70.74000		324.00000 
 43692.65567		 889.56308			42803.09259		201.33800		875.00000 
 43692.65567		 305.27265			43387.38302		70.74000		324.00000 
 43692.65567		 889.56308			42803.09259		201.33800		875.00000 
 43692.65567		 305.27265			43387.38302		70.74000		324.00000 
 43692.65567		 889.56308			42803.09259		201.33800		875.00000 
 43692.65567		 305.27265			43387.38302		70.74000		324.00000 
 43692.65567		 889.56308			42803.09259		201.33800		875.00000 
 43692.65567		 305.27265			43387.38302		70.74000		324.00000 
 43692.65567		 889.56308			42803.09259		201.33800		875.00000 
 43692.65567		 305.27265			43387.38302		70.74000		324.00000 
 43692.65567		 889.56308			42803.09259		201.33800		875.00000 
 43692.65567		 305.27265			43387.38302		70.74000		324.00000 
 43692.65567		 889.56308			42803.09259		201.33800		875.00000 
 43692.65567		 305.27265			43387.38302		70.74000		324.00000 
 43692.65567		 889.56308			42803.09259		201.33800		875.00000 
 43692.65567		 305.27265			43387.38302		70.74000		324.00000 
 43692.65567		 889.56308			42803.09259		201.33800		875.00000 
 43692.65567		 305.27265			43387.38302		70.74000		324.00000 
 43692.65567		 889.56308			42803.09259		201.33800		875.00000 
 43692.65567		 305.27265			43387.38302		70.74000		324.00000 
 43692.65567		 889.56308			42803.09259		201.33800		875.00000 
 43692.65567		 305.27265			43387.38302		70.74000		324.00000 
 43692.65567		 889.56308			42803.09259		201.33800		875.00000 
 43692.65567		 305.27265			43387.38302		70.74000		324.00000 
 43692.65567		 889.56308			42803.09259		201.33800		875.00000 
 43692.65567		 305.27265			43387.38302		70.74000		324.00000 
 43692.65567		 889.56308			42803.09259		201.33800		875.00000 
 43692.65567		 305.27265			43387.38302		70.74000		324.00000 
 43692.65567		 889.56308			42803.09259		201.33800		875.00000 
 43692.65567		 305.27265			43387.38302		70.74000		324.00000 
 43692.65567		 889.56308			42803.09259		201.33800		875.00000 
 43692.65567		 305.27265			43387.38302		70.74000		324.00000 
 43692.65567		 889.56308			42803.09259		201.33800		875.00000 
 43692.65567		 305.27265			43387.38302		70.74000		324.00000 
 43692.65567		 889.56308			42803.09259		201.33800		875.00000 
 43692.65567		 305.27265			43387.38302		70.74000		324.00000 
 43692.65567		 889.56308			42803.09259		201.33800		875.00000 
 43692.65567		 305.27265			43387.38302		70.74000		324.00000 
 43692.65567		 889.56308			42803.09259		201.33800		875.00000 
 43692.65567		 305.27265			43387.38302		70.74000		324.00000 
 43692.65567		 889.56308			42803.09259		201.33800		875.00000 
 43692.65567		 305.27265			43387.38302		69.17400		324.00000 
 43692.65567		 889.56308			42803.09259		201.33800		875.00000 
 43692.65567		 305.27265			43387.38302		69.17400		324.00000 
 43692.65567		 889.56308			42803.09259		201.33800		875.00000 
 43692.65567		 305.27265			43387.38302		69.17400		324.00000 
 43692.65567		 889.56308			42803.09259		201.33800		875.00000 
 43692.65567		 305.27265			43387.38302		69.17400		324.00000 
 43692.65567		 889.56308			42803.09259		201.33800		875.00000 
 43692.65567		 305.27265			43387.38302		69.17400		324.00000 
 43692.65567		 889.56308			42803.09259		201.33800		875.00000 
 43692.65567		 305.27265			43387.38302		69.17400		324.00000 
 43692.65567		 889.56308			42803.09259		201.33800		875.00000 
 43692.65567		 305.27265			43387.38302		69.17400		324.00000 
 43692.65567		 889.56308			42803.09259		201.33800		875.00000 
 43692.65567		 305.27265			43387.38302		69.17400		324.00000 
 43692.65567		 889.56308			42803.09259		201.33800		875.00000 
 43692.65567		 305.27265			43387.38302		69.17400		324.00000 
 43692.65567		 889.56308			42803.09259		201.33800		875.00000 
 43692.65567		 305.27265			43387.38302		69.17400		324.00000 
 43692.65567		 889.56308			42803.09259		201.33800		875.00000 
 43692.65567		 305.27265			43387.38302		69.17400		324.00000 
 43692.65567		 889.56308			42803.09259		201.33800		875.00000 
 43692.65567		 305.27265			43387.38302		69.17400		324.00000 
 43692.65567		 889.56308			42803.09259		201.33800		875.00000 
 43692.65567		 305.27265			43387.38302		69.17400		324.00000 
 43692.65567		 889.56308			42803.09259		201.33800		875.00000 
 43692.65567		 305.27265			43387.38302		69.17400		324.00000 
 43692.65567		 889.56308			42803.09259		201.33800		875.00000 
 43692.65567		 305.27265			43387.38302		69.17400		324.00000 
 43692.65567		 889.56308			42803.09259		201.33800		875.00000 
 43692.65567		 305.27265			43387.38302		69.17400		324.00000 
 43692.65567		 889.56308			42803.09259		201.33800		875.00000 
 43692.65567		 305.27265			43387.38302		69.17400		324.00000 
 43692.65567		 889.56308			42803.09259		201.33800		875.00000 
 43692.65567		 305.27265			43387.38302		69.17400		324.00000 
 43692.65567		 889.56308			42803.09259		201.33800		875.00000 
 43692.65567		 305.27265			43387.38302		69.17400		324.00000 
 43692.65567		 889.56308			42803.09259		201.33800		875.00000 
 43692.65567		 305.27265			43387.38302		69.17400		324.00000 
 43692.65567		 889.56308			42803.09259		201.33800		875.00000 
 43692.65567		 305.27265			43387.38302		69.17400		324.00000 
 43692.65567		 889.56308			42803.09259		219.55400		875.00000 
 43692.65567		 305.27265			43387.38302		69.17400		324.00000 
 43692.65567		 889.56308			42803.09259		219.55400		875.00000 
 43692.65567		 305.27265			43387.38302		69.17400		324.00000 
 43692.65567		 889.56308			42803.09259		219.55400		875.00000 
 43692.65567		 305.27265			43387.38302		69.17400		324.00000 
 43692.65567		 889.56308			42803.09259		219.55400		875.00000 
 43692.65567		 305.27265			43387.38302		69.17400		324.00000 
 43692.65567		 889.56308			42803.09259		219.55400		875.00000 
 43692.65567		 305.27265			43387.38302		69.17400		324.00000 
 43692.65567		 889.56308			42803.09259		219.55400		875.00000 
 43692.65567		 305.27265			43387.38302		69.17400		324.00000 
 43692.65567		 889.56308			42803.09259		219.55400		875.00000 
 43692.65567		 305.27265			43387.38302		69.17400		324.00000 
 43692.65567		 889.56308			42803.09259		219.55400		875.00000 
 43692.65567		 305.27265			43387.38302		69.17400		324.00000 
 43692.65567		 889.56308			42803.09259		219.55400		875.00000 
 43692.65567		 305.27265			43387.38302		69.17400		324.00000 
 43692.65567		 889.56308			42803.09259		219.55400		875.00000 
 43692.65567		 305.27265			43387.38302		69.17400		324.00000 
 43692.65567		 889.56308			42803.09259		219.55400		875.00000 
 43692.65567		 305.27265			43387.38302		69.17400		324.00000 
 43692.65567		 889.56308			42803.09259		219.55400		875.00000 
 43692.65567		 305.27265			43387.38302		69.17400		324.00000 
 43692.65567		 889.56308			42803.09259		219.55400		875.00000 
 43692.65567		 305.27265			43387.38302		69.17400		324.00000 
 43692.65567		 889.56308			42803.09259		219.55400		875.00000 
 43692.65567		 305.27265			43387.38302		69.17400		324.00000 
 43692.65567		 889.56308			42803.09259		219.55400		875.00000 
 43692.65567		 305.27265			43387.38302		69.17400		324.00000 
 43692.65567		 889.56308			42803.09259		219.55400		875.00000 
 43692.65567		 305.27265			43387.38302		69.17400		324.00000 
 43692.65567		 889.56308			42803.09259		219.55400		875.00000 
 43692.65567		 305.27265			43387.38302		69.17400		324.00000 
 43692.65567		 889.56308			42803.09259		219.55400		875.00000 
 43692.65567		 305.27265			43387.38302		69.17400		324.00000 
 43692.65567		 889.56308			42803.09259		219.55400		875.00000 
 43692.65567		 305.27265			43387.38302		69.17400		324.00000 
 43692.65567		 889.56308			42803.09259		219.55400		875.00000 
 43692.65567		 305.27265			43387.38302		69.17400		324.00000 
 43692.65567		 889.56308			42803.09259		219.55400		875.00000 
 43692.65567		 305.27265			43387.38302		69.17400		324.00000 
 43692.65567		 889.56308			42803.09259		219.55400		875.00000 
 43692.65567		 305.27265			43387.38302		69.17400		324.00000 
 43692.65567		 889.56308			42803.09259		219.55400		875.00000 
 43692.65567		 305.27265			43387.38302		69.17400		324.00000 
 43692.65567		 889.56308			42803.09259		219.55400		875.00000 
 43692.65567		 305.27265			43387.38302		69.17400		324.00000 
 43692.65567		 889.56308			42803.09259		219.55400		875.00000 
 43692.65567		 305.27265			43387.38302		69.17400		324.00000 
 43692.65567		 889.56308			42803.09259		219.55400		875.00000 
 43692.65567		 305.27265			43387.38302		69.17400		324.00000 
 43692.65567		 889.56308			42803.09259		219.55400		875.00000 
 43692.65567		 305.27265			43387.38302		69.17400		324.00000 
 43692.65567		 889.56308			42803.09259		219.55400		875.00000 
 43692.65567		 305.27265			43387.38302		69.17400		324.00000 
 43692.65567		 889.56308			42803.09259		219.55400		875.00000 
 43692.65567		 305.27265			43387.38302		69.17400		324.00000 
 43692.65567		 889.56308			42803.09259		219.55400		875.00000 
 43692.65567		 305.27265			43387.38302		69.17400		324.00000 
 43692.65567		 889.56308			42803.09259		219.55400		875.00000 
 43692.65567		 305.27265			43387.38302		69.17400		324.00000 
 43692.65567		 889.56308			42803.09259		219.55400		875.00000 
 43692.65567		 305.27265			43387.38302		69.17400		324.00000 
 43692.65567		 889.56308			42803.09259		219.55400		875.00000 
 43692.65567		 305.27265			43387.38302		69.17400		324.00000 
 43692.65567		 889.56308			42803.09259		219.55400		875.00000 
 43692.65567		 305.27265			43387.38302		69.17400		324.00000 
 43692.65567		 889.56308			42803.09259		219.55400		875.00000 
 43692.65567		 305.27265			43387.38302		69.17400		324.00000 
 43692.65567		 889.56308			42803.09259		219.55400		875.00000 
 43692.65567		 305.27265			43387.38302		69.17400		324.00000 
 43692.65567		 889.56308			42803.09259		219.55400		875.00000 
 43692.65567		 305.27265			43387.38302		69.17400		324.00000 
 43692.65567		 889.56308			42803.09259		219.55400		875.00000 
 43692.65567		 305.27265			43387.38302		69.17400		324.00000 
 43692.65567		 889.56308			42803.09259		219.55400		875.00000 
 43692.65567		 305.27265			43387.38302		69.17400		324.00000 
 43692.65567		 889.56308			42803.09259		219.55400		875.00000 
 43692.65567		 305.27265			43387.38302		69.17400		324.00000 
 43692.65567		 889.56308			42803.09259		219.55400		875.00000 
 43692.65567		 305.27265			43387.38302		69.17400		324.00000 
 43692.65567		 889.56308			42803.09259		219.55400		875.00000 
 43692.65567		 305.27265			43387.38302		69.17400		324.00000 
 43692.65567		 889.56308			42803.09259		219.55400		875.00000 
 43692.65567		 305.27265			43387.38302		69.17400		324.00000 
 43692.65567		 889.56308			42803.09259		219.55400		875.00000 
 43692.65567		 305.27265			43387.38302		69.17400		324.00000 
 43692.65567		 889.56308			42803.09259		219.55400		875.00000 
 43692.65567		 305.27265			43387.38302		69.17400		324.00000 
 43692.65567		 889.56308			42803.09259		219.55400		875.00000 
 43692.65567		 305.27265			43387.38302		69.17400		324.00000 
 43692.65567		 889.56308			42803.09259		219.55400		875.00000 
 43692.65567		 305.27265			43387.38302		69.17400		324.00000 
 43692.65567		 889.56308			42803.09259		219.55400		875.00000 
 43692.65567		 305.27265			43387.38302		69.17400		324.00000 
 43692.65567		 889.56308			42803.09259		219.55400		875.00000 
 43692.65567		 305.27265			43387.38302		69.17400		324.00000 
 43692.65567		 889.56308			42803.09259		219.55400		875.00000 
 43692.65567		 305.27265			43387.38302		69.17400		324.00000 
 43692.65567		 889.56308			42803.09259		219.55400		875.00000 
 43692.65567		 305.27265			43387.38302		69.17400		324.00000 
 43692.65567		 889.56308			42803.09259		219.55400		875.00000 
 43692.65567		 305.27265			43387.38302		69.17400		324.00000 
 43692.65567		 889.56308			42803.09259		219.55400		875.00000 
 43692.65567		 305.27265			43387.38302		69.17400		324.00000 
 43692.65567		 889.56308			42803.09259		219.55400		875.00000 
 43692.65567		 305.27265			43387.38302		69.17400		324.00000 
 43692.65567		 889.56308			42803.09259		219.55400		875.00000 
 43692.65567		 305.27265			43387.38302		69.17400		324.00000 
 43692.65567		 889.56308			42803.09259		219.55400		875.00000 
 43692.65567		 305.27265			43387.38302		69.17400		324.00000 
 43692.65567		 889.56308			42803.09259		219.55400		875.00000 
 43692.65567		 305.27265			43387.38302		69.17400		324.00000 
 43692.65567		 889.56308			42803.09259		219.55400		875.00000 
 43692.65567		 305.27265			43387.38302		69.17400		324.00000 
 43692.65567		 889.56308			42803.09259		219.55400		875.00000 
 43692.65567		 305.27265			43387.38302		69.17400		324.00000 
 43692.65567		 889.56308			42803.09259		219.55400		875.00000 
 43692.65567		 305.27265			43387.38302		69.17400		324.00000 
 43692.65567		 889.56308			42803.09259		219.55400		875.00000 
 43692.65567		 305.27265			43387.38302		69.17400		324.00000 
 43692.65567		 889.56308			42803.09259		219.55400		875.00000 
 43692.65567		 305.27265			43387.38302		69.17400		324.00000 
 43692.65567		 889.56308			42803.09259		219.55400		875.00000 
 43692.65567		 305.27265			43387.38302		69.17400		324.00000 
 43692.65567		 889.56308			42803.09259		219.55400		875.00000 
 43692.65567		 305.27265			43387.38302		69.17400		324.00000 
 43692.65567		 889.56308			42803.09259		226.31800		875.00000 
 43692.65567		 305.27265			43387.38302		69.17400		324.00000 
 43692.65567		 889.56308			42803.09259		226.31800		875.00000 
 43692.65567		 305.27265			43387.38302		69.17400		324.00000 
 43692.65567		 889.56308			42803.09259		226.31800		875.00000 
 43692.65567		 305.27265			43387.38302		69.17400		324.00000 
 43692.65567		 889.56308			42803.09259		226.31800		875.00000 
 43692.65567		 305.27265			43387.38302		69.17400		324.00000 
 43692.65567		 889.56308			42803.09259		226.31800		875.00000 
 43692.65567		 305.27265			43387.38302		69.17400		324.00000 
 43692.65567		 889.56308			42803.09259		226.31800		875.00000 
 43692.65567		 305.27265			43387.38302		69.17400		324.00000 
 43692.65567		 889.56308			42803.09259		226.31800		875.00000 
 43692.65567		 305.27265			43387.38302		69.17400		324.00000 
 43692.65567		 889.56308			42803.09259		226.31800		875.00000 
 43692.65567		 305.27265			43387.38302		69.17400		324.00000 
 43692.65567		 889.56308			42803.09259		226.31800		875.00000 
 43692.65567		 305.27265			43387.38302		69.17400		324.00000 
 43692.65567		 889.56308			42803.09259		226.31800		875.00000 
 43692.65567		 305.27265			43387.38302		69.17400		324.00000 
 43692.65567		 889.56308			42803.09259		226.31800		875.00000 
 43692.65567		 305.27265			43387.38302		69.17400		324.00000 
 43692.65567		 889.56308			42803.09259		226.31800		875.00000 
 43692.65567		 305.27265			43387.38302		69.17400		324.00000 
 43692.65567		 889.56308			42803.09259		226.31800		875.00000 
 43692.65567		 305.27265			43387.38302		69.17400		324.00000 
 43692.65567		 889.56308			42803.09259		226.31800		875.00000 
 43692.65567		 305.27265			43387.38302		69.17400		324.00000 
 43692.65567		 889.56308			42803.09259		226.31800		875.00000 
 43692.65567		 305.27265			43387.38302		69.17400		324.00000 
 43692.65567		 889.56308			42803.09259		226.31800		875.00000 
 43692.65567		 305.27265			43387.38302		69.17400		324.00000 
 43692.65567		 889.56308			42803.09259		226.31800		875.00000 
 43692.65567		 305.27265			43387.38302		69.17400		324.00000 
 43692.65567		 889.56308			42803.09259		226.31800		875.00000 
 43692.65567		 305.27265			43387.38302		69.17400		324.00000 
 43692.65567		 889.56308			42803.09259		226.31800		875.00000 
 43692.65567		 305.27265			43387.38302		69.17400		324.00000 
 43692.65567		 889.56308			42803.09259		226.31800		875.00000 
 43692.65567		 305.27265			43387.38302		69.17400		324.00000 
 43692.65567		 889.56308			42803.09259		226.31800		875.00000 
 43692.65567		 305.27265			43387.38302		69.17400		324.00000 
 43692.65567		 889.56308			42803.09259		226.31800		875.00000 
 43692.65567		 305.27265			43387.38302		69.17400		324.00000 
 43692.65567		 889.56308			42803.09259		226.31800		875.00000 
 43692.65567		 305.27265			43387.38302		69.17400		324.00000 
 43692.65567		 889.56308			42803.09259		226.31800		875.00000 
 43692.65567		 305.27265			43387.38302		69.17400		324.00000 
 43692.65567		 889.56308			42803.09259		226.31800		875.00000 
 43692.65567		 305.27265			43387.38302		69.17400		324.00000 
 43692.65567		 889.56308			42803.09259		226.31800		875.00000 
 43692.65567		 305.27265			43387.38302		69.17400		324.00000 
 43692.65567		 889.56308			42803.09259		226.31800		875.00000 
 43692.65567		 305.27265			43387.38302		69.17400		324.00000 
 43692.65567		 889.56308			42803.09259		226.31800		875.00000 
 43692.65567		 305.27265			43387.38302		69.17400		324.00000 
 43692.65567		 889.56308			42803.09259		226.31800		875.00000 
 43692.65567		 305.27265			43387.38302		69.17400		324.00000 
 43692.65567		 889.56308			42803.09259		226.31800		875.00000 
 43692.65567		 305.27265			43387.38302		69.17400		324.00000 
 43692.65567		 889.56308			42803.09259		226.31800		875.00000 
 43692.65567		 305.27265			43387.38302		69.17400		324.00000 
 43692.65567		 889.56308			42803.09259		226.31800		875.00000 
 43692.65567		 305.27265			43387.38302		69.17400		324.00000 
 43692.65567		 889.56308			42803.09259		226.31800		875.00000 
 43692.65567		 305.27265			43387.38302		69.17400		324.00000 
 43692.65567		 889.56308			42803.09259		226.31800		875.00000 
 43692.65567		 305.27265			43387.38302		69.17400		324.00000 
 43692.65567		 889.56308			42803.09259		226.31800		875.00000 
 43692.65567		 305.27265			43387.38302		69.17400		324.00000 
 43692.65567		 889.56308			42803.09259		226.31800		875.00000 
 43692.65567		 305.27265			43387.38302		69.17400		324.00000 
 43692.65567		 889.56308			42803.09259		226.31800		875.00000 
 43692.65567		 305.27265			43387.38302		69.17400		324.00000 
 43692.65567		 889.56308			42803.09259		226.31800		875.00000 
 43692.65567		 305.27265			43387.38302		69.17400		324.00000 
 43692.65567		 889.56308			42803.09259		226.31800		875.00000 
 43692.65567		 305.27265			43387.38302		69.17400		324.00000 
 43692.65567		 889.56308			42803.09259		226.31800		875.00000 
 43692.65567		 305.27265			43387.38302		69.17400		324.00000 
 43692.65567		 889.56308			42803.09259		226.31800		875.00000 
 43692.65567		 305.27265			43387.38302		69.17400		324.00000 
 43692.65567		 889.56308			42803.09259		226.31800		875.00000 
 43692.65567		 305.27265			43387.38302		69.17400		324.00000 
 43692.65567		 889.56308			42803.09259		226.31800		875.00000 
 43692.65567		 305.27265			43387.38302		69.17400		324.00000 
 43692.65567		 889.56308			42803.09259		226.31800		875.00000 
 43692.65567		 305.27265			43387.38302		69.17400		324.00000 
 43692.65567		 889.56308			42803.09259		226.31800		875.00000 
 43692.65567		 305.27265			43387.38302		69.17400		324.00000 
 43692.65567		 889.56308			42803.09259		226.31800		875.00000 
 43692.65567		 305.27265			43387.38302		69.17400		324.00000 
 43692.65567		 889.56308			42803.09259		226.31800		875.00000 
 43692.65567		 305.27265			43387.38302		69.17400		324.00000 
 43692.65567		 889.56308			42803.09259		226.31800		875.00000 
 43692.65567		 305.27265			43387.38302		69.17400		324.00000 
 43692.65567		 889.56308			42803.09259		226.31800		875.00000 
 43692.65567		 305.27265			43387.38302		69.17400		324.00000 
 43692.65567		 889.56308			42803.09259		226.31800		875.00000 
 43692.65567		 305.27265			43387.38302		69.17400		324.00000 
 43692.65567		 889.56308			42803.09259		226.31800		875.00000 
 43692.65567		 305.27265			43387.38302		69.17400		324.00000 
 43692.65567		 889.56308			42803.09259		226.31800		875.00000 
 43692.65567		 305.27265			43387.38302		69.17400		324.00000 
 43692.65567		 889.56308			42803.09259		226.31800		875.00000 
 43692.65567		 305.27265			43387.38302		69.17400		324.00000 
 43692.65567		 889.56308			42803.09259		226.31800		875.00000 
 43692.65567		 305.27265			43387.38302		69.17400		324.00000 
 43692.65567		 889.56308			42803.09259		226.31800		875.00000 
 43692.65567		 305.27265			43387.38302		69.17400		324.00000 
 43692.65567		 889.56308			42803.09259		226.31800		875.00000 
 43692.65567		 305.27265			43387.38302		69.17400		324.00000 
 43692.65567		 889.56308			42803.09259		226.31800		875.00000 
 43692.65567		 305.27265			43387.38302		69.17400		324.00000 
 43692.65567		 889.56308			42803.09259		226.31800		875.00000 
 43692.65567		 305.27265			43387.38302		69.17400		324.00000 
 43692.65567		 889.56308			42803.09259		226.31800		875.00000 
 43692.65567		 305.27265			43387.38302		69.17400		324.00000 
 43692.65567		 889.56308			42803.09259		226.31800		875.00000 
 43692.65567		 305.27265			43387.38302		69.17400		324.00000 
 43692.65567		 889.56308			42803.09259		226.31800		875.00000 
 43692.65567		 305.27265			43387.38302		69.17400		324.00000 
 43692.65567		 889.56308			42803.09259		226.31800		875.00000 
 43692.65567		 305.27265			43387.38302		69.17400		324.00000 
 43692.65567		 889.56308			42803.09259		226.31800		875.00000 
 43692.65567		 305.27265			43387.38302		69.17400		324.00000 
 43692.65567		 889.56308			42803.09259		226.31800		875.00000 
 43692.65567		 305.27265			43387.38302		69.17400		324.00000 
 43692.65567		 889.56308			42803.09259		227.74400		875.00000 
 43692.65567		 305.27265			43387.38302		69.17400		324.00000 
 43692.65567		 889.56308			42803.09259		227.74400		875.00000 
 43692.65567		 305.27265			43387.38302		69.17400		324.00000 
 43692.65567		 889.56308			42803.09259		227.74400		875.00000 
 43692.65567		 305.27265			43387.38302		69.17400		324.00000 
 43692.65567		 889.56308			42803.09259		227.74400		875.00000 
 43692.65567		 305.27265			43387.38302		69.17400		324.00000 
 43692.65567		 889.56308			42803.09259		227.74400		875.00000 
 43692.65567		 305.27265			43387.38302		69.17400		324.00000 
 43692.65567		 889.56308			42803.09259		227.74400		875.00000 
 43692.65567		 305.27265			43387.38302		69.17400		324.00000 
 43692.65567		 889.56308			42803.09259		227.74400		875.00000 
 43692.65567		 305.27265			43387.38302		69.17400		324.00000 
 43692.65567		 889.56308			42803.09259		227.74400		875.00000 
 43692.65567		 305.27265			43387.38302		69.17400		324.00000 
 43692.65567		 889.56308			42803.09259		227.74400		875.00000 
 43692.65567		 305.27265			43387.38302		69.17400		324.00000 
 43692.65567		 889.56308			42803.09259		227.74400		875.00000 
 43692.65567		 305.27265			43387.38302		69.17400		324.00000 
 43692.65567		 889.56308			42803.09259		227.74400		875.00000 
 43692.65567		 305.27265			43387.38302		69.17400		324.00000 
 43692.65567		 889.56308			42803.09259		227.74400		875.00000 
 43692.65567		 305.27265			43387.38302		69.17400		324.00000 
 43692.65567		 889.56308			42803.09259		227.74400		875.00000 
 43692.65567		 305.27265			43387.38302		69.17400		324.00000 
 43692.65567		 889.56308			42803.09259		227.74400		875.00000 
 43692.65567		 305.27265			43387.38302		69.17400		324.00000 
 43692.65567		 889.56308			42803.09259		227.74400		875.00000 
 43692.65567		 305.27265			43387.38302		69.17400		324.00000 
 43692.65567		 889.56308			42803.09259		227.74400		875.00000 
 43692.65567		 305.27265			43387.38302		69.17400		324.00000 
 43692.65567		 889.56308			42803.09259		227.74400		875.00000 
 43692.65567		 305.27265			43387.38302		69.17400		324.00000 
 43692.65567		 889.56308			42803.09259		227.74400		875.00000 
 43692.65567		 305.27265			43387.38302		69.17400		324.00000 
 43692.65567		 889.56308			42803.09259		227.74400		875.00000 
 43692.65567		 305.27265			43387.38302		69.17400		324.00000 
 43692.65567		 889.56308			42803.09259		227.74400		875.00000 
 43692.65567		 305.27265			43387.38302		69.17400		324.00000 
 43692.65567		 889.56308			42803.09259		227.74400		875.00000 
 43692.65567		 305.27265			43387.38302		69.17400		324.00000 
 43692.65567		 889.56308			42803.09259		227.74400		875.00000 
 43692.65567		 305.27265			43387.38302		69.17400		324.00000 
 43692.65567		 889.56308			42803.09259		227.74400		875.00000 
 43692.65567		 305.27265			43387.38302		69.17400		324.00000 
 43692.65567		 889.56308			42803.09259		227.74400		875.00000 
 43692.65567		 305.27265			43387.38302		69.17400		324.00000 
 43692.65567		 889.56308			42803.09259		227.74400		875.00000 
 43692.65567		 305.27265			43387.38302		69.17400		324.00000 
 43692.65567		 889.56308			42803.09259		227.74400		875.00000 
 43692.65567		 305.27265			43387.38302		69.17400		324.00000 
 43692.65567		 889.56308			42803.09259		227.74400		875.00000 
 43692.65567		 305.27265			43387.38302		69.17400		324.00000 
 43692.65567		 889.56308			42803.09259		227.74400		875.00000 
 43692.65567		 305.27265			43387.38302		69.17400		324.00000 
 43692.65567		 889.56308			42803.09259		227.74400		875.00000 
 43692.65567		 305.27265			43387.38302		69.17400		324.00000 
 43692.65567		 889.56308			42803.09259		227.74400		875.00000 
 43692.65567		 305.27265			43387.38302		69.17400		324.00000 
 43692.65567		 889.56308			42803.09259		227.74400		875.00000 
 43692.65567		 305.27265			43387.38302		69.17400		324.00000 
 43692.65567		 889.56308			42803.09259		227.74400		875.00000 
 43692.65567		 305.27265			43387.38302		69.17400		324.00000 
 43692.65567		 889.56308			42803.09259		227.74400		875.00000 
 43692.65567		 305.27265			43387.38302		69.17400		324.00000 
 43692.65567		 889.56308			42803.09259		227.74400		875.00000 
 43692.65567		 305.27265			43387.38302		69.17400		324.00000 
 43692.65567		 889.56308			42803.09259		227.74400		875.00000 
 43692.65567		 305.27265			43387.38302		69.17400		324.00000 
 43692.65567		 889.56308			42803.09259		227.74400		875.00000 
 43692.65567		 305.27265			43387.38302		69.17400		324.00000 
 43692.65567		 889.56308			42803.09259		227.74400		875.00000 
 43692.65567		 305.27265			43387.38302		69.17400		324.00000 
 43692.65567		 889.56308			42803.09259		227.74400		875.00000 
 43692.65567		 305.27265			43387.38302		69.17400		324.00000 
 43692.65567		 889.56308			42803.09259		227.74400		875.00000 
 43692.65567		 305.27265			43387.38302		69.17400		324.00000 
 43692.65567		 889.56308			42803.09259		227.74400		875.00000 
 43692.65567		 305.27265			43387.38302		69.17400		324.00000 
 43692.65567		 889.56308			42803.09259		227.74400		875.00000 
 43692.65567		 305.27265			43387.38302		69.17400		324.00000 
 43692.65567		 889.56308			42803.09259		227.74400		875.00000 
 43692.65567		 305.27265			43387.38302		69.17400		324.00000 
 43692.65567		 889.56308			42803.09259		227.74400		875.00000 
 43692.65567		 305.27265			43387.38302		69.17400		324.00000 
 43692.65567		 889.56308			42803.09259		227.74400		875.00000 
 43692.65567		 305.27265			43387.38302		69.17400		324.00000 
 43692.65567		 889.56308			42803.09259		227.74400		875.00000 
 43692.65567		 305.27265			43387.38302		69.17400		324.00000 
 43692.65567		 889.56308			42803.09259		227.74400		875.00000 
 43692.65567		 305.27265			43387.38302		69.17400		324.00000 
 43692.65567		 889.56308			42803.09259		227.74400		875.00000 
 43692.65567		 305.27265			43387.38302		69.17400		324.00000 
 43692.65567		 889.56308			42803.09259		227.74400		875.00000 
 43692.65567		 305.27265			43387.38302		69.17400		324.00000 
 43692.65567		 889.56308			42803.09259		227.74400		875.00000 
 43692.65567		 305.27265			43387.38302		69.17400		324.00000 
 43692.65567		 889.56308			42803.09259		227.74400		875.00000 
 43692.65567		 305.27265			43387.38302		69.17400		324.00000 
 43692.65567		 889.56308			42803.09259		227.74400		875.00000 
 43692.65567		 305.27265			43387.38302		69.17400		324.00000 
 43692.65567		 889.56308			42803.09259		227.74400		875.00000 
 43692.65567		 305.27265			43387.38302		69.17400		324.00000 
 43692.65567		 889.56308			42803.09259		227.74400		875.00000 
 43692.65567		 305.27265			43387.38302		69.17400		324.00000 
 43692.65567		 889.56308			42803.09259		227.74400		875.00000 
 43692.65567		 305.27265			43387.38302		69.17400		324.00000 
 43692.65567		 889.56308			42803.09259		227.74400		875.00000 
 43692.65567		 305.27265			43387.38302		69.17400		324.00000 
 43692.65567		 889.56308			42803.09259		227.74400		875.00000 
 43692.65567		 305.27265			43387.38302		69.17400		324.00000 
 43692.65567		 889.56308			42803.09259		227.74400		875.00000 
 43692.65567		 305.27265			43387.38302		69.17400		324.00000 
 43692.65567		 889.56308			42803.09259		227.74400		875.00000 
 43692.65567		 305.27265			43387.38302		69.17400		324.00000 
 43692.65567		 889.56308			42803.09259		227.74400		875.00000 
 43692.65567		 305.27265			43387.38302		69.17400		324.00000 
 43692.65567		 889.56308			42803.09259		227.74400		875.00000 
 43692.65567		 305.27265			43387.38302		69.17400		324.00000 
 43692.65567		 889.56308			42803.09259		227.74400		875.00000 
 43692.65567		 305.27265			43387.38302		69.17400		324.00000 
 43692.65567		 889.56308			42803.09259		227.74400		875.00000 
 43692.65567		 305.27265			43387.38302		69.17400		324.00000 
 43692.65567		 889.56308			42803.09259		227.74400		875.00000 
 43692.65567		 305.27265			43387.38302		69.17400		324.00000 
 43692.65567		 889.56308			42803.09259		227.74400		875.00000 
 43692.65567		 305.27265			43387.38302		69.17400		324.00000 
 43692.65567		 889.56308			42803.09259		227.74400		875.00000 
 43692.65567		 305.27265			43387.38302		69.17400		324.00000 
 43692.65567		 889.56308			42803.09259		229.54400		875.00000 
 43692.65567		 305.27265			43387.38302		69.17400		324.00000 
 43692.65567		 889.56308			42803.09259		229.54400		875.00000 
 43692.65567		 305.27265			43387.38302		69.17400		324.00000 
 43692.65567		 889.56308			42803.09259		229.54400		875.00000 
 43692.65567		 305.27265			43387.38302		69.17400		324.00000 
 43692.65567		 889.56308			42803.09259		229.54400		875.00000 
 43692.65567		 305.27265			43387.38302		69.17400		324.00000 
 43692.65567		 889.56308			42803.09259		229.54400		875.00000 
 43692.65567		 305.27265			43387.38302		69.17400		324.00000 
 43692.65567		 889.56308			42803.09259		229.54400		875.00000 
 43692.65567		 305.27265			43387.38302		69.17400		324.00000 
 43692.65567		 889.56308			42803.09259		229.54400		875.00000 
 43692.65567		 305.27265			43387.38302		69.17400		324.00000 
 43692.65567		 889.56308			42803.09259		229.54400		875.00000 
 43692.65567		 305.27265			43387.38302		69.17400		324.00000 
 43692.65567		 889.56308			42803.09259		229.54400		875.00000 
 43692.65567		 305.27265			43387.38302		69.17400		324.00000 
 43692.65567		 889.56308			42803.09259		229.54400		875.00000 
 43692.65567		 305.27265			43387.38302		69.17400		324.00000 
 43692.65567		 889.56308			42803.09259		229.54400		875.00000 
 43692.65567		 305.27265			43387.38302		69.17400		324.00000 
 43692.65567		 889.56308			42803.09259		229.54400		875.00000 
 43692.65567		 305.27265			43387.38302		69.17400		324.00000 
 43692.65567		 889.56308			42803.09259		229.54400		875.00000 
 43692.65567		 305.27265			43387.38302		69.17400		324.00000 
 43692.65567		 889.56308			42803.09259		229.54400		875.00000 
 43692.65567		 305.27265			43387.38302		69.17400		324.00000 
 43692.65567		 889.56308			42803.09259		229.54400		875.00000 
 43692.65567		 305.27265			43387.38302		69.17400		324.00000 
 43692.65567		 889.56308			42803.09259		229.54400		875.00000 
 43692.65567		 305.27265			43387.38302		69.17400		324.00000 
 43692.65567		 889.56308			42803.09259		229.54400		875.00000 
 43692.65567		 305.27265			43387.38302		69.17400		324.00000 
 43692.65567		 889.56308			42803.09259		229.54400		875.00000 
 43692.65567		 305.27265			43387.38302		69.17400		324.00000 
 43692.65567		 889.56308			42803.09259		229.54400		875.00000 
 43692.65567		 305.27265			43387.38302		69.17400		324.00000 
 43692.65567		 889.56308			42803.09259		229.54400		875.00000 
 43692.65567		 305.27265			43387.38302		69.17400		324.00000 
 43692.65567		 889.56308			42803.09259		229.54400		875.00000 
 43692.65567		 305.27265			43387.38302		69.17400		324.00000 
 43692.65567		 889.56308			42803.09259		229.54400		875.00000 
 43692.65567		 305.27265			43387.38302		69.17400		324.00000 
 43692.65567		 889.56308			42803.09259		229.54400		875.00000 
 43692.65567		 305.27265			43387.38302		69.17400		324.00000 
 43692.65567		 889.56308			42803.09259		229.54400		875.00000 
 43692.65567		 305.27265			43387.38302		69.17400		324.00000 
 43692.65567		 889.56308			42803.09259		229.54400		875.00000 
 43692.65567		 305.27265			43387.38302		69.17400		324.00000 
 43692.65567		 889.56308			42803.09259		229.54400		875.00000 
 43692.65567		 305.27265			43387.38302		69.17400		324.00000 
 43692.65567		 889.56308			42803.09259		229.54400		875.00000 
 43692.65567		 305.27265			43387.38302		69.17400		324.00000 
 43692.65567		 889.56308			42803.09259		229.54400		875.00000 
 43692.65567		 305.27265			43387.38302		69.17400		324.00000 
 43692.65567		 889.56308			42803.09259		229.54400		875.00000 
 43692.65567		 305.27265			43387.38302		69.17400		324.00000 
 43692.65567		 889.56308			42803.09259		229.54400		875.00000 
 43692.65567		 305.27265			43387.38302		69.17400		324.00000 
 43692.65567		 889.56308			42803.09259		229.54400		875.00000 
 43692.65567		 305.27265			43387.38302		69.17400		324.00000 
 43692.65567		 889.56308			42803.09259		229.54400		875.00000 
 43692.65567		 305.27265			43387.38302		69.17400		324.00000 
 43692.65567		 889.56308			42803.09259		229.54400		875.00000 
 43692.65567		 305.27265			43387.38302		69.17400		324.00000 
 43692.65567		 889.56308			42803.09259		229.54400		875.00000 
 43692.65567		 305.27265			43387.38302		69.17400		324.00000 
 43692.65567		 889.56308			42803.09259		229.54400		875.00000 
 43692.65567		 305.27265			43387.38302		69.17400		324.00000 
 43692.65567		 889.56308			42803.09259		229.54400		875.00000 
 43692.65567		 305.27265			43387.38302		69.17400		324.00000 
 43692.65567		 889.56308			42803.09259		229.54400		875.00000 
 43692.65567		 305.27265			43387.38302		69.17400		324.00000 
 43692.65567		 889.56308			42803.09259		229.54400		875.00000 
 43692.65567		 305.27265			43387.38302		69.17400		324.00000 
 43692.65567		 889.56308			42803.09259		229.54400		875.00000 
 43692.65567		 305.27265			43387.38302		69.17400		324.00000 
 43692.65567		 889.56308			42803.09259		229.54400		875.00000 
 43692.65567		 305.27265			43387.38302		69.17400		324.00000 
 43692.65567		 889.56308			42803.09259		229.54400		875.00000 
 43692.65567		 305.27265			43387.38302		69.17400		324.00000 
 43692.65567		 889.56308			42803.09259		229.54400		875.00000 
 43692.65567		 305.27265			43387.38302		69.17400		324.00000 
 43692.65567		 889.56308			42803.09259		229.54400		875.00000 
 43692.65567		 305.27265			43387.38302		69.17400		324.00000 
 43692.65567		 889.56308			42803.09259		229.54400		875.00000 
 43692.65567		 305.27265			43387.38302		69.17400		324.00000 
 43692.65567		 889.56308			42803.09259		229.54400		875.00000 
 43692.65567		 305.27265			43387.38302		69.17400		324.00000 
 43692.65567		 889.56308			42803.09259		229.54400		875.00000 
 43692.65567		 305.27265			43387.38302		69.17400		324.00000 
 43692.65567		 889.56308			42803.09259		229.54400		875.00000 
 43692.65567		 305.27265			43387.38302		69.17400		324.00000 
 43692.65567		 889.56308			42803.09259		229.54400		875.00000 
 43692.65567		 305.27265			43387.38302		69.17400		324.00000 
 43692.65567		 889.56308			42803.09259		229.54400		875.00000 
 43692.65567		 305.27265			43387.38302		69.17400		324.00000 
 43692.65567		 889.56308			42803.09259		229.54400		875.00000 
 43692.65567		 305.27265			43387.38302		69.17400		324.00000 
 43692.65567		 889.56308			42803.09259		229.54400		875.00000 
 43692.65567		 305.27265			43387.38302		69.17400		324.00000 
 43692.65567		 889.56308			42803.09259		229.54400		875.00000 
 43692.65567		 305.27265			43387.38302		69.17400		324.00000 
 43692.65567		 889.56308			42803.09259		229.54400		875.00000 
 43692.65567		 305.27265			43387.38302		69.17400		324.00000 
 43692.65567		 889.56308			42803.09259		229.54400		875.00000 
 43692.65567		 305.27265			43387.38302		69.17400		324.00000 
 43692.65567		 889.56308			42803.09259		229.54400		875.00000 
 43692.65567		 305.27265			43387.38302		69.17400		324.00000 
 43692.65567		 889.56308			42803.09259		229.54400		875.00000 
 43692.65567		 305.27265			43387.38302		69.17400		324.00000 
 43692.65567		 889.56308			42803.09259		229.54400		875.00000 
 43692.65567		 305.27265			43387.38302		69.17400		324.00000 
 43692.65567		 889.56308			42803.09259		229.54400		875.00000 
 43692.65567		 305.27265			43387.38302		69.17400		324.00000 
 43692.65567		 889.56308			42803.09259		229.54400		875.00000 
 43692.65567		 305.27265			43387.38302		69.17400		324.00000 
 43692.65567		 889.56308			42803.09259		229.54400		875.00000 
 43692.65567		 305.27265			43387.38302		69.17400		324.00000 
 43692.65567		 889.56308			42803.09259		229.54400		875.00000 
 43692.65567		 305.27265			43387.38302		69.17400		324.00000 
 43692.65567		 889.56308			42803.09259		229.54400		875.00000 
 43692.65567		 305.27265			43387.38302		69.17400		324.00000 
 43692.65567		 889.56308			42803.09259		229.54400		875.00000 
 43692.65567		 305.27265			43387.38302		69.17400		324.00000 
 43692.65567		 889.56308			42803.09259		229.54400		875.00000 
 43692.65567		 305.27265			43387.38302		69.17400		324.00000 
 43692.65567		 889.56308			42803.09259		228.94600		875.00000 
 43692.65567		 305.27265			43387.38302		69.17400		324.00000 
 43692.65567		 889.56308			42803.09259		228.94600		875.00000 
 43692.65567		 305.27265			43387.38302		69.17400		324.00000 
 43692.65567		 889.56308			42803.09259		228.94600		875.00000 
 43692.65567		 305.27265			43387.38302		69.17400		324.00000 
 43692.65567		 889.56308			42803.09259		228.94600		875.00000 
 43692.65567		 305.27265			43387.38302		69.17400		324.00000 
 43692.65567		 889.56308			42803.09259		228.94600		875.00000 
 43692.65567		 305.27265			43387.38302		69.17400		324.00000 
 43692.65567		 889.56308			42803.09259		228.94600		875.00000 
 43692.65567		 305.27265			43387.38302		69.17400		324.00000 
 43692.65567		 889.56308			42803.09259		228.94600		875.00000 
 43692.65567		 305.27265			43387.38302		69.17400		324.00000 
 43692.65567		 889.56308			42803.09259		228.94600		875.00000 
 43692.65567		 305.27265			43387.38302		69.17400		324.00000 
 43692.65567		 889.56308			42803.09259		228.94600		875.00000 
 43692.65567		 305.27265			43387.38302		69.17400		324.00000 
 43692.65567		 889.56308			42803.09259		228.94600		875.00000 
 43692.65567		 305.27265			43387.38302		69.17400		324.00000 
 43692.65567		 889.56308			42803.09259		228.94600		875.00000 
 43692.65567		 305.27265			43387.38302		69.17400		324.00000 
 43692.65567		 889.56308			42803.09259		228.94600		875.00000 
 43692.65567		 305.27265			43387.38302		69.17400		324.00000 
 43692.65567		 889.56308			42803.09259		228.94600		875.00000 
 43692.65567		 305.27265			43387.38302		69.17400		324.00000 
 43692.65567		 889.56308			42803.09259		228.94600		875.00000 
 43692.65567		 305.27265			43387.38302		69.17400		324.00000 
 43692.65567		 889.56308			42803.09259		228.94600		875.00000 
 43692.65567		 305.27265			43387.38302		69.17400		324.00000 
 43692.65567		 889.56308			42803.09259		228.94600		875.00000 
 43692.65567		 305.27265			43387.38302		69.17400		324.00000 
 43692.65567		 889.56308			42803.09259		228.94600		875.00000 
 43692.65567		 305.27265			43387.38302		69.17400		324.00000 
 43692.65567		 889.56308			42803.09259		228.94600		875.00000 
 43692.65567		 305.27265			43387.38302		69.17400		324.00000 
 43692.65567		 889.56308			42803.09259		228.94600		875.00000 
 43692.65567		 305.27265			43387.38302		69.17400		324.00000 
 43692.65567		 889.56308			42803.09259		228.94600		875.00000 
 43692.65567		 305.27265			43387.38302		69.17400		324.00000 
 43692.65567		 889.56308			42803.09259		228.94600		875.00000 
 43692.65567		 305.27265			43387.38302		69.17400		324.00000 
 43692.65567		 889.56308			42803.09259		228.94600		875.00000 
 43692.65567		 305.27265			43387.38302		69.17400		324.00000 
 43692.65567		 889.56308			42803.09259		228.94600		875.00000 
 43692.65567		 305.27265			43387.38302		69.17400		324.00000 
 43692.65567		 889.56308			42803.09259		228.94600		875.00000 
 43692.65567		 305.27265			43387.38302		69.17400		324.00000 
 43692.65567		 889.56308			42803.09259		228.94600		875.00000 
 43692.65567		 305.27265			43387.38302		69.17400		324.00000 
 43692.65567		 889.56308			42803.09259		228.94600		875.00000 
 43692.65567		 305.27265			43387.38302		69.17400		324.00000 
 43692.65567		 889.56308			42803.09259		228.94600		875.00000 
 43692.65567		 305.27265			43387.38302		69.17400		324.00000 
 43692.65567		 889.56308			42803.09259		228.94600		875.00000 
 43692.65567		 305.27265			43387.38302		69.17400		324.00000 
 43692.65567		 889.56308			42803.09259		228.94600		875.00000 
 43692.65567		 305.27265			43387.38302		69.17400		324.00000 
 43692.65567		 889.56308			42803.09259		228.94600		875.00000 
 43692.65567		 305.27265			43387.38302		69.17400		324.00000 
 43692.65567		 889.56308			42803.09259		228.94600		875.00000 
 43692.65567		 305.27265			43387.38302		69.17400		324.00000 
 43692.65567		 889.56308			42803.09259		228.94600		875.00000 
 43692.65567		 305.27265			43387.38302		69.17400		324.00000 
 43692.65567		 889.56308			42803.09259		228.94600		875.00000 
 43692.65567		 305.27265			43387.38302		69.17400		324.00000 
 43692.65567		 889.56308			42803.09259		228.94600		875.00000 
 43692.65567		 305.27265			43387.38302		69.17400		324.00000 
 43692.65567		 889.56308			42803.09259		228.94600		875.00000 
 43692.65567		 305.27265			43387.38302		69.17400		324.00000 
 43692.65567		 889.56308			42803.09259		228.94600		875.00000 
 43692.65567		 305.27265			43387.38302		69.17400		324.00000 
 43692.65567		 889.56308			42803.09259		228.94600		875.00000 
 43692.65567		 305.27265			43387.38302		69.17400		324.00000 
 43692.65567		 889.56308			42803.09259		228.94600		875.00000 
 43692.65567		 305.27265			43387.38302		69.17400		324.00000 
 43692.65567		 889.56308			42803.09259		228.94600		875.00000 
 43692.65567		 305.27265			43387.38302		69.17400		324.00000 
 43692.65567		 889.56308			42803.09259		228.94600		875.00000 
 43692.65567		 305.27265			43387.38302		69.17400		324.00000 
 43692.65567		 889.56308			42803.09259		228.94600		875.00000 
 43692.65567		 305.27265			43387.38302		69.17400		324.00000 
 43692.65567		 889.56308			42803.09259		228.94600		875.00000 
 43692.65567		 305.27265			43387.38302		69.17400		324.00000 
 43692.65567		 889.56308			42803.09259		228.94600		875.00000 
 43692.65567		 305.27265			43387.38302		69.17400		324.00000 
 43692.65567		 889.56308			42803.09259		228.94600		875.00000 
 43692.65567		 305.27265			43387.38302		69.17400		324.00000 
 43692.65567		 889.56308			42803.09259		228.94600		875.00000 
 43692.65567		 305.27265			43387.38302		69.17400		324.00000 
 43692.65567		 889.56308			42803.09259		228.94600		875.00000 
 43692.65567		 305.27265			43387.38302		69.17400		324.00000 
 43692.65567		 889.56308			42803.09259		228.94600		875.00000 
 43692.65567		 305.27265			43387.38302		69.17400		324.00000 
 43692.65567		 889.56308			42803.09259		228.94600		875.00000 
 43692.65567		 305.27265			43387.38302		69.17400		324.00000 
 43692.65567		 889.56308			42803.09259		228.94600		875.00000 
 43692.65567		 305.27265			43387.38302		69.17400		324.00000 
 43692.65567		 889.56308			42803.09259		228.94600		875.00000 
 43692.65567		 305.27265			43387.38302		69.17400		324.00000 
 43692.65567		 889.56308			42803.09259		228.94600		875.00000 
 43692.65567		 305.27265			43387.38302		69.17400		324.00000 
 43692.65567		 889.56308			42803.09259		228.94600		875.00000 
 43692.65567		 305.27265			43387.38302		69.17400		324.00000 
 43692.65567		 889.56308			42803.09259		228.94600		875.00000 
 43692.65567		 305.27265			43387.38302		69.17400		324.00000 
 43692.65567		 889.56308			42803.09259		228.94600		875.00000 
 43692.65567		 305.27265			43387.38302		69.17400		324.00000 
 43692.65567		 889.56308			42803.09259		228.94600		875.00000 
 43692.65567		 305.27265			43387.38302		69.17400		324.00000 
 43692.65567		 889.56308			42803.09259		228.94600		875.00000 
 43692.65567		 305.27265			43387.38302		69.17400		324.00000 
 43692.65567		 889.56308			42803.09259		228.94600		875.00000 
 43692.65567		 305.27265			43387.38302		69.17400		324.00000 
 43692.65567		 889.56308			42803.09259		228.94600		875.00000 
 43692.65567		 305.27265			43387.38302		69.17400		324.00000 
 43692.65567		 889.56308			42803.09259		228.94600		875.00000 
 43692.65567		 305.27265			43387.38302		69.17400		324.00000 
 43692.65567		 889.56308			42803.09259		228.94600		875.00000 
 43692.65567		 305.27265			43387.38302		69.17400		324.00000 
 43692.65567		 889.56308			42803.09259		228.94600		875.00000 
 43692.65567		 305.27265			43387.38302		69.17400		324.00000 
 43692.65567		 889.56308			42803.09259		228.94600		875.00000 
 43692.65567		 305.27265			43387.38302		69.17400		324.00000 
 43692.65567		 889.56308			42803.09259		228.94600		875.00000 
 43692.65567		 305.27265			43387.38302		69.17400		324.00000 
 43692.65567		 889.56308			42803.09259		228.94600		875.00000 
 43692.65567		 305.27265			43387.38302		69.17400		324.00000 
 43692.65567		 889.56308			42803.09259		228.94600		875.00000 
 43692.65567		 305.27265			43387.38302		69.17400		324.00000 
 43692.65567		 889.56308			42803.09259		228.94600		875.00000 
 43692.65567		 305.27265			43387.38302		69.17400		324.00000 
 43692.65567		 889.56308			42803.09259		228.94600		875.00000 
 43692.65567		 305.27265			43387.38302		69.17400		324.00000 
 43692.65567		 889.56308			42803.09259		228.94600		875.00000 
 43692.65567		 305.27265			43387.38302		69.17400		324.00000 
 43692.65567		 889.56308			42803.09259		228.94600		875.00000 
 43692.65567		 305.27265			43387.38302		69.17400		324.00000 
 43692.65567		 889.56308			42803.09259		228.94600		875.00000 
 43692.65567		 305.27265			43387.38302		69.17400		324.00000 
 43692.65567		 889.56308			42803.09259		228.94600		875.00000 
 43692.65567		 305.27265			43387.38302		69.17400		324.00000 
 43692.65567		 889.56308			42803.09259		228.94600		875.00000 
 43692.65567		 305.27265			43387.38302		69.17400		324.00000 
 43692.65567		 889.56308			42803.09259		228.94600		875.00000 
 43692.65567		 305.27265			43387.38302		69.17400		324.00000 
 43692.65567		 889.56308			42803.09259		228.94600		875.00000 
 43692.65567		 305.27265			43387.38302		69.17400		324.00000 
 43692.65567		 889.56308			42803.09259		228.94600		875.00000 
 43692.65567		 305.27265			43387.38302		69.17400		324.00000 
 43692.65567		 889.56308			42803.09259		228.94600		875.00000 
 43692.65567		 305.27265			43387.38302		69.17400		324.00000 
 43692.65567		 889.56308			42803.09259		228.94600		875.00000 
 43692.65567		 305.27265			43387.38302		69.17400		324.00000 
 43692.65567		 889.56308			42803.09259		228.94600		875.00000 
 43692.65567		 305.27265			43387.38302		69.17400		324.00000 
 43692.65567		 889.56308			42803.09259		228.94600		875.00000 
 43692.65567		 305.27265			43387.38302		69.17400		324.00000 
 43692.65567		 889.56308			42803.09259		228.94600		875.00000 
 43692.65567		 305.27265			43387.38302		69.17400		324.00000 
 43692.65567		 889.56308			42803.09259		228.94600		875.00000 
 43692.65567		 305.27265			43387.38302		69.17400		324.00000 
 43692.65567		 889.56308			42803.09259		228.94600		875.00000 
 43692.65567		 305.27265			43387.38302		69.17400		324.00000 
 43692.65567		 889.56308			42803.09259		228.94600		875.00000 
 43692.65567		 305.27265			43387.38302		69.17400		324.00000 
 43692.65567		 889.56308			42803.09259		228.94600		875.00000 
 43692.65567		 305.27265			43387.38302		69.17400		324.00000 
 43692.65567		 889.56308			42803.09259		228.94600		875.00000 
 43692.65567		 305.27265			43387.38302		69.17400		324.00000 
 43692.65567		 889.56308			42803.09259		228.94600		875.00000 
 43692.65567		 305.27265			43387.38302		69.17400		324.00000 
 43692.65567		 889.56308			42803.09259		228.94600		875.00000 
 43692.65567		 305.27265			43387.38302		69.17400		324.00000 
 43692.65567		 889.56308			42803.09259		228.94600		875.00000 
 43692.65567		 305.27265			43387.38302		69.17400		324.00000 
 43692.65567		 889.56308			42803.09259		228.94600		875.00000 
 43692.65567		 305.27265			43387.38302		69.17400		324.00000 
 43692.65567		 889.56308			42803.09259		228.94600		875.00000 
 43692.65567		 305.27265			43387.38302		69.17400		324.00000 
 43692.65567		 889.56308			42803.09259		228.94600		875.00000 
 43692.65567		 305.27265			43387.38302		69.17400		324.00000 
 43692.65567		 889.56308			42803.09259		228.94600		875.00000 
 43692.65567		 305.27265			43387.38302		69.17400		324.00000 
 43692.65567		 889.56308			42803.09259		228.94600		875.00000 
 43692.65567		 305.27265			43387.38302		69.17400		324.00000 
 43692.65567		 889.56308			42803.09259		228.94600		875.00000 
 43692.65567		 305.27265			43387.38302		69.17400		324.00000 
 43692.65567		 889.56308			42803.09259		228.94600		875.00000 
 43692.65567		 305.27265			43387.38302		69.17400		324.00000 
 43692.65567		 889.56308			42803.09259		228.94600		875.00000 
 43692.65567		 305.27265			43387.38302		69.17400		324.00000 
 43692.65567		 889.56308			42803.09259		228.94600		875.00000 
 43692.65567		 305.27265			43387.38302		69.17400		324.00000 
 43692.65567		 889.56308			42803.09259		228.94600		875.00000 
 43692.65567		 305.27265			43387.38302		69.17400		324.00000 
 43692.65567		 889.56308			42803.09259		228.94600		875.00000 
 43692.65567		 305.27265			43387.38302		69.17400		324.00000 
 43692.65567		 889.56308			42803.09259		228.94600		875.00000 
 43692.65567		 305.27265			43387.38302		69.17400		324.00000 
 43692.65567		 889.56308			42803.09259		228.94600		875.00000 
 43692.65567		 305.27265			43387.38302		69.17400		324.00000 
 43692.65567		 889.56308			42803.09259		228.94600		875.00000 
 43692.65567		 305.27265			43387.38302		69.17400		324.00000 
 43692.65567		 889.56308			42803.09259		228.94600		875.00000 
 43692.65567		 305.27265			43387.38302		69.17400		324.00000 
 43692.65567		 889.56308			42803.09259		228.94600		875.00000 
 43692.65567		 305.27265			43387.38302		69.17400		324.00000 
 43692.65567		 889.56308			42803.09259		228.94600		875.00000 
 43692.65567		 305.27265			43387.38302		69.17400		324.00000 
 43692.65567		 889.56308			42803.09259		228.94600		875.00000 
 43692.65567		 305.27265			43387.38302		69.17400		324.00000 
 43692.65567		 889.56308			42803.09259		228.94600		875.00000 
 43692.65567		 305.27265			43387.38302		69.17400		324.00000 
 43692.65567		 889.56308			42803.09259		228.94600		875.00000 
 43692.65567		 305.27265			43387.38302		69.17400		324.00000 
 43692.65567		 889.56308			42803.09259		228.94600		875.00000 
 43692.65567		 305.27265			43387.38302		69.17400		324.00000 
 43692.65567		 889.56308			42803.09259		228.94600		875.00000 
 43692.65567		 305.27265			43387.38302		69.17400		324.00000 
 43692.65567		 889.56308			42803.09259		228.94600		875.00000 
 43692.65567		 305.27265			43387.38302		69.17400		324.00000 
 43692.65567		 889.56308			42803.09259		228.94600		875.00000 
 43692.65567		 305.27265			43387.38302		69.17400		324.00000 
 43692.65567		 889.56308			42803.09259		228.94600		875.00000 
 43692.65567		 305.27265			43387.38302		69.17400		324.00000 
 43692.65567		 889.56308			42803.09259		228.94600		875.00000 
 43692.65567		 305.27265			43387.38302		69.17400		324.00000 
 43692.65567		 889.56308			42803.09259		228.94600		875.00000 
 43692.65567		 305.27265			43387.38302		69.17400		324.00000 
 43692.65567		 889.56308			42803.09259		228.94600		875.00000 
 43692.65567		 305.27265			43387.38302		69.17400		324.00000 
 43692.65567		 889.56308			42803.09259		228.94600		875.00000 
 43692.65567		 305.27265			43387.38302		69.17400		324.00000 
 43692.65567		 889.56308			42803.09259		228.94600		875.00000 
 43692.65567		 305.27265			43387.38302		69.17400		324.00000 
 43692.65567		 889.56308			42803.09259		228.94600		875.00000 
 43692.65567		 305.27265			43387.38302		69.17400		324.00000 
 43692.65567		 889.56308			42803.09259		228.94600		875.00000 
 43692.65567		 305.27265			43387.38302		69.17400		324.00000 
 43692.65567		 889.56308			42803.09259		228.94600		875.00000 
 43692.65567		 305.27265			43387.38302		69.17400		324.00000 
 43692.65567		 889.56308			42803.09259		228.94600		875.00000 
 43692.65567		 305.27265			43387.38302		69.17400		324.00000 
 43692.65567		 889.56308			42803.09259		228.94600		875.00000 
 43692.65567		 305.27265			43387.38302		69.17400		324.00000 
 43692.65567		 889.56308			42803.09259		228.94600		875.00000 
 43692.65567		 305.27265			43387.38302		69.17400		324.00000 
 43692.65567		 889.56308			42803.09259		228.94600		875.00000 
 43692.65567		 305.27265			43387.38302		69.17400		324.00000 
 43692.65567		 889.56308			42803.09259		228.94600		875.00000 
 43692.65567		 305.27265			43387.38302		69.17400		324.00000 
 43692.65567		 889.56308			42803.09259		228.94600		875.00000 
 43692.65567		 305.27265			43387.38302		69.17400		324.00000 
 43692.65567		 889.56308			42803.09259		228.94600		875.00000 
 43692.65567		 305.27265			43387.38302		69.17400		324.00000 
 43692.65567		 889.56308			42803.09259		229.54400		875.00000 
 43692.65567		 305.27265			43387.38302		69.17400		324.00000 
 43692.65567		 889.56308			42803.09259		229.54400		875.00000 
 43692.65567		 305.27265			43387.38302		69.17400		324.00000 
 43692.65567		 889.56308			42803.09259		229.54400		875.00000 
 43692.65567		 305.27265			43387.38302		69.17400		324.00000 
 43692.65567		 889.56308			42803.09259		229.54400		875.00000 
 43692.65567		 305.27265			43387.38302		69.17400		324.00000 
 43692.65567		 889.56308			42803.09259		229.54400		875.00000 
 43692.65567		 305.27265			43387.38302		69.17400		324.00000 
 43692.65567		 889.56308			42803.09259		229.54400		875.00000 
 43692.65567		 305.27265			43387.38302		69.17400		324.00000 
 43692.65567		 889.56308			42803.09259		229.54400		875.00000 
 43692.65567		 305.27265			43387.38302		69.17400		324.00000 
 43692.65567		 889.56308			42803.09259		229.54400		875.00000 
 43692.65567		 305.27265			43387.38302		69.17400		324.00000 
 43692.65567		 889.56308			42803.09259		229.54400		875.00000 
 43692.65567		 305.27265			43387.38302		69.17400		324.00000 
 43692.65567		 889.56308			42803.09259		229.54400		875.00000 
 43692.65567		 305.27265			43387.38302		69.17400		324.00000 
 43692.65567		 889.56308			42803.09259		229.54400		875.00000 
 43692.65567		 305.27265			43387.38302		69.17400		324.00000 
 43692.65567		 889.56308			42803.09259		229.54400		875.00000 
 43692.65567		 305.27265			43387.38302		69.17400		324.00000 
 43692.65567		 889.56308			42803.09259		229.54400		875.00000 
 43692.65567		 305.27265			43387.38302		69.17400		324.00000 
 43692.65567		 889.56308			42803.09259		229.54400		875.00000 
 43692.65567		 305.27265			43387.38302		69.17400		324.00000 
 43692.65567		 889.56308			42803.09259		229.54400		875.00000 
 43692.65567		 305.27265			43387.38302		69.17400		324.00000 
 43692.65567		 889.56308			42803.09259		229.54400		875.00000 
 43692.65567		 305.27265			43387.38302		69.17400		324.00000 
 43692.65567		 889.56308			42803.09259		229.54400		875.00000 
 43692.65567		 305.27265			43387.38302		69.17400		324.00000 
 43692.65567		 889.56308			42803.09259		229.54400		875.00000 
 43692.65567		 305.27265			43387.38302		69.17400		324.00000 
 43692.65567		 889.56308			42803.09259		229.54400		875.00000 
 43692.65567		 305.27265			43387.38302		69.17400		324.00000 
 43692.65567		 889.56308			42803.09259		229.54400		875.00000 
 43692.65567		 305.27265			43387.38302		69.17400		324.00000 
 43692.65567		 889.56308			42803.09259		229.54400		875.00000 
 43692.65567		 305.27265			43387.38302		69.17400		324.00000 
 43692.65567		 889.56308			42803.09259		229.54400		875.00000 
 43692.65567		 305.27265			43387.38302		69.17400		324.00000 
 43692.65567		 889.56308			42803.09259		229.54400		875.00000 
 43692.65567		 305.27265			43387.38302		69.17400		324.00000 
 43692.65567		 889.56308			42803.09259		229.54400		875.00000 
 43692.65567		 305.27265			43387.38302		69.17400		324.00000 
 43692.65567		 889.56308			42803.09259		229.54400		875.00000 
 43692.65567		 305.27265			43387.38302		69.17400		324.00000 
 43692.65567		 889.56308			42803.09259		229.54400		875.00000 
 43692.65567		 305.27265			43387.38302		69.17400		324.00000 
 43692.65567		 889.56308			42803.09259		229.54400		875.00000 
 43692.65567		 305.27265			43387.38302		69.17400		324.00000 
 43692.65567		 889.56308			42803.09259		229.54400		875.00000 
 43692.65567		 305.27265			43387.38302		69.17400		324.00000 
 43692.65567		 889.56308			42803.09259		229.54400		875.00000 
 43692.65567		 305.27265			43387.38302		69.17400		324.00000 
 43692.65567		 889.56308			42803.09259		229.54400		875.00000 
 43692.65567		 305.27265			43387.38302		69.17400		324.00000 
 43692.65567		 889.56308			42803.09259		229.54400		875.00000 
 43692.65567		 305.27265			43387.38302		69.17400		324.00000 
 43692.65567		 889.56308			42803.09259		229.54400		875.00000 
 43692.65567		 305.27265			43387.38302		69.17400		324.00000 
 43692.65567		 889.56308			42803.09259		229.54400		875.00000 
 43692.65567		 305.27265			43387.38302		69.17400		324.00000 
 43692.65567		 889.56308			42803.09259		229.54400		875.00000 
 43692.65567		 305.27265			43387.38302		69.17400		324.00000 
 43692.65567		 889.56308			42803.09259		229.54400		875.00000 
 43692.65567		 305.27265			43387.38302		69.17400		324.00000 
 43692.65567		 889.56308			42803.09259		229.54400		875.00000 
 43692.65567		 305.27265			43387.38302		69.17400		324.00000 
 43692.65567		 889.56308			42803.09259		229.54400		875.00000 
 43692.65567		 305.27265			43387.38302		69.17400		324.00000 
 43692.65567		 889.56308			42803.09259		229.54400		875.00000 
 43692.65567		 305.27265			43387.38302		69.17400		324.00000 
 43692.65567		 889.56308			42803.09259		229.54400		875.00000 
 43692.65567		 305.27265			43387.38302		69.17400		324.00000 
 43692.65567		 889.56308			42803.09259		229.54400		875.00000 
 43692.65567		 305.27265			43387.38302		69.17400		324.00000 
 43692.65567		 889.56308			42803.09259		229.54400		875.00000 
 43692.65567		 305.27265			43387.38302		69.17400		324.00000 
 43692.65567		 889.56308			42803.09259		229.54400		875.00000 
 43692.65567		 305.27265			43387.38302		69.17400		324.00000 
 43692.65567		 889.56308			42803.09259		229.54400		875.00000 
 43692.65567		 305.27265			43387.38302		69.17400		324.00000 
 43692.65567		 889.56308			42803.09259		229.54400		875.00000 
 43692.65567		 305.27265			43387.38302		69.17400		324.00000 
 43692.65567		 889.56308			42803.09259		229.54400		875.00000 
 43692.65567		 305.27265			43387.38302		69.17400		324.00000 
 43692.65567		 889.56308			42803.09259		229.54400		875.00000 
 43692.65567		 305.27265			43387.38302		69.17400		324.00000 
 43692.65567		 889.56308			42803.09259		229.54400		875.00000 
 43692.65567		 305.27265			43387.38302		69.17400		324.00000 
 43692.65567		 889.56308			42803.09259		229.54400		875.00000 
 43692.65567		 305.27265			43387.38302		69.17400		324.00000 
 43692.65567		 889.56308			42803.09259		229.54400		875.00000 
 43692.65567		 305.27265			43387.38302		69.17400		324.00000 
 43692.65567		 889.56308			42803.09259		229.54400		875.00000 
 43692.65567		 305.27265			43387.38302		69.17400		324.00000 
 43692.65567		 889.56308			42803.09259		229.54400		875.00000 
 43692.65567		 305.27265			43387.38302		69.17400		324.00000 
 43692.65567		 889.56308			42803.09259		229.54400		875.00000 
 43692.65567		 305.27265			43387.38302		69.17400		324.00000 
 43692.65567		 889.56308			42803.09259		229.54400		875.00000 
 43692.65567		 305.27265			43387.38302		69.17400		324.00000 
 43692.65567		 889.56308			42803.09259		229.54400		875.00000 
 43692.65567		 305.27265			43387.38302		69.17400		324.00000 
 43692.65567		 889.56308			42803.09259		229.54400		875.00000 
 43692.65567		 305.27265			43387.38302		69.17400		324.00000 
 43692.65567		 889.56308			42803.09259		229.54400		875.00000 
 43692.65567		 305.27265			43387.38302		69.17400		324.00000 
 43692.65567		 889.56308			42803.09259		229.54400		875.00000 
 43692.65567		 305.27265			43387.38302		69.17400		324.00000 
 43692.65567		 889.56308			42803.09259		229.54400		875.00000 
 43692.65567		 305.27265			43387.38302		69.17400		324.00000 
 43692.65567		 889.56308			42803.09259		229.54400		875.00000 
 43692.65567		 305.27265			43387.38302		69.17400		324.00000 
 43692.65567		 889.56308			42803.09259		229.54400		875.00000 
 43692.65567		 305.27265			43387.38302		69.17400		324.00000 
 43692.65567		 889.56308			42803.09259		229.54400		875.00000 
 43692.65567		 305.27265			43387.38302		69.17400		324.00000 
 43692.65567		 889.56308			42803.09259		229.54400		875.00000 
 43692.65567		 305.27265			43387.38302		69.17400		324.00000 
 43692.65567		 889.56308			42803.09259		229.54400		875.00000 
 43692.65567		 305.27265			43387.38302		69.17400		324.00000 
 43692.65567		 889.56308			42803.09259		229.54400		875.00000 
 43692.65567		 305.27265			43387.38302		69.17400		324.00000 
 43692.65567		 889.56308			42803.09259		228.94600		875.00000 
 43692.65567		 305.27265			43387.38302		69.17400		324.00000 
 43692.65567		 889.56308			42803.09259		228.94600		875.00000 
 43692.65567		 305.27265			43387.38302		69.17400		324.00000 
 43692.65567		 889.56308			42803.09259		228.94600		875.00000 
 43692.65567		 305.27265			43387.38302		69.17400		324.00000 
 43692.65567		 889.56308			42803.09259		228.94600		875.00000 
 43692.65567		 305.27265			43387.38302		69.17400		324.00000 
 43692.65567		 889.56308			42803.09259		228.94600		875.00000 
 43692.65567		 305.27265			43387.38302		69.17400		324.00000 
 43692.65567		 889.56308			42803.09259		228.94600		875.00000 
 43692.65567		 305.27265			43387.38302		69.17400		324.00000 
 43692.65567		 889.56308			42803.09259		228.94600		875.00000 
 43692.65567		 305.27265			43387.38302		69.17400		324.00000 
 43692.65567		 889.56308			42803.09259		228.94600		875.00000 
 43692.65567		 305.27265			43387.38302		69.17400		324.00000 
 43692.65567		 889.56308			42803.09259		228.94600		875.00000 
 43692.65567		 305.27265			43387.38302		69.17400		324.00000 
 43692.65567		 889.56308			42803.09259		228.94600		875.00000 
 43692.65567		 305.27265			43387.38302		69.17400		324.00000 
 43692.65567		 889.56308			42803.09259		228.94600		875.00000 
 43692.65567		 305.27265			43387.38302		69.17400		324.00000 
 43692.65567		 889.56308			42803.09259		228.94600		875.00000 
 43692.65567		 305.27265			43387.38302		69.17400		324.00000 
 43692.65567		 889.56308			42803.09259		228.94600		875.00000 
 43692.65567		 305.27265			43387.38302		69.17400		324.00000 
 43692.65567		 889.56308			42803.09259		228.94600		875.00000 
 43692.65567		 305.27265			43387.38302		69.17400		324.00000 
 43692.65567		 889.56308			42803.09259		228.94600		875.00000 
 43692.65567		 305.27265			43387.38302		69.17400		324.00000 
 43692.65567		 889.56308			42803.09259		228.94600		875.00000 
 43692.65567		 305.27265			43387.38302		69.17400		324.00000 
 43692.65567		 889.56308			42803.09259		228.94600		875.00000 
 43692.65567		 305.27265			43387.38302		69.17400		324.00000 
 43692.65567		 889.56308			42803.09259		228.94600		875.00000 
 43692.65567		 305.27265			43387.38302		69.17400		324.00000 
 43692.65567		 889.56308			42803.09259		228.94600		875.00000 
 43692.65567		 305.27265			43387.38302		69.17400		324.00000 
 43692.65567		 889.56308			42803.09259		228.94600		875.00000 
 43692.65567		 305.27265			43387.38302		69.17400		324.00000 
 43692.65567		 889.56308			42803.09259		228.94600		875.00000 
 43692.65567		 305.27265			43387.38302		69.17400		324.00000 
 43692.65567		 889.56308			42803.09259		228.94600		875.00000 
 43692.65567		 305.27265			43387.38302		69.17400		324.00000 
 43692.65567		 889.56308			42803.09259		228.94600		875.00000 
 43692.65567		 305.27265			43387.38302		69.17400		324.00000 
 43692.65567		 889.56308			42803.09259		228.94600		875.00000 
 43692.65567		 305.27265			43387.38302		69.17400		324.00000 
 43692.65567		 889.56308			42803.09259		228.94600		875.00000 
 43692.65567		 305.27265			43387.38302		69.17400		324.00000 
 43692.65567		 889.56308			42803.09259		228.94600		875.00000 
 43692.65567		 305.27265			43387.38302		69.17400		324.00000 
 43692.65567		 889.56308			42803.09259		228.94600		875.00000 
 43692.65567		 305.27265			43387.38302		69.17400		324.00000 
 43692.65567		 889.56308			42803.09259		228.94600		875.00000 
 43692.65567		 305.27265			43387.38302		69.17400		324.00000 
 43692.65567		 889.56308			42803.09259		228.94600		875.00000 
 43692.65567		 305.27265			43387.38302		69.17400		324.00000 
 43692.65567		 889.56308			42803.09259		228.94600		875.00000 
 43692.65567		 305.27265			43387.38302		69.17400		324.00000 
 43692.65567		 889.56308			42803.09259		228.94600		875.00000 
 43692.65567		 305.27265			43387.38302		69.17400		324.00000 
 43692.65567		 889.56308			42803.09259		228.94600		875.00000 
 43692.65567		 305.27265			43387.38302		69.17400		324.00000 
 43692.65567		 889.56308			42803.09259		228.94600		875.00000 
 43692.65567		 305.27265			43387.38302		69.17400		324.00000 
 43692.65567		 889.56308			42803.09259		228.94600		875.00000 
 43692.65567		 305.27265			43387.38302		69.17400		324.00000 
 43692.65567		 889.56308			42803.09259		228.94600		875.00000 
 43692.65567		 305.27265			43387.38302		69.17400		324.00000 
 43692.65567		 889.56308			42803.09259		228.94600		875.00000 
 43692.65567		 305.27265			43387.38302		69.17400		324.00000 
 43692.65567		 889.56308			42803.09259		228.94600		875.00000 
 43692.65567		 305.27265			43387.38302		69.17400		324.00000 
 43692.65567		 889.56308			42803.09259		228.94600		875.00000 
 43692.65567		 305.27265			43387.38302		69.17400		324.00000 
 43692.65567		 889.56308			42803.09259		228.94600		875.00000 
 43692.65567		 305.27265			43387.38302		69.17400		324.00000 
 43692.65567		 889.56308			42803.09259		228.94600		875.00000 
 43692.65567		 305.27265			43387.38302		69.17400		324.00000 
 43692.65567		 889.56308			42803.09259		228.94600		875.00000 
 43692.65567		 305.27265			43387.38302		69.17400		324.00000 
 43692.65567		 889.56308			42803.09259		228.94600		875.00000 
 43692.65567		 305.27265			43387.38302		69.17400		324.00000 
 43692.65567		 889.56308			42803.09259		228.94600		875.00000 
 43692.65567		 305.27265			43387.38302		69.17400		324.00000 
 43692.65567		 889.56308			42803.09259		228.94600		875.00000 
 43692.65567		 305.27265			43387.38302		69.17400		324.00000 
 43692.65567		 889.56308			42803.09259		228.94600		875.00000 
 43692.65567		 305.27265			43387.38302		69.17400		324.00000 
 43692.65567		 889.56308			42803.09259		228.94600		875.00000 
 43692.65567		 305.27265			43387.38302		69.17400		324.00000 
 43692.65567		 889.56308			42803.09259		228.94600		875.00000 
 43692.65567		 305.27265			43387.38302		69.17400		324.00000 
 43692.65567		 889.56308			42803.09259		228.94600		875.00000 
 43692.65567		 305.27265			43387.38302		69.17400		324.00000 
 43692.65567		 889.56308			42803.09259		228.94600		875.00000 
 43692.65567		 305.27265			43387.38302		69.17400		324.00000 
 43692.65567		 889.56308			42803.09259		228.94600		875.00000 
 43692.65567		 305.27265			43387.38302		69.17400		324.00000 
 43692.65567		 889.56308			42803.09259		228.94600		875.00000 
 43692.65567		 305.27265			43387.38302		69.17400		324.00000 
 43692.65567		 889.56308			42803.09259		228.94600		875.00000 
 43692.65567		 305.27265			43387.38302		69.17400		324.00000 
 43692.65567		 889.56308			42803.09259		228.94600		875.00000 
 43692.65567		 305.27265			43387.38302		69.17400		324.00000 
 43692.65567		 889.56308			42803.09259		228.94600		875.00000 
 43692.65567		 305.27265			43387.38302		69.17400		324.00000 
 43692.65567		 889.56308			42803.09259		228.94600		875.00000 
 43692.65567		 305.27265			43387.38302		69.17400		324.00000 
 43692.65567		 889.56308			42803.09259		228.94600		875.00000 
 43692.65567		 305.27265			43387.38302		69.17400		324.00000 
 43692.65567		 889.56308			42803.09259		228.94600		875.00000 
 43692.65567		 305.27265			43387.38302		69.17400		324.00000 
 43692.65567		 889.56308			42803.09259		228.94600		875.00000 
 43692.65567		 305.27265			43387.38302		69.17400		324.00000 
 43692.65567		 889.56308			42803.09259		228.94600		875.00000 
 43692.65567		 305.27265			43387.38302		69.17400		324.00000 
 43692.65567		 889.56308			42803.09259		228.94600		875.00000 
 43692.65567		 305.27265			43387.38302		69.17400		324.00000 
 43692.65567		 889.56308			42803.09259		228.94600		875.00000 
 43692.65567		 305.27265			43387.38302		69.17400		324.00000 
 43692.65567		 889.56308			42803.09259		228.94600		875.00000 
 43692.65567		 305.27265			43387.38302		69.17400		324.00000 
 43692.65567		 889.56308			42803.09259		228.94600		875.00000 
 43692.65567		 305.27265			43387.38302		69.17400		324.00000 
 43692.65567		 889.56308			42803.09259		228.94600		875.00000 
 43692.65567		 305.27265			43387.38302		69.17400		324.00000 
 43692.65567		 889.56308			42803.09259		228.94600		875.00000 
 43692.65567		 305.27265			43387.38302		69.17400		324.00000 
 43692.65567		 889.56308			42803.09259		228.94600		875.00000 
 43692.65567		 305.27265			43387.38302		69.17400		324.00000 
 43692.65567		 889.56308			42803.09259		228.94600		875.00000 
 43692.65567		 305.27265			43387.38302		69.17400		324.00000 
 43692.65567		 889.56308			42803.09259		228.94600		875.00000 
 43692.65567		 305.27265			43387.38302		69.17400		324.00000 
 43692.65567		 889.56308			42803.09259		228.94600		875.00000 
 43692.65567		 305.27265			43387.38302		69.17400		324.00000 
 43692.65567		 889.56308			42803.09259		228.94600		875.00000 
 43692.65567		 305.27265			43387.38302		69.17400		324.00000 
 43692.65567		 889.56308			42803.09259		228.94600		875.00000 
 43692.65567		 305.27265			43387.38302		69.17400		324.00000 
 43692.65567		 889.56308			42803.09259		228.94600		875.00000 
 43692.65567		 305.27265			43387.38302		69.17400		324.00000 
 43692.65567		 889.56308			42803.09259		228.94600		875.00000 
 43692.65567		 305.27265			43387.38302		69.17400		324.00000 
 43692.65567		 889.56308			42803.09259		228.94600		875.00000 
 43692.65567		 305.27265			43387.38302		69.17400		324.00000 
 43692.65567		 889.56308			42803.09259		228.94600		875.00000 
 43692.65567		 305.27265			43387.38302		69.17400		324.00000 
 43692.65567		 889.56308			42803.09259		228.94600		875.00000 
 43692.65567		 305.27265			43387.38302		69.17400		324.00000 
 43692.65567		 889.56308			42803.09259		228.94600		875.00000 
 43692.65567		 305.27265			43387.38302		69.17400		324.00000 
 43692.65567		 889.56308			42803.09259		228.94600		875.00000 
 43692.65567		 305.27265			43387.38302		69.17400		324.00000 
 43692.65567		 889.56308			42803.09259		228.94600		875.00000 
 43692.65567		 305.27265			43387.38302		69.17400		324.00000 
 43692.65567		 889.56308			42803.09259		228.94600		875.00000 
 43692.65567		 305.27265			43387.38302		69.17400		324.00000 
 43692.65567		 889.56308			42803.09259		228.94600		875.00000 
 43692.65567		 305.27265			43387.38302		69.17400		324.00000 
 43692.65567		 889.56308			42803.09259		228.94600		875.00000 
 43692.65567		 305.27265			43387.38302		69.17400		324.00000 
 43692.65567		 889.56308			42803.09259		228.94600		875.00000 
 43692.65567		 305.27265			43387.38302		69.17400		324.00000 
 43692.65567		 889.56308			42803.09259		228.94600		875.00000 
 43692.65567		 305.27265			43387.38302		69.17400		324.00000 
 43692.65567		 889.56308			42803.09259		228.94600		875.00000 
 43692.65567		 305.27265			43387.38302		69.17400		324.00000 
 43692.65567		 889.56308			42803.09259		228.94600		875.00000 
 43692.65567		 305.27265			43387.38302		69.17400		324.00000 
 43692.65567		 889.56308			42803.09259		228.94600		875.00000 
 43692.65567		 305.27265			43387.38302		69.17400		324.00000 
 43692.65567		 889.56308			42803.09259		228.94600		875.00000 
 43692.65567		 305.27265			43387.38302		69.17400		324.00000 
 43692.65567		 889.56308			42803.09259		228.94600		875.00000 
 43692.65567		 305.27265			43387.38302		69.17400		324.00000 
 43692.65567		 889.56308			42803.09259		228.94600		875.00000 
 43692.65567		 305.27265			43387.38302		69.17400		324.00000 
 43692.65567		 889.56308			42803.09259		228.94600		875.00000 
 43692.65567		 305.27265			43387.38302		69.17400		324.00000 
 43692.65567		 889.56308			42803.09259		228.94600		875.00000 
 43692.65567		 305.27265			43387.38302		69.17400		324.00000 
 43692.65567		 889.56308			42803.09259		228.94600		875.00000 
 43692.65567		 305.27265			43387.38302		69.17400		324.00000 
 43692.65567		 889.56308			42803.09259		228.94600		875.00000 
 43692.65567		 305.27265			43387.38302		69.17400		324.00000 
 43692.65567		 889.56308			42803.09259		228.94600		875.00000 
 43692.65567		 305.27265			43387.38302		69.17400		324.00000 
 43692.65567		 889.56308			42803.09259		228.94600		875.00000 
 43692.65567		 305.27265			43387.38302		69.17400		324.00000 
 43692.65567		 889.56308			42803.09259		228.94600		875.00000 
 43692.65567		 305.27265			43387.38302		69.17400		324.00000 
 43692.65567		 889.56308			42803.09259		228.94600		875.00000 
 43692.65567		 305.27265			43387.38302		69.17400		324.00000 
 43692.65567		 889.56308			42803.09259		228.94600		875.00000 
 43692.65567		 305.27265			43387.38302		69.17400		324.00000 
 43692.65567		 889.56308			42803.09259		228.94600		875.00000 
 43692.65567		 305.27265			43387.38302		69.17400		324.00000 
 43692.65567		 889.56308			42803.09259		228.94600		875.00000 
 43692.65567		 305.27265			43387.38302		69.17400		324.00000 
 43692.65567		 889.56308			42803.09259		228.94600		875.00000 
 43692.65567		 305.27265			43387.38302		69.17400		324.00000 
 43692.65567		 889.56308			42803.09259		228.94600		875.00000 
 43692.65567		 305.27265			43387.38302		69.17400		324.00000 
 43692.65567		 889.56308			42803.09259		228.94600		875.00000 
 43692.65567		 305.27265			43387.38302		69.17400		324.00000 
 43692.65567		 889.56308			42803.09259		228.94600		875.00000 
 43692.65567		 305.27265			43387.38302		69.17400		324.00000 
 43692.65567		 889.56308			42803.09259		228.94600		875.00000 
 43692.65567		 305.27265			43387.38302		69.17400		324.00000 
 43692.65567		 889.56308			42803.09259		228.94600		875.00000 
 43692.65567		 305.27265			43387.38302		69.17400		324.00000 
 43692.65567		 889.56308			42803.09259		228.94600		875.00000 
 43692.65567		 305.27265			43387.38302		69.17400		324.00000 
 43692.65567		 889.56308			42803.09259		228.94600		875.00000 
 43692.65567		 305.27265			43387.38302		69.17400		324.00000 
 43692.65567		 889.56308			42803.09259		228.94600		875.00000 
 43692.65567		 305.27265			43387.38302		69.17400		324.00000 
 43692.65567		 889.56308			42803.09259		228.94600		875.00000 
 43692.65567		 305.27265			43387.38302		69.17400		324.00000 
 43692.65567		 889.56308			42803.09259		228.94600		875.00000 
 43692.65567		 305.27265			43387.38302		69.17400		324.00000 
 43692.65567		 889.56308			42803.09259		228.94600		875.00000 
 43692.65567		 305.27265			43387.38302		69.17400		324.00000 
 43692.65567		 889.56308			42803.09259		228.94600		875.00000 
 43692.65567		 305.27265			43387.38302		69.17400		324.00000 
 43692.65567		 889.56308			42803.09259		228.94600		875.00000 
 43692.65567		 305.27265			43387.38302		69.17400		324.00000 
 43692.65567		 889.56308			42803.09259		228.94600		875.00000 
 43692.65567		 305.27265			43387.38302		69.17400		324.00000 
 43692.65567		 889.56308			42803.09259		228.94600		875.00000 
 43692.65567		 305.27265			43387.38302		69.17400		324.00000 
 43692.65567		 889.56308			42803.09259		228.94600		875.00000 
 43692.65567		 305.27265			43387.38302		69.17400		324.00000 
 43692.65567		 889.56308			42803.09259		228.94600		875.00000 
 43692.65567		 305.27265			43387.38302		69.17400		324.00000 
 43692.65567		 889.56308			42803.09259		228.94600		875.00000 
 43692.65567		 305.27265			43387.38302		69.17400		324.00000 
 43692.65567		 889.56308			42803.09259		228.94600		875.00000 
 43692.65567		 305.27265			43387.38302		69.17400		324.00000 
 43692.65567		 889.56308			42803.09259		228.94600		875.00000 
 43692.65567		 305.27265			43387.38302		69.17400		324.00000 
 43692.65567		 889.56308			42803.09259		228.94600		875.00000 
 43692.65567		 305.27265			43387.38302		69.17400		324.00000 
 43692.65567		 889.56308			42803.09259		228.94600		875.00000 
 43692.65567		 305.27265			43387.38302		69.17400		324.00000 
 43692.65567		 889.56308			42803.09259		228.94600		875.00000 
 43692.65567		 305.27265			43387.38302		69.17400		324.00000 
 43692.65567		 889.56308			42803.09259		228.94600		875.00000 
 43692.65567		 305.27265			43387.38302		69.17400		324.00000 
 43692.65567		 889.56308			42803.09259		228.94600		875.00000 
 43692.65567		 305.27265			43387.38302		69.17400		324.00000 
 43692.65567		 889.56308			42803.09259		228.94600		875.00000 
 43692.65567		 305.27265			43387.38302		69.17400		324.00000 
 43692.65567		 889.56308			42803.09259		228.94600		875.00000 
 43692.65567		 305.27265			43387.38302		69.17400		324.00000 
 43692.65567		 889.56308			42803.09259		228.94600		875.00000 
 43692.65567		 305.27265			43387.38302		69.17400		324.00000 
 43692.65567		 889.56308			42803.09259		228.94600		875.00000 
 43692.65567		 305.27265			43387.38302		69.17400		324.00000 
 43692.65567		 889.56308			42803.09259		228.94600		875.00000 
 43692.65567		 305.27265			43387.38302		69.17400		324.00000 
 43692.65567		 889.56308			42803.09259		228.94600		875.00000 
 43692.65567		 305.27265			43387.38302		69.17400		324.00000 
 43692.65567		 889.56308			42803.09259		228.94600		875.00000 
 43692.65567		 305.27265			43387.38302		69.17400		324.00000 
 43692.65567		 889.56308			42803.09259		228.94600		875.00000 
 43692.65567		 305.27265			43387.38302		69.17400		324.00000 
 43692.65567		 889.56308			42803.09259		228.94600		875.00000 
 43692.65567		 305.27265			43387.38302		69.17400		324.00000 
 43692.65567		 889.56308			42803.09259		228.94600		875.00000 
 43692.65567		 305.27265			43387.38302		69.17400		324.00000 
 43692.65567		 889.56308			42803.09259		228.94600		875.00000 
 43692.65567		 305.27265			43387.38302		69.17400		324.00000 
 43692.65567		 889.56308			42803.09259		228.94600		875.00000 
 43692.65567		 305.27265			43387.38302		69.17400		324.00000 
 43692.65567		 889.56308			42803.09259		228.94600		875.00000 
 43692.65567		 305.27265			43387.38302		69.17400		324.00000 
 43692.65567		 889.56308			42803.09259		228.94600		875.00000 
 43692.65567		 305.27265			43387.38302		69.17400		324.00000 
 43692.65567		 889.56308			42803.09259		228.94600		875.00000 
 43692.65567		 305.27265			43387.38302		69.17400		324.00000 
 43692.65567		 889.56308			42803.09259		228.94600		875.00000 
 43692.65567		 305.27265			43387.38302		69.17400		324.00000 
 43692.65567		 889.56308			42803.09259		228.94600		875.00000 
 43692.65567		 305.27265			43387.38302		69.17400		324.00000 
 43692.65567		 889.56308			42803.09259		228.94600		875.00000 
 43692.65567		 305.27265			43387.38302		69.17400		324.00000 
 43692.65567		 889.56308			42803.09259		228.94600		875.00000 
 43692.65567		 305.27265			43387.38302		69.17400		324.00000 
 43692.65567		 889.56308			42803.09259		228.94600		875.00000 
 43692.65567		 305.27265			43387.38302		69.17400		324.00000 
 43692.65567		 889.56308			42803.09259		228.94600		875.00000 
 43692.65567		 305.27265			43387.38302		69.17400		324.00000 
 43692.65567		 889.56308			42803.09259		228.94600		875.00000 
 43692.65567		 305.27265			43387.38302		69.17400		324.00000 
 43692.65567		 889.56308			42803.09259		228.94600		875.00000 
 43692.65567		 305.27265			43387.38302		69.17400		324.00000 
 43692.65567		 889.56308			42803.09259		228.94600		875.00000 
 43692.65567		 305.27265			43387.38302		69.17400		324.00000 
 43692.65567		 889.56308			42803.09259		228.94600		875.00000 
 43692.65567		 305.27265			43387.38302		69.17400		324.00000 
 43692.65567		 889.56308			42803.09259		228.94600		875.00000 
 43692.65567		 305.27265			43387.38302		69.17400		324.00000 
 43692.65567		 889.56308			42803.09259		228.94600		875.00000 
 43692.65567		 305.27265			43387.38302		69.17400		324.00000 
 43692.65567		 889.56308			42803.09259		228.94600		875.00000 
 43692.65567		 305.27265			43387.38302		69.17400		324.00000 
 43692.65567		 889.56308			42803.09259		228.94600		875.00000 
 43692.65567		 305.27265			43387.38302		69.17400		324.00000 
 43692.65567		 889.56308			42803.09259		228.94600		875.00000 
 43692.65567		 305.27265			43387.38302		69.17400		324.00000 
 43692.65567		 889.56308			42803.09259		228.94600		875.00000 
 43692.65567		 305.27265			43387.38302		69.17400		324.00000 
 43692.65567		 889.56308			42803.09259		228.94600		875.00000 
 43692.65567		 305.27265			43387.38302		69.17400		324.00000 
 43692.65567		 889.56308			42803.09259		228.94600		875.00000 
 43692.65567		 305.27265			43387.38302		69.17400		324.00000 
 43692.65567		 889.56308			42803.09259		228.94600		875.00000 
 43692.65567		 305.27265			43387.38302		69.17400		324.00000 
 43692.65567		 889.56308			42803.09259		228.94600		875.00000 
 43692.65567		 305.27265			43387.38302		69.17400		324.00000 
 43692.65567		 889.56308			42803.09259		228.94600		875.00000 
 43692.65567		 305.27265			43387.38302		69.17400		324.00000 
 43692.65567		 889.56308			42803.09259		228.94600		875.00000 
 43692.65567		 305.27265			43387.38302		69.17400		324.00000 
 43692.65567		 889.56308			42803.09259		228.94600		875.00000 
 43692.65567		 305.27265			43387.38302		69.17400		324.00000 
 43692.65567		 889.56308			42803.09259		228.94600		875.00000 
 43692.65567		 305.27265			43387.38302		69.17400		324.00000 
 43692.65567		 889.56308			42803.09259		228.94600		875.00000 
 43692.65567		 305.27265			43387.38302		69.17400		324.00000 
 43692.65567		 889.56308			42803.09259		228.94600		875.00000 
 43692.65567		 305.27265			43387.38302		69.17400		324.00000 
 43692.65567		 889.56308			42803.09259		228.94600		875.00000 
 43692.65567		 305.27265			43387.38302		69.17400		324.00000 
 43692.65567		 889.56308			42803.09259		228.94600		875.00000 
 43692.65567		 305.27265			43387.38302		69.17400		324.00000 
 43692.65567		 889.56308			42803.09259		228.94600		875.00000 
 43692.65567		 305.27265			43387.38302		69.17400		324.00000 
 43692.65567		 889.56308			42803.09259		228.94600		875.00000 
 43692.65567		 305.27265			43387.38302		69.17400		324.00000 
 43692.65567		 889.56308			42803.09259		228.94600		875.00000 
 43692.65567		 305.27265			43387.38302		69.17400		324.00000 
 43692.65567		 889.56308			42803.09259		228.94600		875.00000 
 43692.65567		 305.27265			43387.38302		69.17400		324.00000 
 43692.65567		 889.56308			42803.09259		228.94600		875.00000 
 43692.65567		 305.27265			43387.38302		69.17400		324.00000 
 43692.65567		 889.56308			42803.09259		228.94600		875.00000 
 43692.65567		 305.27265			43387.38302		69.17400		324.00000 
 43692.65567		 889.56308			42803.09259		228.94600		875.00000 
 43692.65567		 305.27265			43387.38302		69.17400		324.00000 
 43692.65567		 889.56308			42803.09259		228.94600		875.00000 
 43692.65567		 305.27265			43387.38302		69.17400		324.00000 
 43692.65567		 889.56308			42803.09259		228.94600		875.00000 
 43692.65567		 305.27265			43387.38302		69.17400		324.00000 
 43692.65567		 889.56308			42803.09259		228.94600		875.00000 
 43692.65567		 305.27265			43387.38302		69.17400		324.00000 
 43692.65567		 889.56308			42803.09259		228.94600		875.00000 
 43692.65567		 305.27265			43387.38302		69.17400		324.00000 
 43692.65567		 889.56308			42803.09259		228.94600		875.00000 
 43692.65567		 305.27265			43387.38302		69.17400		324.00000 
 43692.65567		 889.56308			42803.09259		228.94600		875.00000 
 43692.65567		 305.27265			43387.38302		69.17400		324.00000 
 43692.65567		 889.56308			42803.09259		228.94600		875.00000 
 43692.65567		 305.27265			43387.38302		69.17400		324.00000 
 43692.65567		 889.56308			42803.09259		228.94600		875.00000 
 43692.65567		 305.27265			43387.38302		69.17400		324.00000 
 43692.65567		 889.56308			42803.09259		228.94600		875.00000 
 43692.65567		 305.27265			43387.38302		69.17400		324.00000 
 43692.65567		 889.56308			42803.09259		228.94600		875.00000 
 43692.65567		 305.27265			43387.38302		69.17400		324.00000 
 43692.65567		 889.56308			42803.09259		228.94600		875.00000 
 43692.65567		 305.27265			43387.38302		69.17400		324.00000 
 43692.65567		 889.56308			42803.09259		228.94600		875.00000 
 43692.65567		 305.27265			43387.38302		69.17400		324.00000 
 43692.65567		 889.56308			42803.09259		228.94600		875.00000 
 43692.65567		 305.27265			43387.38302		70.72000		324.00000 
 43692.65567		 889.56308			42803.09259		228.94600		875.00000 
 43692.65567		 305.27265			43387.38302		70.72000		324.00000 
 43692.65567		 889.56308			42803.09259		228.94600		875.00000 
 43692.65567		 305.27265			43387.38302		70.72000		324.00000 
 43692.65567		 889.56308			42803.09259		228.94600		875.00000 
 43692.65567		 305.27265			43387.38302		70.72000		324.00000 
 43692.65567		 889.56308			42803.09259		228.94600		875.00000 
 43692.65567		 305.27265			43387.38302		70.72000		324.00000 
 43692.65567		 889.56308			42803.09259		228.94600		875.00000 
 43692.65567		 305.27265			43387.38302		70.72000		324.00000 
 43692.65567		 889.56308			42803.09259		228.94600		875.00000 
 43692.65567		 305.27265			43387.38302		70.72000		324.00000 
 43692.65567		 889.56308			42803.09259		228.94600		875.00000 
 43692.65567		 305.27265			43387.38302		70.72000		324.00000 
 43692.65567		 889.56308			42803.09259		228.94600		875.00000 
 43692.65567		 305.27265			43387.38302		70.72000		324.00000 
 43692.65567		 889.56308			42803.09259		228.94600		875.00000 
 43692.65567		 305.27265			43387.38302		70.72000		324.00000 
 43692.65567		 889.56308			42803.09259		228.94600		875.00000 
 43692.65567		 305.27265			43387.38302		70.72000		324.00000 
 43692.65567		 889.56308			42803.09259		228.94600		875.00000 
 43692.65567		 305.27265			43387.38302		70.72000		324.00000 
 43692.65567		 889.56308			42803.09259		228.94600		875.00000 
 43692.65567		 305.27265			43387.38302		70.72000		324.00000 
 43692.65567		 889.56308			42803.09259		228.94600		875.00000 
 43692.65567		 305.27265			43387.38302		70.72000		324.00000 
 43692.65567		 889.56308			42803.09259		228.94600		875.00000 
 43692.65567		 305.27265			43387.38302		70.72000		324.00000 
 43692.65567		 889.56308			42803.09259		228.94600		875.00000 
 43692.65567		 305.27265			43387.38302		70.72000		324.00000 
 43692.65567		 889.56308			42803.09259		228.94600		875.00000 
 43692.65567		 305.27265			43387.38302		70.72000		324.00000 
 43692.65567		 889.56308			42803.09259		228.94600		875.00000 
 43692.65567		 305.27265			43387.38302		70.72000		324.00000 
 43692.65567		 889.56308			42803.09259		228.94600		875.00000 
 43692.65567		 305.27265			43387.38302		70.72000		324.00000 
 43692.65567		 889.56308			42803.09259		228.94600		875.00000 
 43692.65567		 305.27265			43387.38302		70.72000		324.00000 
 43692.65567		 889.56308			42803.09259		228.94600		875.00000 
 43692.65567		 305.27265			43387.38302		70.72000		324.00000 
 43692.65567		 889.56308			42803.09259		228.94600		875.00000 
 43692.65567		 305.27265			43387.38302		70.72000		324.00000 
 43692.65567		 889.56308			42803.09259		228.94600		875.00000 
 43692.65567		 305.27265			43387.38302		70.72000		324.00000 
 43692.65567		 889.56308			42803.09259		228.94600		875.00000 
 43692.65567		 305.27265			43387.38302		70.72000		324.00000 
 43692.65567		 889.56308			42803.09259		228.94600		875.00000 
 43692.65567		 305.27265			43387.38302		70.72000		324.00000 
 43692.65567		 889.56308			42803.09259		228.94600		875.00000 
 43692.65567		 305.27265			43387.38302		70.72000		324.00000 
 43692.65567		 889.56308			42803.09259		228.94600		875.00000 
 43692.65567		 305.27265			43387.38302		70.72000		324.00000 
 43692.65567		 889.56308			42803.09259		228.94600		875.00000 
 43692.65567		 305.27265			43387.38302		70.72000		324.00000 
 43692.65567		 889.56308			42803.09259		228.94600		875.00000 
 43692.65567		 305.27265			43387.38302		70.72000		324.00000 
 43692.65567		 889.56308			42803.09259		228.94600		875.00000 
 43692.65567		 305.27265			43387.38302		70.72000		324.00000 
 43692.65567		 889.56308			42803.09259		228.94600		875.00000 
 43692.65567		 305.27265			43387.38302		70.72000		324.00000 
 43692.65567		 889.56308			42803.09259		228.94600		875.00000 
 43692.65567		 305.27265			43387.38302		70.72000		324.00000 
 43692.65567		 889.56308			42803.09259		228.94600		875.00000 
 43692.65567		 305.27265			43387.38302		70.72000		324.00000 
 43692.65567		 889.56308			42803.09259		228.94600		875.00000 
 43692.65567		 305.27265			43387.38302		70.72000		324.00000 
 43692.65567		 889.56308			42803.09259		228.94600		875.00000 
 43692.65567		 305.27265			43387.38302		70.72000		324.00000 
 43692.65567		 889.56308			42803.09259		228.94600		875.00000 
 43692.65567		 305.27265			43387.38302		70.72000		324.00000 
 43692.65567		 889.56308			42803.09259		228.94600		875.00000 
 43692.65567		 305.27265			43387.38302		70.72000		324.00000 
 43692.65567		 889.56308			42803.09259		228.94600		875.00000 
 43692.65567		 305.27265			43387.38302		70.72000		324.00000 
 43692.65567		 889.56308			42803.09259		228.94600		875.00000 
 43692.65567		 305.27265			43387.38302		70.72000		324.00000 
 43692.65567		 889.56308			42803.09259		228.94600		875.00000 
 43692.65567		 305.27265			43387.38302		70.72000		324.00000 
 43692.65567		 889.56308			42803.09259		228.94600		875.00000 
 43692.65567		 305.27265			43387.38302		70.72000		324.00000 
 43692.65567		 889.56308			42803.09259		228.94600		875.00000 
 43692.65567		 305.27265			43387.38302		70.72000		324.00000 
 43692.65567		 889.56308			42803.09259		228.94600		875.00000 
 43692.65567		 305.27265			43387.38302		70.72000		324.00000 
 43692.65567		 889.56308			42803.09259		228.94600		875.00000 
 43692.65567		 305.27265			43387.38302		70.72000		324.00000 
 43692.65567		 889.56308			42803.09259		228.94600		875.00000 
 43692.65567		 305.27265			43387.38302		70.72000		324.00000 
 43692.65567		 889.56308			42803.09259		228.94600		875.00000 
 43692.65567		 305.27265			43387.38302		70.72000		324.00000 
 43692.65567		 889.56308			42803.09259		228.94600		875.00000 
 43692.65567		 305.27265			43387.38302		70.72000		324.00000 
 43692.65567		 889.56308			42803.09259		228.94600		875.00000 
 43692.65567		 305.27265			43387.38302		70.72000		324.00000 
 43692.65567		 889.56308			42803.09259		228.94600		875.00000 
 43692.65567		 305.27265			43387.38302		70.72000		324.00000 
 43692.65567		 889.56308			42803.09259		228.94600		875.00000 
 43692.65567		 305.27265			43387.38302		70.72000		324.00000 
 43692.65567		 889.56308			42803.09259		228.94600		875.00000 
 43692.65567		 305.27265			43387.38302		70.72000		324.00000 
 43692.65567		 889.56308			42803.09259		228.94600		875.00000 
 43692.65567		 305.27265			43387.38302		70.72000		324.00000 
 43692.65567		 889.56308			42803.09259		228.94600		875.00000 
 43692.65567		 305.27265			43387.38302		70.72000		324.00000 
 43692.65567		 889.56308			42803.09259		228.94600		875.00000 
 43692.65567		 305.27265			43387.38302		70.72000		324.00000 
 43692.65567		 889.56308			42803.09259		228.94600		875.00000 
 43692.65567		 305.27265			43387.38302		70.72000		324.00000 
 43692.65567		 889.56308			42803.09259		228.94600		875.00000 
 43692.65567		 305.27265			43387.38302		70.72000		324.00000 
 43692.65567		 889.56308			42803.09259		228.94600		875.00000 
 43692.65567		 305.27265			43387.38302		70.72000		324.00000 
 43692.65567		 889.56308			42803.09259		228.94600		875.00000 
 43692.65567		 305.27265			43387.38302		70.72000		324.00000 
 43692.65567		 889.56308			42803.09259		228.94600		875.00000 
 43692.65567		 305.27265			43387.38302		70.72000		324.00000 
 43692.65567		 889.56308			42803.09259		228.94600		875.00000 
 43692.65567		 305.27265			43387.38302		70.72000		324.00000 
 43692.65567		 889.56308			42803.09259		228.94600		875.00000 
 43692.65567		 305.27265			43387.38302		70.72000		324.00000 
 43692.65567		 889.56308			42803.09259		228.94600		875.00000 
 43692.65567		 305.27265			43387.38302		70.72000		324.00000 
 43692.65567		 889.56308			42803.09259		228.94600		875.00000 
 43692.65567		 305.27265			43387.38302		70.72000		324.00000 
 43692.65567		 889.56308			42803.09259		228.94600		875.00000 
 43692.65567		 305.27265			43387.38302		70.72000		324.00000 
 43692.65567		 889.56308			42803.09259		228.94600		875.00000 
 43692.65567		 305.27265			43387.38302		70.72000		324.00000 
 43692.65567		 889.56308			42803.09259		228.94600		875.00000 
 43692.65567		 305.27265			43387.38302		70.72000		324.00000 
 43692.65567		 889.56308			42803.09259		228.94600		875.00000 
 43692.65567		 305.27265			43387.38302		70.72000		324.00000 
 43692.65567		 889.56308			42803.09259		228.94600		875.00000 
 43692.65567		 305.27265			43387.38302		70.72000		324.00000 
 43692.65567		 889.56308			42803.09259		228.94600		875.00000 
 43692.65567		 305.27265			43387.38302		70.72000		324.00000 
 43692.65567		 889.56308			42803.09259		228.94600		875.00000 
 43692.65567		 305.27265			43387.38302		70.72000		324.00000 
 43692.65567		 889.56308			42803.09259		228.94600		875.00000 
 43692.65567		 305.27265			43387.38302		70.72000		324.00000 
 43692.65567		 889.56308			42803.09259		228.94600		875.00000 
 43692.65567		 305.27265			43387.38302		70.72000		324.00000 
 43692.65567		 889.56308			42803.09259		228.94600		875.00000 
 43692.65567		 305.27265			43387.38302		70.72000		324.00000 
 43692.65567		 889.56308			42803.09259		228.94600		875.00000 
 43692.65567		 305.27265			43387.38302		70.72000		324.00000 
 43692.65567		 889.56308			42803.09259		228.94600		875.00000 
 43692.65567		 305.27265			43387.38302		70.72000		324.00000 
 43692.65567		 889.56308			42803.09259		228.94600		875.00000 
 43692.65567		 305.27265			43387.38302		70.72000		324.00000 
 43692.65567		 889.56308			42803.09259		228.94600		875.00000 
 43692.65567		 305.27265			43387.38302		70.72000		324.00000 
 43692.65567		 889.56308			42803.09259		228.94600		875.00000 
 43692.65567		 305.27265			43387.38302		70.72000		324.00000 
 43692.65567		 889.56308			42803.09259		228.94600		875.00000 
 43692.65567		 305.27265			43387.38302		70.72000		324.00000 
 43692.65567		 889.56308			42803.09259		228.94600		875.00000 
 43692.65567		 305.27265			43387.38302		70.72000		324.00000 
 43692.65567		 889.56308			42803.09259		228.94600		875.00000 
 43692.65567		 305.27265			43387.38302		70.72000		324.00000 
 43692.65567		 889.56308			42803.09259		228.94600		875.00000 
 43692.65567		 305.27265			43387.38302		70.72000		324.00000 
 43692.65567		 889.56308			42803.09259		228.94600		875.00000 
 43692.65567		 305.27265			43387.38302		70.72000		324.00000 
 43692.65567		 889.56308			42803.09259		228.94600		875.00000 
 43692.65567		 305.27265			43387.38302		70.72000		324.00000 
 43692.65567		 889.56308			42803.09259		228.94600		875.00000 
 43692.65567		 305.27265			43387.38302		70.72000		324.00000 
 43692.65567		 889.56308			42803.09259		228.94600		875.00000 
 43692.65567		 305.27265			43387.38302		70.72000		324.00000 
 43692.65567		 889.56308			42803.09259		228.94600		875.00000 
 43692.65567		 305.27265			43387.38302		70.72000		324.00000 
 43692.65567		 889.56308			42803.09259		228.94600		875.00000 
 43692.65567		 305.27265			43387.38302		70.72000		324.00000 
 43692.65567		 889.56308			42803.09259		228.94600		875.00000 
 43692.65567		 305.27265			43387.38302		70.72000		324.00000 
 43692.65567		 889.56308			42803.09259		228.94600		875.00000 
 43692.65567		 305.27265			43387.38302		70.72000		324.00000 
 43692.65567		 889.56308			42803.09259		228.94600		875.00000 
 43692.65567		 305.27265			43387.38302		70.72000		324.00000 
 43692.65567		 889.56308			42803.09259		228.94600		875.00000 
 43692.65567		 305.27265			43387.38302		70.72000		324.00000 
 43692.65567		 889.56308			42803.09259		228.94600		875.00000 
 43692.65567		 305.27265			43387.38302		70.72000		324.00000 
 43692.65567		 889.56308			42803.09259		228.94600		875.00000 
 43692.65567		 305.27265			43387.38302		70.72000		324.00000 
 43692.65567		 889.56308			42803.09259		228.94600		875.00000 
 43692.65567		 305.27265			43387.38302		70.72000		324.00000 
 43692.65567		 889.56308			42803.09259		228.94600		875.00000 
 43692.65567		 305.27265			43387.38302		70.72000		324.00000 
 43692.65567		 889.56308			42803.09259		228.94600		875.00000 
 43692.65567		 305.27265			43387.38302		70.72000		324.00000 
 43692.65567		 889.56308			42803.09259		228.94600		875.00000 
 43692.65567		 305.27265			43387.38302		70.72000		324.00000 
 43692.65567		 889.56308			42803.09259		228.94600		875.00000 
 43692.65567		 305.27265			43387.38302		70.72000		324.00000 
 43692.65567		 889.56308			42803.09259		228.94600		875.00000 
 43692.65567		 305.27265			43387.38302		70.72000		324.00000 
 43692.65567		 889.56308			42803.09259		228.94600		875.00000 
 43692.65567		 305.27265			43387.38302		70.72000		324.00000 
 43692.65567		 889.56308			42803.09259		228.94600		875.00000 
 43692.65567		 305.27265			43387.38302		70.72000		324.00000 
 43692.65567		 889.56308			42803.09259		228.94600		875.00000 
 43692.65567		 305.27265			43387.38302		70.72000		324.00000 
 43692.65567		 889.56308			42803.09259		228.94600		875.00000 
 43692.65567		 305.27265			43387.38302		70.72000		324.00000 
 43692.65567		 889.56308			42803.09259		228.94600		875.00000 
 43692.65567		 305.27265			43387.38302		70.72000		324.00000 
 43692.65567		 889.56308			42803.09259		228.94600		875.00000 
 43692.65567		 305.27265			43387.38302		70.72000		324.00000 
 43692.65567		 889.56308			42803.09259		228.94600		875.00000 
 43692.65567		 305.27265			43387.38302		70.72000		324.00000 
 43692.65567		 889.56308			42803.09259		228.94600		875.00000 
 43692.65567		 305.27265			43387.38302		70.72000		324.00000 
 43692.65567		 889.56308			42803.09259		228.94600		875.00000 
 43692.65567		 305.27265			43387.38302		70.72000		324.00000 
 43692.65567		 889.56308			42803.09259		228.94600		875.00000 
 43692.65567		 305.27265			43387.38302		70.72000		324.00000 
 43692.65567		 889.56308			42803.09259		228.94600		875.00000 
 43692.65567		 305.27265			43387.38302		70.72000		324.00000 
 43692.65567		 889.56308			42803.09259		228.94600		875.00000 
 43692.65567		 305.27265			43387.38302		70.72000		324.00000 
 43692.65567		 889.56308			42803.09259		228.94600		875.00000 
 43692.65567		 305.27265			43387.38302		70.72000		324.00000 
 43692.65567		 889.56308			42803.09259		228.94600		875.00000 
 43692.65567		 305.27265			43387.38302		70.72000		324.00000 
 43692.65567		 889.56308			42803.09259		228.94600		875.00000 
 43692.65567		 305.27265			43387.38302		70.72000		324.00000 
 43692.65567		 889.56308			42803.09259		228.94600		875.00000 
 43692.65567		 305.27265			43387.38302		70.72000		324.00000 
 43692.65567		 889.56308			42803.09259		228.94600		875.00000 
 43692.65567		 305.27265			43387.38302		70.72000		324.00000 
 43692.65567		 889.56308			42803.09259		228.94600		875.00000 
 43692.65567		 305.27265			43387.38302		70.72000		324.00000 
 43692.65567		 889.56308			42803.09259		228.94600		875.00000 
 43692.65567		 305.27265			43387.38302		70.72000		324.00000 
 43692.65567		 889.56308			42803.09259		228.94600		875.00000 
 43692.65567		 305.27265			43387.38302		70.72000		324.00000 
 43692.65567		 889.56308			42803.09259		228.94600		875.00000 
 43692.65567		 305.27265			43387.38302		70.72000		324.00000 
 43692.65567		 889.56308			42803.09259		228.94600		875.00000 
 43692.65567		 305.27265			43387.38302		70.72000		324.00000 
 43692.65567		 889.56308			42803.09259		228.94600		875.00000 
 43692.65567		 305.27265			43387.38302		70.72000		324.00000 
 43692.65567		 889.56308			42803.09259		228.94600		875.00000 
 43692.65567		 305.27265			43387.38302		70.72000		324.00000 
 43692.65567		 889.56308			42803.09259		228.94600		875.00000 
 43692.65567		 305.27265			43387.38302		70.72000		324.00000 
 43692.65567		 889.56308			42803.09259		228.94600		875.00000 
 43692.65567		 305.27265			43387.38302		70.72000		324.00000 
 43692.65567		 889.56308			42803.09259		228.94600		875.00000 
 43692.65567		 305.27265			43387.38302		70.72000		324.00000 
 43692.65567		 889.56308			42803.09259		228.94600		875.00000 
 43692.65567		 305.27265			43387.38302		70.72000		324.00000 
 43692.65567		 889.56308			42803.09259		228.94600		875.00000 
 43692.65567		 305.27265			43387.38302		70.72000		324.00000 
 43692.65567		 889.56308			42803.09259		228.94600		875.00000 
 43692.65567		 305.27265			43387.38302		70.72000		324.00000 
 43692.65567		 889.56308			42803.09259		228.94600		875.00000 
 43692.65567		 305.27265			43387.38302		70.72000		324.00000 
 43692.65567		 889.56308			42803.09259		228.94600		875.00000 
 43692.65567		 305.27265			43387.38302		70.72000		324.00000 
 43692.65567		 889.56308			42803.09259		228.94600		875.00000 
 43692.65567		 305.27265			43387.38302		70.72000		324.00000 
 43692.65567		 889.56308			42803.09259		228.94600		875.00000 
 43692.65567		 305.27265			43387.38302		70.72000		324.00000 
 43692.65567		 889.56308			42803.09259		228.94600		875.00000 
 43692.65567		 305.27265			43387.38302		70.72000		324.00000 
 43692.65567		 889.56308			42803.09259		228.94600		875.00000 
 43692.65567		 305.27265			43387.38302		70.72000		324.00000 
 43692.65567		 889.56308			42803.09259		228.94600		875.00000 
 43692.65567		 305.27265			43387.38302		70.72000		324.00000 
 43692.65567		 889.56308			42803.09259		228.94600		875.00000 
 43692.65567		 305.27265			43387.38302		70.72000		324.00000 
 43692.65567		 889.56308			42803.09259		228.94600		875.00000 
 43692.65567		 305.27265			43387.38302		70.72000		324.00000 
 43692.65567		 889.56308			42803.09259		228.94600		875.00000 
 43692.65567		 305.27265			43387.38302		70.72000		324.00000 
 43692.65567		 889.56308			42803.09259		228.94600		875.00000 
 43692.65567		 305.27265			43387.38302		70.72000		324.00000 
 43692.65567		 889.56308			42803.09259		228.94600		875.00000 
 43692.65567		 305.27265			43387.38302		70.72000		324.00000 
 43692.65567		 889.56308			42803.09259		228.94600		875.00000 
 43692.65567		 305.27265			43387.38302		70.72000		324.00000 
 43692.65567		 889.56308			42803.09259		228.94600		875.00000 
 43692.65567		 305.27265			43387.38302		70.72000		324.00000 
 43692.65567		 889.56308			42803.09259		228.94600		875.00000 
 43692.65567		 305.27265			43387.38302		70.72000		324.00000 
 43692.65567		 889.56308			42803.09259		228.94600		875.00000 
 43692.65567		 305.27265			43387.38302		70.72000		324.00000 
 43692.65567		 889.56308			42803.09259		228.94600		875.00000 
 43692.65567		 305.27265			43387.38302		70.72000		324.00000 
 43692.65567		 889.56308			42803.09259		228.94600		875.00000 
 43692.65567		 305.27265			43387.38302		70.72000		324.00000 
 43692.65567		 889.56308			42803.09259		228.94600		875.00000 
 43692.65567		 305.27265			43387.38302		70.72000		324.00000 
 43692.65567		 889.56308			42803.09259		228.94600		875.00000 
 43692.65567		 305.27265			43387.38302		70.72000		324.00000 
 43692.65567		 889.56308			42803.09259		228.94600		875.00000 
 43692.65567		 305.27265			43387.38302		70.72000		324.00000 
 43692.65567		 889.56308			42803.09259		228.94600		875.00000 
 43692.65567		 305.27265			43387.38302		70.72000		324.00000 
 43692.65567		 889.56308			42803.09259		228.94600		875.00000 
 43692.65567		 305.27265			43387.38302		70.72000		324.00000 
 43692.65567		 889.56308			42803.09259		228.94600		875.00000 
 43692.65567		 305.27265			43387.38302		70.72000		324.00000 
 43692.65567		 889.56308			42803.09259		228.94600		875.00000 
 43692.65567		 305.27265			43387.38302		70.72000		324.00000 
 43692.65567		 889.56308			42803.09259		228.94600		875.00000 
 43692.65567		 305.27265			43387.38302		70.72000		324.00000 
 43692.65567		 889.56308			42803.09259		228.94600		875.00000 
 43692.65567		 305.27265			43387.38302		70.72000		324.00000 
 43692.65567		 889.56308			42803.09259		228.94600		875.00000 
 43692.65567		 305.27265			43387.38302		70.72000		324.00000 
 43692.65567		 889.56308			42803.09259		228.94600		875.00000 
 43692.65567		 305.27265			43387.38302		70.72000		324.00000 
 43692.65567		 889.56308			42803.09259		228.94600		875.00000 
 43692.65567		 305.27265			43387.38302		70.72000		324.00000 
 43692.65567		 889.56308			42803.09259		228.94600		875.00000 
 43692.65567		 305.27265			43387.38302		70.72000		324.00000 
 43692.65567		 889.56308			42803.09259		228.94600		875.00000 
 43692.65567		 305.27265			43387.38302		70.72000		324.00000 
 43692.65567		 889.56308			42803.09259		228.94600		875.00000 
 43692.65567		 305.27265			43387.38302		70.72000		324.00000 
 43692.65567		 889.56308			42803.09259		228.94600		875.00000 
 43692.65567		 305.27265			43387.38302		70.72000		324.00000 
 43692.65567		 889.56308			42803.09259		228.94600		875.00000 
 43692.65567		 305.27265			43387.38302		70.72000		324.00000 
 43692.65567		 889.56308			42803.09259		228.94600		875.00000 
 43692.65567		 305.27265			43387.38302		70.72000		324.00000 
 43692.65567		 889.56308			42803.09259		228.94600		875.00000 
 43692.65567		 305.27265			43387.38302		70.72000		324.00000 
 43692.65567		 889.56308			42803.09259		228.94600		875.00000 
 43692.65567		 305.27265			43387.38302		70.72000		324.00000 
 43692.65567		 889.56308			42803.09259		228.94600		875.00000 
 43692.65567		 305.27265			43387.38302		70.72000		324.00000 
 43692.65567		 889.56308			42803.09259		228.94600		875.00000 
 43692.65567		 305.27265			43387.38302		70.72000		324.00000 
 43692.65567		 889.56308			42803.09259		228.94600		875.00000 
 43692.65567		 305.27265			43387.38302		70.72000		324.00000 
 43692.65567		 889.56308			42803.09259		228.94600		875.00000 
 43692.65567		 305.27265			43387.38302		70.72000		324.00000 
 43692.65567		 889.56308			42803.09259		228.94600		875.00000 
 43692.65567		 305.27265			43387.38302		70.72000		324.00000 
 43692.65567		 889.56308			42803.09259		228.94600		875.00000 
 43692.65567		 305.27265			43387.38302		70.72000		324.00000 
 43692.65567		 889.56308			42803.09259		228.94600		875.00000 
 43692.65567		 305.27265			43387.38302		70.72000		324.00000 
 43692.65567		 889.56308			42803.09259		228.94600		875.00000 
 43692.65567		 305.27265			43387.38302		70.72000		324.00000 
 43692.65567		 889.56308			42803.09259		228.94600		875.00000 
 43692.65567		 305.27265			43387.38302		70.72000		324.00000 
 43692.65567		 889.56308			42803.09259		228.94600		875.00000 
 43692.65567		 305.27265			43387.38302		70.72000		324.00000 
 43692.65567		 889.56308			42803.09259		228.94600		875.00000 
 43692.65567		 305.27265			43387.38302		70.72000		324.00000 
 43692.65567		 889.56308			42803.09259		228.94600		875.00000 
 43692.65567		 305.27265			43387.38302		70.72000		324.00000 
 43692.65567		 889.56308			42803.09259		228.94600		875.00000 
 43692.65567		 305.27265			43387.38302		70.72000		324.00000 
 43692.65567		 889.56308			42803.09259		228.94600		875.00000 
 43692.65567		 305.27265			43387.38302		70.72000		324.00000 
 43692.65567		 889.56308			42803.09259		228.94600		875.00000 
 43692.65567		 305.27265			43387.38302		70.72000		324.00000 
 43692.65567		 889.56308			42803.09259		228.94600		875.00000 
 43692.65567		 305.27265			43387.38302		70.72000		324.00000 
 43692.65567		 889.56308			42803.09259		228.94600		875.00000 
 43692.65567		 305.27265			43387.38302		70.72000		324.00000 
 43692.65567		 889.56308			42803.09259		228.94600		875.00000 
 43692.65567		 305.27265			43387.38302		70.72000		324.00000 
 43692.65567		 889.56308			42803.09259		228.94600		875.00000 
 43692.65567		 305.27265			43387.38302		70.72000		324.00000 
 43692.65567		 889.56308			42803.09259		228.94600		875.00000 
 43692.65567		 305.27265			43387.38302		70.72000		324.00000 
 43692.65567		 889.56308			42803.09259		228.94600		875.00000 
 43692.65567		 305.27265			43387.38302		70.72000		324.00000 
 43692.65567		 889.56308			42803.09259		228.94600		875.00000 
 43692.65567		 305.27265			43387.38302		70.72000		324.00000 
 43692.65567		 889.56308			42803.09259		228.94600		875.00000 
 43692.65567		 305.27265			43387.38302		70.72000		324.00000 
 43692.65567		 889.56308			42803.09259		228.94600		875.00000 
 43692.65567		 305.27265			43387.38302		70.72000		324.00000 
 43692.65567		 889.56308			42803.09259		228.94600		875.00000 
 43692.65567		 305.27265			43387.38302		70.72000		324.00000 
 43692.65567		 889.56308			42803.09259		228.94600		875.00000 
 43692.65567		 305.27265			43387.38302		70.72000		324.00000 
 43692.65567		 889.56308			42803.09259		228.94600		875.00000 
 43692.65567		 305.27265			43387.38302		70.72000		324.00000 
 43692.65567		 889.56308			42803.09259		228.94600		875.00000 
 43692.65567		 305.27265			43387.38302		70.72000		324.00000 
 43692.65567		 889.56308			42803.09259		228.94600		875.00000 
 43692.65567		 305.27265			43387.38302		70.72000		324.00000 
 43692.65567		 889.56308			42803.09259		228.94600		875.00000 
 43692.65567		 305.27265			43387.38302		70.72000		324.00000 
 43692.65567		 889.56308			42803.09259		228.94600		875.00000 
 43692.65567		 305.27265			43387.38302		70.72000		324.00000 
 43692.65567		 889.56308			42803.09259		228.94600		875.00000 
 43692.65567		 305.27265			43387.38302		70.72000		324.00000 
 43692.65567		 889.56308			42803.09259		228.94600		875.00000 
 43692.65567		 305.27265			43387.38302		70.72000		324.00000 
 43692.65567		 889.56308			42803.09259		228.94600		875.00000 
 43692.65567		 305.27265			43387.38302		70.72000		324.00000 
 43692.65567		 889.56308			42803.09259		228.94600		875.00000 
 43692.65567		 305.27265			43387.38302		70.72000		324.00000 
 43692.65567		 889.56308			42803.09259		228.94600		875.00000 
 43692.65567		 305.27265			43387.38302		70.72000		324.00000 
 43692.65567		 889.56308			42803.09259		228.94600		875.00000 
 43692.65567		 305.27265			43387.38302		70.72000		324.00000 
 43692.65567		 889.56308			42803.09259		228.94600		875.00000 
 43692.65567		 305.27265			43387.38302		70.72000		324.00000 
 43692.65567		 889.56308			42803.09259		228.94600		875.00000 
 43692.65567		 305.27265			43387.38302		70.72000		324.00000 
 43692.65567		 889.56308			42803.09259		228.94600		875.00000 
 43692.65567		 305.27265			43387.38302		70.72000		324.00000 
 43692.65567		 889.56308			42803.09259		228.94600		875.00000 
 43692.65567		 305.27265			43387.38302		70.72000		324.00000 
 43692.65567		 889.56308			42803.09259		228.94600		875.00000 
 43692.65567		 305.27265			43387.38302		70.72000		324.00000 
 43692.65567		 889.56308			42803.09259		228.94600		875.00000 
 43692.65567		 305.27265			43387.38302		70.72000		324.00000 
 43692.65567		 889.56308			42803.09259		228.94600		875.00000 
 43692.65567		 305.27265			43387.38302		70.72000		324.00000 
 43692.65567		 889.56308			42803.09259		228.94600		875.00000 
 43692.65567		 305.27265			43387.38302		70.72000		324.00000 
 43692.65567		 889.56308			42803.09259		228.94600		875.00000 
 43692.65567		 305.27265			43387.38302		70.72000		324.00000 
 43692.65567		 889.56308			42803.09259		228.94600		875.00000 
 43692.65567		 305.27265			43387.38302		70.72000		324.00000 
 43692.65567		 889.56308			42803.09259		228.94600		875.00000 
 43692.65567		 305.27265			43387.38302		70.72000		324.00000 
 43692.65567		 889.56308			42803.09259		228.94600		875.00000 
 43692.65567		 305.27265			43387.38302		70.72000		324.00000 
 43692.65567		 889.56308			42803.09259		228.94600		875.00000 
 43692.65567		 305.27265			43387.38302		70.72000		324.00000 
 43692.65567		 889.56308			42803.09259		228.94600		875.00000 
 43692.65567		 305.27265			43387.38302		70.72000		324.00000 
 43692.65567		 889.56308			42803.09259		228.94600		875.00000 
 43692.65567		 305.27265			43387.38302		70.72000		324.00000 
 43692.65567		 889.56308			42803.09259		228.94600		875.00000 
 43692.65567		 305.27265			43387.38302		70.72000		324.00000 
 43692.65567		 889.56308			42803.09259		228.94600		875.00000 
 43692.65567		 305.27265			43387.38302		70.72000		324.00000 
 43692.65567		 889.56308			42803.09259		228.94600		875.00000 
 43692.65567		 305.27265			43387.38302		70.72000		324.00000 
 43692.65567		 889.56308			42803.09259		228.94600		875.00000 
 43692.65567		 305.27265			43387.38302		70.72000		324.00000 
 43692.65567		 889.56308			42803.09259		228.94600		875.00000 
 43692.65567		 305.27265			43387.38302		70.72000		324.00000 
 43692.65567		 889.56308			42803.09259		228.94600		875.00000 
 43692.65567		 305.27265			43387.38302		70.72000		324.00000 
 43692.65567		 889.56308			42803.09259		228.94600		875.00000 
 43692.65567		 305.27265			43387.38302		70.72000		324.00000 
 43692.65567		 889.56308			42803.09259		228.94600		875.00000 
 43692.65567		 305.27265			43387.38302		70.72000		324.00000 
 43692.65567		 889.56308			42803.09259		228.94600		875.00000 
 43692.65567		 305.27265			43387.38302		70.72000		324.00000 
 43692.65567		 889.56308			42803.09259		228.94600		875.00000 
 43692.65567		 305.27265			43387.38302		70.72000		324.00000 
 43692.65567		 889.56308			42803.09259		228.94600		875.00000 
 43692.65567		 305.27265			43387.38302		70.72000		324.00000 
 43692.65567		 889.56308			42803.09259		228.94600		875.00000 
 43692.65567		 305.27265			43387.38302		70.72000		324.00000 
 43692.65567		 889.56308			42803.09259		228.94600		875.00000 
 43692.65567		 305.27265			43387.38302		70.72000		324.00000 
 43692.65567		 889.56308			42803.09259		228.94600		875.00000 
 43692.65567		 305.27265			43387.38302		70.72000		324.00000 
 43692.65567		 889.56308			42803.09259		228.94600		875.00000 
 43692.65567		 305.27265			43387.38302		70.72000		324.00000 
 43692.65567		 889.56308			42803.09259		228.94600		875.00000 
 43692.65567		 305.27265			43387.38302		70.72000		324.00000 
 43692.65567		 889.56308			42803.09259		228.94600		875.00000 
 43692.65567		 305.27265			43387.38302		70.72000		324.00000 
 43692.65567		 889.56308			42803.09259		228.94600		875.00000 
 43692.65567		 305.27265			43387.38302		70.72000		324.00000 
 43692.65567		 889.56308			42803.09259		228.94600		875.00000 
 43692.65567		 305.27265			43387.38302		70.72000		324.00000 
 43692.65567		 889.56308			42803.09259		228.94600		875.00000 
 43692.65567		 305.27265			43387.38302		70.72000		324.00000 
 43692.65567		 889.56308			42803.09259		228.94600		875.00000 
 43692.65567		 305.27265			43387.38302		70.72000		324.00000 
 43692.65567		 889.56308			42803.09259		228.94600		875.00000 
 43692.65567		 305.27265			43387.38302		70.72000		324.00000 
 43692.65567		 889.56308			42803.09259		228.94600		875.00000 
 43692.65567		 305.27265			43387.38302		70.72000		324.00000 
 43692.65567		 889.56308			42803.09259		228.94600		875.00000 
 43692.65567		 305.27265			43387.38302		70.72000		324.00000 
 43692.65567		 889.56308			42803.09259		228.94600		875.00000 
 43692.65567		 305.27265			43387.38302		70.72000		324.00000 
 43692.65567		 889.56308			42803.09259		228.94600		875.00000 
 43692.65567		 305.27265			43387.38302		70.72000		324.00000 
 43692.65567		 889.56308			42803.09259		228.94600		875.00000 
 43692.65567		 305.27265			43387.38302		70.72000		324.00000 
 43692.65567		 889.56308			42803.09259		228.94600		875.00000 
 43692.65567		 305.27265			43387.38302		70.72000		324.00000 
 43692.65567		 889.56308			42803.09259		228.94600		875.00000 
 43692.65567		 305.27265			43387.38302		70.72000		324.00000 
 43692.65567		 889.56308			42803.09259		228.94600		875.00000 
 43692.65567		 305.27265			43387.38302		70.72000		324.00000 
 43692.65567		 889.56308			42803.09259		228.94600		875.00000 
 43692.65567		 305.27265			43387.38302		70.72000		324.00000 
 43692.65567		 889.56308			42803.09259		228.94600		875.00000 
 43692.65567		 305.27265			43387.38302		70.72000		324.00000 
 43692.65567		 889.56308			42803.09259		228.94600		875.00000 
 43692.65567		 305.27265			43387.38302		70.72000		324.00000 
 43692.65567		 889.56308			42803.09259		228.94600		875.00000 
 43692.65567		 305.27265			43387.38302		70.72000		324.00000 
 43692.65567		 889.56308			42803.09259		228.94600		875.00000 
 43692.65567		 305.27265			43387.38302		70.72000		324.00000 
 43692.65567		 889.56308			42803.09259		228.94600		875.00000 
 43692.65567		 305.27265			43387.38302		70.72000		324.00000 
 43692.65567		 889.56308			42803.09259		228.94600		875.00000 
 43692.65567		 305.27265			43387.38302		70.72000		324.00000 
 43692.65567		 889.56308			42803.09259		228.94600		875.00000 
 43692.65567		 305.27265			43387.38302		70.72000		324.00000 
 43692.65567		 889.56308			42803.09259		228.94600		875.00000 
 43692.65567		 305.27265			43387.38302		70.72000		324.00000 
 43692.65567		 889.56308			42803.09259		228.94600		875.00000 
 43692.65567		 305.27265			43387.38302		70.72000		324.00000 
 43692.65567		 889.56308			42803.09259		228.94600		875.00000 
 43692.65567		 305.27265			43387.38302		70.72000		324.00000 
 43692.65567		 889.56308			42803.09259		228.94600		875.00000 
 43692.65567		 305.27265			43387.38302		70.72000		324.00000 
 43692.65567		 889.56308			42803.09259		228.94600		875.00000 
 43692.65567		 305.27265			43387.38302		70.72000		324.00000 
 43692.65567		 889.56308			42803.09259		228.94600		875.00000 
 43692.65567		 305.27265			43387.38302		70.72000		324.00000 
 43692.65567		 889.56308			42803.09259		228.94600		875.00000 
 43692.65567		 305.27265			43387.38302		70.72000		324.00000 
 43692.65567		 889.56308			42803.09259		228.94600		875.00000 
 43692.65567		 305.27265			43387.38302		70.72000		324.00000 
 43692.65567		 889.56308			42803.09259		228.94600		875.00000 
 43692.65567		 305.27265			43387.38302		70.72000		324.00000 
 43692.65567		 889.56308			42803.09259		228.94600		875.00000 
 43692.65567		 305.27265			43387.38302		70.72000		324.00000 
 43692.65567		 889.56308			42803.09259		228.94600		875.00000 
 43692.65567		 305.27265			43387.38302		70.72000		324.00000 
 43692.65567		 889.56308			42803.09259		228.94600		875.00000 
 43692.65567		 305.27265			43387.38302		70.72000		324.00000 
 43692.65567		 889.56308			42803.09259		228.94600		875.00000 
 43692.65567		 305.27265			43387.38302		70.72000		324.00000 
 43692.65567		 889.56308			42803.09259		228.94600		875.00000 
 43692.65567		 305.27265			43387.38302		70.72000		324.00000 
 43692.65567		 889.56308			42803.09259		228.94600		875.00000 
 43692.65567		 305.27265			43387.38302		70.72000		324.00000 
 43692.65567		 889.56308			42803.09259		228.94600		875.00000 
 43692.65567		 305.27265			43387.38302		70.72000		324.00000 
 43692.65567		 889.56308			42803.09259		228.94600		875.00000 
 43692.65567		 305.27265			43387.38302		70.72000		324.00000 
 43692.65567		 889.56308			42803.09259		228.94600		875.00000 
 43692.65567		 305.27265			43387.38302		70.72000		324.00000 
 43692.65567		 889.56308			42803.09259		228.94600		875.00000 
 43692.65567		 305.27265			43387.38302		70.72000		324.00000 
 43692.65567		 889.56308			42803.09259		228.94600		875.00000 
 43692.65567		 305.27265			43387.38302		70.72000		324.00000 
 43692.65567		 889.56308			42803.09259		228.94600		875.00000 
 43692.65567		 305.27265			43387.38302		70.72000		324.00000 
 43692.65567		 889.56308			42803.09259		228.94600		875.00000 
 43692.65567		 305.27265			43387.38302		70.72000		324.00000 
 43692.65567		 889.56308			42803.09259		228.94600		875.00000 
 43692.65567		 305.27265			43387.38302		70.72000		324.00000 
 43692.65567		 889.56308			42803.09259		228.94600		875.00000 
 43692.65567		 305.27265			43387.38302		70.72000		324.00000 
 43692.65567		 889.56308			42803.09259		228.94600		875.00000 
 43692.65567		 305.27265			43387.38302		70.72000		324.00000 
 43692.65567		 889.56308			42803.09259		228.94600		875.00000 
 43692.65567		 305.27265			43387.38302		70.72000		324.00000 
 43692.65567		 889.56308			42803.09259		228.94600		875.00000 
 43692.65567		 305.27265			43387.38302		70.72000		324.00000 
 43692.65567		 889.56308			42803.09259		228.94600		875.00000 
 43692.65567		 305.27265			43387.38302		70.72000		324.00000 
 43692.65567		 889.56308			42803.09259		228.94600		875.00000 
 43692.65567		 305.27265			43387.38302		70.72000		324.00000 
 43692.65567		 889.56308			42803.09259		228.94600		875.00000 
 43692.65567		 305.27265			43387.38302		70.72000		324.00000 
 43692.65567		 889.56308			42803.09259		228.94600		875.00000 
 43692.65567		 305.27265			43387.38302		70.72000		324.00000 
 43692.65567		 889.56308			42803.09259		228.94600		875.00000 
 43692.65567		 305.27265			43387.38302		70.72000		324.00000 
 43692.65567		 889.56308			42803.09259		228.94600		875.00000 
 43692.65567		 305.27265			43387.38302		70.72000		324.00000 
 43692.65567		 889.56308			42803.09259		228.94600		875.00000 
 43692.65567		 305.27265			43387.38302		70.72000		324.00000 
 43692.65567		 889.56308			42803.09259		228.94600		875.00000 
 43692.65567		 305.27265			43387.38302		70.72000		324.00000 
 43692.65567		 889.56308			42803.09259		228.94600		875.00000 
 43692.65567		 305.27265			43387.38302		70.72000		324.00000 
 43692.65567		 889.56308			42803.09259		228.94600		875.00000 
 43692.65567		 305.27265			43387.38302		70.72000		324.00000 
 43692.65567		 889.56308			42803.09259		228.94600		875.00000 
 43692.65567		 305.27265			43387.38302		70.72000		324.00000 
 43692.65567		 889.56308			42803.09259		228.94600		875.00000 
 43692.65567		 305.27265			43387.38302		70.72000		324.00000 
 43692.65567		 889.56308			42803.09259		228.94600		875.00000 
 43692.65567		 305.27265			43387.38302		70.72000		324.00000 
 43692.65567		 889.56308			42803.09259		228.94600		875.00000 
 43692.65567		 305.27265			43387.38302		70.72000		324.00000 
 43692.65567		 889.56308			42803.09259		228.94600		875.00000 
 43692.65567		 305.27265			43387.38302		70.72000		324.00000 
 43692.65567		 889.56308			42803.09259		228.94600		875.00000 
 43692.65567		 305.27265			43387.38302		70.72000		324.00000 
 43692.65567		 889.56308			42803.09259		228.94600		875.00000 
 43692.65567		 305.27265			43387.38302		70.72000		324.00000 
 43692.65567		 889.56308			42803.09259		228.94600		875.00000 
 43692.65567		 305.27265			43387.38302		70.72000		324.00000 
 43692.65567		 889.56308			42803.09259		228.94600		875.00000 
 43692.65567		 305.27265			43387.38302		70.72000		324.00000 
 43692.65567		 889.56308			42803.09259		228.94600		875.00000 
 43692.65567		 305.27265			43387.38302		70.72000		324.00000 
 43692.65567		 889.56308			42803.09259		228.94600		875.00000 
 43692.65567		 305.27265			43387.38302		70.72000		324.00000 
 43692.65567		 889.56308			42803.09259		228.94600		875.00000 
 43692.65567		 305.27265			43387.38302		70.72000		324.00000 
 43692.65567		 889.56308			42803.09259		228.94600		875.00000 
 43692.65567		 305.27265			43387.38302		70.72000		324.00000 
 43692.65567		 889.56308			42803.09259		228.94600		875.00000 
 43692.65567		 305.27265			43387.38302		70.72000		324.00000 
 43692.65567		 889.56308			42803.09259		228.94600		875.00000 
 43692.65567		 305.27265			43387.38302		70.72000		324.00000 
 43692.65567		 889.56308			42803.09259		228.94600		875.00000 
 43692.65567		 305.27265			43387.38302		70.72000		324.00000 
 43692.65567		 889.56308			42803.09259		228.94600		875.00000 
 43692.65567		 305.27265			43387.38302		70.72000		324.00000 
 43692.65567		 889.56308			42803.09259		228.94600		875.00000 
 43692.65567		 305.27265			43387.38302		70.72000		324.00000 
 43692.65567		 889.56308			42803.09259		228.94600		875.00000 
 43692.65567		 305.27265			43387.38302		70.72000		324.00000 
 43692.65567		 889.56308			42803.09259		228.94600		875.00000 
 43692.65567		 305.27265			43387.38302		70.72000		324.00000 
 43692.65567		 889.56308			42803.09259		228.94600		875.00000 
 43692.65567		 305.27265			43387.38302		70.72000		324.00000 
 43692.65567		 889.56308			42803.09259		228.94600		875.00000 
 43692.65567		 305.27265			43387.38302		70.72000		324.00000 
 43692.65567		 889.56308			42803.09259		228.94600		875.00000 
 43692.65567		 305.27265			43387.38302		70.72000		324.00000 
 43692.65567		 889.56308			42803.09259		228.94600		875.00000 
 43692.65567		 305.27265			43387.38302		70.72000		324.00000 
 43692.65567		 889.56308			42803.09259		228.94600		875.00000 
 43692.65567		 305.27265			43387.38302		70.72000		324.00000 
 43692.65567		 889.56308			42803.09259		228.94600		875.00000 
 43692.65567		 305.27265			43387.38302		70.72000		324.00000 
 43692.65567		 889.56308			42803.09259		228.94600		875.00000 
 43692.65567		 305.27265			43387.38302		70.72000		324.00000 
 43692.65567		 889.56308			42803.09259		228.94600		875.00000 
 43692.65567		 305.27265			43387.38302		70.72000		324.00000 
 43692.65567		 889.56308			42803.09259		228.94600		875.00000 
 43692.65567		 305.27265			43387.38302		70.72000		324.00000 
 43692.65567		 889.56308			42803.09259		228.94600		875.00000 
 43692.65567		 305.27265			43387.38302		70.72000		324.00000 
 43692.65567		 889.56308			42803.09259		228.94600		875.00000 
 43692.65567		 305.27265			43387.38302		70.72000		324.00000 
 43692.65567		 889.56308			42803.09259		228.94600		875.00000 
 43692.65567		 305.27265			43387.38302		70.72000		324.00000 
 43692.65567		 889.56308			42803.09259		228.94600		875.00000 
 43692.65567		 305.27265			43387.38302		70.72000		324.00000 
 43692.65567		 889.56308			42803.09259		228.94600		875.00000 
 43692.65567		 305.27265			43387.38302		70.72000		324.00000 
 43692.65567		 889.56308			42803.09259		228.94600		875.00000 
 43692.65567		 305.27265			43387.38302		70.72000		324.00000 
 43692.65567		 889.56308			42803.09259		228.94600		875.00000 
 43692.65567		 305.27265			43387.38302		70.72000		324.00000 
 43692.65567		 889.56308			42803.09259		228.94600		875.00000 
 43692.65567		 305.27265			43387.38302		70.72000		324.00000 
 43692.65567		 889.56308			42803.09259		228.94600		875.00000 
 43692.65567		 305.27265			43387.38302		70.72000		324.00000 
 43692.65567		 889.56308			42803.09259		228.94600		875.00000 
 43692.65567		 305.27265			43387.38302		70.72000		324.00000 
 43692.65567		 889.56308			42803.09259		228.94600		875.00000 
 43692.65567		 305.27265			43387.38302		70.72000		324.00000 
 43692.65567		 889.56308			42803.09259		228.94600		875.00000 
 43692.65567		 305.27265			43387.38302		70.72000		324.00000 
 43692.65567		 889.56308			42803.09259		228.94600		875.00000 
 43692.65567		 305.27265			43387.38302		70.72000		324.00000 
 43692.65567		 889.56308			42803.09259		228.94600		875.00000 
 43692.65567		 305.27265			43387.38302		70.72000		324.00000 
 43692.65567		 889.56308			42803.09259		228.94600		875.00000 
 43692.65567		 305.27265			43387.38302		70.72000		324.00000 
 43692.65567		 889.56308			42803.09259		228.94600		875.00000 
 43692.65567		 305.27265			43387.38302		70.72000		324.00000 
 43692.65567		 889.56308			42803.09259		228.94600		875.00000 
 43692.65567		 305.27265			43387.38302		70.72000		324.00000 
 43692.65567		 889.56308			42803.09259		228.94600		875.00000 
 43692.65567		 305.27265			43387.38302		70.72000		324.00000 
 43692.65567		 889.56308			42803.09259		228.94600		875.00000 
 43692.65567		 305.27265			43387.38302		70.72000		324.00000 
 43692.65567		 889.56308			42803.09259		228.94600		875.00000 
 43692.65567		 305.27265			43387.38302		70.72000		324.00000 
 43692.65567		 889.56308			42803.09259		228.94600		875.00000 
 43692.65567		 305.27265			43387.38302		70.72000		324.00000 
 43692.65567		 889.56308			42803.09259		228.94600		875.00000 
 43692.65567		 305.27265			43387.38302		70.72000		324.00000 
 43692.65567		 889.56308			42803.09259		228.94600		875.00000 
 43692.65567		 305.27265			43387.38302		70.72000		324.00000 
 43692.65567		 889.56308			42803.09259		228.94600		875.00000 
 43692.65567		 305.27265			43387.38302		70.72000		324.00000 
 43692.65567		 889.56308			42803.09259		228.94600		875.00000 
 43692.65567		 305.27265			43387.38302		70.72000		324.00000 
 43692.65567		 889.56308			42803.09259		228.94600		875.00000 
 43692.65567		 305.27265			43387.38302		70.72000		324.00000 
 43692.65567		 889.56308			42803.09259		228.94600		875.00000 
 43692.65567		 305.27265			43387.38302		70.72000		324.00000 
 43692.65567		 889.56308			42803.09259		228.94600		875.00000 
 43692.65567		 305.27265			43387.38302		70.72000		324.00000 
 43692.65567		 889.56308			42803.09259		228.94600		875.00000 
 43692.65567		 305.27265			43387.38302		70.72000		324.00000 
 43692.65567		 889.56308			42803.09259		228.94600		875.00000 
 43692.65567		 305.27265			43387.38302		70.72000		324.00000 
 43692.65567		 889.56308			42803.09259		228.94600		875.00000 
 43692.65567		 305.27265			43387.38302		70.72000		324.00000 
 43692.65567		 889.56308			42803.09259		228.94600		875.00000 
 43692.65567		 305.27265			43387.38302		70.72000		324.00000 
 43692.65567		 889.56308			42803.09259		228.94600		875.00000 
 43692.65567		 305.27265			43387.38302		70.72000		324.00000 
 43692.65567		 889.56308			42803.09259		228.94600		875.00000 
 43692.65567		 305.27265			43387.38302		70.72000		324.00000 
 43692.65567		 889.56308			42803.09259		228.94600		875.00000 
 43692.65567		 305.27265			43387.38302		70.72000		324.00000 
 43692.65567		 889.56308			42803.09259		228.94600		875.00000 
 43692.65567		 305.27265			43387.38302		70.72000		324.00000 
 43692.65567		 889.56308			42803.09259		228.94600		875.00000 
 43692.65567		 305.27265			43387.38302		70.72000		324.00000 
 43692.65567		 889.56308			42803.09259		228.94600		875.00000 
 43692.65567		 305.27265			43387.38302		70.72000		324.00000 
 43692.65567		 889.56308			42803.09259		228.94600		875.00000 
 43692.65567		 305.27265			43387.38302		70.72000		324.00000 
 43692.65567		 889.56308			42803.09259		228.94600		875.00000 
 43692.65567		 305.27265			43387.38302		70.72000		324.00000 
 43692.65567		 889.56308			42803.09259		228.94600		875.00000 
 43692.65567		 305.27265			43387.38302		70.72000		324.00000 
 43692.65567		 889.56308			42803.09259		228.94600		875.00000 
 43692.65567		 305.27265			43387.38302		70.72000		324.00000 
 43692.65567		 889.56308			42803.09259		228.94600		875.00000 
 43692.65567		 305.27265			43387.38302		70.72000		324.00000 
 43692.65567		 889.56308			42803.09259		228.94600		875.00000 
 43692.65567		 305.27265			43387.38302		70.72000		324.00000 
 43692.65567		 889.56308			42803.09259		228.94600		875.00000 
 43692.65567		 305.27265			43387.38302		70.72000		324.00000 
 43692.65567		 889.56308			42803.09259		228.94600		875.00000 
 43692.65567		 305.27265			43387.38302		70.72000		324.00000 
 43692.65567		 889.56308			42803.09259		228.94600		875.00000 
 43692.65567		 305.27265			43387.38302		70.72000		324.00000 
 43692.65567		 889.56308			42803.09259		228.94600		875.00000 
 43692.65567		 305.27265			43387.38302		70.72000		324.00000 
 43692.65567		 889.56308			42803.09259		228.94600		875.00000 
 43692.65567		 305.27265			43387.38302		70.72000		324.00000 
 43692.65567		 889.56308			42803.09259		228.94600		875.00000 
 43692.65567		 305.27265			43387.38302		70.72000		324.00000 
 43692.65567		 889.56308			42803.09259		228.94600		875.00000 
 43692.65567		 305.27265			43387.38302		70.72000		324.00000 
 43692.65567		 889.56308			42803.09259		228.94600		875.00000 
 43692.65567		 305.27265			43387.38302		70.72000		324.00000 
 43692.65567		 889.56308			42803.09259		228.94600		875.00000 
 43692.65567		 305.27265			43387.38302		70.72000		324.00000 
 43692.65567		 889.56308			42803.09259		228.94600		875.00000 
 43692.65567		 305.27265			43387.38302		70.72000		324.00000 
 43692.65567		 889.56308			42803.09259		228.94600		875.00000 
 43692.65567		 305.27265			43387.38302		70.72000		324.00000 
 43692.65567		 889.56308			42803.09259		228.94600		875.00000 
 43692.65567		 305.27265			43387.38302		70.72000		324.00000 
 43692.65567		 889.56308			42803.09259		228.94600		875.00000 
 43692.65567		 305.27265			43387.38302		70.72000		324.00000 
 43692.65567		 889.56308			42803.09259		228.94600		875.00000 
 43692.65567		 305.27265			43387.38302		70.72000		324.00000 
 43692.65567		 889.56308			42803.09259		228.94600		875.00000 
 43692.65567		 305.27265			43387.38302		70.72000		324.00000 
 43692.65567		 889.56308			42803.09259		228.94600		875.00000 
 43692.65567		 305.27265			43387.38302		70.72000		324.00000 
 43692.65567		 889.56308			42803.09259		228.94600		875.00000 
 43692.65567		 305.27265			43387.38302		70.72000		324.00000 
 43692.65567		 889.56308			42803.09259		228.94600		875.00000 
 43692.65567		 305.27265			43387.38302		70.72000		324.00000 
 43692.65567		 889.56308			42803.09259		228.94600		875.00000 
 43692.65567		 305.27265			43387.38302		70.72000		324.00000 
 43692.65567		 889.56308			42803.09259		228.94600		875.00000 
 43692.65567		 305.27265			43387.38302		70.72000		324.00000 
 43692.65567		 889.56308			42803.09259		229.54400		875.00000 
 43692.65567		 305.27265			43387.38302		70.72000		324.00000 
 43692.65567		 889.56308			42803.09259		229.54400		875.00000 
 43692.65567		 305.27265			43387.38302		70.72000		324.00000 
 43692.65567		 889.56308			42803.09259		229.54400		875.00000 
 43692.65567		 305.27265			43387.38302		70.72000		324.00000 
 43692.65567		 889.56308			42803.09259		229.54400		875.00000 
 43692.65567		 305.27265			43387.38302		70.72000		324.00000 
 43692.65567		 889.56308			42803.09259		229.54400		875.00000 
 43692.65567		 305.27265			43387.38302		70.72000		324.00000 
 43692.65567		 889.56308			42803.09259		229.54400		875.00000 
 43692.65567		 305.27265			43387.38302		70.72000		324.00000 
 43692.65567		 889.56308			42803.09259		229.54400		875.00000 
 43692.65567		 305.27265			43387.38302		70.72000		324.00000 
 43692.65567		 889.56308			42803.09259		229.54400		875.00000 
 43692.65567		 305.27265			43387.38302		70.72000		324.00000 
 43692.65567		 889.56308			42803.09259		229.54400		875.00000 
 43692.65567		 305.27265			43387.38302		70.72000		324.00000 
 43692.65567		 889.56308			42803.09259		229.54400		875.00000 
 43692.65567		 305.27265			43387.38302		70.72000		324.00000 
 43692.65567		 889.56308			42803.09259		229.54400		875.00000 
 43692.65567		 305.27265			43387.38302		70.72000		324.00000 
 43692.65567		 889.56308			42803.09259		229.54400		875.00000 
 43692.65567		 305.27265			43387.38302		70.72000		324.00000 
 43692.65567		 889.56308			42803.09259		229.54400		875.00000 
 43692.65567		 305.27265			43387.38302		70.72000		324.00000 
 43692.65567		 889.56308			42803.09259		229.54400		875.00000 
 43692.65567		 305.27265			43387.38302		70.72000		324.00000 
 43692.65567		 889.56308			42803.09259		229.54400		875.00000 
 43692.65567		 305.27265			43387.38302		70.72000		324.00000 
 43692.65567		 889.56308			42803.09259		229.54400		875.00000 
 43692.65567		 305.27265			43387.38302		70.72000		324.00000 
 43692.65567		 889.56308			42803.09259		229.54400		875.00000 
 43692.65567		 305.27265			43387.38302		70.72000		324.00000 
 43692.65567		 889.56308			42803.09259		229.54400		875.00000 
 43692.65567		 305.27265			43387.38302		70.72000		324.00000 
 43692.65567		 889.56308			42803.09259		229.54400		875.00000 
 43692.65567		 305.27265			43387.38302		70.72000		324.00000 
 43692.65567		 889.56308			42803.09259		229.54400		875.00000 
 43692.65567		 305.27265			43387.38302		70.72000		324.00000 
 43692.65567		 889.56308			42803.09259		229.54400		875.00000 
 43692.65567		 305.27265			43387.38302		70.72000		324.00000 
 43692.65567		 889.56308			42803.09259		229.54400		875.00000 
 43692.65567		 305.27265			43387.38302		70.72000		324.00000 
 43692.65567		 889.56308			42803.09259		229.54400		875.00000 
 43692.65567		 305.27265			43387.38302		70.72000		324.00000 
 43692.65567		 889.56308			42803.09259		229.54400		875.00000 
 43692.65567		 305.27265			43387.38302		70.72000		324.00000 
 43692.65567		 889.56308			42803.09259		229.54400		875.00000 
 43692.65567		 305.27265			43387.38302		70.72000		324.00000 
 43692.65567		 889.56308			42803.09259		229.54400		875.00000 
 43692.65567		 305.27265			43387.38302		70.72000		324.00000 
 43692.65567		 889.56308			42803.09259		229.54400		875.00000 
 43692.65567		 305.27265			43387.38302		70.72000		324.00000 
 43692.65567		 889.56308			42803.09259		229.54400		875.00000 
 43692.65567		 305.27265			43387.38302		70.72000		324.00000 
 43692.65567		 889.56308			42803.09259		229.54400		875.00000 
 43692.65567		 305.27265			43387.38302		70.72000		324.00000 
 43692.65567		 889.56308			42803.09259		229.54400		875.00000 
 43692.65567		 305.27265			43387.38302		70.72000		324.00000 
 43692.65567		 889.56308			42803.09259		229.54400		875.00000 
 43692.65567		 305.27265			43387.38302		70.72000		324.00000 
 43692.65567		 889.56308			42803.09259		229.54400		875.00000 
 43692.65567		 305.27265			43387.38302		70.72000		324.00000 
 43692.65567		 889.56308			42803.09259		229.54400		875.00000 
 43692.65567		 305.27265			43387.38302		70.72000		324.00000 
 43692.65567		 889.56308			42803.09259		229.54400		875.00000 
 43692.65567		 305.27265			43387.38302		70.72000		324.00000 
 43692.65567		 889.56308			42803.09259		229.54400		875.00000 
 43692.65567		 305.27265			43387.38302		70.72000		324.00000 
 43692.65567		 889.56308			42803.09259		229.54400		875.00000 
 43692.65567		 305.27265			43387.38302		70.72000		324.00000 
 43692.65567		 889.56308			42803.09259		229.54400		875.00000 
 43692.65567		 305.27265			43387.38302		70.72000		324.00000 
 43692.65567		 889.56308			42803.09259		229.54400		875.00000 
 43692.65567		 305.27265			43387.38302		70.72000		324.00000 
 43692.65567		 889.56308			42803.09259		229.54400		875.00000 
 43692.65567		 305.27265			43387.38302		70.72000		324.00000 
 43692.65567		 889.56308			42803.09259		229.54400		875.00000 
 43692.65567		 305.27265			43387.38302		70.72000		324.00000 
 43692.65567		 889.56308			42803.09259		229.54400		875.00000 
 43692.65567		 305.27265			43387.38302		70.72000		324.00000 
 43692.65567		 889.56308			42803.09259		229.54400		875.00000 
 43692.65567		 305.27265			43387.38302		70.72000		324.00000 
 43692.65567		 889.56308			42803.09259		229.54400		875.00000 
 43692.65567		 305.27265			43387.38302		70.72000		324.00000 
 43692.65567		 889.56308			42803.09259		229.54400		875.00000 
 43692.65567		 305.27265			43387.38302		70.72000		324.00000 
 43692.65567		 889.56308			42803.09259		229.54400		875.00000 
 43692.65567		 305.27265			43387.38302		70.72000		324.00000 
 43692.65567		 889.56308			42803.09259		229.54400		875.00000 
 43692.65567		 305.27265			43387.38302		70.72000		324.00000 
 43692.65567		 889.56308			42803.09259		229.54400		875.00000 
 43692.65567		 305.27265			43387.38302		70.72000		324.00000 
 43692.65567		 889.56308			42803.09259		229.54400		875.00000 
 43692.65567		 305.27265			43387.38302		70.72000		324.00000 
 43692.65567		 889.56308			42803.09259		229.54400		875.00000 
 43692.65567		 305.27265			43387.38302		70.72000		324.00000 
 43692.65567		 889.56308			42803.09259		229.54400		875.00000 
 43692.65567		 305.27265			43387.38302		70.72000		324.00000 
 43692.65567		 889.56308			42803.09259		229.54400		875.00000 
 43692.65567		 305.27265			43387.38302		70.72000		324.00000 
 43692.65567		 889.56308			42803.09259		229.54400		875.00000 
 43692.65567		 305.27265			43387.38302		70.72000		324.00000 
 43692.65567		 889.56308			42803.09259		229.54400		875.00000 
 43692.65567		 305.27265			43387.38302		70.72000		324.00000 
 43692.65567		 889.56308			42803.09259		229.54400		875.00000 
 43692.65567		 305.27265			43387.38302		70.72000		324.00000 
 43692.65567		 889.56308			42803.09259		229.54400		875.00000 
 43692.65567		 305.27265			43387.38302		70.72000		324.00000 
 43692.65567		 889.56308			42803.09259		229.54400		875.00000 
 43692.65567		 305.27265			43387.38302		70.72000		324.00000 
 43692.65567		 889.56308			42803.09259		229.54400		875.00000 
 43692.65567		 305.27265			43387.38302		70.72000		324.00000 
 43692.65567		 889.56308			42803.09259		229.54400		875.00000 
 43692.65567		 305.27265			43387.38302		70.72000		324.00000 
 43692.65567		 889.56308			42803.09259		229.54400		875.00000 
 43692.65567		 305.27265			43387.38302		70.72000		324.00000 
 43692.65567		 772.13216			42920.52351		229.54400		875.00000 
 43692.65567		 305.27265			43387.38302		70.72000		324.00000 
 43692.65567		 772.13216			42920.52351		229.54400		875.00000 
 43692.65567		 305.27265			43387.38302		70.72000		324.00000 
 43692.65567		 654.70124			43037.95443		229.54400		875.00000 
 43692.65567		 305.27265			43387.38302		70.72000		324.00000 
 43692.65567		 654.70124			43037.95443		229.54400		875.00000 
 43692.65567		 305.27265			43387.38302		70.72000		324.00000 
 43692.65567		 537.27032			43155.38535		221.70000		875.00000 
 43692.65567		 305.27265			43387.38302		70.72000		324.00000 
 43692.65567		 537.27032			43155.38535		221.70000		875.00000 
 43692.65567		 305.27265			43387.38302		70.72000		324.00000 
 43692.65567		 537.27032			43155.38535		221.70000		875.00000 
 43692.65567		 305.27265			43387.38302		70.72000		324.00000 
 43692.65567		 537.27032			43155.38535		221.70000		875.00000 
 43692.65567		 305.27265			43387.38302		70.72000		324.00000 
 43692.65567		 537.27032			43155.38535		221.70000		875.00000 
 43692.65567		 305.27265			43387.38302		70.72000		324.00000 
 43692.65567		 537.27032			43155.38535		221.70000		875.00000 
 43692.65567		 305.27265			43387.38302		70.72000		324.00000 
 43692.65567		 537.27032			43155.38535		221.70000		875.00000 
 43692.65567		 305.27265			43387.38302		70.72000		324.00000 
 43692.65567		 537.27032			43155.38535		221.70000		875.00000 
 43692.65567		 305.27265			43387.38302		70.72000		324.00000 
 43692.65567		 537.27032			43155.38535		221.70000		875.00000 
 43692.65567		 305.27265			43387.38302		70.72000		324.00000 
 43692.65567		 537.27032			43155.38535		221.70000		875.00000 
 43692.65567		 305.27265			43387.38302		70.72000		324.00000 
 43692.65567		 537.27032			43155.38535		221.70000		875.00000 
 43692.65567		 305.27265			43387.38302		70.72000		324.00000 
 43692.65567		 537.27032			43155.38535		221.70000		875.00000 
 43692.65567		 305.27265			43387.38302		70.72000		324.00000 
 43692.65567		 537.27032			43155.38535		221.70000		875.00000 
 43692.65567		 305.27265			43387.38302		70.72000		324.00000 
 43692.65567		 537.27032			43155.38535		221.70000		875.00000 
 43692.65567		 305.27265			43387.38302		70.72000		324.00000 
 43692.65567		 537.27032			43155.38535		221.70000		875.00000 
 43692.65567		 305.27265			43387.38302		70.72000		324.00000 
 43692.65567		 537.27032			43155.38535		221.70000		875.00000 
 43692.65567		 305.27265			43387.38302		70.72000		324.00000 
 43692.65567		 537.27032			43155.38535		221.70000		875.00000 
 43692.65567		 305.27265			43387.38302		70.72000		324.00000 
 43692.65567		 537.27032			43155.38535		221.70000		875.00000 
 43692.65567		 305.27265			43387.38302		70.72000		324.00000 
 43692.65567		 537.27032			43155.38535		221.70000		875.00000 
 43692.65567		 305.27265			43387.38302		70.72000		324.00000 
 43692.65567		 529.63254			43163.02313		221.70000		875.00000 
 43692.65567		 305.27265			43387.38302		70.72000		324.00000 
 43692.65567		 525.81365			43166.84203		221.70000		875.00000 
 43692.65567		 293.81598			43398.83969		70.72000		324.00000 
 43692.65567		 261.35540			43431.30027		221.70000		875.00000 
 43692.65567		 261.35540			43431.30027		70.72000		324.00000 
