Memory Total (MiB) 	 Memory Used (MiB) 	    Memory Free (MiB) 	 Power Drawed (W) 	 Clocks (Mhz) 	 
 43692.65567		 261.35540			43431.30027		184.23800		875.00000 
 43692.65567		 261.35540			43431.30027		65.60400		324.00000 
 43692.65567		 261.35540			43431.30027		184.23800		875.00000 
 43692.65567		 261.35540			43431.30027		65.60400		324.00000 
 43692.65567		 261.35540			43431.30027		184.23800		875.00000 
 43692.65567		 261.35540			43431.30027		65.60400		324.00000 
 43692.65567		 261.35540			43431.30027		184.23800		875.00000 
 43692.65567		 261.35540			43431.30027		65.60400		324.00000 
 43692.65567		 261.35540			43431.30027		184.23800		875.00000 
 43692.65567		 261.35540			43431.30027		65.60400		324.00000 
 43692.65567		 261.35540			43431.30027		184.23800		875.00000 
 43692.65567		 261.35540			43431.30027		65.60400		324.00000 
 43692.65567		 261.35540			43431.30027		184.23800		875.00000 
 43692.65567		 261.35540			43431.30027		65.60400		324.00000 
 43692.65567		 261.35540			43431.30027		184.23800		875.00000 
 43692.65567		 261.35540			43431.30027		65.60400		324.00000 
 43692.65567		 261.35540			43431.30027		184.23800		875.00000 
 43692.65567		 261.35540			43431.30027		65.60400		324.00000 
 43692.65567		 261.35540			43431.30027		184.23800		875.00000 
 43692.65567		 261.35540			43431.30027		65.60400		324.00000 
 43692.65567		 261.35540			43431.30027		184.23800		875.00000 
 43692.65567		 261.35540			43431.30027		65.60400		324.00000 
 43692.65567		 261.35540			43431.30027		184.23800		875.00000 
 43692.65567		 261.35540			43431.30027		65.60400		324.00000 
 43692.65567		 261.35540			43431.30027		184.23800		875.00000 
 43692.65567		 261.35540			43431.30027		65.60400		324.00000 
 43692.65567		 261.35540			43431.30027		184.23800		875.00000 
 43692.65567		 261.35540			43431.30027		65.60400		324.00000 
 43692.65567		 261.35540			43431.30027		184.23800		875.00000 
 43692.65567		 261.35540			43431.30027		65.60400		324.00000 
 43692.65567		 261.35540			43431.30027		184.23800		875.00000 
 43692.65567		 261.35540			43431.30027		65.60400		324.00000 
 43692.65567		 261.35540			43431.30027		184.23800		875.00000 
 43692.65567		 261.35540			43431.30027		65.60400		324.00000 
 43692.65567		 261.35540			43431.30027		184.23800		875.00000 
 43692.65567		 261.35540			43431.30027		65.60400		324.00000 
 43692.65567		 261.35540			43431.30027		184.23800		875.00000 
 43692.65567		 261.35540			43431.30027		65.60400		324.00000 
 43692.65567		 265.17429			43427.48138		184.23800		875.00000 
 43692.65567		 261.35540			43431.30027		65.60400		324.00000 
 43692.65567		 272.81207			43419.84360		184.23800		875.00000 
 43692.65567		 261.35540			43431.30027		65.60400		324.00000 
 43692.65567		 272.81207			43419.84360		184.23800		875.00000 
 43692.65567		 261.35540			43431.30027		65.60400		324.00000 
 43692.65567		 272.81207			43419.84360		184.23800		875.00000 
 43692.65567		 265.17429			43427.48138		65.60400		324.00000 
 43692.65567		 272.81207			43419.84360		184.23800		875.00000 
 43692.65567		 265.17429			43427.48138		65.60400		324.00000 
 43692.65567		 272.81207			43419.84360		152.29400		875.00000 
 43692.65567		 265.17429			43427.48138		65.60400		324.00000 
 43692.65567		 272.81207			43419.84360		152.29400		875.00000 
 43692.65567		 272.81207			43419.84360		65.60400		324.00000 
 43692.65567		 272.81207			43419.84360		152.29400		875.00000 
 43692.65567		 272.81207			43419.84360		65.60400		324.00000 
 43692.65567		 272.81207			43419.84360		152.29400		875.00000 
 43692.65567		 272.81207			43419.84360		65.60400		324.00000 
 43692.65567		 305.27265			43387.38302		152.29400		875.00000 
 43692.65567		 305.27265			43387.38302		65.60400		324.00000 
 43692.65567		 305.27265			43387.38302		152.29400		875.00000 
 43692.65567		 305.27265			43387.38302		65.60400		324.00000 
 43692.65567		 305.27265			43387.38302		152.29400		875.00000 
 43692.65567		 305.27265			43387.38302		65.60400		324.00000 
 43692.65567		 305.27265			43387.38302		152.29400		875.00000 
 43692.65567		 305.27265			43387.38302		65.60400		324.00000 
 43692.65567		 305.27265			43387.38302		152.29400		875.00000 
 43692.65567		 305.27265			43387.38302		65.60400		324.00000 
 43692.65567		 309.09154			43383.56413		152.29400		875.00000 
 43692.65567		 305.27265			43387.38302		65.60400		324.00000 
 43692.65567		 310.52363			43382.13204		152.29400		875.00000 
 43692.65567		 305.27265			43387.38302		65.60400		324.00000 
 43692.65567		 311.00099			43381.65468		152.29400		875.00000 
 43692.65567		 305.27265			43387.38302		65.60400		324.00000 
 43692.65567		 311.00099			43381.65468		152.29400		875.00000 
 43692.65567		 305.27265			43387.38302		65.60400		324.00000 
 43692.65567		 311.00099			43381.65468		152.29400		875.00000 
 43692.65567		 305.27265			43387.38302		65.60400		324.00000 
 43692.65567		 311.00099			43381.65468		152.29400		875.00000 
 43692.65567		 305.27265			43387.38302		65.60400		324.00000 
 43692.65567		 311.00099			43381.65468		152.29400		875.00000 
 43692.65567		 305.27265			43387.38302		65.60400		324.00000 
 43692.65567		 311.00099			43381.65468		152.29400		875.00000 
 43692.65567		 305.27265			43387.38302		65.60400		324.00000 
 43692.65567		 311.00099			43381.65468		152.29400		875.00000 
 43692.65567		 305.27265			43387.38302		65.60400		324.00000 
 43692.65567		 311.00099			43381.65468		152.29400		875.00000 
 43692.65567		 305.27265			43387.38302		65.60400		324.00000 
 43692.65567		 311.00099			43381.65468		152.29400		875.00000 
 43692.65567		 305.27265			43387.38302		65.60400		324.00000 
 43692.65567		 311.00099			43381.65468		152.29400		875.00000 
 43692.65567		 305.27265			43387.38302		65.60400		324.00000 
 43692.65567		 311.00099			43381.65468		152.29400		875.00000 
 43692.65567		 305.27265			43387.38302		65.60400		324.00000 
 43692.65567		 311.00099			43381.65468		152.29400		875.00000 
 43692.65567		 305.27265			43387.38302		65.60400		324.00000 
 43692.65567		 311.00099			43381.65468		152.29400		875.00000 
 43692.65567		 305.27265			43387.38302		65.60400		324.00000 
 43692.65567		 311.00099			43381.65468		152.29400		875.00000 
 43692.65567		 305.27265			43387.38302		65.60400		324.00000 
 43692.65567		 311.00099			43381.65468		152.29400		875.00000 
 43692.65567		 305.27265			43387.38302		65.60400		324.00000 
 43692.65567		 311.00099			43381.65468		152.29400		875.00000 
 43692.65567		 305.27265			43387.38302		65.60400		324.00000 
 43692.65567		 311.00099			43381.65468		152.29400		875.00000 
 43692.65567		 305.27265			43387.38302		65.60400		324.00000 
 43692.65567		 311.00099			43381.65468		152.29400		875.00000 
 43692.65567		 305.27265			43387.38302		65.60400		324.00000 
 43692.65567		 311.00099			43381.65468		152.29400		875.00000 
 43692.65567		 305.27265			43387.38302		65.60400		324.00000 
 43692.65567		 311.00099			43381.65468		152.29400		875.00000 
 43692.65567		 305.27265			43387.38302		65.60400		324.00000 
 43692.65567		 311.00099			43381.65468		152.29400		875.00000 
 43692.65567		 305.27265			43387.38302		65.60400		324.00000 
 43692.65567		 311.00099			43381.65468		152.29400		875.00000 
 43692.65567		 305.27265			43387.38302		65.60400		324.00000 
 43692.65567		 311.00099			43381.65468		138.68600		875.00000 
 43692.65567		 305.27265			43387.38302		65.60400		324.00000 
 43692.65567		 311.00099			43381.65468		138.68600		875.00000 
 43692.65567		 305.27265			43387.38302		65.60400		324.00000 
 43692.65567		 311.00099			43381.65468		138.68600		875.00000 
 43692.65567		 305.27265			43387.38302		65.60400		324.00000 
 43692.65567		 311.00099			43381.65468		138.68600		875.00000 
 43692.65567		 305.27265			43387.38302		65.60400		324.00000 
 43692.65567		 311.00099			43381.65468		138.68600		875.00000 
 43692.65567		 305.27265			43387.38302		65.60400		324.00000 
 43692.65567		 311.00099			43381.65468		138.68600		875.00000 
 43692.65567		 305.27265			43387.38302		65.60400		324.00000 
 43692.65567		 311.00099			43381.65468		138.68600		875.00000 
 43692.65567		 305.27265			43387.38302		65.60400		324.00000 
 43692.65567		 311.00099			43381.65468		138.68600		875.00000 
 43692.65567		 305.27265			43387.38302		65.60400		324.00000 
 43692.65567		 311.00099			43381.65468		138.68600		875.00000 
 43692.65567		 305.27265			43387.38302		65.60400		324.00000 
 43692.65567		 311.00099			43381.65468		138.68600		875.00000 
 43692.65567		 305.27265			43387.38302		65.60400		324.00000 
 43692.65567		 311.00099			43381.65468		138.68600		875.00000 
 43692.65567		 305.27265			43387.38302		65.60400		324.00000 
 43692.65567		 311.00099			43381.65468		138.68600		875.00000 
 43692.65567		 305.27265			43387.38302		65.60400		324.00000 
 43692.65567		 311.00099			43381.65468		138.68600		875.00000 
 43692.65567		 305.27265			43387.38302		65.60400		324.00000 
 43692.65567		 311.00099			43381.65468		138.68600		875.00000 
 43692.65567		 305.27265			43387.38302		65.60400		324.00000 
 43692.65567		 311.00099			43381.65468		138.68600		875.00000 
 43692.65567		 305.27265			43387.38302		65.60400		324.00000 
 43692.65567		 311.00099			43381.65468		138.68600		875.00000 
 43692.65567		 305.27265			43387.38302		65.60400		324.00000 
 43692.65567		 311.00099			43381.65468		138.68600		875.00000 
 43692.65567		 305.27265			43387.38302		65.60400		324.00000 
 43692.65567		 311.00099			43381.65468		138.68600		875.00000 
 43692.65567		 305.27265			43387.38302		65.60400		324.00000 
 43692.65567		 311.00099			43381.65468		138.68600		875.00000 
 43692.65567		 305.27265			43387.38302		65.60400		324.00000 
 43692.65567		 311.00099			43381.65468		138.68600		875.00000 
 43692.65567		 305.27265			43387.38302		65.60400		324.00000 
 43692.65567		 311.00099			43381.65468		138.68600		875.00000 
 43692.65567		 305.27265			43387.38302		65.60400		324.00000 
 43692.65567		 311.00099			43381.65468		138.68600		875.00000 
 43692.65567		 305.27265			43387.38302		65.60400		324.00000 
 43692.65567		 311.00099			43381.65468		138.68600		875.00000 
 43692.65567		 305.27265			43387.38302		65.60400		324.00000 
 43692.65567		 311.00099			43381.65468		138.68600		875.00000 
 43692.65567		 305.27265			43387.38302		65.60400		324.00000 
 43692.65567		 311.00099			43381.65468		138.68600		875.00000 
 43692.65567		 305.27265			43387.38302		65.60400		324.00000 
 43692.65567		 311.00099			43381.65468		138.68600		875.00000 
 43692.65567		 305.27265			43387.38302		65.60400		324.00000 
 43692.65567		 311.00099			43381.65468		138.68600		875.00000 
 43692.65567		 305.27265			43387.38302		65.60400		324.00000 
 43692.65567		 311.00099			43381.65468		138.68600		875.00000 
 43692.65567		 305.27265			43387.38302		65.60400		324.00000 
 43692.65567		 314.81988			43377.83579		138.68600		875.00000 
 43692.65567		 305.27265			43387.38302		65.60400		324.00000 
 43692.65567		 314.81988			43377.83579		138.68600		875.00000 
 43692.65567		 305.27265			43387.38302		65.60400		324.00000 
 43692.65567		 318.63877			43374.01690		138.68600		875.00000 
 43692.65567		 305.27265			43387.38302		65.60400		324.00000 
 43692.65567		 322.45767			43370.19801		134.44800		875.00000 
 43692.65567		 305.27265			43387.38302		65.60400		324.00000 
 43692.65567		 326.27656			43366.37912		134.44800		875.00000 
 43692.65567		 305.27265			43387.38302		65.60400		324.00000 
 43692.65567		 326.27656			43366.37912		134.44800		875.00000 
 43692.65567		 305.27265			43387.38302		65.60400		324.00000 
 43692.65567		 326.27656			43366.37912		134.44800		875.00000 
 43692.65567		 305.27265			43387.38302		65.60400		324.00000 
 43692.65567		 326.27656			43366.37912		134.44800		875.00000 
 43692.65567		 305.27265			43387.38302		65.60400		324.00000 
 43692.65567		 537.27032			43155.38535		134.44800		875.00000 
 43692.65567		 305.27265			43387.38302		65.60400		324.00000 
 43692.65567		 574.02715			43118.62852		134.44800		875.00000 
 43692.65567		 305.27265			43387.38302		65.60400		324.00000 
 43692.65567		 647.54082			43045.11485		134.44800		875.00000 
 43692.65567		 305.27265			43387.38302		65.60400		324.00000 
 43692.65567		 647.54082			43045.11485		134.44800		875.00000 
 43692.65567		 305.27265			43387.38302		65.60400		324.00000 
 43692.65567		 647.54082			43045.11485		134.44800		875.00000 
 43692.65567		 305.27265			43387.38302		65.60400		324.00000 
 43692.65567		 647.54082			43045.11485		134.44800		875.00000 
 43692.65567		 305.27265			43387.38302		65.60400		324.00000 
 43692.65567		 647.54082			43045.11485		134.44800		875.00000 
 43692.65567		 305.27265			43387.38302		65.60400		324.00000 
 43692.65567		 647.54082			43045.11485		134.44800		875.00000 
 43692.65567		 305.27265			43387.38302		65.60400		324.00000 
 43692.65567		 647.54082			43045.11485		134.44800		875.00000 
 43692.65567		 305.27265			43387.38302		65.60400		324.00000 
 43692.65567		 647.54082			43045.11485		134.44800		875.00000 
 43692.65567		 305.27265			43387.38302		65.60400		324.00000 
 43692.65567		 647.54082			43045.11485		134.44800		875.00000 
 43692.65567		 305.27265			43387.38302		65.60400		324.00000 
 43692.65567		 647.54082			43045.11485		134.44800		875.00000 
 43692.65567		 305.27265			43387.38302		65.60400		324.00000 
 43692.65567		 647.54082			43045.11485		134.44800		875.00000 
 43692.65567		 305.27265			43387.38302		65.60400		324.00000 
 43692.65567		 647.54082			43045.11485		134.44800		875.00000 
 43692.65567		 305.27265			43387.38302		65.60400		324.00000 
 43692.65567		 647.54082			43045.11485		134.44800		875.00000 
 43692.65567		 305.27265			43387.38302		65.60400		324.00000 
 43692.65567		 647.54082			43045.11485		134.44800		875.00000 
 43692.65567		 305.27265			43387.38302		65.60400		324.00000 
 43692.65567		 647.54082			43045.11485		134.44800		875.00000 
 43692.65567		 305.27265			43387.38302		65.60400		324.00000 
 43692.65567		 647.54082			43045.11485		134.44800		875.00000 
 43692.65567		 305.27265			43387.38302		65.60400		324.00000 
 43692.65567		 647.54082			43045.11485		134.44800		875.00000 
 43692.65567		 305.27265			43387.38302		65.60400		324.00000 
 43692.65567		 647.54082			43045.11485		134.44800		875.00000 
 43692.65567		 305.27265			43387.38302		65.60400		324.00000 
 43692.65567		 647.54082			43045.11485		134.44800		875.00000 
 43692.65567		 305.27265			43387.38302		65.60400		324.00000 
 43692.65567		 647.54082			43045.11485		134.44800		875.00000 
 43692.65567		 305.27265			43387.38302		65.60400		324.00000 
 43692.65567		 647.54082			43045.11485		134.44800		875.00000 
 43692.65567		 305.27265			43387.38302		66.69000		324.00000 
 43692.65567		 647.54082			43045.11485		134.44800		875.00000 
 43692.65567		 305.27265			43387.38302		66.69000		324.00000 
 43692.65567		 647.54082			43045.11485		134.44800		875.00000 
 43692.65567		 305.27265			43387.38302		66.69000		324.00000 
 43692.65567		 647.54082			43045.11485		134.44800		875.00000 
 43692.65567		 305.27265			43387.38302		66.69000		324.00000 
 43692.65567		 647.54082			43045.11485		134.44800		875.00000 
 43692.65567		 305.27265			43387.38302		66.69000		324.00000 
 43692.65567		 647.54082			43045.11485		134.44800		875.00000 
 43692.65567		 305.27265			43387.38302		66.69000		324.00000 
 43692.65567		 647.54082			43045.11485		134.44800		875.00000 
 43692.65567		 305.27265			43387.38302		66.69000		324.00000 
 43692.65567		 647.54082			43045.11485		134.44800		875.00000 
 43692.65567		 305.27265			43387.38302		66.69000		324.00000 
 43692.65567		 647.54082			43045.11485		134.44800		875.00000 
 43692.65567		 305.27265			43387.38302		66.69000		324.00000 
 43692.65567		 647.54082			43045.11485		134.44800		875.00000 
 43692.65567		 305.27265			43387.38302		66.69000		324.00000 
 43692.65567		 647.54082			43045.11485		134.44800		875.00000 
 43692.65567		 305.27265			43387.38302		66.69000		324.00000 
 43692.65567		 647.54082			43045.11485		134.44800		875.00000 
 43692.65567		 305.27265			43387.38302		66.69000		324.00000 
 43692.65567		 647.54082			43045.11485		134.44800		875.00000 
 43692.65567		 305.27265			43387.38302		66.69000		324.00000 
 43692.65567		 647.54082			43045.11485		134.44800		875.00000 
 43692.65567		 305.27265			43387.38302		66.69000		324.00000 
 43692.65567		 647.54082			43045.11485		134.44800		875.00000 
 43692.65567		 305.27265			43387.38302		66.69000		324.00000 
 43692.65567		 647.54082			43045.11485		134.44800		875.00000 
 43692.65567		 305.27265			43387.38302		66.69000		324.00000 
 43692.65567		 647.54082			43045.11485		134.44800		875.00000 
 43692.65567		 305.27265			43387.38302		66.69000		324.00000 
 43692.65567		 647.54082			43045.11485		134.44800		875.00000 
 43692.65567		 305.27265			43387.38302		66.69000		324.00000 
 43692.65567		 647.54082			43045.11485		134.44800		875.00000 
 43692.65567		 305.27265			43387.38302		66.69000		324.00000 
 43692.65567		 647.54082			43045.11485		134.44800		875.00000 
 43692.65567		 305.27265			43387.38302		66.69000		324.00000 
 43692.65567		 647.54082			43045.11485		134.44800		875.00000 
 43692.65567		 305.27265			43387.38302		66.69000		324.00000 
 43692.65567		 647.54082			43045.11485		134.44800		875.00000 
 43692.65567		 305.27265			43387.38302		66.69000		324.00000 
 43692.65567		 647.54082			43045.11485		134.44800		875.00000 
 43692.65567		 305.27265			43387.38302		66.69000		324.00000 
 43692.65567		 647.54082			43045.11485		134.44800		875.00000 
 43692.65567		 305.27265			43387.38302		66.69000		324.00000 
 43692.65567		 647.54082			43045.11485		134.44800		875.00000 
 43692.65567		 305.27265			43387.38302		66.69000		324.00000 
 43692.65567		 647.54082			43045.11485		134.44800		875.00000 
 43692.65567		 305.27265			43387.38302		66.69000		324.00000 
 43692.65567		 647.54082			43045.11485		134.44800		875.00000 
 43692.65567		 305.27265			43387.38302		66.69000		324.00000 
 43692.65567		 647.54082			43045.11485		134.44800		875.00000 
 43692.65567		 305.27265			43387.38302		66.69000		324.00000 
 43692.65567		 647.54082			43045.11485		134.44800		875.00000 
 43692.65567		 305.27265			43387.38302		66.69000		324.00000 
 43692.65567		 647.54082			43045.11485		134.44800		875.00000 
 43692.65567		 305.27265			43387.38302		66.69000		324.00000 
 43692.65567		 647.54082			43045.11485		134.44800		875.00000 
 43692.65567		 305.27265			43387.38302		66.69000		324.00000 
 43692.65567		 647.54082			43045.11485		134.44800		875.00000 
 43692.65567		 305.27265			43387.38302		66.69000		324.00000 
 43692.65567		 647.54082			43045.11485		181.36600		875.00000 
 43692.65567		 305.27265			43387.38302		66.69000		324.00000 
 43692.65567		 647.54082			43045.11485		181.36600		875.00000 
 43692.65567		 305.27265			43387.38302		66.69000		324.00000 
 43692.65567		 647.54082			43045.11485		181.36600		875.00000 
 43692.65567		 305.27265			43387.38302		66.69000		324.00000 
 43692.65567		 647.54082			43045.11485		181.36600		875.00000 
 43692.65567		 305.27265			43387.38302		66.69000		324.00000 
 43692.65567		 647.54082			43045.11485		181.36600		875.00000 
 43692.65567		 305.27265			43387.38302		66.69000		324.00000 
 43692.65567		 647.54082			43045.11485		181.36600		875.00000 
 43692.65567		 305.27265			43387.38302		66.69000		324.00000 
 43692.65567		 647.54082			43045.11485		181.36600		875.00000 
 43692.65567		 305.27265			43387.38302		66.69000		324.00000 
 43692.65567		 647.54082			43045.11485		181.36600		875.00000 
 43692.65567		 305.27265			43387.38302		66.69000		324.00000 
 43692.65567		 647.54082			43045.11485		181.36600		875.00000 
 43692.65567		 305.27265			43387.38302		66.69000		324.00000 
 43692.65567		 647.54082			43045.11485		181.36600		875.00000 
 43692.65567		 305.27265			43387.38302		66.69000		324.00000 
 43692.65567		 647.54082			43045.11485		181.36600		875.00000 
 43692.65567		 305.27265			43387.38302		66.69000		324.00000 
 43692.65567		 647.54082			43045.11485		181.36600		875.00000 
 43692.65567		 305.27265			43387.38302		66.69000		324.00000 
 43692.65567		 647.54082			43045.11485		181.36600		875.00000 
 43692.65567		 305.27265			43387.38302		66.69000		324.00000 
 43692.65567		 647.54082			43045.11485		181.36600		875.00000 
 43692.65567		 305.27265			43387.38302		66.69000		324.00000 
 43692.65567		 647.54082			43045.11485		181.36600		875.00000 
 43692.65567		 305.27265			43387.38302		66.69000		324.00000 
 43692.65567		 647.54082			43045.11485		181.36600		875.00000 
 43692.65567		 305.27265			43387.38302		66.69000		324.00000 
 43692.65567		 647.54082			43045.11485		181.36600		875.00000 
 43692.65567		 305.27265			43387.38302		66.69000		324.00000 
 43692.65567		 647.54082			43045.11485		181.36600		875.00000 
 43692.65567		 305.27265			43387.38302		66.69000		324.00000 
 43692.65567		 647.54082			43045.11485		181.36600		875.00000 
 43692.65567		 305.27265			43387.38302		66.69000		324.00000 
 43692.65567		 647.54082			43045.11485		181.36600		875.00000 
 43692.65567		 305.27265			43387.38302		66.69000		324.00000 
 43692.65567		 647.54082			43045.11485		181.36600		875.00000 
 43692.65567		 305.27265			43387.38302		66.69000		324.00000 
 43692.65567		 647.54082			43045.11485		181.36600		875.00000 
 43692.65567		 305.27265			43387.38302		66.69000		324.00000 
 43692.65567		 647.54082			43045.11485		181.36600		875.00000 
 43692.65567		 305.27265			43387.38302		66.69000		324.00000 
 43692.65567		 647.54082			43045.11485		181.36600		875.00000 
 43692.65567		 305.27265			43387.38302		66.69000		324.00000 
 43692.65567		 647.54082			43045.11485		181.36600		875.00000 
 43692.65567		 305.27265			43387.38302		66.69000		324.00000 
 43692.65567		 647.54082			43045.11485		181.36600		875.00000 
 43692.65567		 305.27265			43387.38302		66.69000		324.00000 
 43692.65567		 647.54082			43045.11485		181.36600		875.00000 
 43692.65567		 305.27265			43387.38302		66.69000		324.00000 
 43692.65567		 647.54082			43045.11485		181.36600		875.00000 
 43692.65567		 305.27265			43387.38302		66.69000		324.00000 
 43692.65567		 647.54082			43045.11485		181.36600		875.00000 
 43692.65567		 305.27265			43387.38302		66.69000		324.00000 
 43692.65567		 647.54082			43045.11485		181.36600		875.00000 
 43692.65567		 305.27265			43387.38302		66.69000		324.00000 
 43692.65567		 647.54082			43045.11485		181.36600		875.00000 
 43692.65567		 305.27265			43387.38302		66.69000		324.00000 
 43692.65567		 647.54082			43045.11485		181.36600		875.00000 
 43692.65567		 305.27265			43387.38302		66.69000		324.00000 
 43692.65567		 647.54082			43045.11485		181.36600		875.00000 
 43692.65567		 305.27265			43387.38302		66.69000		324.00000 
 43692.65567		 647.54082			43045.11485		181.36600		875.00000 
 43692.65567		 305.27265			43387.38302		66.69000		324.00000 
 43692.65567		 647.54082			43045.11485		181.36600		875.00000 
 43692.65567		 305.27265			43387.38302		66.69000		324.00000 
 43692.65567		 647.54082			43045.11485		181.36600		875.00000 
 43692.65567		 305.27265			43387.38302		66.69000		324.00000 
 43692.65567		 647.54082			43045.11485		181.36600		875.00000 
 43692.65567		 305.27265			43387.38302		66.69000		324.00000 
 43692.65567		 647.54082			43045.11485		181.36600		875.00000 
 43692.65567		 305.27265			43387.38302		66.69000		324.00000 
 43692.65567		 647.54082			43045.11485		181.36600		875.00000 
 43692.65567		 305.27265			43387.38302		66.69000		324.00000 
 43692.65567		 647.54082			43045.11485		181.36600		875.00000 
 43692.65567		 305.27265			43387.38302		66.69000		324.00000 
 43692.65567		 647.54082			43045.11485		181.36600		875.00000 
 43692.65567		 305.27265			43387.38302		66.69000		324.00000 
 43692.65567		 647.54082			43045.11485		181.36600		875.00000 
 43692.65567		 305.27265			43387.38302		66.69000		324.00000 
 43692.65567		 647.54082			43045.11485		181.36600		875.00000 
 43692.65567		 305.27265			43387.38302		66.69000		324.00000 
 43692.65567		 647.54082			43045.11485		181.36600		875.00000 
 43692.65567		 305.27265			43387.38302		66.69000		324.00000 
 43692.65567		 647.54082			43045.11485		181.36600		875.00000 
 43692.65567		 305.27265			43387.38302		66.69000		324.00000 
 43692.65567		 647.54082			43045.11485		181.36600		875.00000 
 43692.65567		 305.27265			43387.38302		66.69000		324.00000 
 43692.65567		 647.54082			43045.11485		181.36600		875.00000 
 43692.65567		 305.27265			43387.38302		66.69000		324.00000 
 43692.65567		 647.54082			43045.11485		181.36600		875.00000 
 43692.65567		 305.27265			43387.38302		66.69000		324.00000 
 43692.65567		 647.54082			43045.11485		181.36600		875.00000 
 43692.65567		 305.27265			43387.38302		66.69000		324.00000 
 43692.65567		 647.54082			43045.11485		181.36600		875.00000 
 43692.65567		 305.27265			43387.38302		66.69000		324.00000 
 43692.65567		 647.54082			43045.11485		181.36600		875.00000 
 43692.65567		 305.27265			43387.38302		66.69000		324.00000 
 43692.65567		 647.54082			43045.11485		181.36600		875.00000 
 43692.65567		 305.27265			43387.38302		66.69000		324.00000 
 43692.65567		 647.54082			43045.11485		181.36600		875.00000 
 43692.65567		 305.27265			43387.38302		66.69000		324.00000 
 43692.65567		 647.54082			43045.11485		181.36600		875.00000 
 43692.65567		 305.27265			43387.38302		66.69000		324.00000 
 43692.65567		 647.54082			43045.11485		181.36600		875.00000 
 43692.65567		 305.27265			43387.38302		66.69000		324.00000 
 43692.65567		 647.54082			43045.11485		181.36600		875.00000 
 43692.65567		 305.27265			43387.38302		66.69000		324.00000 
 43692.65567		 647.54082			43045.11485		181.36600		875.00000 
 43692.65567		 305.27265			43387.38302		66.69000		324.00000 
 43692.65567		 647.54082			43045.11485		181.36600		875.00000 
 43692.65567		 305.27265			43387.38302		66.69000		324.00000 
 43692.65567		 647.54082			43045.11485		181.36600		875.00000 
 43692.65567		 305.27265			43387.38302		66.69000		324.00000 
 43692.65567		 647.54082			43045.11485		181.36600		875.00000 
 43692.65567		 305.27265			43387.38302		66.69000		324.00000 
 43692.65567		 647.54082			43045.11485		181.36600		875.00000 
 43692.65567		 305.27265			43387.38302		66.69000		324.00000 
 43692.65567		 647.54082			43045.11485		181.36600		875.00000 
 43692.65567		 305.27265			43387.38302		66.69000		324.00000 
 43692.65567		 647.54082			43045.11485		181.36600		875.00000 
 43692.65567		 305.27265			43387.38302		66.69000		324.00000 
 43692.65567		 647.54082			43045.11485		181.36600		875.00000 
 43692.65567		 305.27265			43387.38302		66.69000		324.00000 
 43692.65567		 647.54082			43045.11485		204.90800		875.00000 
 43692.65567		 305.27265			43387.38302		66.69000		324.00000 
 43692.65567		 647.54082			43045.11485		204.90800		875.00000 
 43692.65567		 305.27265			43387.38302		66.69000		324.00000 
 43692.65567		 647.54082			43045.11485		204.90800		875.00000 
 43692.65567		 305.27265			43387.38302		66.69000		324.00000 
 43692.65567		 647.54082			43045.11485		204.90800		875.00000 
 43692.65567		 305.27265			43387.38302		66.69000		324.00000 
 43692.65567		 647.54082			43045.11485		204.90800		875.00000 
 43692.65567		 305.27265			43387.38302		66.69000		324.00000 
 43692.65567		 647.54082			43045.11485		204.90800		875.00000 
 43692.65567		 305.27265			43387.38302		66.69000		324.00000 
 43692.65567		 647.54082			43045.11485		204.90800		875.00000 
 43692.65567		 305.27265			43387.38302		66.69000		324.00000 
 43692.65567		 647.54082			43045.11485		204.90800		875.00000 
 43692.65567		 305.27265			43387.38302		66.69000		324.00000 
 43692.65567		 647.54082			43045.11485		204.90800		875.00000 
 43692.65567		 305.27265			43387.38302		66.69000		324.00000 
 43692.65567		 647.54082			43045.11485		204.90800		875.00000 
 43692.65567		 305.27265			43387.38302		66.69000		324.00000 
 43692.65567		 647.54082			43045.11485		204.90800		875.00000 
 43692.65567		 305.27265			43387.38302		66.69000		324.00000 
 43692.65567		 647.54082			43045.11485		204.90800		875.00000 
 43692.65567		 305.27265			43387.38302		66.69000		324.00000 
 43692.65567		 647.54082			43045.11485		204.90800		875.00000 
 43692.65567		 305.27265			43387.38302		66.69000		324.00000 
 43692.65567		 647.54082			43045.11485		204.90800		875.00000 
 43692.65567		 305.27265			43387.38302		66.69000		324.00000 
 43692.65567		 647.54082			43045.11485		204.90800		875.00000 
 43692.65567		 305.27265			43387.38302		66.69000		324.00000 
 43692.65567		 647.54082			43045.11485		204.90800		875.00000 
 43692.65567		 305.27265			43387.38302		66.69000		324.00000 
 43692.65567		 647.54082			43045.11485		204.90800		875.00000 
 43692.65567		 305.27265			43387.38302		66.69000		324.00000 
 43692.65567		 647.54082			43045.11485		204.90800		875.00000 
 43692.65567		 305.27265			43387.38302		66.69000		324.00000 
 43692.65567		 647.54082			43045.11485		204.90800		875.00000 
 43692.65567		 305.27265			43387.38302		66.69000		324.00000 
 43692.65567		 647.54082			43045.11485		204.90800		875.00000 
 43692.65567		 305.27265			43387.38302		66.69000		324.00000 
 43692.65567		 647.54082			43045.11485		204.90800		875.00000 
 43692.65567		 305.27265			43387.38302		66.69000		324.00000 
 43692.65567		 647.54082			43045.11485		204.90800		875.00000 
 43692.65567		 305.27265			43387.38302		66.69000		324.00000 
 43692.65567		 647.54082			43045.11485		204.90800		875.00000 
 43692.65567		 305.27265			43387.38302		66.69000		324.00000 
 43692.65567		 647.54082			43045.11485		204.90800		875.00000 
 43692.65567		 305.27265			43387.38302		66.69000		324.00000 
 43692.65567		 647.54082			43045.11485		204.90800		875.00000 
 43692.65567		 305.27265			43387.38302		66.69000		324.00000 
 43692.65567		 647.54082			43045.11485		204.90800		875.00000 
 43692.65567		 305.27265			43387.38302		66.69000		324.00000 
 43692.65567		 647.54082			43045.11485		204.90800		875.00000 
 43692.65567		 305.27265			43387.38302		66.69000		324.00000 
 43692.65567		 647.54082			43045.11485		204.90800		875.00000 
 43692.65567		 305.27265			43387.38302		66.69000		324.00000 
 43692.65567		 647.54082			43045.11485		204.90800		875.00000 
 43692.65567		 305.27265			43387.38302		66.69000		324.00000 
 43692.65567		 647.54082			43045.11485		204.90800		875.00000 
 43692.65567		 305.27265			43387.38302		66.69000		324.00000 
 43692.65567		 647.54082			43045.11485		204.90800		875.00000 
 43692.65567		 305.27265			43387.38302		66.69000		324.00000 
 43692.65567		 647.54082			43045.11485		204.90800		875.00000 
 43692.65567		 305.27265			43387.38302		66.69000		324.00000 
 43692.65567		 647.54082			43045.11485		204.90800		875.00000 
 43692.65567		 305.27265			43387.38302		66.69000		324.00000 
 43692.65567		 647.54082			43045.11485		204.90800		875.00000 
 43692.65567		 305.27265			43387.38302		66.69000		324.00000 
 43692.65567		 647.54082			43045.11485		204.90800		875.00000 
 43692.65567		 305.27265			43387.38302		66.69000		324.00000 
 43692.65567		 647.54082			43045.11485		204.90800		875.00000 
 43692.65567		 305.27265			43387.38302		66.69000		324.00000 
 43692.65567		 647.54082			43045.11485		204.90800		875.00000 
 43692.65567		 305.27265			43387.38302		66.69000		324.00000 
 43692.65567		 647.54082			43045.11485		204.90800		875.00000 
 43692.65567		 305.27265			43387.38302		66.69000		324.00000 
 43692.65567		 647.54082			43045.11485		204.90800		875.00000 
 43692.65567		 305.27265			43387.38302		66.69000		324.00000 
 43692.65567		 647.54082			43045.11485		204.90800		875.00000 
 43692.65567		 305.27265			43387.38302		66.69000		324.00000 
 43692.65567		 647.54082			43045.11485		204.90800		875.00000 
 43692.65567		 305.27265			43387.38302		66.69000		324.00000 
 43692.65567		 647.54082			43045.11485		204.90800		875.00000 
 43692.65567		 305.27265			43387.38302		66.69000		324.00000 
 43692.65567		 647.54082			43045.11485		204.90800		875.00000 
 43692.65567		 305.27265			43387.38302		66.69000		324.00000 
 43692.65567		 647.54082			43045.11485		204.90800		875.00000 
 43692.65567		 305.27265			43387.38302		66.69000		324.00000 
 43692.65567		 647.54082			43045.11485		204.90800		875.00000 
 43692.65567		 305.27265			43387.38302		66.69000		324.00000 
 43692.65567		 647.54082			43045.11485		204.90800		875.00000 
 43692.65567		 305.27265			43387.38302		66.69000		324.00000 
 43692.65567		 647.54082			43045.11485		204.90800		875.00000 
 43692.65567		 305.27265			43387.38302		66.69000		324.00000 
 43692.65567		 647.54082			43045.11485		204.90800		875.00000 
 43692.65567		 305.27265			43387.38302		66.69000		324.00000 
 43692.65567		 647.54082			43045.11485		204.90800		875.00000 
 43692.65567		 305.27265			43387.38302		66.69000		324.00000 
 43692.65567		 647.54082			43045.11485		204.90800		875.00000 
 43692.65567		 305.27265			43387.38302		66.69000		324.00000 
 43692.65567		 647.54082			43045.11485		204.90800		875.00000 
 43692.65567		 305.27265			43387.38302		66.69000		324.00000 
 43692.65567		 647.54082			43045.11485		204.90800		875.00000 
 43692.65567		 305.27265			43387.38302		66.69000		324.00000 
 43692.65567		 647.54082			43045.11485		204.90800		875.00000 
 43692.65567		 305.27265			43387.38302		66.69000		324.00000 
 43692.65567		 647.54082			43045.11485		204.90800		875.00000 
 43692.65567		 305.27265			43387.38302		66.69000		324.00000 
 43692.65567		 647.54082			43045.11485		204.90800		875.00000 
 43692.65567		 305.27265			43387.38302		66.69000		324.00000 
 43692.65567		 647.54082			43045.11485		204.90800		875.00000 
 43692.65567		 305.27265			43387.38302		66.69000		324.00000 
 43692.65567		 647.54082			43045.11485		204.90800		875.00000 
 43692.65567		 305.27265			43387.38302		66.69000		324.00000 
 43692.65567		 647.54082			43045.11485		204.90800		875.00000 
 43692.65567		 305.27265			43387.38302		66.69000		324.00000 
 43692.65567		 647.54082			43045.11485		204.90800		875.00000 
 43692.65567		 305.27265			43387.38302		66.69000		324.00000 
 43692.65567		 647.54082			43045.11485		204.90800		875.00000 
 43692.65567		 305.27265			43387.38302		66.69000		324.00000 
 43692.65567		 647.54082			43045.11485		204.90800		875.00000 
 43692.65567		 305.27265			43387.38302		66.69000		324.00000 
 43692.65567		 647.54082			43045.11485		204.90800		875.00000 
 43692.65567		 305.27265			43387.38302		66.69000		324.00000 
 43692.65567		 647.54082			43045.11485		204.90800		875.00000 
 43692.65567		 305.27265			43387.38302		66.69000		324.00000 
 43692.65567		 647.54082			43045.11485		204.90800		875.00000 
 43692.65567		 305.27265			43387.38302		66.69000		324.00000 
 43692.65567		 647.54082			43045.11485		214.13600		875.00000 
 43692.65567		 305.27265			43387.38302		66.69000		324.00000 
 43692.65567		 647.54082			43045.11485		214.13600		875.00000 
 43692.65567		 305.27265			43387.38302		66.69000		324.00000 
 43692.65567		 647.54082			43045.11485		214.13600		875.00000 
 43692.65567		 305.27265			43387.38302		66.69000		324.00000 
 43692.65567		 647.54082			43045.11485		214.13600		875.00000 
 43692.65567		 305.27265			43387.38302		66.69000		324.00000 
 43692.65567		 647.54082			43045.11485		214.13600		875.00000 
 43692.65567		 305.27265			43387.38302		66.69000		324.00000 
 43692.65567		 647.54082			43045.11485		214.13600		875.00000 
 43692.65567		 305.27265			43387.38302		66.69000		324.00000 
 43692.65567		 647.54082			43045.11485		214.13600		875.00000 
 43692.65567		 305.27265			43387.38302		66.69000		324.00000 
 43692.65567		 647.54082			43045.11485		214.13600		875.00000 
 43692.65567		 305.27265			43387.38302		66.69000		324.00000 
 43692.65567		 647.54082			43045.11485		214.13600		875.00000 
 43692.65567		 305.27265			43387.38302		66.69000		324.00000 
 43692.65567		 647.54082			43045.11485		214.13600		875.00000 
 43692.65567		 305.27265			43387.38302		66.69000		324.00000 
 43692.65567		 647.54082			43045.11485		214.13600		875.00000 
 43692.65567		 305.27265			43387.38302		66.69000		324.00000 
 43692.65567		 647.54082			43045.11485		214.13600		875.00000 
 43692.65567		 305.27265			43387.38302		66.69000		324.00000 
 43692.65567		 647.54082			43045.11485		214.13600		875.00000 
 43692.65567		 305.27265			43387.38302		66.69000		324.00000 
 43692.65567		 647.54082			43045.11485		214.13600		875.00000 
 43692.65567		 305.27265			43387.38302		66.69000		324.00000 
 43692.65567		 647.54082			43045.11485		214.13600		875.00000 
 43692.65567		 305.27265			43387.38302		66.69000		324.00000 
 43692.65567		 647.54082			43045.11485		214.13600		875.00000 
 43692.65567		 305.27265			43387.38302		66.69000		324.00000 
 43692.65567		 647.54082			43045.11485		214.13600		875.00000 
 43692.65567		 305.27265			43387.38302		66.69000		324.00000 
 43692.65567		 647.54082			43045.11485		214.13600		875.00000 
 43692.65567		 305.27265			43387.38302		66.69000		324.00000 
 43692.65567		 647.54082			43045.11485		214.13600		875.00000 
 43692.65567		 305.27265			43387.38302		66.69000		324.00000 
 43692.65567		 647.54082			43045.11485		214.13600		875.00000 
 43692.65567		 305.27265			43387.38302		66.69000		324.00000 
 43692.65567		 647.54082			43045.11485		214.13600		875.00000 
 43692.65567		 305.27265			43387.38302		66.69000		324.00000 
 43692.65567		 647.54082			43045.11485		214.13600		875.00000 
 43692.65567		 305.27265			43387.38302		66.69000		324.00000 
 43692.65567		 647.54082			43045.11485		214.13600		875.00000 
 43692.65567		 305.27265			43387.38302		66.69000		324.00000 
 43692.65567		 647.54082			43045.11485		214.13600		875.00000 
 43692.65567		 305.27265			43387.38302		66.69000		324.00000 
 43692.65567		 647.54082			43045.11485		214.13600		875.00000 
 43692.65567		 305.27265			43387.38302		66.69000		324.00000 
 43692.65567		 647.54082			43045.11485		214.13600		875.00000 
 43692.65567		 305.27265			43387.38302		66.69000		324.00000 
 43692.65567		 647.54082			43045.11485		214.13600		875.00000 
 43692.65567		 305.27265			43387.38302		66.69000		324.00000 
 43692.65567		 647.54082			43045.11485		214.13600		875.00000 
 43692.65567		 305.27265			43387.38302		66.69000		324.00000 
 43692.65567		 647.54082			43045.11485		214.13600		875.00000 
 43692.65567		 305.27265			43387.38302		66.69000		324.00000 
 43692.65567		 647.54082			43045.11485		214.13600		875.00000 
 43692.65567		 305.27265			43387.38302		66.69000		324.00000 
 43692.65567		 647.54082			43045.11485		214.13600		875.00000 
 43692.65567		 305.27265			43387.38302		66.69000		324.00000 
 43692.65567		 647.54082			43045.11485		214.13600		875.00000 
 43692.65567		 305.27265			43387.38302		66.69000		324.00000 
 43692.65567		 647.54082			43045.11485		214.13600		875.00000 
 43692.65567		 305.27265			43387.38302		66.69000		324.00000 
 43692.65567		 647.54082			43045.11485		214.13600		875.00000 
 43692.65567		 305.27265			43387.38302		66.69000		324.00000 
 43692.65567		 647.54082			43045.11485		214.13600		875.00000 
 43692.65567		 305.27265			43387.38302		66.69000		324.00000 
 43692.65567		 647.54082			43045.11485		214.13600		875.00000 
 43692.65567		 305.27265			43387.38302		66.69000		324.00000 
 43692.65567		 647.54082			43045.11485		214.13600		875.00000 
 43692.65567		 305.27265			43387.38302		66.69000		324.00000 
 43692.65567		 647.54082			43045.11485		214.13600		875.00000 
 43692.65567		 305.27265			43387.38302		66.69000		324.00000 
 43692.65567		 647.54082			43045.11485		214.13600		875.00000 
 43692.65567		 305.27265			43387.38302		66.69000		324.00000 
 43692.65567		 647.54082			43045.11485		214.13600		875.00000 
 43692.65567		 305.27265			43387.38302		66.69000		324.00000 
 43692.65567		 647.54082			43045.11485		214.13600		875.00000 
 43692.65567		 305.27265			43387.38302		66.69000		324.00000 
 43692.65567		 647.54082			43045.11485		214.13600		875.00000 
 43692.65567		 305.27265			43387.38302		66.69000		324.00000 
 43692.65567		 647.54082			43045.11485		214.13600		875.00000 
 43692.65567		 305.27265			43387.38302		66.69000		324.00000 
 43692.65567		 647.54082			43045.11485		214.13600		875.00000 
 43692.65567		 305.27265			43387.38302		66.69000		324.00000 
 43692.65567		 647.54082			43045.11485		214.13600		875.00000 
 43692.65567		 305.27265			43387.38302		66.69000		324.00000 
 43692.65567		 647.54082			43045.11485		214.13600		875.00000 
 43692.65567		 305.27265			43387.38302		66.69000		324.00000 
 43692.65567		 647.54082			43045.11485		214.13600		875.00000 
 43692.65567		 305.27265			43387.38302		66.69000		324.00000 
 43692.65567		 647.54082			43045.11485		214.13600		875.00000 
 43692.65567		 305.27265			43387.38302		66.69000		324.00000 
 43692.65567		 647.54082			43045.11485		214.13600		875.00000 
 43692.65567		 305.27265			43387.38302		66.69000		324.00000 
 43692.65567		 647.54082			43045.11485		214.13600		875.00000 
 43692.65567		 305.27265			43387.38302		66.69000		324.00000 
 43692.65567		 647.54082			43045.11485		214.13600		875.00000 
 43692.65567		 305.27265			43387.38302		66.69000		324.00000 
 43692.65567		 647.54082			43045.11485		214.13600		875.00000 
 43692.65567		 305.27265			43387.38302		66.69000		324.00000 
 43692.65567		 647.54082			43045.11485		214.13600		875.00000 
 43692.65567		 305.27265			43387.38302		66.69000		324.00000 
 43692.65567		 647.54082			43045.11485		214.13600		875.00000 
 43692.65567		 305.27265			43387.38302		66.69000		324.00000 
 43692.65567		 647.54082			43045.11485		214.13600		875.00000 
 43692.65567		 305.27265			43387.38302		66.69000		324.00000 
 43692.65567		 647.54082			43045.11485		214.13600		875.00000 
 43692.65567		 305.27265			43387.38302		66.69000		324.00000 
 43692.65567		 647.54082			43045.11485		214.13600		875.00000 
 43692.65567		 305.27265			43387.38302		66.69000		324.00000 
 43692.65567		 647.54082			43045.11485		214.13600		875.00000 
 43692.65567		 305.27265			43387.38302		66.69000		324.00000 
 43692.65567		 647.54082			43045.11485		214.13600		875.00000 
 43692.65567		 305.27265			43387.38302		66.69000		324.00000 
 43692.65567		 647.54082			43045.11485		214.13600		875.00000 
 43692.65567		 305.27265			43387.38302		66.69000		324.00000 
 43692.65567		 647.54082			43045.11485		214.13600		875.00000 
 43692.65567		 305.27265			43387.38302		66.69000		324.00000 
 43692.65567		 647.54082			43045.11485		214.13600		875.00000 
 43692.65567		 305.27265			43387.38302		66.69000		324.00000 
 43692.65567		 647.54082			43045.11485		214.13600		875.00000 
 43692.65567		 305.27265			43387.38302		66.69000		324.00000 
 43692.65567		 647.54082			43045.11485		214.13600		875.00000 
 43692.65567		 305.27265			43387.38302		66.69000		324.00000 
 43692.65567		 647.54082			43045.11485		218.17000		875.00000 
 43692.65567		 305.27265			43387.38302		66.69000		324.00000 
 43692.65567		 647.54082			43045.11485		218.17000		875.00000 
 43692.65567		 305.27265			43387.38302		66.69000		324.00000 
 43692.65567		 647.54082			43045.11485		218.17000		875.00000 
 43692.65567		 305.27265			43387.38302		66.69000		324.00000 
 43692.65567		 647.54082			43045.11485		218.17000		875.00000 
 43692.65567		 305.27265			43387.38302		66.69000		324.00000 
 43692.65567		 647.54082			43045.11485		218.17000		875.00000 
 43692.65567		 305.27265			43387.38302		66.69000		324.00000 
 43692.65567		 647.54082			43045.11485		218.17000		875.00000 
 43692.65567		 305.27265			43387.38302		66.69000		324.00000 
 43692.65567		 647.54082			43045.11485		218.17000		875.00000 
 43692.65567		 305.27265			43387.38302		66.69000		324.00000 
 43692.65567		 647.54082			43045.11485		218.17000		875.00000 
 43692.65567		 305.27265			43387.38302		66.69000		324.00000 
 43692.65567		 647.54082			43045.11485		218.17000		875.00000 
 43692.65567		 305.27265			43387.38302		66.69000		324.00000 
 43692.65567		 647.54082			43045.11485		218.17000		875.00000 
 43692.65567		 305.27265			43387.38302		66.69000		324.00000 
 43692.65567		 647.54082			43045.11485		218.17000		875.00000 
 43692.65567		 305.27265			43387.38302		66.69000		324.00000 
 43692.65567		 647.54082			43045.11485		218.17000		875.00000 
 43692.65567		 305.27265			43387.38302		66.69000		324.00000 
 43692.65567		 647.54082			43045.11485		218.17000		875.00000 
 43692.65567		 305.27265			43387.38302		66.69000		324.00000 
 43692.65567		 647.54082			43045.11485		218.17000		875.00000 
 43692.65567		 305.27265			43387.38302		66.69000		324.00000 
 43692.65567		 647.54082			43045.11485		218.17000		875.00000 
 43692.65567		 305.27265			43387.38302		66.69000		324.00000 
 43692.65567		 647.54082			43045.11485		218.17000		875.00000 
 43692.65567		 305.27265			43387.38302		66.69000		324.00000 
 43692.65567		 647.54082			43045.11485		218.17000		875.00000 
 43692.65567		 305.27265			43387.38302		66.69000		324.00000 
 43692.65567		 647.54082			43045.11485		218.17000		875.00000 
 43692.65567		 305.27265			43387.38302		66.69000		324.00000 
 43692.65567		 647.54082			43045.11485		218.17000		875.00000 
 43692.65567		 305.27265			43387.38302		66.69000		324.00000 
 43692.65567		 647.54082			43045.11485		218.17000		875.00000 
 43692.65567		 305.27265			43387.38302		66.69000		324.00000 
 43692.65567		 647.54082			43045.11485		218.17000		875.00000 
 43692.65567		 305.27265			43387.38302		66.69000		324.00000 
 43692.65567		 647.54082			43045.11485		218.17000		875.00000 
 43692.65567		 305.27265			43387.38302		66.69000		324.00000 
 43692.65567		 647.54082			43045.11485		218.17000		875.00000 
 43692.65567		 305.27265			43387.38302		66.69000		324.00000 
 43692.65567		 647.54082			43045.11485		218.17000		875.00000 
 43692.65567		 305.27265			43387.38302		66.69000		324.00000 
 43692.65567		 647.54082			43045.11485		218.17000		875.00000 
 43692.65567		 305.27265			43387.38302		66.69000		324.00000 
 43692.65567		 647.54082			43045.11485		218.17000		875.00000 
 43692.65567		 305.27265			43387.38302		66.69000		324.00000 
 43692.65567		 647.54082			43045.11485		218.17000		875.00000 
 43692.65567		 305.27265			43387.38302		66.69000		324.00000 
 43692.65567		 647.54082			43045.11485		218.17000		875.00000 
 43692.65567		 305.27265			43387.38302		66.69000		324.00000 
 43692.65567		 647.54082			43045.11485		218.17000		875.00000 
 43692.65567		 305.27265			43387.38302		66.69000		324.00000 
 43692.65567		 647.54082			43045.11485		218.17000		875.00000 
 43692.65567		 305.27265			43387.38302		66.69000		324.00000 
 43692.65567		 647.54082			43045.11485		218.17000		875.00000 
 43692.65567		 305.27265			43387.38302		66.69000		324.00000 
 43692.65567		 647.54082			43045.11485		218.17000		875.00000 
 43692.65567		 305.27265			43387.38302		66.69000		324.00000 
 43692.65567		 647.54082			43045.11485		218.17000		875.00000 
 43692.65567		 305.27265			43387.38302		66.69000		324.00000 
 43692.65567		 647.54082			43045.11485		218.17000		875.00000 
 43692.65567		 305.27265			43387.38302		66.69000		324.00000 
 43692.65567		 647.54082			43045.11485		218.17000		875.00000 
 43692.65567		 305.27265			43387.38302		66.69000		324.00000 
 43692.65567		 647.54082			43045.11485		218.17000		875.00000 
 43692.65567		 305.27265			43387.38302		66.69000		324.00000 
 43692.65567		 647.54082			43045.11485		218.17000		875.00000 
 43692.65567		 305.27265			43387.38302		66.69000		324.00000 
 43692.65567		 647.54082			43045.11485		218.17000		875.00000 
 43692.65567		 305.27265			43387.38302		66.69000		324.00000 
 43692.65567		 647.54082			43045.11485		218.17000		875.00000 
 43692.65567		 305.27265			43387.38302		66.69000		324.00000 
 43692.65567		 647.54082			43045.11485		218.17000		875.00000 
 43692.65567		 305.27265			43387.38302		66.69000		324.00000 
 43692.65567		 647.54082			43045.11485		218.17000		875.00000 
 43692.65567		 305.27265			43387.38302		66.69000		324.00000 
 43692.65567		 647.54082			43045.11485		218.17000		875.00000 
 43692.65567		 305.27265			43387.38302		66.69000		324.00000 
 43692.65567		 647.54082			43045.11485		218.17000		875.00000 
 43692.65567		 305.27265			43387.38302		66.69000		324.00000 
 43692.65567		 647.54082			43045.11485		218.17000		875.00000 
 43692.65567		 305.27265			43387.38302		66.69000		324.00000 
 43692.65567		 647.54082			43045.11485		218.17000		875.00000 
 43692.65567		 305.27265			43387.38302		66.69000		324.00000 
 43692.65567		 647.54082			43045.11485		218.17000		875.00000 
 43692.65567		 305.27265			43387.38302		66.69000		324.00000 
 43692.65567		 647.54082			43045.11485		218.17000		875.00000 
 43692.65567		 305.27265			43387.38302		66.69000		324.00000 
 43692.65567		 647.54082			43045.11485		218.17000		875.00000 
 43692.65567		 305.27265			43387.38302		66.69000		324.00000 
 43692.65567		 647.54082			43045.11485		218.17000		875.00000 
 43692.65567		 305.27265			43387.38302		66.69000		324.00000 
 43692.65567		 647.54082			43045.11485		218.17000		875.00000 
 43692.65567		 305.27265			43387.38302		66.69000		324.00000 
 43692.65567		 647.54082			43045.11485		218.17000		875.00000 
 43692.65567		 305.27265			43387.38302		66.69000		324.00000 
 43692.65567		 647.54082			43045.11485		218.17000		875.00000 
 43692.65567		 305.27265			43387.38302		66.69000		324.00000 
 43692.65567		 647.54082			43045.11485		218.17000		875.00000 
 43692.65567		 305.27265			43387.38302		66.69000		324.00000 
 43692.65567		 647.54082			43045.11485		218.17000		875.00000 
 43692.65567		 305.27265			43387.38302		66.69000		324.00000 
 43692.65567		 647.54082			43045.11485		218.17000		875.00000 
 43692.65567		 305.27265			43387.38302		66.69000		324.00000 
 43692.65567		 647.54082			43045.11485		218.17000		875.00000 
 43692.65567		 305.27265			43387.38302		66.69000		324.00000 
 43692.65567		 647.54082			43045.11485		218.17000		875.00000 
 43692.65567		 305.27265			43387.38302		66.69000		324.00000 
 43692.65567		 647.54082			43045.11485		218.17000		875.00000 
 43692.65567		 305.27265			43387.38302		66.69000		324.00000 
 43692.65567		 647.54082			43045.11485		218.17000		875.00000 
 43692.65567		 305.27265			43387.38302		66.69000		324.00000 
 43692.65567		 647.54082			43045.11485		218.17000		875.00000 
 43692.65567		 305.27265			43387.38302		66.69000		324.00000 
 43692.65567		 647.54082			43045.11485		218.17000		875.00000 
 43692.65567		 305.27265			43387.38302		66.69000		324.00000 
 43692.65567		 647.54082			43045.11485		218.17000		875.00000 
 43692.65567		 305.27265			43387.38302		66.69000		324.00000 
 43692.65567		 647.54082			43045.11485		218.17000		875.00000 
 43692.65567		 305.27265			43387.38302		66.69000		324.00000 
 43692.65567		 647.54082			43045.11485		218.93400		875.00000 
 43692.65567		 305.27265			43387.38302		66.69000		324.00000 
 43692.65567		 647.54082			43045.11485		218.93400		875.00000 
 43692.65567		 305.27265			43387.38302		66.69000		324.00000 
 43692.65567		 647.54082			43045.11485		218.93400		875.00000 
 43692.65567		 305.27265			43387.38302		66.69000		324.00000 
 43692.65567		 647.54082			43045.11485		218.93400		875.00000 
 43692.65567		 305.27265			43387.38302		66.69000		324.00000 
 43692.65567		 647.54082			43045.11485		218.93400		875.00000 
 43692.65567		 305.27265			43387.38302		66.69000		324.00000 
 43692.65567		 647.54082			43045.11485		218.93400		875.00000 
 43692.65567		 305.27265			43387.38302		66.69000		324.00000 
 43692.65567		 647.54082			43045.11485		218.93400		875.00000 
 43692.65567		 305.27265			43387.38302		66.69000		324.00000 
 43692.65567		 647.54082			43045.11485		218.93400		875.00000 
 43692.65567		 305.27265			43387.38302		66.69000		324.00000 
 43692.65567		 647.54082			43045.11485		218.93400		875.00000 
 43692.65567		 305.27265			43387.38302		66.69000		324.00000 
 43692.65567		 647.54082			43045.11485		218.93400		875.00000 
 43692.65567		 305.27265			43387.38302		66.69000		324.00000 
 43692.65567		 647.54082			43045.11485		218.93400		875.00000 
 43692.65567		 305.27265			43387.38302		66.69000		324.00000 
 43692.65567		 647.54082			43045.11485		218.93400		875.00000 
 43692.65567		 305.27265			43387.38302		66.69000		324.00000 
 43692.65567		 647.54082			43045.11485		218.93400		875.00000 
 43692.65567		 305.27265			43387.38302		66.69000		324.00000 
 43692.65567		 647.54082			43045.11485		218.93400		875.00000 
 43692.65567		 305.27265			43387.38302		66.69000		324.00000 
 43692.65567		 647.54082			43045.11485		218.93400		875.00000 
 43692.65567		 305.27265			43387.38302		66.69000		324.00000 
 43692.65567		 647.54082			43045.11485		218.93400		875.00000 
 43692.65567		 305.27265			43387.38302		66.69000		324.00000 
 43692.65567		 647.54082			43045.11485		218.93400		875.00000 
 43692.65567		 305.27265			43387.38302		66.69000		324.00000 
 43692.65567		 647.54082			43045.11485		218.93400		875.00000 
 43692.65567		 305.27265			43387.38302		66.69000		324.00000 
 43692.65567		 647.54082			43045.11485		218.93400		875.00000 
 43692.65567		 305.27265			43387.38302		66.69000		324.00000 
 43692.65567		 647.54082			43045.11485		218.93400		875.00000 
 43692.65567		 305.27265			43387.38302		66.69000		324.00000 
 43692.65567		 647.54082			43045.11485		218.93400		875.00000 
 43692.65567		 305.27265			43387.38302		66.69000		324.00000 
 43692.65567		 647.54082			43045.11485		218.93400		875.00000 
 43692.65567		 305.27265			43387.38302		66.69000		324.00000 
 43692.65567		 647.54082			43045.11485		218.93400		875.00000 
 43692.65567		 305.27265			43387.38302		66.69000		324.00000 
 43692.65567		 647.54082			43045.11485		218.93400		875.00000 
 43692.65567		 305.27265			43387.38302		66.69000		324.00000 
 43692.65567		 647.54082			43045.11485		218.93400		875.00000 
 43692.65567		 305.27265			43387.38302		66.69000		324.00000 
 43692.65567		 647.54082			43045.11485		218.93400		875.00000 
 43692.65567		 305.27265			43387.38302		66.69000		324.00000 
 43692.65567		 647.54082			43045.11485		218.93400		875.00000 
 43692.65567		 305.27265			43387.38302		66.69000		324.00000 
 43692.65567		 647.54082			43045.11485		218.93400		875.00000 
 43692.65567		 305.27265			43387.38302		66.69000		324.00000 
 43692.65567		 647.54082			43045.11485		218.93400		875.00000 
 43692.65567		 305.27265			43387.38302		66.69000		324.00000 
 43692.65567		 647.54082			43045.11485		218.93400		875.00000 
 43692.65567		 305.27265			43387.38302		66.69000		324.00000 
 43692.65567		 647.54082			43045.11485		218.93400		875.00000 
 43692.65567		 305.27265			43387.38302		66.69000		324.00000 
 43692.65567		 647.54082			43045.11485		218.93400		875.00000 
 43692.65567		 305.27265			43387.38302		66.69000		324.00000 
 43692.65567		 647.54082			43045.11485		218.93400		875.00000 
 43692.65567		 305.27265			43387.38302		66.69000		324.00000 
 43692.65567		 647.54082			43045.11485		218.93400		875.00000 
 43692.65567		 305.27265			43387.38302		66.69000		324.00000 
 43692.65567		 647.54082			43045.11485		218.93400		875.00000 
 43692.65567		 305.27265			43387.38302		66.69000		324.00000 
 43692.65567		 647.54082			43045.11485		218.93400		875.00000 
 43692.65567		 305.27265			43387.38302		66.69000		324.00000 
 43692.65567		 647.54082			43045.11485		218.93400		875.00000 
 43692.65567		 305.27265			43387.38302		66.69000		324.00000 
 43692.65567		 647.54082			43045.11485		218.93400		875.00000 
 43692.65567		 305.27265			43387.38302		66.69000		324.00000 
 43692.65567		 647.54082			43045.11485		218.93400		875.00000 
 43692.65567		 305.27265			43387.38302		66.69000		324.00000 
 43692.65567		 647.54082			43045.11485		218.93400		875.00000 
 43692.65567		 305.27265			43387.38302		66.69000		324.00000 
 43692.65567		 647.54082			43045.11485		218.93400		875.00000 
 43692.65567		 305.27265			43387.38302		66.69000		324.00000 
 43692.65567		 647.54082			43045.11485		218.93400		875.00000 
 43692.65567		 305.27265			43387.38302		66.69000		324.00000 
 43692.65567		 647.54082			43045.11485		218.93400		875.00000 
 43692.65567		 305.27265			43387.38302		66.69000		324.00000 
 43692.65567		 647.54082			43045.11485		218.93400		875.00000 
 43692.65567		 305.27265			43387.38302		66.69000		324.00000 
 43692.65567		 647.54082			43045.11485		218.93400		875.00000 
 43692.65567		 305.27265			43387.38302		66.69000		324.00000 
 43692.65567		 647.54082			43045.11485		218.93400		875.00000 
 43692.65567		 305.27265			43387.38302		66.69000		324.00000 
 43692.65567		 647.54082			43045.11485		218.93400		875.00000 
 43692.65567		 305.27265			43387.38302		66.69000		324.00000 
 43692.65567		 647.54082			43045.11485		218.93400		875.00000 
 43692.65567		 305.27265			43387.38302		66.69000		324.00000 
 43692.65567		 647.54082			43045.11485		218.93400		875.00000 
 43692.65567		 305.27265			43387.38302		66.69000		324.00000 
 43692.65567		 647.54082			43045.11485		218.93400		875.00000 
 43692.65567		 305.27265			43387.38302		66.69000		324.00000 
 43692.65567		 647.54082			43045.11485		218.93400		875.00000 
 43692.65567		 305.27265			43387.38302		66.69000		324.00000 
 43692.65567		 647.54082			43045.11485		218.93400		875.00000 
 43692.65567		 305.27265			43387.38302		66.69000		324.00000 
 43692.65567		 647.54082			43045.11485		218.93400		875.00000 
 43692.65567		 305.27265			43387.38302		66.69000		324.00000 
 43692.65567		 647.54082			43045.11485		218.93400		875.00000 
 43692.65567		 305.27265			43387.38302		66.69000		324.00000 
 43692.65567		 647.54082			43045.11485		218.93400		875.00000 
 43692.65567		 305.27265			43387.38302		66.69000		324.00000 
 43692.65567		 647.54082			43045.11485		218.93400		875.00000 
 43692.65567		 305.27265			43387.38302		66.69000		324.00000 
 43692.65567		 647.54082			43045.11485		218.93400		875.00000 
 43692.65567		 305.27265			43387.38302		66.69000		324.00000 
 43692.65567		 647.54082			43045.11485		218.93400		875.00000 
 43692.65567		 305.27265			43387.38302		66.69000		324.00000 
 43692.65567		 647.54082			43045.11485		218.93400		875.00000 
 43692.65567		 305.27265			43387.38302		66.69000		324.00000 
 43692.65567		 647.54082			43045.11485		218.93400		875.00000 
 43692.65567		 305.27265			43387.38302		66.69000		324.00000 
 43692.65567		 647.54082			43045.11485		218.93400		875.00000 
 43692.65567		 305.27265			43387.38302		66.69000		324.00000 
 43692.65567		 647.54082			43045.11485		218.93400		875.00000 
 43692.65567		 305.27265			43387.38302		66.69000		324.00000 
 43692.65567		 647.54082			43045.11485		218.93400		875.00000 
 43692.65567		 305.27265			43387.38302		66.69000		324.00000 
 43692.65567		 647.54082			43045.11485		219.12400		875.00000 
 43692.65567		 305.27265			43387.38302		66.69000		324.00000 
 43692.65567		 647.54082			43045.11485		219.12400		875.00000 
 43692.65567		 305.27265			43387.38302		66.69000		324.00000 
 43692.65567		 647.54082			43045.11485		219.12400		875.00000 
 43692.65567		 305.27265			43387.38302		66.69000		324.00000 
 43692.65567		 647.54082			43045.11485		219.12400		875.00000 
 43692.65567		 305.27265			43387.38302		66.69000		324.00000 
 43692.65567		 647.54082			43045.11485		219.12400		875.00000 
 43692.65567		 305.27265			43387.38302		66.69000		324.00000 
 43692.65567		 647.54082			43045.11485		219.12400		875.00000 
 43692.65567		 305.27265			43387.38302		66.69000		324.00000 
 43692.65567		 647.54082			43045.11485		219.12400		875.00000 
 43692.65567		 305.27265			43387.38302		66.69000		324.00000 
 43692.65567		 647.54082			43045.11485		219.12400		875.00000 
 43692.65567		 305.27265			43387.38302		66.69000		324.00000 
 43692.65567		 647.54082			43045.11485		219.12400		875.00000 
 43692.65567		 305.27265			43387.38302		66.69000		324.00000 
 43692.65567		 647.54082			43045.11485		219.12400		875.00000 
 43692.65567		 305.27265			43387.38302		66.69000		324.00000 
 43692.65567		 647.54082			43045.11485		219.12400		875.00000 
 43692.65567		 305.27265			43387.38302		66.69000		324.00000 
 43692.65567		 647.54082			43045.11485		219.12400		875.00000 
 43692.65567		 305.27265			43387.38302		66.69000		324.00000 
 43692.65567		 647.54082			43045.11485		219.12400		875.00000 
 43692.65567		 305.27265			43387.38302		66.69000		324.00000 
 43692.65567		 647.54082			43045.11485		219.12400		875.00000 
 43692.65567		 305.27265			43387.38302		66.69000		324.00000 
 43692.65567		 647.54082			43045.11485		219.12400		875.00000 
 43692.65567		 305.27265			43387.38302		66.69000		324.00000 
 43692.65567		 647.54082			43045.11485		219.12400		875.00000 
 43692.65567		 305.27265			43387.38302		66.69000		324.00000 
 43692.65567		 647.54082			43045.11485		219.12400		875.00000 
 43692.65567		 305.27265			43387.38302		66.69000		324.00000 
 43692.65567		 647.54082			43045.11485		219.12400		875.00000 
 43692.65567		 305.27265			43387.38302		66.69000		324.00000 
 43692.65567		 647.54082			43045.11485		219.12400		875.00000 
 43692.65567		 305.27265			43387.38302		66.69000		324.00000 
 43692.65567		 647.54082			43045.11485		219.12400		875.00000 
 43692.65567		 305.27265			43387.38302		66.69000		324.00000 
 43692.65567		 647.54082			43045.11485		219.12400		875.00000 
 43692.65567		 305.27265			43387.38302		66.69000		324.00000 
 43692.65567		 647.54082			43045.11485		219.12400		875.00000 
 43692.65567		 305.27265			43387.38302		66.69000		324.00000 
 43692.65567		 647.54082			43045.11485		219.12400		875.00000 
 43692.65567		 305.27265			43387.38302		66.69000		324.00000 
 43692.65567		 647.54082			43045.11485		219.12400		875.00000 
 43692.65567		 305.27265			43387.38302		66.69000		324.00000 
 43692.65567		 647.54082			43045.11485		219.12400		875.00000 
 43692.65567		 305.27265			43387.38302		66.69000		324.00000 
 43692.65567		 647.54082			43045.11485		219.12400		875.00000 
 43692.65567		 305.27265			43387.38302		66.69000		324.00000 
 43692.65567		 647.54082			43045.11485		219.12400		875.00000 
 43692.65567		 305.27265			43387.38302		66.69000		324.00000 
 43692.65567		 647.54082			43045.11485		219.12400		875.00000 
 43692.65567		 305.27265			43387.38302		66.69000		324.00000 
 43692.65567		 647.54082			43045.11485		219.12400		875.00000 
 43692.65567		 305.27265			43387.38302		66.69000		324.00000 
 43692.65567		 647.54082			43045.11485		219.12400		875.00000 
 43692.65567		 305.27265			43387.38302		66.69000		324.00000 
 43692.65567		 647.54082			43045.11485		219.12400		875.00000 
 43692.65567		 305.27265			43387.38302		66.69000		324.00000 
 43692.65567		 647.54082			43045.11485		219.12400		875.00000 
 43692.65567		 305.27265			43387.38302		66.69000		324.00000 
 43692.65567		 647.54082			43045.11485		219.12400		875.00000 
 43692.65567		 305.27265			43387.38302		66.69000		324.00000 
 43692.65567		 647.54082			43045.11485		219.12400		875.00000 
 43692.65567		 305.27265			43387.38302		66.69000		324.00000 
 43692.65567		 647.54082			43045.11485		219.12400		875.00000 
 43692.65567		 305.27265			43387.38302		66.69000		324.00000 
 43692.65567		 647.54082			43045.11485		219.12400		875.00000 
 43692.65567		 305.27265			43387.38302		66.69000		324.00000 
 43692.65567		 647.54082			43045.11485		219.12400		875.00000 
 43692.65567		 305.27265			43387.38302		66.69000		324.00000 
 43692.65567		 647.54082			43045.11485		219.12400		875.00000 
 43692.65567		 305.27265			43387.38302		66.69000		324.00000 
 43692.65567		 647.54082			43045.11485		219.12400		875.00000 
 43692.65567		 305.27265			43387.38302		66.69000		324.00000 
 43692.65567		 647.54082			43045.11485		219.12400		875.00000 
 43692.65567		 305.27265			43387.38302		66.69000		324.00000 
 43692.65567		 647.54082			43045.11485		219.12400		875.00000 
 43692.65567		 305.27265			43387.38302		66.69000		324.00000 
 43692.65567		 610.78399			43081.87169		219.12400		875.00000 
 43692.65567		 305.27265			43387.38302		66.69000		324.00000 
 43692.65567		 574.02715			43118.62852		219.12400		875.00000 
 43692.65567		 305.27265			43387.38302		66.69000		324.00000 
 43692.65567		 537.27032			43155.38535		219.12400		875.00000 
 43692.65567		 305.27265			43387.38302		66.69000		324.00000 
 43692.65567		 537.27032			43155.38535		219.12400		875.00000 
 43692.65567		 305.27265			43387.38302		66.69000		324.00000 
 43692.65567		 537.27032			43155.38535		219.12400		875.00000 
 43692.65567		 305.27265			43387.38302		66.69000		324.00000 
 43692.65567		 537.27032			43155.38535		219.12400		875.00000 
 43692.65567		 305.27265			43387.38302		66.69000		324.00000 
 43692.65567		 537.27032			43155.38535		219.12400		875.00000 
 43692.65567		 305.27265			43387.38302		66.69000		324.00000 
 43692.65567		 537.27032			43155.38535		219.12400		875.00000 
 43692.65567		 305.27265			43387.38302		66.69000		324.00000 
 43692.65567		 537.27032			43155.38535		219.12400		875.00000 
 43692.65567		 305.27265			43387.38302		66.69000		324.00000 
 43692.65567		 537.27032			43155.38535		219.12400		875.00000 
 43692.65567		 305.27265			43387.38302		66.69000		324.00000 
 43692.65567		 537.27032			43155.38535		219.12400		875.00000 
 43692.65567		 305.27265			43387.38302		66.69000		324.00000 
 43692.65567		 537.27032			43155.38535		219.12400		875.00000 
 43692.65567		 305.27265			43387.38302		66.69000		324.00000 
 43692.65567		 537.27032			43155.38535		219.12400		875.00000 
 43692.65567		 305.27265			43387.38302		66.69000		324.00000 
 43692.65567		 537.27032			43155.38535		219.12400		875.00000 
 43692.65567		 305.27265			43387.38302		66.69000		324.00000 
 43692.65567		 537.27032			43155.38535		219.12400		875.00000 
 43692.65567		 305.27265			43387.38302		66.69000		324.00000 
 43692.65567		 537.27032			43155.38535		219.12400		875.00000 
 43692.65567		 305.27265			43387.38302		66.69000		324.00000 
 43692.65567		 537.27032			43155.38535		219.12400		875.00000 
 43692.65567		 305.27265			43387.38302		66.69000		324.00000 
 43692.65567		 537.27032			43155.38535		219.12400		875.00000 
 43692.65567		 305.27265			43387.38302		66.69000		324.00000 
 43692.65567		 537.27032			43155.38535		193.58800		875.00000 
 43692.65567		 305.27265			43387.38302		66.69000		324.00000 
 43692.65567		 537.27032			43155.38535		193.58800		875.00000 
 43692.65567		 305.27265			43387.38302		66.69000		324.00000 
 43692.65567		 537.27032			43155.38535		193.58800		875.00000 
 43692.65567		 305.27265			43387.38302		66.69000		324.00000 
 43692.65567		 537.27032			43155.38535		193.58800		875.00000 
 43692.65567		 305.27265			43387.38302		66.69000		324.00000 
 43692.65567		 525.81365			43166.84203		193.58800		875.00000 
 43692.65567		 305.27265			43387.38302		66.69000		324.00000 
 43692.65567		 525.81365			43166.84203		193.58800		875.00000 
 43692.65567		 261.35540			43431.30027		66.69000		324.00000 
 43692.65567		 261.35540			43431.30027		193.58800		875.00000 
 43692.65567		 261.35540			43431.30027		66.69000		324.00000 
