Memory Total (MiB) 	 Memory Used (MiB) 	    Memory Free (MiB) 	 Power Drawed (W) 	 Clocks (Mhz) 	 
 43692.65567		 261.35540			43431.30027		173.34200		875.00000 
 43692.65567		 261.35540			43431.30027		67.61200		324.00000 
 43692.65567		 261.35540			43431.30027		173.34200		875.00000 
 43692.65567		 261.35540			43431.30027		67.61200		324.00000 
 43692.65567		 261.35540			43431.30027		173.34200		875.00000 
 43692.65567		 261.35540			43431.30027		67.61200		324.00000 
 43692.65567		 261.35540			43431.30027		173.34200		875.00000 
 43692.65567		 261.35540			43431.30027		67.61200		324.00000 
 43692.65567		 261.35540			43431.30027		173.34200		875.00000 
 43692.65567		 261.35540			43431.30027		67.61200		324.00000 
 43692.65567		 261.35540			43431.30027		173.34200		875.00000 
 43692.65567		 261.35540			43431.30027		67.61200		324.00000 
 43692.65567		 261.35540			43431.30027		173.34200		875.00000 
 43692.65567		 261.35540			43431.30027		67.61200		324.00000 
 43692.65567		 261.35540			43431.30027		173.34200		875.00000 
 43692.65567		 261.35540			43431.30027		67.61200		324.00000 
 43692.65567		 261.35540			43431.30027		173.34200		875.00000 
 43692.65567		 261.35540			43431.30027		67.61200		324.00000 
 43692.65567		 261.35540			43431.30027		173.34200		875.00000 
 43692.65567		 261.35540			43431.30027		67.61200		324.00000 
 43692.65567		 261.35540			43431.30027		173.34200		875.00000 
 43692.65567		 261.35540			43431.30027		67.61200		324.00000 
 43692.65567		 261.35540			43431.30027		173.34200		875.00000 
 43692.65567		 261.35540			43431.30027		67.61200		324.00000 
 43692.65567		 261.35540			43431.30027		173.34200		875.00000 
 43692.65567		 261.35540			43431.30027		67.61200		324.00000 
 43692.65567		 261.35540			43431.30027		173.34200		875.00000 
 43692.65567		 261.35540			43431.30027		67.61200		324.00000 
 43692.65567		 261.35540			43431.30027		173.34200		875.00000 
 43692.65567		 261.35540			43431.30027		67.61200		324.00000 
 43692.65567		 261.35540			43431.30027		173.34200		875.00000 
 43692.65567		 261.35540			43431.30027		67.61200		324.00000 
 43692.65567		 261.35540			43431.30027		173.34200		875.00000 
 43692.65567		 261.35540			43431.30027		67.61200		324.00000 
 43692.65567		 261.35540			43431.30027		173.34200		875.00000 
 43692.65567		 261.35540			43431.30027		67.61200		324.00000 
 43692.65567		 265.17429			43427.48138		173.34200		875.00000 
 43692.65567		 261.35540			43431.30027		67.61200		324.00000 
 43692.65567		 265.17429			43427.48138		173.34200		875.00000 
 43692.65567		 261.35540			43431.30027		67.61200		324.00000 
 43692.65567		 272.81207			43419.84360		173.34200		875.00000 
 43692.65567		 261.35540			43431.30027		67.61200		324.00000 
 43692.65567		 272.81207			43419.84360		173.34200		875.00000 
 43692.65567		 261.35540			43431.30027		67.61200		324.00000 
 43692.65567		 272.81207			43419.84360		173.34200		875.00000 
 43692.65567		 265.17429			43427.48138		67.61200		324.00000 
 43692.65567		 272.81207			43419.84360		173.34200		875.00000 
 43692.65567		 265.17429			43427.48138		66.57000		324.00000 
 43692.65567		 272.81207			43419.84360		173.34200		875.00000 
 43692.65567		 272.81207			43419.84360		66.57000		324.00000 
 43692.65567		 272.81207			43419.84360		173.34200		875.00000 
 43692.65567		 272.81207			43419.84360		66.57000		324.00000 
 43692.65567		 272.81207			43419.84360		173.34200		875.00000 
 43692.65567		 272.81207			43419.84360		66.57000		324.00000 
 43692.65567		 272.81207			43419.84360		173.34200		875.00000 
 43692.65567		 272.81207			43419.84360		66.57000		324.00000 
 43692.65567		 305.27265			43387.38302		173.34200		875.00000 
 43692.65567		 305.27265			43387.38302		66.57000		324.00000 
 43692.65567		 305.27265			43387.38302		173.34200		875.00000 
 43692.65567		 305.27265			43387.38302		66.57000		324.00000 
 43692.65567		 305.27265			43387.38302		173.34200		875.00000 
 43692.65567		 305.27265			43387.38302		66.57000		324.00000 
 43692.65567		 305.27265			43387.38302		173.34200		875.00000 
 43692.65567		 305.27265			43387.38302		66.57000		324.00000 
 43692.65567		 305.27265			43387.38302		173.34200		875.00000 
 43692.65567		 305.27265			43387.38302		66.57000		324.00000 
 43692.65567		 309.56891			43383.08677		147.45600		875.00000 
 43692.65567		 305.27265			43387.38302		66.57000		324.00000 
 43692.65567		 311.00099			43381.65468		147.45600		875.00000 
 43692.65567		 305.27265			43387.38302		66.57000		324.00000 
 43692.65567		 311.00099			43381.65468		147.45600		875.00000 
 43692.65567		 305.27265			43387.38302		66.57000		324.00000 
 43692.65567		 311.00099			43381.65468		147.45600		875.00000 
 43692.65567		 305.27265			43387.38302		66.57000		324.00000 
 43692.65567		 311.00099			43381.65468		147.45600		875.00000 
 43692.65567		 305.27265			43387.38302		66.57000		324.00000 
 43692.65567		 311.00099			43381.65468		147.45600		875.00000 
 43692.65567		 305.27265			43387.38302		66.57000		324.00000 
 43692.65567		 311.00099			43381.65468		147.45600		875.00000 
 43692.65567		 305.27265			43387.38302		66.57000		324.00000 
 43692.65567		 311.00099			43381.65468		147.45600		875.00000 
 43692.65567		 305.27265			43387.38302		66.57000		324.00000 
 43692.65567		 311.00099			43381.65468		147.45600		875.00000 
 43692.65567		 305.27265			43387.38302		66.57000		324.00000 
 43692.65567		 311.00099			43381.65468		147.45600		875.00000 
 43692.65567		 305.27265			43387.38302		66.57000		324.00000 
 43692.65567		 311.00099			43381.65468		147.45600		875.00000 
 43692.65567		 305.27265			43387.38302		66.57000		324.00000 
 43692.65567		 311.00099			43381.65468		147.45600		875.00000 
 43692.65567		 305.27265			43387.38302		66.57000		324.00000 
 43692.65567		 311.00099			43381.65468		147.45600		875.00000 
 43692.65567		 305.27265			43387.38302		66.57000		324.00000 
 43692.65567		 311.00099			43381.65468		147.45600		875.00000 
 43692.65567		 305.27265			43387.38302		66.57000		324.00000 
 43692.65567		 311.00099			43381.65468		147.45600		875.00000 
 43692.65567		 305.27265			43387.38302		66.57000		324.00000 
 43692.65567		 311.00099			43381.65468		147.45600		875.00000 
 43692.65567		 305.27265			43387.38302		66.57000		324.00000 
 43692.65567		 311.00099			43381.65468		147.45600		875.00000 
 43692.65567		 305.27265			43387.38302		66.57000		324.00000 
 43692.65567		 311.00099			43381.65468		147.45600		875.00000 
 43692.65567		 305.27265			43387.38302		66.57000		324.00000 
 43692.65567		 311.00099			43381.65468		147.45600		875.00000 
 43692.65567		 305.27265			43387.38302		66.57000		324.00000 
 43692.65567		 311.00099			43381.65468		147.45600		875.00000 
 43692.65567		 305.27265			43387.38302		66.57000		324.00000 
 43692.65567		 311.00099			43381.65468		147.45600		875.00000 
 43692.65567		 305.27265			43387.38302		66.57000		324.00000 
 43692.65567		 311.00099			43381.65468		147.45600		875.00000 
 43692.65567		 305.27265			43387.38302		66.57000		324.00000 
 43692.65567		 311.00099			43381.65468		147.45600		875.00000 
 43692.65567		 305.27265			43387.38302		66.57000		324.00000 
 43692.65567		 311.00099			43381.65468		147.45600		875.00000 
 43692.65567		 305.27265			43387.38302		66.57000		324.00000 
 43692.65567		 311.00099			43381.65468		147.45600		875.00000 
 43692.65567		 305.27265			43387.38302		66.57000		324.00000 
 43692.65567		 311.00099			43381.65468		147.45600		875.00000 
 43692.65567		 305.27265			43387.38302		66.57000		324.00000 
 43692.65567		 311.00099			43381.65468		147.45600		875.00000 
 43692.65567		 305.27265			43387.38302		66.57000		324.00000 
 43692.65567		 311.00099			43381.65468		147.45600		875.00000 
 43692.65567		 305.27265			43387.38302		66.57000		324.00000 
 43692.65567		 311.00099			43381.65468		147.45600		875.00000 
 43692.65567		 305.27265			43387.38302		66.57000		324.00000 
 43692.65567		 311.00099			43381.65468		147.45600		875.00000 
 43692.65567		 305.27265			43387.38302		66.57000		324.00000 
 43692.65567		 311.00099			43381.65468		147.45600		875.00000 
 43692.65567		 305.27265			43387.38302		66.57000		324.00000 
 43692.65567		 311.00099			43381.65468		136.17800		875.00000 
 43692.65567		 305.27265			43387.38302		66.57000		324.00000 
 43692.65567		 311.00099			43381.65468		136.17800		875.00000 
 43692.65567		 305.27265			43387.38302		66.57000		324.00000 
 43692.65567		 311.00099			43381.65468		136.17800		875.00000 
 43692.65567		 305.27265			43387.38302		66.57000		324.00000 
 43692.65567		 311.00099			43381.65468		136.17800		875.00000 
 43692.65567		 305.27265			43387.38302		66.57000		324.00000 
 43692.65567		 311.00099			43381.65468		136.17800		875.00000 
 43692.65567		 305.27265			43387.38302		66.57000		324.00000 
 43692.65567		 311.00099			43381.65468		136.17800		875.00000 
 43692.65567		 305.27265			43387.38302		66.57000		324.00000 
 43692.65567		 311.00099			43381.65468		136.17800		875.00000 
 43692.65567		 305.27265			43387.38302		66.57000		324.00000 
 43692.65567		 311.00099			43381.65468		136.17800		875.00000 
 43692.65567		 305.27265			43387.38302		66.57000		324.00000 
 43692.65567		 311.00099			43381.65468		136.17800		875.00000 
 43692.65567		 305.27265			43387.38302		66.57000		324.00000 
 43692.65567		 311.00099			43381.65468		136.17800		875.00000 
 43692.65567		 305.27265			43387.38302		66.57000		324.00000 
 43692.65567		 311.00099			43381.65468		136.17800		875.00000 
 43692.65567		 305.27265			43387.38302		66.57000		324.00000 
 43692.65567		 311.00099			43381.65468		136.17800		875.00000 
 43692.65567		 305.27265			43387.38302		66.57000		324.00000 
 43692.65567		 311.00099			43381.65468		136.17800		875.00000 
 43692.65567		 305.27265			43387.38302		66.57000		324.00000 
 43692.65567		 311.00099			43381.65468		136.17800		875.00000 
 43692.65567		 305.27265			43387.38302		66.57000		324.00000 
 43692.65567		 311.00099			43381.65468		136.17800		875.00000 
 43692.65567		 305.27265			43387.38302		66.57000		324.00000 
 43692.65567		 311.00099			43381.65468		136.17800		875.00000 
 43692.65567		 305.27265			43387.38302		66.57000		324.00000 
 43692.65567		 311.00099			43381.65468		136.17800		875.00000 
 43692.65567		 305.27265			43387.38302		66.57000		324.00000 
 43692.65567		 311.00099			43381.65468		136.17800		875.00000 
 43692.65567		 305.27265			43387.38302		66.57000		324.00000 
 43692.65567		 311.00099			43381.65468		136.17800		875.00000 
 43692.65567		 305.27265			43387.38302		66.57000		324.00000 
 43692.65567		 311.00099			43381.65468		136.17800		875.00000 
 43692.65567		 305.27265			43387.38302		66.57000		324.00000 
 43692.65567		 311.00099			43381.65468		136.17800		875.00000 
 43692.65567		 305.27265			43387.38302		66.57000		324.00000 
 43692.65567		 314.81988			43377.83579		136.17800		875.00000 
 43692.65567		 305.27265			43387.38302		66.57000		324.00000 
 43692.65567		 314.81988			43377.83579		136.17800		875.00000 
 43692.65567		 305.27265			43387.38302		66.57000		324.00000 
 43692.65567		 314.81988			43377.83579		136.17800		875.00000 
 43692.65567		 305.27265			43387.38302		66.57000		324.00000 
 43692.65567		 314.81988			43377.83579		136.17800		875.00000 
 43692.65567		 305.27265			43387.38302		66.57000		324.00000 
 43692.65567		 322.45767			43370.19801		136.17800		875.00000 
 43692.65567		 305.27265			43387.38302		66.57000		324.00000 
 43692.65567		 326.27656			43366.37912		136.17800		875.00000 
 43692.65567		 305.27265			43387.38302		66.57000		324.00000 
 43692.65567		 326.27656			43366.37912		136.17800		875.00000 
 43692.65567		 305.27265			43387.38302		66.57000		324.00000 
 43692.65567		 326.27656			43366.37912		136.17800		875.00000 
 43692.65567		 305.27265			43387.38302		66.57000		324.00000 
 43692.65567		 326.27656			43366.37912		136.17800		875.00000 
 43692.65567		 305.27265			43387.38302		66.57000		324.00000 
 43692.65567		 537.27032			43155.38535		136.17800		875.00000 
 43692.65567		 305.27265			43387.38302		66.57000		324.00000 
 43692.65567		 576.41396			43116.24171		136.17800		875.00000 
 43692.65567		 305.27265			43387.38302		66.57000		324.00000 
 43692.65567		 595.98578			43096.66989		136.17800		875.00000 
 43692.65567		 305.27265			43387.38302		66.57000		324.00000 
 43692.65567		 595.98578			43096.66989		136.17800		875.00000 
 43692.65567		 305.27265			43387.38302		66.57000		324.00000 
 43692.65567		 595.98578			43096.66989		136.17800		875.00000 
 43692.65567		 305.27265			43387.38302		66.57000		324.00000 
 43692.65567		 595.98578			43096.66989		136.17800		875.00000 
 43692.65567		 305.27265			43387.38302		66.57000		324.00000 
 43692.65567		 595.98578			43096.66989		136.17800		875.00000 
 43692.65567		 305.27265			43387.38302		66.57000		324.00000 
 43692.65567		 595.98578			43096.66989		140.08200		875.00000 
 43692.65567		 305.27265			43387.38302		66.57000		324.00000 
 43692.65567		 595.98578			43096.66989		140.08200		875.00000 
 43692.65567		 305.27265			43387.38302		66.57000		324.00000 
 43692.65567		 595.98578			43096.66989		140.08200		875.00000 
 43692.65567		 305.27265			43387.38302		66.57000		324.00000 
 43692.65567		 595.98578			43096.66989		140.08200		875.00000 
 43692.65567		 305.27265			43387.38302		66.57000		324.00000 
 43692.65567		 595.98578			43096.66989		140.08200		875.00000 
 43692.65567		 305.27265			43387.38302		66.57000		324.00000 
 43692.65567		 595.98578			43096.66989		140.08200		875.00000 
 43692.65567		 305.27265			43387.38302		66.57000		324.00000 
 43692.65567		 595.98578			43096.66989		140.08200		875.00000 
 43692.65567		 305.27265			43387.38302		66.57000		324.00000 
 43692.65567		 595.98578			43096.66989		140.08200		875.00000 
 43692.65567		 305.27265			43387.38302		66.57000		324.00000 
 43692.65567		 595.98578			43096.66989		140.08200		875.00000 
 43692.65567		 305.27265			43387.38302		66.57000		324.00000 
 43692.65567		 595.98578			43096.66989		140.08200		875.00000 
 43692.65567		 305.27265			43387.38302		66.57000		324.00000 
 43692.65567		 595.98578			43096.66989		140.08200		875.00000 
 43692.65567		 305.27265			43387.38302		66.57000		324.00000 
 43692.65567		 595.98578			43096.66989		140.08200		875.00000 
 43692.65567		 305.27265			43387.38302		66.57000		324.00000 
 43692.65567		 595.98578			43096.66989		140.08200		875.00000 
 43692.65567		 305.27265			43387.38302		66.57000		324.00000 
 43692.65567		 595.98578			43096.66989		140.08200		875.00000 
 43692.65567		 305.27265			43387.38302		66.57000		324.00000 
 43692.65567		 595.98578			43096.66989		140.08200		875.00000 
 43692.65567		 305.27265			43387.38302		66.57000		324.00000 
 43692.65567		 595.98578			43096.66989		140.08200		875.00000 
 43692.65567		 305.27265			43387.38302		66.57000		324.00000 
 43692.65567		 595.98578			43096.66989		140.08200		875.00000 
 43692.65567		 305.27265			43387.38302		66.57000		324.00000 
 43692.65567		 595.98578			43096.66989		140.08200		875.00000 
 43692.65567		 305.27265			43387.38302		66.57000		324.00000 
 43692.65567		 595.98578			43096.66989		140.08200		875.00000 
 43692.65567		 305.27265			43387.38302		66.57000		324.00000 
 43692.65567		 595.98578			43096.66989		140.08200		875.00000 
 43692.65567		 305.27265			43387.38302		66.57000		324.00000 
 43692.65567		 595.98578			43096.66989		140.08200		875.00000 
 43692.65567		 305.27265			43387.38302		66.57000		324.00000 
 43692.65567		 595.98578			43096.66989		140.08200		875.00000 
 43692.65567		 305.27265			43387.38302		66.57000		324.00000 
 43692.65567		 595.98578			43096.66989		140.08200		875.00000 
 43692.65567		 305.27265			43387.38302		66.57000		324.00000 
 43692.65567		 595.98578			43096.66989		140.08200		875.00000 
 43692.65567		 305.27265			43387.38302		66.57000		324.00000 
 43692.65567		 595.98578			43096.66989		140.08200		875.00000 
 43692.65567		 305.27265			43387.38302		66.57000		324.00000 
 43692.65567		 595.98578			43096.66989		140.08200		875.00000 
 43692.65567		 305.27265			43387.38302		66.57000		324.00000 
 43692.65567		 595.98578			43096.66989		140.08200		875.00000 
 43692.65567		 305.27265			43387.38302		66.57000		324.00000 
 43692.65567		 595.98578			43096.66989		140.08200		875.00000 
 43692.65567		 305.27265			43387.38302		66.57000		324.00000 
 43692.65567		 595.98578			43096.66989		140.08200		875.00000 
 43692.65567		 305.27265			43387.38302		66.57000		324.00000 
 43692.65567		 595.98578			43096.66989		140.08200		875.00000 
 43692.65567		 305.27265			43387.38302		66.57000		324.00000 
 43692.65567		 595.98578			43096.66989		140.08200		875.00000 
 43692.65567		 305.27265			43387.38302		66.57000		324.00000 
 43692.65567		 595.98578			43096.66989		140.08200		875.00000 
 43692.65567		 305.27265			43387.38302		66.57000		324.00000 
 43692.65567		 595.98578			43096.66989		140.08200		875.00000 
 43692.65567		 305.27265			43387.38302		66.57000		324.00000 
 43692.65567		 595.98578			43096.66989		140.08200		875.00000 
 43692.65567		 305.27265			43387.38302		66.57000		324.00000 
 43692.65567		 595.98578			43096.66989		140.08200		875.00000 
 43692.65567		 305.27265			43387.38302		66.57000		324.00000 
 43692.65567		 595.98578			43096.66989		140.08200		875.00000 
 43692.65567		 305.27265			43387.38302		66.57000		324.00000 
 43692.65567		 595.98578			43096.66989		140.08200		875.00000 
 43692.65567		 305.27265			43387.38302		66.57000		324.00000 
 43692.65567		 595.98578			43096.66989		140.08200		875.00000 
 43692.65567		 305.27265			43387.38302		66.57000		324.00000 
 43692.65567		 595.98578			43096.66989		140.08200		875.00000 
 43692.65567		 305.27265			43387.38302		66.57000		324.00000 
 43692.65567		 595.98578			43096.66989		140.08200		875.00000 
 43692.65567		 305.27265			43387.38302		66.57000		324.00000 
 43692.65567		 595.98578			43096.66989		140.08200		875.00000 
 43692.65567		 305.27265			43387.38302		66.57000		324.00000 
 43692.65567		 595.98578			43096.66989		140.08200		875.00000 
 43692.65567		 305.27265			43387.38302		66.57000		324.00000 
 43692.65567		 595.98578			43096.66989		140.08200		875.00000 
 43692.65567		 305.27265			43387.38302		66.57000		324.00000 
 43692.65567		 595.98578			43096.66989		140.08200		875.00000 
 43692.65567		 305.27265			43387.38302		66.57000		324.00000 
 43692.65567		 595.98578			43096.66989		140.08200		875.00000 
 43692.65567		 305.27265			43387.38302		66.57000		324.00000 
 43692.65567		 595.98578			43096.66989		140.08200		875.00000 
 43692.65567		 305.27265			43387.38302		66.57000		324.00000 
 43692.65567		 595.98578			43096.66989		140.08200		875.00000 
 43692.65567		 305.27265			43387.38302		66.57000		324.00000 
 43692.65567		 595.98578			43096.66989		140.08200		875.00000 
 43692.65567		 305.27265			43387.38302		66.57000		324.00000 
 43692.65567		 595.98578			43096.66989		140.08200		875.00000 
 43692.65567		 305.27265			43387.38302		66.57000		324.00000 
 43692.65567		 595.98578			43096.66989		140.08200		875.00000 
 43692.65567		 305.27265			43387.38302		66.57000		324.00000 
 43692.65567		 595.98578			43096.66989		140.08200		875.00000 
 43692.65567		 305.27265			43387.38302		66.57000		324.00000 
 43692.65567		 595.98578			43096.66989		140.08200		875.00000 
 43692.65567		 305.27265			43387.38302		66.57000		324.00000 
 43692.65567		 595.98578			43096.66989		140.08200		875.00000 
 43692.65567		 305.27265			43387.38302		66.57000		324.00000 
 43692.65567		 595.98578			43096.66989		140.08200		875.00000 
 43692.65567		 305.27265			43387.38302		66.57000		324.00000 
 43692.65567		 595.98578			43096.66989		140.08200		875.00000 
 43692.65567		 305.27265			43387.38302		66.57000		324.00000 
 43692.65567		 595.98578			43096.66989		140.08200		875.00000 
 43692.65567		 305.27265			43387.38302		66.57000		324.00000 
 43692.65567		 595.98578			43096.66989		140.08200		875.00000 
 43692.65567		 305.27265			43387.38302		66.57000		324.00000 
 43692.65567		 595.98578			43096.66989		140.08200		875.00000 
 43692.65567		 305.27265			43387.38302		66.57000		324.00000 
 43692.65567		 595.98578			43096.66989		140.08200		875.00000 
 43692.65567		 305.27265			43387.38302		66.57000		324.00000 
 43692.65567		 595.98578			43096.66989		140.08200		875.00000 
 43692.65567		 305.27265			43387.38302		66.57000		324.00000 
 43692.65567		 595.98578			43096.66989		140.08200		875.00000 
 43692.65567		 305.27265			43387.38302		66.57000		324.00000 
 43692.65567		 595.98578			43096.66989		140.08200		875.00000 
 43692.65567		 305.27265			43387.38302		66.57000		324.00000 
 43692.65567		 595.98578			43096.66989		140.08200		875.00000 
 43692.65567		 305.27265			43387.38302		66.57000		324.00000 
 43692.65567		 595.98578			43096.66989		140.08200		875.00000 
 43692.65567		 305.27265			43387.38302		66.57000		324.00000 
 43692.65567		 595.98578			43096.66989		140.08200		875.00000 
 43692.65567		 305.27265			43387.38302		66.57000		324.00000 
 43692.65567		 595.98578			43096.66989		184.70800		875.00000 
 43692.65567		 305.27265			43387.38302		66.57000		324.00000 
 43692.65567		 595.98578			43096.66989		184.70800		875.00000 
 43692.65567		 305.27265			43387.38302		66.57000		324.00000 
 43692.65567		 595.98578			43096.66989		184.70800		875.00000 
 43692.65567		 305.27265			43387.38302		66.57000		324.00000 
 43692.65567		 595.98578			43096.66989		184.70800		875.00000 
 43692.65567		 305.27265			43387.38302		66.57000		324.00000 
 43692.65567		 595.98578			43096.66989		184.70800		875.00000 
 43692.65567		 305.27265			43387.38302		66.57000		324.00000 
 43692.65567		 595.98578			43096.66989		184.70800		875.00000 
 43692.65567		 305.27265			43387.38302		66.57000		324.00000 
 43692.65567		 595.98578			43096.66989		184.70800		875.00000 
 43692.65567		 305.27265			43387.38302		66.57000		324.00000 
 43692.65567		 595.98578			43096.66989		184.70800		875.00000 
 43692.65567		 305.27265			43387.38302		66.57000		324.00000 
 43692.65567		 595.98578			43096.66989		184.70800		875.00000 
 43692.65567		 305.27265			43387.38302		66.57000		324.00000 
 43692.65567		 595.98578			43096.66989		184.70800		875.00000 
 43692.65567		 305.27265			43387.38302		66.57000		324.00000 
 43692.65567		 595.98578			43096.66989		184.70800		875.00000 
 43692.65567		 305.27265			43387.38302		66.57000		324.00000 
 43692.65567		 595.98578			43096.66989		184.70800		875.00000 
 43692.65567		 305.27265			43387.38302		66.57000		324.00000 
 43692.65567		 595.98578			43096.66989		184.70800		875.00000 
 43692.65567		 305.27265			43387.38302		66.57000		324.00000 
 43692.65567		 595.98578			43096.66989		184.70800		875.00000 
 43692.65567		 305.27265			43387.38302		66.57000		324.00000 
 43692.65567		 595.98578			43096.66989		184.70800		875.00000 
 43692.65567		 305.27265			43387.38302		66.57000		324.00000 
 43692.65567		 595.98578			43096.66989		184.70800		875.00000 
 43692.65567		 305.27265			43387.38302		66.57000		324.00000 
 43692.65567		 595.98578			43096.66989		184.70800		875.00000 
 43692.65567		 305.27265			43387.38302		66.57000		324.00000 
 43692.65567		 595.98578			43096.66989		184.70800		875.00000 
 43692.65567		 305.27265			43387.38302		66.57000		324.00000 
 43692.65567		 595.98578			43096.66989		184.70800		875.00000 
 43692.65567		 305.27265			43387.38302		66.57000		324.00000 
 43692.65567		 595.98578			43096.66989		184.70800		875.00000 
 43692.65567		 305.27265			43387.38302		66.57000		324.00000 
 43692.65567		 595.98578			43096.66989		184.70800		875.00000 
 43692.65567		 305.27265			43387.38302		66.57000		324.00000 
 43692.65567		 595.98578			43096.66989		184.70800		875.00000 
 43692.65567		 305.27265			43387.38302		66.57000		324.00000 
 43692.65567		 595.98578			43096.66989		184.70800		875.00000 
 43692.65567		 305.27265			43387.38302		66.57000		324.00000 
 43692.65567		 595.98578			43096.66989		184.70800		875.00000 
 43692.65567		 305.27265			43387.38302		66.57000		324.00000 
 43692.65567		 595.98578			43096.66989		184.70800		875.00000 
 43692.65567		 305.27265			43387.38302		66.57000		324.00000 
 43692.65567		 595.98578			43096.66989		184.70800		875.00000 
 43692.65567		 305.27265			43387.38302		66.57000		324.00000 
 43692.65567		 595.98578			43096.66989		184.70800		875.00000 
 43692.65567		 305.27265			43387.38302		66.57000		324.00000 
 43692.65567		 595.98578			43096.66989		184.70800		875.00000 
 43692.65567		 305.27265			43387.38302		66.57000		324.00000 
 43692.65567		 595.98578			43096.66989		184.70800		875.00000 
 43692.65567		 305.27265			43387.38302		66.57000		324.00000 
 43692.65567		 595.98578			43096.66989		184.70800		875.00000 
 43692.65567		 305.27265			43387.38302		66.57000		324.00000 
 43692.65567		 595.98578			43096.66989		184.70800		875.00000 
 43692.65567		 305.27265			43387.38302		66.57000		324.00000 
 43692.65567		 595.98578			43096.66989		184.70800		875.00000 
 43692.65567		 305.27265			43387.38302		66.57000		324.00000 
 43692.65567		 595.98578			43096.66989		184.70800		875.00000 
 43692.65567		 305.27265			43387.38302		66.57000		324.00000 
 43692.65567		 595.98578			43096.66989		184.70800		875.00000 
 43692.65567		 305.27265			43387.38302		66.57000		324.00000 
 43692.65567		 595.98578			43096.66989		184.70800		875.00000 
 43692.65567		 305.27265			43387.38302		66.57000		324.00000 
 43692.65567		 595.98578			43096.66989		184.70800		875.00000 
 43692.65567		 305.27265			43387.38302		66.57000		324.00000 
 43692.65567		 595.98578			43096.66989		184.70800		875.00000 
 43692.65567		 305.27265			43387.38302		66.57000		324.00000 
 43692.65567		 595.98578			43096.66989		184.70800		875.00000 
 43692.65567		 305.27265			43387.38302		66.57000		324.00000 
 43692.65567		 595.98578			43096.66989		184.70800		875.00000 
 43692.65567		 305.27265			43387.38302		66.57000		324.00000 
 43692.65567		 595.98578			43096.66989		184.70800		875.00000 
 43692.65567		 305.27265			43387.38302		66.57000		324.00000 
 43692.65567		 595.98578			43096.66989		184.70800		875.00000 
 43692.65567		 305.27265			43387.38302		66.57000		324.00000 
 43692.65567		 595.98578			43096.66989		184.70800		875.00000 
 43692.65567		 305.27265			43387.38302		66.57000		324.00000 
 43692.65567		 595.98578			43096.66989		184.70800		875.00000 
 43692.65567		 305.27265			43387.38302		66.57000		324.00000 
 43692.65567		 595.98578			43096.66989		184.70800		875.00000 
 43692.65567		 305.27265			43387.38302		66.57000		324.00000 
 43692.65567		 595.98578			43096.66989		184.70800		875.00000 
 43692.65567		 305.27265			43387.38302		66.57000		324.00000 
 43692.65567		 595.98578			43096.66989		184.70800		875.00000 
 43692.65567		 305.27265			43387.38302		66.57000		324.00000 
 43692.65567		 595.98578			43096.66989		184.70800		875.00000 
 43692.65567		 305.27265			43387.38302		66.57000		324.00000 
 43692.65567		 595.98578			43096.66989		184.70800		875.00000 
 43692.65567		 305.27265			43387.38302		66.57000		324.00000 
 43692.65567		 595.98578			43096.66989		184.70800		875.00000 
 43692.65567		 305.27265			43387.38302		66.57000		324.00000 
 43692.65567		 595.98578			43096.66989		184.70800		875.00000 
 43692.65567		 305.27265			43387.38302		66.57000		324.00000 
 43692.65567		 595.98578			43096.66989		184.70800		875.00000 
 43692.65567		 305.27265			43387.38302		66.57000		324.00000 
 43692.65567		 595.98578			43096.66989		184.70800		875.00000 
 43692.65567		 305.27265			43387.38302		66.57000		324.00000 
 43692.65567		 595.98578			43096.66989		184.70800		875.00000 
 43692.65567		 305.27265			43387.38302		66.57000		324.00000 
 43692.65567		 595.98578			43096.66989		184.70800		875.00000 
 43692.65567		 305.27265			43387.38302		66.57000		324.00000 
 43692.65567		 595.98578			43096.66989		184.70800		875.00000 
 43692.65567		 305.27265			43387.38302		66.57000		324.00000 
 43692.65567		 595.98578			43096.66989		184.70800		875.00000 
 43692.65567		 305.27265			43387.38302		66.57000		324.00000 
 43692.65567		 595.98578			43096.66989		184.70800		875.00000 
 43692.65567		 305.27265			43387.38302		66.57000		324.00000 
 43692.65567		 595.98578			43096.66989		184.70800		875.00000 
 43692.65567		 305.27265			43387.38302		66.57000		324.00000 
 43692.65567		 595.98578			43096.66989		184.70800		875.00000 
 43692.65567		 305.27265			43387.38302		66.57000		324.00000 
 43692.65567		 595.98578			43096.66989		184.70800		875.00000 
 43692.65567		 305.27265			43387.38302		66.57000		324.00000 
 43692.65567		 595.98578			43096.66989		184.70800		875.00000 
 43692.65567		 305.27265			43387.38302		66.57000		324.00000 
 43692.65567		 595.98578			43096.66989		184.70800		875.00000 
 43692.65567		 305.27265			43387.38302		66.57000		324.00000 
 43692.65567		 595.98578			43096.66989		184.70800		875.00000 
 43692.65567		 305.27265			43387.38302		66.57000		324.00000 
 43692.65567		 595.98578			43096.66989		201.94600		875.00000 
 43692.65567		 305.27265			43387.38302		66.57000		324.00000 
 43692.65567		 595.98578			43096.66989		201.94600		875.00000 
 43692.65567		 305.27265			43387.38302		66.57000		324.00000 
 43692.65567		 595.98578			43096.66989		201.94600		875.00000 
 43692.65567		 305.27265			43387.38302		66.57000		324.00000 
 43692.65567		 595.98578			43096.66989		201.94600		875.00000 
 43692.65567		 305.27265			43387.38302		66.57000		324.00000 
 43692.65567		 595.98578			43096.66989		201.94600		875.00000 
 43692.65567		 305.27265			43387.38302		66.57000		324.00000 
 43692.65567		 595.98578			43096.66989		201.94600		875.00000 
 43692.65567		 305.27265			43387.38302		66.57000		324.00000 
 43692.65567		 595.98578			43096.66989		201.94600		875.00000 
 43692.65567		 305.27265			43387.38302		66.57000		324.00000 
 43692.65567		 595.98578			43096.66989		201.94600		875.00000 
 43692.65567		 305.27265			43387.38302		66.57000		324.00000 
 43692.65567		 595.98578			43096.66989		201.94600		875.00000 
 43692.65567		 305.27265			43387.38302		66.57000		324.00000 
 43692.65567		 595.98578			43096.66989		201.94600		875.00000 
 43692.65567		 305.27265			43387.38302		66.57000		324.00000 
 43692.65567		 595.98578			43096.66989		201.94600		875.00000 
 43692.65567		 305.27265			43387.38302		66.57000		324.00000 
 43692.65567		 595.98578			43096.66989		201.94600		875.00000 
 43692.65567		 305.27265			43387.38302		66.57000		324.00000 
 43692.65567		 595.98578			43096.66989		201.94600		875.00000 
 43692.65567		 305.27265			43387.38302		66.57000		324.00000 
 43692.65567		 595.98578			43096.66989		201.94600		875.00000 
 43692.65567		 305.27265			43387.38302		66.57000		324.00000 
 43692.65567		 595.98578			43096.66989		201.94600		875.00000 
 43692.65567		 305.27265			43387.38302		66.57000		324.00000 
 43692.65567		 595.98578			43096.66989		201.94600		875.00000 
 43692.65567		 305.27265			43387.38302		66.57000		324.00000 
 43692.65567		 595.98578			43096.66989		201.94600		875.00000 
 43692.65567		 305.27265			43387.38302		66.57000		324.00000 
 43692.65567		 595.98578			43096.66989		201.94600		875.00000 
 43692.65567		 305.27265			43387.38302		66.57000		324.00000 
 43692.65567		 595.98578			43096.66989		201.94600		875.00000 
 43692.65567		 305.27265			43387.38302		66.57000		324.00000 
 43692.65567		 595.98578			43096.66989		201.94600		875.00000 
 43692.65567		 305.27265			43387.38302		66.57000		324.00000 
 43692.65567		 595.98578			43096.66989		201.94600		875.00000 
 43692.65567		 305.27265			43387.38302		66.57000		324.00000 
 43692.65567		 595.98578			43096.66989		201.94600		875.00000 
 43692.65567		 305.27265			43387.38302		66.57000		324.00000 
 43692.65567		 595.98578			43096.66989		201.94600		875.00000 
 43692.65567		 305.27265			43387.38302		66.57000		324.00000 
 43692.65567		 595.98578			43096.66989		201.94600		875.00000 
 43692.65567		 305.27265			43387.38302		66.57000		324.00000 
 43692.65567		 595.98578			43096.66989		201.94600		875.00000 
 43692.65567		 305.27265			43387.38302		66.57000		324.00000 
 43692.65567		 595.98578			43096.66989		201.94600		875.00000 
 43692.65567		 305.27265			43387.38302		66.57000		324.00000 
 43692.65567		 595.98578			43096.66989		201.94600		875.00000 
 43692.65567		 305.27265			43387.38302		66.57000		324.00000 
 43692.65567		 595.98578			43096.66989		201.94600		875.00000 
 43692.65567		 305.27265			43387.38302		66.57000		324.00000 
 43692.65567		 595.98578			43096.66989		201.94600		875.00000 
 43692.65567		 305.27265			43387.38302		66.57000		324.00000 
 43692.65567		 595.98578			43096.66989		201.94600		875.00000 
 43692.65567		 305.27265			43387.38302		66.57000		324.00000 
 43692.65567		 595.98578			43096.66989		201.94600		875.00000 
 43692.65567		 305.27265			43387.38302		66.57000		324.00000 
 43692.65567		 595.98578			43096.66989		201.94600		875.00000 
 43692.65567		 305.27265			43387.38302		66.57000		324.00000 
 43692.65567		 595.98578			43096.66989		201.94600		875.00000 
 43692.65567		 305.27265			43387.38302		66.57000		324.00000 
 43692.65567		 595.98578			43096.66989		201.94600		875.00000 
 43692.65567		 305.27265			43387.38302		66.57000		324.00000 
 43692.65567		 595.98578			43096.66989		201.94600		875.00000 
 43692.65567		 305.27265			43387.38302		66.57000		324.00000 
 43692.65567		 595.98578			43096.66989		201.94600		875.00000 
 43692.65567		 305.27265			43387.38302		66.57000		324.00000 
 43692.65567		 595.98578			43096.66989		201.94600		875.00000 
 43692.65567		 305.27265			43387.38302		66.57000		324.00000 
 43692.65567		 595.98578			43096.66989		201.94600		875.00000 
 43692.65567		 305.27265			43387.38302		66.57000		324.00000 
 43692.65567		 595.98578			43096.66989		201.94600		875.00000 
 43692.65567		 305.27265			43387.38302		66.57000		324.00000 
 43692.65567		 595.98578			43096.66989		201.94600		875.00000 
 43692.65567		 305.27265			43387.38302		66.57000		324.00000 
 43692.65567		 595.98578			43096.66989		201.94600		875.00000 
 43692.65567		 305.27265			43387.38302		66.57000		324.00000 
 43692.65567		 595.98578			43096.66989		201.94600		875.00000 
 43692.65567		 305.27265			43387.38302		66.57000		324.00000 
 43692.65567		 595.98578			43096.66989		201.94600		875.00000 
 43692.65567		 305.27265			43387.38302		66.57000		324.00000 
 43692.65567		 595.98578			43096.66989		201.94600		875.00000 
 43692.65567		 305.27265			43387.38302		66.57000		324.00000 
 43692.65567		 595.98578			43096.66989		201.94600		875.00000 
 43692.65567		 305.27265			43387.38302		66.57000		324.00000 
 43692.65567		 595.98578			43096.66989		201.94600		875.00000 
 43692.65567		 305.27265			43387.38302		66.57000		324.00000 
 43692.65567		 595.98578			43096.66989		201.94600		875.00000 
 43692.65567		 305.27265			43387.38302		66.57000		324.00000 
 43692.65567		 595.98578			43096.66989		201.94600		875.00000 
 43692.65567		 305.27265			43387.38302		66.57000		324.00000 
 43692.65567		 595.98578			43096.66989		201.94600		875.00000 
 43692.65567		 305.27265			43387.38302		66.57000		324.00000 
 43692.65567		 595.98578			43096.66989		201.94600		875.00000 
 43692.65567		 305.27265			43387.38302		66.57000		324.00000 
 43692.65567		 595.98578			43096.66989		201.94600		875.00000 
 43692.65567		 305.27265			43387.38302		66.57000		324.00000 
 43692.65567		 595.98578			43096.66989		201.94600		875.00000 
 43692.65567		 305.27265			43387.38302		66.57000		324.00000 
 43692.65567		 595.98578			43096.66989		201.94600		875.00000 
 43692.65567		 305.27265			43387.38302		66.57000		324.00000 
 43692.65567		 595.98578			43096.66989		201.94600		875.00000 
 43692.65567		 305.27265			43387.38302		66.57000		324.00000 
 43692.65567		 595.98578			43096.66989		201.94600		875.00000 
 43692.65567		 305.27265			43387.38302		66.57000		324.00000 
 43692.65567		 595.98578			43096.66989		201.94600		875.00000 
 43692.65567		 305.27265			43387.38302		66.57000		324.00000 
 43692.65567		 595.98578			43096.66989		201.94600		875.00000 
 43692.65567		 305.27265			43387.38302		66.57000		324.00000 
 43692.65567		 595.98578			43096.66989		201.94600		875.00000 
 43692.65567		 305.27265			43387.38302		66.57000		324.00000 
 43692.65567		 595.98578			43096.66989		201.94600		875.00000 
 43692.65567		 305.27265			43387.38302		66.57000		324.00000 
 43692.65567		 595.98578			43096.66989		201.94600		875.00000 
 43692.65567		 305.27265			43387.38302		66.57000		324.00000 
 43692.65567		 595.98578			43096.66989		201.94600		875.00000 
 43692.65567		 305.27265			43387.38302		66.57000		324.00000 
 43692.65567		 595.98578			43096.66989		201.94600		875.00000 
 43692.65567		 305.27265			43387.38302		66.57000		324.00000 
 43692.65567		 595.98578			43096.66989		201.94600		875.00000 
 43692.65567		 305.27265			43387.38302		66.57000		324.00000 
 43692.65567		 595.98578			43096.66989		201.94600		875.00000 
 43692.65567		 305.27265			43387.38302		66.57000		324.00000 
 43692.65567		 595.98578			43096.66989		207.50600		875.00000 
 43692.65567		 305.27265			43387.38302		66.57000		324.00000 
 43692.65567		 595.98578			43096.66989		207.50600		875.00000 
 43692.65567		 305.27265			43387.38302		66.57000		324.00000 
 43692.65567		 595.98578			43096.66989		207.50600		875.00000 
 43692.65567		 305.27265			43387.38302		66.57000		324.00000 
 43692.65567		 595.98578			43096.66989		207.50600		875.00000 
 43692.65567		 305.27265			43387.38302		66.57000		324.00000 
 43692.65567		 595.98578			43096.66989		207.50600		875.00000 
 43692.65567		 305.27265			43387.38302		66.57000		324.00000 
 43692.65567		 595.98578			43096.66989		207.50600		875.00000 
 43692.65567		 305.27265			43387.38302		66.57000		324.00000 
 43692.65567		 595.98578			43096.66989		207.50600		875.00000 
 43692.65567		 305.27265			43387.38302		66.57000		324.00000 
 43692.65567		 595.98578			43096.66989		207.50600		875.00000 
 43692.65567		 305.27265			43387.38302		66.57000		324.00000 
 43692.65567		 595.98578			43096.66989		207.50600		875.00000 
 43692.65567		 305.27265			43387.38302		66.57000		324.00000 
 43692.65567		 595.98578			43096.66989		207.50600		875.00000 
 43692.65567		 305.27265			43387.38302		66.57000		324.00000 
 43692.65567		 595.98578			43096.66989		207.50600		875.00000 
 43692.65567		 305.27265			43387.38302		66.57000		324.00000 
 43692.65567		 595.98578			43096.66989		207.50600		875.00000 
 43692.65567		 305.27265			43387.38302		66.57000		324.00000 
 43692.65567		 595.98578			43096.66989		207.50600		875.00000 
 43692.65567		 305.27265			43387.38302		66.57000		324.00000 
 43692.65567		 595.98578			43096.66989		207.50600		875.00000 
 43692.65567		 305.27265			43387.38302		66.57000		324.00000 
 43692.65567		 595.98578			43096.66989		207.50600		875.00000 
 43692.65567		 305.27265			43387.38302		66.57000		324.00000 
 43692.65567		 595.98578			43096.66989		207.50600		875.00000 
 43692.65567		 305.27265			43387.38302		66.57000		324.00000 
 43692.65567		 595.98578			43096.66989		207.50600		875.00000 
 43692.65567		 305.27265			43387.38302		66.57000		324.00000 
 43692.65567		 595.98578			43096.66989		207.50600		875.00000 
 43692.65567		 305.27265			43387.38302		66.57000		324.00000 
 43692.65567		 595.98578			43096.66989		207.50600		875.00000 
 43692.65567		 305.27265			43387.38302		66.57000		324.00000 
 43692.65567		 595.98578			43096.66989		207.50600		875.00000 
 43692.65567		 305.27265			43387.38302		66.57000		324.00000 
 43692.65567		 595.98578			43096.66989		207.50600		875.00000 
 43692.65567		 305.27265			43387.38302		66.57000		324.00000 
 43692.65567		 595.98578			43096.66989		207.50600		875.00000 
 43692.65567		 305.27265			43387.38302		66.57000		324.00000 
 43692.65567		 595.98578			43096.66989		207.50600		875.00000 
 43692.65567		 305.27265			43387.38302		66.57000		324.00000 
 43692.65567		 595.98578			43096.66989		207.50600		875.00000 
 43692.65567		 305.27265			43387.38302		66.57000		324.00000 
 43692.65567		 595.98578			43096.66989		207.50600		875.00000 
 43692.65567		 305.27265			43387.38302		66.57000		324.00000 
 43692.65567		 595.98578			43096.66989		207.50600		875.00000 
 43692.65567		 305.27265			43387.38302		66.57000		324.00000 
 43692.65567		 595.98578			43096.66989		207.50600		875.00000 
 43692.65567		 305.27265			43387.38302		66.57000		324.00000 
 43692.65567		 595.98578			43096.66989		207.50600		875.00000 
 43692.65567		 305.27265			43387.38302		66.57000		324.00000 
 43692.65567		 595.98578			43096.66989		207.50600		875.00000 
 43692.65567		 305.27265			43387.38302		66.57000		324.00000 
 43692.65567		 595.98578			43096.66989		207.50600		875.00000 
 43692.65567		 305.27265			43387.38302		66.57000		324.00000 
 43692.65567		 595.98578			43096.66989		207.50600		875.00000 
 43692.65567		 305.27265			43387.38302		66.57000		324.00000 
 43692.65567		 595.98578			43096.66989		207.50600		875.00000 
 43692.65567		 305.27265			43387.38302		66.57000		324.00000 
 43692.65567		 595.98578			43096.66989		207.50600		875.00000 
 43692.65567		 305.27265			43387.38302		66.57000		324.00000 
 43692.65567		 595.98578			43096.66989		207.50600		875.00000 
 43692.65567		 305.27265			43387.38302		66.57000		324.00000 
 43692.65567		 595.98578			43096.66989		207.50600		875.00000 
 43692.65567		 305.27265			43387.38302		66.57000		324.00000 
 43692.65567		 556.84214			43135.81353		207.50600		875.00000 
 43692.65567		 305.27265			43387.38302		66.57000		324.00000 
 43692.65567		 537.27032			43155.38535		207.50600		875.00000 
 43692.65567		 305.27265			43387.38302		66.57000		324.00000 
 43692.65567		 537.27032			43155.38535		207.50600		875.00000 
 43692.65567		 305.27265			43387.38302		66.57000		324.00000 
 43692.65567		 537.27032			43155.38535		207.50600		875.00000 
 43692.65567		 305.27265			43387.38302		66.57000		324.00000 
 43692.65567		 537.27032			43155.38535		207.50600		875.00000 
 43692.65567		 305.27265			43387.38302		66.57000		324.00000 
 43692.65567		 537.27032			43155.38535		207.50600		875.00000 
 43692.65567		 305.27265			43387.38302		66.57000		324.00000 
 43692.65567		 537.27032			43155.38535		207.50600		875.00000 
 43692.65567		 305.27265			43387.38302		66.57000		324.00000 
 43692.65567		 537.27032			43155.38535		207.50600		875.00000 
 43692.65567		 305.27265			43387.38302		66.57000		324.00000 
 43692.65567		 537.27032			43155.38535		207.50600		875.00000 
 43692.65567		 305.27265			43387.38302		66.57000		324.00000 
 43692.65567		 537.27032			43155.38535		207.50600		875.00000 
 43692.65567		 305.27265			43387.38302		66.57000		324.00000 
 43692.65567		 537.27032			43155.38535		207.50600		875.00000 
 43692.65567		 305.27265			43387.38302		66.57000		324.00000 
 43692.65567		 537.27032			43155.38535		207.50600		875.00000 
 43692.65567		 305.27265			43387.38302		66.57000		324.00000 
 43692.65567		 537.27032			43155.38535		207.50600		875.00000 
 43692.65567		 305.27265			43387.38302		66.57000		324.00000 
 43692.65567		 537.27032			43155.38535		207.50600		875.00000 
 43692.65567		 305.27265			43387.38302		66.57000		324.00000 
 43692.65567		 537.27032			43155.38535		207.50600		875.00000 
 43692.65567		 305.27265			43387.38302		66.57000		324.00000 
 43692.65567		 537.27032			43155.38535		207.50600		875.00000 
 43692.65567		 305.27265			43387.38302		66.57000		324.00000 
 43692.65567		 537.27032			43155.38535		207.50600		875.00000 
 43692.65567		 305.27265			43387.38302		66.57000		324.00000 
 43692.65567		 537.27032			43155.38535		207.50600		875.00000 
 43692.65567		 305.27265			43387.38302		66.57000		324.00000 
 43692.65567		 537.27032			43155.38535		207.50600		875.00000 
 43692.65567		 305.27265			43387.38302		66.57000		324.00000 
 43692.65567		 537.27032			43155.38535		207.50600		875.00000 
 43692.65567		 305.27265			43387.38302		66.57000		324.00000 
 43692.65567		 529.63254			43163.02313		207.50600		875.00000 
 43692.65567		 305.27265			43387.38302		66.57000		324.00000 
 43692.65567		 525.81365			43166.84203		181.94800		875.00000 
 43692.65567		 297.63487			43395.02080		66.57000		324.00000 
 43692.65567		 261.35540			43431.30027		181.94800		875.00000 
 43692.65567		 261.35540			43431.30027		66.57000		324.00000 
