Memory Total (MiB) 	 Memory Used (MiB) 	    Memory Free (MiB) 	 Power Drawed (W) 	 Clocks (Mhz) 	 
 43692.65567		 261.35540			43431.30027		203.25600		875.00000 
 43692.65567		 261.35540			43431.30027		69.65600		324.00000 
 43692.65567		 261.35540			43431.30027		203.25600		875.00000 
 43692.65567		 261.35540			43431.30027		69.65600		324.00000 
 43692.65567		 261.35540			43431.30027		203.25600		875.00000 
 43692.65567		 261.35540			43431.30027		69.65600		324.00000 
 43692.65567		 261.35540			43431.30027		203.25600		875.00000 
 43692.65567		 261.35540			43431.30027		69.65600		324.00000 
 43692.65567		 261.35540			43431.30027		203.25600		875.00000 
 43692.65567		 261.35540			43431.30027		69.65600		324.00000 
 43692.65567		 261.35540			43431.30027		203.25600		875.00000 
 43692.65567		 261.35540			43431.30027		69.65600		324.00000 
 43692.65567		 261.35540			43431.30027		203.25600		875.00000 
 43692.65567		 261.35540			43431.30027		69.65600		324.00000 
 43692.65567		 261.35540			43431.30027		203.25600		875.00000 
 43692.65567		 261.35540			43431.30027		69.65600		324.00000 
 43692.65567		 261.35540			43431.30027		203.25600		875.00000 
 43692.65567		 261.35540			43431.30027		69.65600		324.00000 
 43692.65567		 261.35540			43431.30027		203.25600		875.00000 
 43692.65567		 261.35540			43431.30027		69.65600		324.00000 
 43692.65567		 261.35540			43431.30027		203.25600		875.00000 
 43692.65567		 261.35540			43431.30027		69.65600		324.00000 
 43692.65567		 261.35540			43431.30027		203.25600		875.00000 
 43692.65567		 261.35540			43431.30027		69.65600		324.00000 
 43692.65567		 261.35540			43431.30027		203.25600		875.00000 
 43692.65567		 261.35540			43431.30027		69.65600		324.00000 
 43692.65567		 261.35540			43431.30027		203.25600		875.00000 
 43692.65567		 261.35540			43431.30027		69.65600		324.00000 
 43692.65567		 261.35540			43431.30027		203.25600		875.00000 
 43692.65567		 261.35540			43431.30027		69.65600		324.00000 
 43692.65567		 261.35540			43431.30027		203.25600		875.00000 
 43692.65567		 261.35540			43431.30027		69.65600		324.00000 
 43692.65567		 261.35540			43431.30027		203.25600		875.00000 
 43692.65567		 261.35540			43431.30027		69.65600		324.00000 
 43692.65567		 265.17429			43427.48138		158.63800		875.00000 
 43692.65567		 261.35540			43431.30027		69.65600		324.00000 
 43692.65567		 265.17429			43427.48138		158.63800		875.00000 
 43692.65567		 261.35540			43431.30027		69.65600		324.00000 
 43692.65567		 272.81207			43419.84360		158.63800		875.00000 
 43692.65567		 261.35540			43431.30027		69.65600		324.00000 
 43692.65567		 272.81207			43419.84360		158.63800		875.00000 
 43692.65567		 261.35540			43431.30027		69.65600		324.00000 
 43692.65567		 272.81207			43419.84360		158.63800		875.00000 
 43692.65567		 265.17429			43427.48138		69.65600		324.00000 
 43692.65567		 272.81207			43419.84360		158.63800		875.00000 
 43692.65567		 265.17429			43427.48138		69.65600		324.00000 
 43692.65567		 272.81207			43419.84360		158.63800		875.00000 
 43692.65567		 265.17429			43427.48138		69.65600		324.00000 
 43692.65567		 272.81207			43419.84360		158.63800		875.00000 
 43692.65567		 272.81207			43419.84360		69.65600		324.00000 
 43692.65567		 272.81207			43419.84360		158.63800		875.00000 
 43692.65567		 272.81207			43419.84360		69.65600		324.00000 
 43692.65567		 272.81207			43419.84360		158.63800		875.00000 
 43692.65567		 272.81207			43419.84360		69.65600		324.00000 
 43692.65567		 305.27265			43387.38302		158.63800		875.00000 
 43692.65567		 305.27265			43387.38302		69.65600		324.00000 
 43692.65567		 305.27265			43387.38302		158.63800		875.00000 
 43692.65567		 305.27265			43387.38302		69.65600		324.00000 
 43692.65567		 305.27265			43387.38302		158.63800		875.00000 
 43692.65567		 305.27265			43387.38302		69.65600		324.00000 
 43692.65567		 305.27265			43387.38302		158.63800		875.00000 
 43692.65567		 305.27265			43387.38302		69.65600		324.00000 
 43692.65567		 305.27265			43387.38302		158.63800		875.00000 
 43692.65567		 305.27265			43387.38302		69.65600		324.00000 
 43692.65567		 309.09154			43383.56413		158.63800		875.00000 
 43692.65567		 305.27265			43387.38302		69.65600		324.00000 
 43692.65567		 310.52363			43382.13204		158.63800		875.00000 
 43692.65567		 305.27265			43387.38302		69.65600		324.00000 
 43692.65567		 311.00099			43381.65468		158.63800		875.00000 
 43692.65567		 305.27265			43387.38302		69.65600		324.00000 
 43692.65567		 311.00099			43381.65468		158.63800		875.00000 
 43692.65567		 305.27265			43387.38302		69.65600		324.00000 
 43692.65567		 311.00099			43381.65468		158.63800		875.00000 
 43692.65567		 305.27265			43387.38302		69.65600		324.00000 
 43692.65567		 311.00099			43381.65468		158.63800		875.00000 
 43692.65567		 305.27265			43387.38302		69.65600		324.00000 
 43692.65567		 311.00099			43381.65468		158.63800		875.00000 
 43692.65567		 305.27265			43387.38302		69.65600		324.00000 
 43692.65567		 311.00099			43381.65468		158.63800		875.00000 
 43692.65567		 305.27265			43387.38302		69.65600		324.00000 
 43692.65567		 311.00099			43381.65468		158.63800		875.00000 
 43692.65567		 305.27265			43387.38302		69.65600		324.00000 
 43692.65567		 311.00099			43381.65468		158.63800		875.00000 
 43692.65567		 305.27265			43387.38302		69.65600		324.00000 
 43692.65567		 311.00099			43381.65468		158.63800		875.00000 
 43692.65567		 305.27265			43387.38302		69.65600		324.00000 
 43692.65567		 311.00099			43381.65468		158.63800		875.00000 
 43692.65567		 305.27265			43387.38302		69.65600		324.00000 
 43692.65567		 311.00099			43381.65468		158.63800		875.00000 
 43692.65567		 305.27265			43387.38302		69.65600		324.00000 
 43692.65567		 311.00099			43381.65468		158.63800		875.00000 
 43692.65567		 305.27265			43387.38302		69.65600		324.00000 
 43692.65567		 311.00099			43381.65468		158.63800		875.00000 
 43692.65567		 305.27265			43387.38302		69.65600		324.00000 
 43692.65567		 311.00099			43381.65468		141.99800		875.00000 
 43692.65567		 305.27265			43387.38302		69.65600		324.00000 
 43692.65567		 311.00099			43381.65468		141.99800		875.00000 
 43692.65567		 305.27265			43387.38302		69.65600		324.00000 
 43692.65567		 311.00099			43381.65468		141.99800		875.00000 
 43692.65567		 305.27265			43387.38302		69.65600		324.00000 
 43692.65567		 311.00099			43381.65468		141.99800		875.00000 
 43692.65567		 305.27265			43387.38302		69.65600		324.00000 
 43692.65567		 311.00099			43381.65468		141.99800		875.00000 
 43692.65567		 305.27265			43387.38302		69.65600		324.00000 
 43692.65567		 311.00099			43381.65468		141.99800		875.00000 
 43692.65567		 305.27265			43387.38302		69.65600		324.00000 
 43692.65567		 311.00099			43381.65468		141.99800		875.00000 
 43692.65567		 305.27265			43387.38302		69.65600		324.00000 
 43692.65567		 311.00099			43381.65468		141.99800		875.00000 
 43692.65567		 305.27265			43387.38302		69.65600		324.00000 
 43692.65567		 311.00099			43381.65468		141.99800		875.00000 
 43692.65567		 305.27265			43387.38302		69.65600		324.00000 
 43692.65567		 311.00099			43381.65468		141.99800		875.00000 
 43692.65567		 305.27265			43387.38302		69.65600		324.00000 
 43692.65567		 311.00099			43381.65468		141.99800		875.00000 
 43692.65567		 305.27265			43387.38302		69.65600		324.00000 
 43692.65567		 311.00099			43381.65468		141.99800		875.00000 
 43692.65567		 305.27265			43387.38302		69.65600		324.00000 
 43692.65567		 311.00099			43381.65468		141.99800		875.00000 
 43692.65567		 305.27265			43387.38302		69.65600		324.00000 
 43692.65567		 311.00099			43381.65468		141.99800		875.00000 
 43692.65567		 305.27265			43387.38302		69.65600		324.00000 
 43692.65567		 311.00099			43381.65468		141.99800		875.00000 
 43692.65567		 305.27265			43387.38302		69.65600		324.00000 
 43692.65567		 311.00099			43381.65468		141.99800		875.00000 
 43692.65567		 305.27265			43387.38302		69.65600		324.00000 
 43692.65567		 311.00099			43381.65468		141.99800		875.00000 
 43692.65567		 305.27265			43387.38302		69.65600		324.00000 
 43692.65567		 311.00099			43381.65468		141.99800		875.00000 
 43692.65567		 305.27265			43387.38302		69.65600		324.00000 
 43692.65567		 311.00099			43381.65468		141.99800		875.00000 
 43692.65567		 305.27265			43387.38302		69.65600		324.00000 
 43692.65567		 311.00099			43381.65468		141.99800		875.00000 
 43692.65567		 305.27265			43387.38302		69.65600		324.00000 
 43692.65567		 311.00099			43381.65468		141.99800		875.00000 
 43692.65567		 305.27265			43387.38302		69.65600		324.00000 
 43692.65567		 311.00099			43381.65468		141.99800		875.00000 
 43692.65567		 305.27265			43387.38302		69.65600		324.00000 
 43692.65567		 311.00099			43381.65468		141.99800		875.00000 
 43692.65567		 305.27265			43387.38302		69.65600		324.00000 
 43692.65567		 311.00099			43381.65468		141.99800		875.00000 
 43692.65567		 305.27265			43387.38302		69.65600		324.00000 
 43692.65567		 311.00099			43381.65468		141.99800		875.00000 
 43692.65567		 305.27265			43387.38302		69.65600		324.00000 
 43692.65567		 311.00099			43381.65468		141.99800		875.00000 
 43692.65567		 305.27265			43387.38302		69.65600		324.00000 
 43692.65567		 311.00099			43381.65468		141.99800		875.00000 
 43692.65567		 305.27265			43387.38302		69.65600		324.00000 
 43692.65567		 311.00099			43381.65468		141.99800		875.00000 
 43692.65567		 305.27265			43387.38302		69.65600		324.00000 
 43692.65567		 311.00099			43381.65468		141.99800		875.00000 
 43692.65567		 305.27265			43387.38302		69.65600		324.00000 
 43692.65567		 311.00099			43381.65468		141.99800		875.00000 
 43692.65567		 305.27265			43387.38302		69.65600		324.00000 
 43692.65567		 311.00099			43381.65468		141.99800		875.00000 
 43692.65567		 305.27265			43387.38302		69.65600		324.00000 
 43692.65567		 311.00099			43381.65468		135.62600		875.00000 
 43692.65567		 305.27265			43387.38302		69.65600		324.00000 
 43692.65567		 311.00099			43381.65468		135.62600		875.00000 
 43692.65567		 305.27265			43387.38302		69.65600		324.00000 
 43692.65567		 311.00099			43381.65468		135.62600		875.00000 
 43692.65567		 305.27265			43387.38302		69.65600		324.00000 
 43692.65567		 311.00099			43381.65468		135.62600		875.00000 
 43692.65567		 305.27265			43387.38302		69.65600		324.00000 
 43692.65567		 311.00099			43381.65468		135.62600		875.00000 
 43692.65567		 305.27265			43387.38302		69.65600		324.00000 
 43692.65567		 311.00099			43381.65468		135.62600		875.00000 
 43692.65567		 305.27265			43387.38302		69.65600		324.00000 
 43692.65567		 314.81988			43377.83579		135.62600		875.00000 
 43692.65567		 305.27265			43387.38302		69.65600		324.00000 
 43692.65567		 314.81988			43377.83579		135.62600		875.00000 
 43692.65567		 305.27265			43387.38302		69.65600		324.00000 
 43692.65567		 314.81988			43377.83579		135.62600		875.00000 
 43692.65567		 305.27265			43387.38302		69.65600		324.00000 
 43692.65567		 318.63877			43374.01690		135.62600		875.00000 
 43692.65567		 305.27265			43387.38302		69.65600		324.00000 
 43692.65567		 322.45767			43370.19801		135.62600		875.00000 
 43692.65567		 305.27265			43387.38302		69.65600		324.00000 
 43692.65567		 326.27656			43366.37912		135.62600		875.00000 
 43692.65567		 305.27265			43387.38302		69.65600		324.00000 
 43692.65567		 326.27656			43366.37912		135.62600		875.00000 
 43692.65567		 305.27265			43387.38302		69.65600		324.00000 
 43692.65567		 326.27656			43366.37912		135.62600		875.00000 
 43692.65567		 305.27265			43387.38302		69.65600		324.00000 
 43692.65567		 537.27032			43155.38535		135.62600		875.00000 
 43692.65567		 305.27265			43387.38302		69.65600		324.00000 
 43692.65567		 585.48383			43107.17184		135.62600		875.00000 
 43692.65567		 305.27265			43387.38302		69.65600		324.00000 
 43692.65567		 681.91084			43010.74483		135.62600		875.00000 
 43692.65567		 305.27265			43387.38302		69.65600		324.00000 
 43692.65567		 681.91084			43010.74483		135.62600		875.00000 
 43692.65567		 305.27265			43387.38302		69.65600		324.00000 
 43692.65567		 681.91084			43010.74483		135.62600		875.00000 
 43692.65567		 305.27265			43387.38302		69.65600		324.00000 
 43692.65567		 681.91084			43010.74483		135.62600		875.00000 
 43692.65567		 305.27265			43387.38302		69.65600		324.00000 
 43692.65567		 681.91084			43010.74483		135.62600		875.00000 
 43692.65567		 305.27265			43387.38302		69.65600		324.00000 
 43692.65567		 681.91084			43010.74483		135.62600		875.00000 
 43692.65567		 305.27265			43387.38302		69.65600		324.00000 
 43692.65567		 681.91084			43010.74483		135.62600		875.00000 
 43692.65567		 305.27265			43387.38302		69.65600		324.00000 
 43692.65567		 681.91084			43010.74483		135.62600		875.00000 
 43692.65567		 305.27265			43387.38302		69.65600		324.00000 
 43692.65567		 681.91084			43010.74483		135.62600		875.00000 
 43692.65567		 305.27265			43387.38302		69.65600		324.00000 
 43692.65567		 681.91084			43010.74483		135.62600		875.00000 
 43692.65567		 305.27265			43387.38302		69.65600		324.00000 
 43692.65567		 681.91084			43010.74483		135.62600		875.00000 
 43692.65567		 305.27265			43387.38302		69.65600		324.00000 
 43692.65567		 681.91084			43010.74483		135.62600		875.00000 
 43692.65567		 305.27265			43387.38302		69.65600		324.00000 
 43692.65567		 681.91084			43010.74483		135.62600		875.00000 
 43692.65567		 305.27265			43387.38302		69.65600		324.00000 
 43692.65567		 681.91084			43010.74483		135.62600		875.00000 
 43692.65567		 305.27265			43387.38302		69.65600		324.00000 
 43692.65567		 681.91084			43010.74483		135.62600		875.00000 
 43692.65567		 305.27265			43387.38302		69.65600		324.00000 
 43692.65567		 681.91084			43010.74483		135.62600		875.00000 
 43692.65567		 305.27265			43387.38302		69.65600		324.00000 
 43692.65567		 681.91084			43010.74483		135.62600		875.00000 
 43692.65567		 305.27265			43387.38302		69.65600		324.00000 
 43692.65567		 681.91084			43010.74483		135.62600		875.00000 
 43692.65567		 305.27265			43387.38302		69.65600		324.00000 
 43692.65567		 681.91084			43010.74483		135.62600		875.00000 
 43692.65567		 305.27265			43387.38302		69.65600		324.00000 
 43692.65567		 681.91084			43010.74483		135.62600		875.00000 
 43692.65567		 305.27265			43387.38302		69.65600		324.00000 
 43692.65567		 681.91084			43010.74483		135.62600		875.00000 
 43692.65567		 305.27265			43387.38302		69.65600		324.00000 
 43692.65567		 681.91084			43010.74483		135.62600		875.00000 
 43692.65567		 305.27265			43387.38302		69.65600		324.00000 
 43692.65567		 681.91084			43010.74483		135.62600		875.00000 
 43692.65567		 305.27265			43387.38302		69.65600		324.00000 
 43692.65567		 681.91084			43010.74483		135.62600		875.00000 
 43692.65567		 305.27265			43387.38302		69.65600		324.00000 
 43692.65567		 681.91084			43010.74483		135.62600		875.00000 
 43692.65567		 305.27265			43387.38302		69.65600		324.00000 
 43692.65567		 681.91084			43010.74483		135.62600		875.00000 
 43692.65567		 305.27265			43387.38302		69.65600		324.00000 
 43692.65567		 681.91084			43010.74483		135.62600		875.00000 
 43692.65567		 305.27265			43387.38302		69.65600		324.00000 
 43692.65567		 681.91084			43010.74483		135.62600		875.00000 
 43692.65567		 305.27265			43387.38302		69.65600		324.00000 
 43692.65567		 681.91084			43010.74483		135.62600		875.00000 
 43692.65567		 305.27265			43387.38302		69.65600		324.00000 
 43692.65567		 681.91084			43010.74483		135.62600		875.00000 
 43692.65567		 305.27265			43387.38302		69.65600		324.00000 
 43692.65567		 681.91084			43010.74483		135.62600		875.00000 
 43692.65567		 305.27265			43387.38302		69.65600		324.00000 
 43692.65567		 681.91084			43010.74483		135.62600		875.00000 
 43692.65567		 305.27265			43387.38302		69.65600		324.00000 
 43692.65567		 681.91084			43010.74483		135.62600		875.00000 
 43692.65567		 305.27265			43387.38302		69.65600		324.00000 
 43692.65567		 681.91084			43010.74483		135.62600		875.00000 
 43692.65567		 305.27265			43387.38302		69.65600		324.00000 
 43692.65567		 681.91084			43010.74483		135.62600		875.00000 
 43692.65567		 305.27265			43387.38302		69.65600		324.00000 
 43692.65567		 681.91084			43010.74483		135.62600		875.00000 
 43692.65567		 305.27265			43387.38302		69.65600		324.00000 
 43692.65567		 681.91084			43010.74483		135.62600		875.00000 
 43692.65567		 305.27265			43387.38302		69.65600		324.00000 
 43692.65567		 681.91084			43010.74483		172.10800		875.00000 
 43692.65567		 305.27265			43387.38302		69.65600		324.00000 
 43692.65567		 681.91084			43010.74483		172.10800		875.00000 
 43692.65567		 305.27265			43387.38302		69.65600		324.00000 
 43692.65567		 681.91084			43010.74483		172.10800		875.00000 
 43692.65567		 305.27265			43387.38302		69.65600		324.00000 
 43692.65567		 681.91084			43010.74483		172.10800		875.00000 
 43692.65567		 305.27265			43387.38302		69.65600		324.00000 
 43692.65567		 681.91084			43010.74483		172.10800		875.00000 
 43692.65567		 305.27265			43387.38302		69.65600		324.00000 
 43692.65567		 681.91084			43010.74483		172.10800		875.00000 
 43692.65567		 305.27265			43387.38302		69.65600		324.00000 
 43692.65567		 681.91084			43010.74483		172.10800		875.00000 
 43692.65567		 305.27265			43387.38302		69.65600		324.00000 
 43692.65567		 681.91084			43010.74483		172.10800		875.00000 
 43692.65567		 305.27265			43387.38302		69.65600		324.00000 
 43692.65567		 681.91084			43010.74483		172.10800		875.00000 
 43692.65567		 305.27265			43387.38302		69.65600		324.00000 
 43692.65567		 681.91084			43010.74483		172.10800		875.00000 
 43692.65567		 305.27265			43387.38302		69.65600		324.00000 
 43692.65567		 681.91084			43010.74483		172.10800		875.00000 
 43692.65567		 305.27265			43387.38302		69.65600		324.00000 
 43692.65567		 681.91084			43010.74483		172.10800		875.00000 
 43692.65567		 305.27265			43387.38302		69.65600		324.00000 
 43692.65567		 681.91084			43010.74483		172.10800		875.00000 
 43692.65567		 305.27265			43387.38302		69.65600		324.00000 
 43692.65567		 681.91084			43010.74483		172.10800		875.00000 
 43692.65567		 305.27265			43387.38302		69.65600		324.00000 
 43692.65567		 681.91084			43010.74483		172.10800		875.00000 
 43692.65567		 305.27265			43387.38302		69.65600		324.00000 
 43692.65567		 681.91084			43010.74483		172.10800		875.00000 
 43692.65567		 305.27265			43387.38302		69.65600		324.00000 
 43692.65567		 681.91084			43010.74483		172.10800		875.00000 
 43692.65567		 305.27265			43387.38302		69.65600		324.00000 
 43692.65567		 681.91084			43010.74483		172.10800		875.00000 
 43692.65567		 305.27265			43387.38302		69.65600		324.00000 
 43692.65567		 681.91084			43010.74483		172.10800		875.00000 
 43692.65567		 305.27265			43387.38302		69.65600		324.00000 
 43692.65567		 681.91084			43010.74483		172.10800		875.00000 
 43692.65567		 305.27265			43387.38302		69.65600		324.00000 
 43692.65567		 681.91084			43010.74483		172.10800		875.00000 
 43692.65567		 305.27265			43387.38302		69.65600		324.00000 
 43692.65567		 681.91084			43010.74483		172.10800		875.00000 
 43692.65567		 305.27265			43387.38302		69.65600		324.00000 
 43692.65567		 681.91084			43010.74483		172.10800		875.00000 
 43692.65567		 305.27265			43387.38302		69.65600		324.00000 
 43692.65567		 681.91084			43010.74483		172.10800		875.00000 
 43692.65567		 305.27265			43387.38302		69.65600		324.00000 
 43692.65567		 681.91084			43010.74483		172.10800		875.00000 
 43692.65567		 305.27265			43387.38302		69.65600		324.00000 
 43692.65567		 681.91084			43010.74483		172.10800		875.00000 
 43692.65567		 305.27265			43387.38302		69.65600		324.00000 
 43692.65567		 681.91084			43010.74483		172.10800		875.00000 
 43692.65567		 305.27265			43387.38302		69.65600		324.00000 
 43692.65567		 681.91084			43010.74483		172.10800		875.00000 
 43692.65567		 305.27265			43387.38302		69.65600		324.00000 
 43692.65567		 681.91084			43010.74483		172.10800		875.00000 
 43692.65567		 305.27265			43387.38302		69.65600		324.00000 
 43692.65567		 681.91084			43010.74483		172.10800		875.00000 
 43692.65567		 305.27265			43387.38302		69.65600		324.00000 
 43692.65567		 681.91084			43010.74483		172.10800		875.00000 
 43692.65567		 305.27265			43387.38302		69.65600		324.00000 
 43692.65567		 681.91084			43010.74483		172.10800		875.00000 
 43692.65567		 305.27265			43387.38302		69.65600		324.00000 
 43692.65567		 681.91084			43010.74483		172.10800		875.00000 
 43692.65567		 305.27265			43387.38302		69.65600		324.00000 
 43692.65567		 681.91084			43010.74483		172.10800		875.00000 
 43692.65567		 305.27265			43387.38302		69.65600		324.00000 
 43692.65567		 681.91084			43010.74483		172.10800		875.00000 
 43692.65567		 305.27265			43387.38302		69.65600		324.00000 
 43692.65567		 681.91084			43010.74483		172.10800		875.00000 
 43692.65567		 305.27265			43387.38302		69.65600		324.00000 
 43692.65567		 681.91084			43010.74483		172.10800		875.00000 
 43692.65567		 305.27265			43387.38302		69.65600		324.00000 
 43692.65567		 681.91084			43010.74483		172.10800		875.00000 
 43692.65567		 305.27265			43387.38302		69.65600		324.00000 
 43692.65567		 681.91084			43010.74483		172.10800		875.00000 
 43692.65567		 305.27265			43387.38302		69.65600		324.00000 
 43692.65567		 681.91084			43010.74483		172.10800		875.00000 
 43692.65567		 305.27265			43387.38302		69.65600		324.00000 
 43692.65567		 681.91084			43010.74483		172.10800		875.00000 
 43692.65567		 305.27265			43387.38302		69.65600		324.00000 
 43692.65567		 681.91084			43010.74483		172.10800		875.00000 
 43692.65567		 305.27265			43387.38302		69.65600		324.00000 
 43692.65567		 681.91084			43010.74483		172.10800		875.00000 
 43692.65567		 305.27265			43387.38302		69.65600		324.00000 
 43692.65567		 681.91084			43010.74483		172.10800		875.00000 
 43692.65567		 305.27265			43387.38302		69.65600		324.00000 
 43692.65567		 681.91084			43010.74483		172.10800		875.00000 
 43692.65567		 305.27265			43387.38302		69.65600		324.00000 
 43692.65567		 681.91084			43010.74483		172.10800		875.00000 
 43692.65567		 305.27265			43387.38302		69.65600		324.00000 
 43692.65567		 681.91084			43010.74483		172.10800		875.00000 
 43692.65567		 305.27265			43387.38302		69.65600		324.00000 
 43692.65567		 681.91084			43010.74483		172.10800		875.00000 
 43692.65567		 305.27265			43387.38302		69.65600		324.00000 
 43692.65567		 681.91084			43010.74483		172.10800		875.00000 
 43692.65567		 305.27265			43387.38302		69.65600		324.00000 
 43692.65567		 681.91084			43010.74483		172.10800		875.00000 
 43692.65567		 305.27265			43387.38302		69.65600		324.00000 
 43692.65567		 681.91084			43010.74483		172.10800		875.00000 
 43692.65567		 305.27265			43387.38302		68.70800		324.00000 
 43692.65567		 681.91084			43010.74483		172.10800		875.00000 
 43692.65567		 305.27265			43387.38302		68.70800		324.00000 
 43692.65567		 681.91084			43010.74483		172.10800		875.00000 
 43692.65567		 305.27265			43387.38302		68.70800		324.00000 
 43692.65567		 681.91084			43010.74483		172.10800		875.00000 
 43692.65567		 305.27265			43387.38302		68.70800		324.00000 
 43692.65567		 681.91084			43010.74483		172.10800		875.00000 
 43692.65567		 305.27265			43387.38302		68.70800		324.00000 
 43692.65567		 681.91084			43010.74483		172.10800		875.00000 
 43692.65567		 305.27265			43387.38302		68.70800		324.00000 
 43692.65567		 681.91084			43010.74483		172.10800		875.00000 
 43692.65567		 305.27265			43387.38302		68.70800		324.00000 
 43692.65567		 681.91084			43010.74483		172.10800		875.00000 
 43692.65567		 305.27265			43387.38302		68.70800		324.00000 
 43692.65567		 681.91084			43010.74483		172.10800		875.00000 
 43692.65567		 305.27265			43387.38302		68.70800		324.00000 
 43692.65567		 681.91084			43010.74483		172.10800		875.00000 
 43692.65567		 305.27265			43387.38302		68.70800		324.00000 
 43692.65567		 681.91084			43010.74483		172.10800		875.00000 
 43692.65567		 305.27265			43387.38302		68.70800		324.00000 
 43692.65567		 681.91084			43010.74483		201.63000		875.00000 
 43692.65567		 305.27265			43387.38302		68.70800		324.00000 
 43692.65567		 681.91084			43010.74483		201.63000		875.00000 
 43692.65567		 305.27265			43387.38302		68.70800		324.00000 
 43692.65567		 681.91084			43010.74483		201.63000		875.00000 
 43692.65567		 305.27265			43387.38302		68.70800		324.00000 
 43692.65567		 681.91084			43010.74483		201.63000		875.00000 
 43692.65567		 305.27265			43387.38302		68.70800		324.00000 
 43692.65567		 681.91084			43010.74483		201.63000		875.00000 
 43692.65567		 305.27265			43387.38302		68.70800		324.00000 
 43692.65567		 681.91084			43010.74483		201.63000		875.00000 
 43692.65567		 305.27265			43387.38302		68.70800		324.00000 
 43692.65567		 681.91084			43010.74483		201.63000		875.00000 
 43692.65567		 305.27265			43387.38302		68.70800		324.00000 
 43692.65567		 681.91084			43010.74483		201.63000		875.00000 
 43692.65567		 305.27265			43387.38302		68.70800		324.00000 
 43692.65567		 681.91084			43010.74483		201.63000		875.00000 
 43692.65567		 305.27265			43387.38302		68.70800		324.00000 
 43692.65567		 681.91084			43010.74483		201.63000		875.00000 
 43692.65567		 305.27265			43387.38302		68.70800		324.00000 
 43692.65567		 681.91084			43010.74483		201.63000		875.00000 
 43692.65567		 305.27265			43387.38302		68.70800		324.00000 
 43692.65567		 681.91084			43010.74483		201.63000		875.00000 
 43692.65567		 305.27265			43387.38302		68.70800		324.00000 
 43692.65567		 681.91084			43010.74483		201.63000		875.00000 
 43692.65567		 305.27265			43387.38302		68.70800		324.00000 
 43692.65567		 681.91084			43010.74483		201.63000		875.00000 
 43692.65567		 305.27265			43387.38302		68.70800		324.00000 
 43692.65567		 681.91084			43010.74483		201.63000		875.00000 
 43692.65567		 305.27265			43387.38302		68.70800		324.00000 
 43692.65567		 681.91084			43010.74483		201.63000		875.00000 
 43692.65567		 305.27265			43387.38302		68.70800		324.00000 
 43692.65567		 681.91084			43010.74483		201.63000		875.00000 
 43692.65567		 305.27265			43387.38302		68.70800		324.00000 
 43692.65567		 681.91084			43010.74483		201.63000		875.00000 
 43692.65567		 305.27265			43387.38302		68.70800		324.00000 
 43692.65567		 681.91084			43010.74483		201.63000		875.00000 
 43692.65567		 305.27265			43387.38302		68.70800		324.00000 
 43692.65567		 681.91084			43010.74483		201.63000		875.00000 
 43692.65567		 305.27265			43387.38302		68.70800		324.00000 
 43692.65567		 681.91084			43010.74483		201.63000		875.00000 
 43692.65567		 305.27265			43387.38302		68.70800		324.00000 
 43692.65567		 681.91084			43010.74483		201.63000		875.00000 
 43692.65567		 305.27265			43387.38302		68.70800		324.00000 
 43692.65567		 681.91084			43010.74483		201.63000		875.00000 
 43692.65567		 305.27265			43387.38302		68.70800		324.00000 
 43692.65567		 681.91084			43010.74483		201.63000		875.00000 
 43692.65567		 305.27265			43387.38302		68.70800		324.00000 
 43692.65567		 681.91084			43010.74483		201.63000		875.00000 
 43692.65567		 305.27265			43387.38302		68.70800		324.00000 
 43692.65567		 681.91084			43010.74483		201.63000		875.00000 
 43692.65567		 305.27265			43387.38302		68.70800		324.00000 
 43692.65567		 681.91084			43010.74483		201.63000		875.00000 
 43692.65567		 305.27265			43387.38302		68.70800		324.00000 
 43692.65567		 681.91084			43010.74483		201.63000		875.00000 
 43692.65567		 305.27265			43387.38302		68.70800		324.00000 
 43692.65567		 681.91084			43010.74483		201.63000		875.00000 
 43692.65567		 305.27265			43387.38302		68.70800		324.00000 
 43692.65567		 681.91084			43010.74483		201.63000		875.00000 
 43692.65567		 305.27265			43387.38302		68.70800		324.00000 
 43692.65567		 681.91084			43010.74483		201.63000		875.00000 
 43692.65567		 305.27265			43387.38302		68.70800		324.00000 
 43692.65567		 681.91084			43010.74483		201.63000		875.00000 
 43692.65567		 305.27265			43387.38302		68.70800		324.00000 
 43692.65567		 681.91084			43010.74483		201.63000		875.00000 
 43692.65567		 305.27265			43387.38302		68.70800		324.00000 
 43692.65567		 681.91084			43010.74483		201.63000		875.00000 
 43692.65567		 305.27265			43387.38302		68.70800		324.00000 
 43692.65567		 681.91084			43010.74483		201.63000		875.00000 
 43692.65567		 305.27265			43387.38302		68.70800		324.00000 
 43692.65567		 681.91084			43010.74483		201.63000		875.00000 
 43692.65567		 305.27265			43387.38302		68.70800		324.00000 
 43692.65567		 681.91084			43010.74483		201.63000		875.00000 
 43692.65567		 305.27265			43387.38302		68.70800		324.00000 
 43692.65567		 681.91084			43010.74483		201.63000		875.00000 
 43692.65567		 305.27265			43387.38302		68.70800		324.00000 
 43692.65567		 681.91084			43010.74483		201.63000		875.00000 
 43692.65567		 305.27265			43387.38302		68.70800		324.00000 
 43692.65567		 681.91084			43010.74483		201.63000		875.00000 
 43692.65567		 305.27265			43387.38302		68.70800		324.00000 
 43692.65567		 681.91084			43010.74483		201.63000		875.00000 
 43692.65567		 305.27265			43387.38302		68.70800		324.00000 
 43692.65567		 681.91084			43010.74483		201.63000		875.00000 
 43692.65567		 305.27265			43387.38302		68.70800		324.00000 
 43692.65567		 681.91084			43010.74483		201.63000		875.00000 
 43692.65567		 305.27265			43387.38302		68.70800		324.00000 
 43692.65567		 681.91084			43010.74483		201.63000		875.00000 
 43692.65567		 305.27265			43387.38302		68.70800		324.00000 
 43692.65567		 681.91084			43010.74483		201.63000		875.00000 
 43692.65567		 305.27265			43387.38302		68.70800		324.00000 
 43692.65567		 681.91084			43010.74483		201.63000		875.00000 
 43692.65567		 305.27265			43387.38302		68.70800		324.00000 
 43692.65567		 681.91084			43010.74483		201.63000		875.00000 
 43692.65567		 305.27265			43387.38302		68.70800		324.00000 
 43692.65567		 681.91084			43010.74483		201.63000		875.00000 
 43692.65567		 305.27265			43387.38302		68.70800		324.00000 
 43692.65567		 681.91084			43010.74483		201.63000		875.00000 
 43692.65567		 305.27265			43387.38302		68.70800		324.00000 
 43692.65567		 681.91084			43010.74483		201.63000		875.00000 
 43692.65567		 305.27265			43387.38302		68.70800		324.00000 
 43692.65567		 681.91084			43010.74483		201.63000		875.00000 
 43692.65567		 305.27265			43387.38302		68.70800		324.00000 
 43692.65567		 681.91084			43010.74483		201.63000		875.00000 
 43692.65567		 305.27265			43387.38302		68.70800		324.00000 
 43692.65567		 681.91084			43010.74483		201.63000		875.00000 
 43692.65567		 305.27265			43387.38302		68.70800		324.00000 
 43692.65567		 681.91084			43010.74483		201.63000		875.00000 
 43692.65567		 305.27265			43387.38302		68.70800		324.00000 
 43692.65567		 681.91084			43010.74483		201.63000		875.00000 
 43692.65567		 305.27265			43387.38302		68.70800		324.00000 
 43692.65567		 681.91084			43010.74483		201.63000		875.00000 
 43692.65567		 305.27265			43387.38302		68.70800		324.00000 
 43692.65567		 681.91084			43010.74483		201.63000		875.00000 
 43692.65567		 305.27265			43387.38302		68.70800		324.00000 
 43692.65567		 681.91084			43010.74483		201.63000		875.00000 
 43692.65567		 305.27265			43387.38302		68.70800		324.00000 
 43692.65567		 681.91084			43010.74483		201.63000		875.00000 
 43692.65567		 305.27265			43387.38302		68.70800		324.00000 
 43692.65567		 681.91084			43010.74483		201.63000		875.00000 
 43692.65567		 305.27265			43387.38302		68.70800		324.00000 
 43692.65567		 681.91084			43010.74483		201.63000		875.00000 
 43692.65567		 305.27265			43387.38302		68.70800		324.00000 
 43692.65567		 681.91084			43010.74483		201.63000		875.00000 
 43692.65567		 305.27265			43387.38302		68.70800		324.00000 
 43692.65567		 681.91084			43010.74483		201.63000		875.00000 
 43692.65567		 305.27265			43387.38302		68.70800		324.00000 
 43692.65567		 681.91084			43010.74483		201.63000		875.00000 
 43692.65567		 305.27265			43387.38302		68.70800		324.00000 
 43692.65567		 681.91084			43010.74483		213.75600		875.00000 
 43692.65567		 305.27265			43387.38302		68.70800		324.00000 
 43692.65567		 681.91084			43010.74483		213.75600		875.00000 
 43692.65567		 305.27265			43387.38302		68.70800		324.00000 
 43692.65567		 681.91084			43010.74483		213.75600		875.00000 
 43692.65567		 305.27265			43387.38302		68.70800		324.00000 
 43692.65567		 681.91084			43010.74483		213.75600		875.00000 
 43692.65567		 305.27265			43387.38302		68.70800		324.00000 
 43692.65567		 681.91084			43010.74483		213.75600		875.00000 
 43692.65567		 305.27265			43387.38302		68.70800		324.00000 
 43692.65567		 681.91084			43010.74483		213.75600		875.00000 
 43692.65567		 305.27265			43387.38302		68.70800		324.00000 
 43692.65567		 681.91084			43010.74483		213.75600		875.00000 
 43692.65567		 305.27265			43387.38302		68.70800		324.00000 
 43692.65567		 681.91084			43010.74483		213.75600		875.00000 
 43692.65567		 305.27265			43387.38302		68.70800		324.00000 
 43692.65567		 681.91084			43010.74483		213.75600		875.00000 
 43692.65567		 305.27265			43387.38302		68.70800		324.00000 
 43692.65567		 681.91084			43010.74483		213.75600		875.00000 
 43692.65567		 305.27265			43387.38302		68.70800		324.00000 
 43692.65567		 681.91084			43010.74483		213.75600		875.00000 
 43692.65567		 305.27265			43387.38302		68.70800		324.00000 
 43692.65567		 681.91084			43010.74483		213.75600		875.00000 
 43692.65567		 305.27265			43387.38302		68.70800		324.00000 
 43692.65567		 681.91084			43010.74483		213.75600		875.00000 
 43692.65567		 305.27265			43387.38302		68.70800		324.00000 
 43692.65567		 681.91084			43010.74483		213.75600		875.00000 
 43692.65567		 305.27265			43387.38302		68.70800		324.00000 
 43692.65567		 681.91084			43010.74483		213.75600		875.00000 
 43692.65567		 305.27265			43387.38302		68.70800		324.00000 
 43692.65567		 681.91084			43010.74483		213.75600		875.00000 
 43692.65567		 305.27265			43387.38302		68.70800		324.00000 
 43692.65567		 681.91084			43010.74483		213.75600		875.00000 
 43692.65567		 305.27265			43387.38302		68.70800		324.00000 
 43692.65567		 681.91084			43010.74483		213.75600		875.00000 
 43692.65567		 305.27265			43387.38302		68.70800		324.00000 
 43692.65567		 681.91084			43010.74483		213.75600		875.00000 
 43692.65567		 305.27265			43387.38302		68.70800		324.00000 
 43692.65567		 681.91084			43010.74483		213.75600		875.00000 
 43692.65567		 305.27265			43387.38302		68.70800		324.00000 
 43692.65567		 681.91084			43010.74483		213.75600		875.00000 
 43692.65567		 305.27265			43387.38302		68.70800		324.00000 
 43692.65567		 681.91084			43010.74483		213.75600		875.00000 
 43692.65567		 305.27265			43387.38302		68.70800		324.00000 
 43692.65567		 681.91084			43010.74483		213.75600		875.00000 
 43692.65567		 305.27265			43387.38302		68.70800		324.00000 
 43692.65567		 681.91084			43010.74483		213.75600		875.00000 
 43692.65567		 305.27265			43387.38302		68.70800		324.00000 
 43692.65567		 681.91084			43010.74483		213.75600		875.00000 
 43692.65567		 305.27265			43387.38302		68.70800		324.00000 
 43692.65567		 681.91084			43010.74483		213.75600		875.00000 
 43692.65567		 305.27265			43387.38302		68.70800		324.00000 
 43692.65567		 681.91084			43010.74483		213.75600		875.00000 
 43692.65567		 305.27265			43387.38302		68.70800		324.00000 
 43692.65567		 681.91084			43010.74483		213.75600		875.00000 
 43692.65567		 305.27265			43387.38302		68.70800		324.00000 
 43692.65567		 681.91084			43010.74483		213.75600		875.00000 
 43692.65567		 305.27265			43387.38302		68.70800		324.00000 
 43692.65567		 681.91084			43010.74483		213.75600		875.00000 
 43692.65567		 305.27265			43387.38302		68.70800		324.00000 
 43692.65567		 681.91084			43010.74483		213.75600		875.00000 
 43692.65567		 305.27265			43387.38302		68.70800		324.00000 
 43692.65567		 681.91084			43010.74483		213.75600		875.00000 
 43692.65567		 305.27265			43387.38302		68.70800		324.00000 
 43692.65567		 681.91084			43010.74483		213.75600		875.00000 
 43692.65567		 305.27265			43387.38302		68.70800		324.00000 
 43692.65567		 681.91084			43010.74483		213.75600		875.00000 
 43692.65567		 305.27265			43387.38302		68.70800		324.00000 
 43692.65567		 681.91084			43010.74483		213.75600		875.00000 
 43692.65567		 305.27265			43387.38302		68.70800		324.00000 
 43692.65567		 681.91084			43010.74483		213.75600		875.00000 
 43692.65567		 305.27265			43387.38302		68.70800		324.00000 
 43692.65567		 681.91084			43010.74483		213.75600		875.00000 
 43692.65567		 305.27265			43387.38302		68.70800		324.00000 
 43692.65567		 681.91084			43010.74483		213.75600		875.00000 
 43692.65567		 305.27265			43387.38302		68.70800		324.00000 
 43692.65567		 681.91084			43010.74483		213.75600		875.00000 
 43692.65567		 305.27265			43387.38302		68.70800		324.00000 
 43692.65567		 681.91084			43010.74483		213.75600		875.00000 
 43692.65567		 305.27265			43387.38302		68.70800		324.00000 
 43692.65567		 681.91084			43010.74483		213.75600		875.00000 
 43692.65567		 305.27265			43387.38302		68.70800		324.00000 
 43692.65567		 681.91084			43010.74483		213.75600		875.00000 
 43692.65567		 305.27265			43387.38302		68.70800		324.00000 
 43692.65567		 681.91084			43010.74483		213.75600		875.00000 
 43692.65567		 305.27265			43387.38302		68.70800		324.00000 
 43692.65567		 681.91084			43010.74483		213.75600		875.00000 
 43692.65567		 305.27265			43387.38302		68.70800		324.00000 
 43692.65567		 681.91084			43010.74483		213.75600		875.00000 
 43692.65567		 305.27265			43387.38302		68.70800		324.00000 
 43692.65567		 681.91084			43010.74483		213.75600		875.00000 
 43692.65567		 305.27265			43387.38302		68.70800		324.00000 
 43692.65567		 681.91084			43010.74483		213.75600		875.00000 
 43692.65567		 305.27265			43387.38302		68.70800		324.00000 
 43692.65567		 681.91084			43010.74483		213.75600		875.00000 
 43692.65567		 305.27265			43387.38302		68.70800		324.00000 
 43692.65567		 681.91084			43010.74483		213.75600		875.00000 
 43692.65567		 305.27265			43387.38302		68.70800		324.00000 
 43692.65567		 681.91084			43010.74483		213.75600		875.00000 
 43692.65567		 305.27265			43387.38302		68.70800		324.00000 
 43692.65567		 681.91084			43010.74483		213.75600		875.00000 
 43692.65567		 305.27265			43387.38302		68.70800		324.00000 
 43692.65567		 681.91084			43010.74483		213.75600		875.00000 
 43692.65567		 305.27265			43387.38302		68.70800		324.00000 
 43692.65567		 681.91084			43010.74483		213.75600		875.00000 
 43692.65567		 305.27265			43387.38302		68.70800		324.00000 
 43692.65567		 681.91084			43010.74483		213.75600		875.00000 
 43692.65567		 305.27265			43387.38302		68.70800		324.00000 
 43692.65567		 681.91084			43010.74483		213.75600		875.00000 
 43692.65567		 305.27265			43387.38302		68.70800		324.00000 
 43692.65567		 681.91084			43010.74483		213.75600		875.00000 
 43692.65567		 305.27265			43387.38302		68.70800		324.00000 
 43692.65567		 681.91084			43010.74483		213.75600		875.00000 
 43692.65567		 305.27265			43387.38302		68.70800		324.00000 
 43692.65567		 681.91084			43010.74483		213.75600		875.00000 
 43692.65567		 305.27265			43387.38302		68.70800		324.00000 
 43692.65567		 681.91084			43010.74483		213.75600		875.00000 
 43692.65567		 305.27265			43387.38302		68.70800		324.00000 
 43692.65567		 681.91084			43010.74483		213.75600		875.00000 
 43692.65567		 305.27265			43387.38302		68.70800		324.00000 
 43692.65567		 681.91084			43010.74483		213.75600		875.00000 
 43692.65567		 305.27265			43387.38302		68.70800		324.00000 
 43692.65567		 681.91084			43010.74483		213.75600		875.00000 
 43692.65567		 305.27265			43387.38302		68.70800		324.00000 
 43692.65567		 681.91084			43010.74483		213.75600		875.00000 
 43692.65567		 305.27265			43387.38302		68.70800		324.00000 
 43692.65567		 681.91084			43010.74483		213.75600		875.00000 
 43692.65567		 305.27265			43387.38302		68.70800		324.00000 
 43692.65567		 681.91084			43010.74483		218.75800		875.00000 
 43692.65567		 305.27265			43387.38302		68.70800		324.00000 
 43692.65567		 681.91084			43010.74483		218.75800		875.00000 
 43692.65567		 305.27265			43387.38302		68.70800		324.00000 
 43692.65567		 681.91084			43010.74483		218.75800		875.00000 
 43692.65567		 305.27265			43387.38302		68.70800		324.00000 
 43692.65567		 681.91084			43010.74483		218.75800		875.00000 
 43692.65567		 305.27265			43387.38302		68.70800		324.00000 
 43692.65567		 681.91084			43010.74483		218.75800		875.00000 
 43692.65567		 305.27265			43387.38302		68.70800		324.00000 
 43692.65567		 681.91084			43010.74483		218.75800		875.00000 
 43692.65567		 305.27265			43387.38302		68.70800		324.00000 
 43692.65567		 681.91084			43010.74483		218.75800		875.00000 
 43692.65567		 305.27265			43387.38302		68.70800		324.00000 
 43692.65567		 681.91084			43010.74483		218.75800		875.00000 
 43692.65567		 305.27265			43387.38302		68.70800		324.00000 
 43692.65567		 681.91084			43010.74483		218.75800		875.00000 
 43692.65567		 305.27265			43387.38302		68.70800		324.00000 
 43692.65567		 681.91084			43010.74483		218.75800		875.00000 
 43692.65567		 305.27265			43387.38302		68.70800		324.00000 
 43692.65567		 681.91084			43010.74483		218.75800		875.00000 
 43692.65567		 305.27265			43387.38302		68.70800		324.00000 
 43692.65567		 681.91084			43010.74483		218.75800		875.00000 
 43692.65567		 305.27265			43387.38302		68.70800		324.00000 
 43692.65567		 681.91084			43010.74483		218.75800		875.00000 
 43692.65567		 305.27265			43387.38302		68.70800		324.00000 
 43692.65567		 681.91084			43010.74483		218.75800		875.00000 
 43692.65567		 305.27265			43387.38302		68.70800		324.00000 
 43692.65567		 681.91084			43010.74483		218.75800		875.00000 
 43692.65567		 305.27265			43387.38302		68.70800		324.00000 
 43692.65567		 681.91084			43010.74483		218.75800		875.00000 
 43692.65567		 305.27265			43387.38302		68.70800		324.00000 
 43692.65567		 681.91084			43010.74483		218.75800		875.00000 
 43692.65567		 305.27265			43387.38302		68.70800		324.00000 
 43692.65567		 681.91084			43010.74483		218.75800		875.00000 
 43692.65567		 305.27265			43387.38302		68.70800		324.00000 
 43692.65567		 681.91084			43010.74483		218.75800		875.00000 
 43692.65567		 305.27265			43387.38302		68.70800		324.00000 
 43692.65567		 681.91084			43010.74483		218.75800		875.00000 
 43692.65567		 305.27265			43387.38302		68.70800		324.00000 
 43692.65567		 681.91084			43010.74483		218.75800		875.00000 
 43692.65567		 305.27265			43387.38302		68.70800		324.00000 
 43692.65567		 681.91084			43010.74483		218.75800		875.00000 
 43692.65567		 305.27265			43387.38302		68.70800		324.00000 
 43692.65567		 681.91084			43010.74483		218.75800		875.00000 
 43692.65567		 305.27265			43387.38302		68.70800		324.00000 
 43692.65567		 681.91084			43010.74483		218.75800		875.00000 
 43692.65567		 305.27265			43387.38302		68.70800		324.00000 
 43692.65567		 681.91084			43010.74483		218.75800		875.00000 
 43692.65567		 305.27265			43387.38302		68.70800		324.00000 
 43692.65567		 681.91084			43010.74483		218.75800		875.00000 
 43692.65567		 305.27265			43387.38302		68.70800		324.00000 
 43692.65567		 681.91084			43010.74483		218.75800		875.00000 
 43692.65567		 305.27265			43387.38302		68.70800		324.00000 
 43692.65567		 681.91084			43010.74483		218.75800		875.00000 
 43692.65567		 305.27265			43387.38302		68.70800		324.00000 
 43692.65567		 681.91084			43010.74483		218.75800		875.00000 
 43692.65567		 305.27265			43387.38302		68.70800		324.00000 
 43692.65567		 681.91084			43010.74483		218.75800		875.00000 
 43692.65567		 305.27265			43387.38302		68.70800		324.00000 
 43692.65567		 681.91084			43010.74483		218.75800		875.00000 
 43692.65567		 305.27265			43387.38302		68.70800		324.00000 
 43692.65567		 681.91084			43010.74483		218.75800		875.00000 
 43692.65567		 305.27265			43387.38302		68.70800		324.00000 
 43692.65567		 681.91084			43010.74483		218.75800		875.00000 
 43692.65567		 305.27265			43387.38302		68.70800		324.00000 
 43692.65567		 681.91084			43010.74483		218.75800		875.00000 
 43692.65567		 305.27265			43387.38302		68.70800		324.00000 
 43692.65567		 681.91084			43010.74483		218.75800		875.00000 
 43692.65567		 305.27265			43387.38302		68.70800		324.00000 
 43692.65567		 681.91084			43010.74483		218.75800		875.00000 
 43692.65567		 305.27265			43387.38302		68.70800		324.00000 
 43692.65567		 681.91084			43010.74483		218.75800		875.00000 
 43692.65567		 305.27265			43387.38302		68.70800		324.00000 
 43692.65567		 681.91084			43010.74483		218.75800		875.00000 
 43692.65567		 305.27265			43387.38302		68.70800		324.00000 
 43692.65567		 681.91084			43010.74483		218.75800		875.00000 
 43692.65567		 305.27265			43387.38302		68.70800		324.00000 
 43692.65567		 681.91084			43010.74483		218.75800		875.00000 
 43692.65567		 305.27265			43387.38302		68.70800		324.00000 
 43692.65567		 681.91084			43010.74483		218.75800		875.00000 
 43692.65567		 305.27265			43387.38302		68.70800		324.00000 
 43692.65567		 681.91084			43010.74483		218.75800		875.00000 
 43692.65567		 305.27265			43387.38302		68.70800		324.00000 
 43692.65567		 681.91084			43010.74483		218.75800		875.00000 
 43692.65567		 305.27265			43387.38302		68.70800		324.00000 
 43692.65567		 681.91084			43010.74483		218.75800		875.00000 
 43692.65567		 305.27265			43387.38302		68.70800		324.00000 
 43692.65567		 681.91084			43010.74483		218.75800		875.00000 
 43692.65567		 305.27265			43387.38302		68.70800		324.00000 
 43692.65567		 681.91084			43010.74483		218.75800		875.00000 
 43692.65567		 305.27265			43387.38302		68.70800		324.00000 
 43692.65567		 681.91084			43010.74483		218.75800		875.00000 
 43692.65567		 305.27265			43387.38302		68.70800		324.00000 
 43692.65567		 681.91084			43010.74483		218.75800		875.00000 
 43692.65567		 305.27265			43387.38302		68.70800		324.00000 
 43692.65567		 681.91084			43010.74483		218.75800		875.00000 
 43692.65567		 305.27265			43387.38302		68.70800		324.00000 
 43692.65567		 681.91084			43010.74483		218.75800		875.00000 
 43692.65567		 305.27265			43387.38302		68.70800		324.00000 
 43692.65567		 681.91084			43010.74483		218.75800		875.00000 
 43692.65567		 305.27265			43387.38302		68.70800		324.00000 
 43692.65567		 681.91084			43010.74483		218.75800		875.00000 
 43692.65567		 305.27265			43387.38302		68.70800		324.00000 
 43692.65567		 681.91084			43010.74483		218.75800		875.00000 
 43692.65567		 305.27265			43387.38302		68.70800		324.00000 
 43692.65567		 681.91084			43010.74483		218.75800		875.00000 
 43692.65567		 305.27265			43387.38302		68.70800		324.00000 
 43692.65567		 681.91084			43010.74483		218.75800		875.00000 
 43692.65567		 305.27265			43387.38302		68.70800		324.00000 
 43692.65567		 681.91084			43010.74483		218.75800		875.00000 
 43692.65567		 305.27265			43387.38302		68.70800		324.00000 
 43692.65567		 681.91084			43010.74483		218.75800		875.00000 
 43692.65567		 305.27265			43387.38302		68.70800		324.00000 
 43692.65567		 681.91084			43010.74483		218.75800		875.00000 
 43692.65567		 305.27265			43387.38302		68.70800		324.00000 
 43692.65567		 681.91084			43010.74483		218.75800		875.00000 
 43692.65567		 305.27265			43387.38302		68.70800		324.00000 
 43692.65567		 681.91084			43010.74483		218.75800		875.00000 
 43692.65567		 305.27265			43387.38302		68.70800		324.00000 
 43692.65567		 681.91084			43010.74483		218.75800		875.00000 
 43692.65567		 305.27265			43387.38302		68.70800		324.00000 
 43692.65567		 681.91084			43010.74483		218.75800		875.00000 
 43692.65567		 305.27265			43387.38302		68.70800		324.00000 
 43692.65567		 681.91084			43010.74483		218.75800		875.00000 
 43692.65567		 305.27265			43387.38302		68.70800		324.00000 
 43692.65567		 681.91084			43010.74483		218.75800		875.00000 
 43692.65567		 305.27265			43387.38302		68.70800		324.00000 
 43692.65567		 681.91084			43010.74483		218.75800		875.00000 
 43692.65567		 305.27265			43387.38302		68.70800		324.00000 
 43692.65567		 681.91084			43010.74483		220.11600		875.00000 
 43692.65567		 305.27265			43387.38302		68.70800		324.00000 
 43692.65567		 681.91084			43010.74483		220.11600		875.00000 
 43692.65567		 305.27265			43387.38302		68.70800		324.00000 
 43692.65567		 681.91084			43010.74483		220.11600		875.00000 
 43692.65567		 305.27265			43387.38302		68.70800		324.00000 
 43692.65567		 681.91084			43010.74483		220.11600		875.00000 
 43692.65567		 305.27265			43387.38302		68.70800		324.00000 
 43692.65567		 681.91084			43010.74483		220.11600		875.00000 
 43692.65567		 305.27265			43387.38302		68.70800		324.00000 
 43692.65567		 681.91084			43010.74483		220.11600		875.00000 
 43692.65567		 305.27265			43387.38302		68.70800		324.00000 
 43692.65567		 681.91084			43010.74483		220.11600		875.00000 
 43692.65567		 305.27265			43387.38302		68.70800		324.00000 
 43692.65567		 681.91084			43010.74483		220.11600		875.00000 
 43692.65567		 305.27265			43387.38302		68.70800		324.00000 
 43692.65567		 681.91084			43010.74483		220.11600		875.00000 
 43692.65567		 305.27265			43387.38302		68.70800		324.00000 
 43692.65567		 681.91084			43010.74483		220.11600		875.00000 
 43692.65567		 305.27265			43387.38302		68.70800		324.00000 
 43692.65567		 681.91084			43010.74483		220.11600		875.00000 
 43692.65567		 305.27265			43387.38302		68.70800		324.00000 
 43692.65567		 681.91084			43010.74483		220.11600		875.00000 
 43692.65567		 305.27265			43387.38302		68.70800		324.00000 
 43692.65567		 681.91084			43010.74483		220.11600		875.00000 
 43692.65567		 305.27265			43387.38302		68.70800		324.00000 
 43692.65567		 681.91084			43010.74483		220.11600		875.00000 
 43692.65567		 305.27265			43387.38302		68.70800		324.00000 
 43692.65567		 681.91084			43010.74483		220.11600		875.00000 
 43692.65567		 305.27265			43387.38302		68.70800		324.00000 
 43692.65567		 681.91084			43010.74483		220.11600		875.00000 
 43692.65567		 305.27265			43387.38302		68.70800		324.00000 
 43692.65567		 681.91084			43010.74483		220.11600		875.00000 
 43692.65567		 305.27265			43387.38302		68.70800		324.00000 
 43692.65567		 681.91084			43010.74483		220.11600		875.00000 
 43692.65567		 305.27265			43387.38302		68.70800		324.00000 
 43692.65567		 681.91084			43010.74483		220.11600		875.00000 
 43692.65567		 305.27265			43387.38302		68.70800		324.00000 
 43692.65567		 681.91084			43010.74483		220.11600		875.00000 
 43692.65567		 305.27265			43387.38302		68.70800		324.00000 
 43692.65567		 681.91084			43010.74483		220.11600		875.00000 
 43692.65567		 305.27265			43387.38302		68.70800		324.00000 
 43692.65567		 681.91084			43010.74483		220.11600		875.00000 
 43692.65567		 305.27265			43387.38302		68.70800		324.00000 
 43692.65567		 681.91084			43010.74483		220.11600		875.00000 
 43692.65567		 305.27265			43387.38302		68.70800		324.00000 
 43692.65567		 681.91084			43010.74483		220.11600		875.00000 
 43692.65567		 305.27265			43387.38302		68.70800		324.00000 
 43692.65567		 681.91084			43010.74483		220.11600		875.00000 
 43692.65567		 305.27265			43387.38302		68.70800		324.00000 
 43692.65567		 681.91084			43010.74483		220.11600		875.00000 
 43692.65567		 305.27265			43387.38302		68.70800		324.00000 
 43692.65567		 681.91084			43010.74483		220.11600		875.00000 
 43692.65567		 305.27265			43387.38302		68.70800		324.00000 
 43692.65567		 681.91084			43010.74483		220.11600		875.00000 
 43692.65567		 305.27265			43387.38302		68.70800		324.00000 
 43692.65567		 681.91084			43010.74483		220.11600		875.00000 
 43692.65567		 305.27265			43387.38302		68.70800		324.00000 
 43692.65567		 681.91084			43010.74483		220.11600		875.00000 
 43692.65567		 305.27265			43387.38302		68.70800		324.00000 
 43692.65567		 681.91084			43010.74483		220.11600		875.00000 
 43692.65567		 305.27265			43387.38302		68.70800		324.00000 
 43692.65567		 681.91084			43010.74483		220.11600		875.00000 
 43692.65567		 305.27265			43387.38302		68.70800		324.00000 
 43692.65567		 681.91084			43010.74483		220.11600		875.00000 
 43692.65567		 305.27265			43387.38302		68.70800		324.00000 
 43692.65567		 681.91084			43010.74483		220.11600		875.00000 
 43692.65567		 305.27265			43387.38302		68.70800		324.00000 
 43692.65567		 681.91084			43010.74483		220.11600		875.00000 
 43692.65567		 305.27265			43387.38302		68.70800		324.00000 
 43692.65567		 681.91084			43010.74483		220.11600		875.00000 
 43692.65567		 305.27265			43387.38302		68.70800		324.00000 
 43692.65567		 681.91084			43010.74483		220.11600		875.00000 
 43692.65567		 305.27265			43387.38302		68.70800		324.00000 
 43692.65567		 681.91084			43010.74483		220.11600		875.00000 
 43692.65567		 305.27265			43387.38302		68.70800		324.00000 
 43692.65567		 681.91084			43010.74483		220.11600		875.00000 
 43692.65567		 305.27265			43387.38302		68.70800		324.00000 
 43692.65567		 681.91084			43010.74483		220.11600		875.00000 
 43692.65567		 305.27265			43387.38302		68.70800		324.00000 
 43692.65567		 681.91084			43010.74483		220.11600		875.00000 
 43692.65567		 305.27265			43387.38302		68.70800		324.00000 
 43692.65567		 681.91084			43010.74483		220.11600		875.00000 
 43692.65567		 305.27265			43387.38302		68.70800		324.00000 
 43692.65567		 681.91084			43010.74483		220.11600		875.00000 
 43692.65567		 305.27265			43387.38302		68.70800		324.00000 
 43692.65567		 681.91084			43010.74483		220.11600		875.00000 
 43692.65567		 305.27265			43387.38302		68.70800		324.00000 
 43692.65567		 681.91084			43010.74483		220.11600		875.00000 
 43692.65567		 305.27265			43387.38302		68.70800		324.00000 
 43692.65567		 681.91084			43010.74483		220.11600		875.00000 
 43692.65567		 305.27265			43387.38302		68.70800		324.00000 
 43692.65567		 681.91084			43010.74483		220.11600		875.00000 
 43692.65567		 305.27265			43387.38302		68.70800		324.00000 
 43692.65567		 681.91084			43010.74483		220.11600		875.00000 
 43692.65567		 305.27265			43387.38302		68.70800		324.00000 
 43692.65567		 681.91084			43010.74483		220.11600		875.00000 
 43692.65567		 305.27265			43387.38302		68.70800		324.00000 
 43692.65567		 681.91084			43010.74483		220.11600		875.00000 
 43692.65567		 305.27265			43387.38302		68.70800		324.00000 
 43692.65567		 681.91084			43010.74483		220.11600		875.00000 
 43692.65567		 305.27265			43387.38302		68.70800		324.00000 
 43692.65567		 681.91084			43010.74483		220.11600		875.00000 
 43692.65567		 305.27265			43387.38302		68.70800		324.00000 
 43692.65567		 681.91084			43010.74483		220.11600		875.00000 
 43692.65567		 305.27265			43387.38302		68.70800		324.00000 
 43692.65567		 681.91084			43010.74483		220.11600		875.00000 
 43692.65567		 305.27265			43387.38302		68.70800		324.00000 
 43692.65567		 681.91084			43010.74483		220.11600		875.00000 
 43692.65567		 305.27265			43387.38302		68.70800		324.00000 
 43692.65567		 681.91084			43010.74483		220.11600		875.00000 
 43692.65567		 305.27265			43387.38302		68.70800		324.00000 
 43692.65567		 681.91084			43010.74483		220.11600		875.00000 
 43692.65567		 305.27265			43387.38302		68.70800		324.00000 
 43692.65567		 681.91084			43010.74483		220.11600		875.00000 
 43692.65567		 305.27265			43387.38302		68.70800		324.00000 
 43692.65567		 681.91084			43010.74483		220.11600		875.00000 
 43692.65567		 305.27265			43387.38302		68.70800		324.00000 
 43692.65567		 681.91084			43010.74483		220.11600		875.00000 
 43692.65567		 305.27265			43387.38302		68.70800		324.00000 
 43692.65567		 681.91084			43010.74483		220.11600		875.00000 
 43692.65567		 305.27265			43387.38302		68.70800		324.00000 
 43692.65567		 681.91084			43010.74483		220.11600		875.00000 
 43692.65567		 305.27265			43387.38302		68.70800		324.00000 
 43692.65567		 681.91084			43010.74483		220.11600		875.00000 
 43692.65567		 305.27265			43387.38302		68.70800		324.00000 
 43692.65567		 681.91084			43010.74483		220.11600		875.00000 
 43692.65567		 305.27265			43387.38302		68.70800		324.00000 
 43692.65567		 681.91084			43010.74483		220.11600		875.00000 
 43692.65567		 305.27265			43387.38302		68.70800		324.00000 
 43692.65567		 681.91084			43010.74483		220.31200		875.00000 
 43692.65567		 305.27265			43387.38302		68.70800		324.00000 
 43692.65567		 681.91084			43010.74483		220.31200		875.00000 
 43692.65567		 305.27265			43387.38302		68.70800		324.00000 
 43692.65567		 681.91084			43010.74483		220.31200		875.00000 
 43692.65567		 305.27265			43387.38302		68.70800		324.00000 
 43692.65567		 681.91084			43010.74483		220.31200		875.00000 
 43692.65567		 305.27265			43387.38302		68.70800		324.00000 
 43692.65567		 681.91084			43010.74483		220.31200		875.00000 
 43692.65567		 305.27265			43387.38302		68.70800		324.00000 
 43692.65567		 681.91084			43010.74483		220.31200		875.00000 
 43692.65567		 305.27265			43387.38302		68.70800		324.00000 
 43692.65567		 681.91084			43010.74483		220.31200		875.00000 
 43692.65567		 305.27265			43387.38302		68.70800		324.00000 
 43692.65567		 681.91084			43010.74483		220.31200		875.00000 
 43692.65567		 305.27265			43387.38302		68.70800		324.00000 
 43692.65567		 681.91084			43010.74483		220.31200		875.00000 
 43692.65567		 305.27265			43387.38302		68.70800		324.00000 
 43692.65567		 681.91084			43010.74483		220.31200		875.00000 
 43692.65567		 305.27265			43387.38302		68.70800		324.00000 
 43692.65567		 681.91084			43010.74483		220.31200		875.00000 
 43692.65567		 305.27265			43387.38302		68.70800		324.00000 
 43692.65567		 681.91084			43010.74483		220.31200		875.00000 
 43692.65567		 305.27265			43387.38302		68.70800		324.00000 
 43692.65567		 681.91084			43010.74483		220.31200		875.00000 
 43692.65567		 305.27265			43387.38302		68.70800		324.00000 
 43692.65567		 681.91084			43010.74483		220.31200		875.00000 
 43692.65567		 305.27265			43387.38302		68.70800		324.00000 
 43692.65567		 681.91084			43010.74483		220.31200		875.00000 
 43692.65567		 305.27265			43387.38302		68.70800		324.00000 
 43692.65567		 681.91084			43010.74483		220.31200		875.00000 
 43692.65567		 305.27265			43387.38302		68.70800		324.00000 
 43692.65567		 681.91084			43010.74483		220.31200		875.00000 
 43692.65567		 305.27265			43387.38302		68.70800		324.00000 
 43692.65567		 681.91084			43010.74483		220.31200		875.00000 
 43692.65567		 305.27265			43387.38302		68.70800		324.00000 
 43692.65567		 681.91084			43010.74483		220.31200		875.00000 
 43692.65567		 305.27265			43387.38302		68.70800		324.00000 
 43692.65567		 681.91084			43010.74483		220.31200		875.00000 
 43692.65567		 305.27265			43387.38302		68.70800		324.00000 
 43692.65567		 681.91084			43010.74483		220.31200		875.00000 
 43692.65567		 305.27265			43387.38302		68.70800		324.00000 
 43692.65567		 681.91084			43010.74483		220.31200		875.00000 
 43692.65567		 305.27265			43387.38302		68.70800		324.00000 
 43692.65567		 681.91084			43010.74483		220.31200		875.00000 
 43692.65567		 305.27265			43387.38302		68.70800		324.00000 
 43692.65567		 681.91084			43010.74483		220.31200		875.00000 
 43692.65567		 305.27265			43387.38302		68.70800		324.00000 
 43692.65567		 681.91084			43010.74483		220.31200		875.00000 
 43692.65567		 305.27265			43387.38302		68.70800		324.00000 
 43692.65567		 681.91084			43010.74483		220.31200		875.00000 
 43692.65567		 305.27265			43387.38302		68.70800		324.00000 
 43692.65567		 681.91084			43010.74483		220.31200		875.00000 
 43692.65567		 305.27265			43387.38302		68.70800		324.00000 
 43692.65567		 681.91084			43010.74483		220.31200		875.00000 
 43692.65567		 305.27265			43387.38302		68.70800		324.00000 
 43692.65567		 681.91084			43010.74483		220.31200		875.00000 
 43692.65567		 305.27265			43387.38302		68.70800		324.00000 
 43692.65567		 681.91084			43010.74483		220.31200		875.00000 
 43692.65567		 305.27265			43387.38302		68.70800		324.00000 
 43692.65567		 681.91084			43010.74483		220.31200		875.00000 
 43692.65567		 305.27265			43387.38302		68.70800		324.00000 
 43692.65567		 681.91084			43010.74483		220.31200		875.00000 
 43692.65567		 305.27265			43387.38302		68.70800		324.00000 
 43692.65567		 681.91084			43010.74483		220.31200		875.00000 
 43692.65567		 305.27265			43387.38302		68.70800		324.00000 
 43692.65567		 681.91084			43010.74483		220.31200		875.00000 
 43692.65567		 305.27265			43387.38302		68.70800		324.00000 
 43692.65567		 681.91084			43010.74483		220.31200		875.00000 
 43692.65567		 305.27265			43387.38302		68.70800		324.00000 
 43692.65567		 681.91084			43010.74483		220.31200		875.00000 
 43692.65567		 305.27265			43387.38302		68.70800		324.00000 
 43692.65567		 681.91084			43010.74483		220.31200		875.00000 
 43692.65567		 305.27265			43387.38302		68.70800		324.00000 
 43692.65567		 681.91084			43010.74483		220.31200		875.00000 
 43692.65567		 305.27265			43387.38302		68.70800		324.00000 
 43692.65567		 681.91084			43010.74483		220.31200		875.00000 
 43692.65567		 305.27265			43387.38302		68.70800		324.00000 
 43692.65567		 681.91084			43010.74483		220.31200		875.00000 
 43692.65567		 305.27265			43387.38302		68.70800		324.00000 
 43692.65567		 681.91084			43010.74483		220.31200		875.00000 
 43692.65567		 305.27265			43387.38302		68.70800		324.00000 
 43692.65567		 681.91084			43010.74483		220.31200		875.00000 
 43692.65567		 305.27265			43387.38302		68.70800		324.00000 
 43692.65567		 681.91084			43010.74483		220.31200		875.00000 
 43692.65567		 305.27265			43387.38302		68.70800		324.00000 
 43692.65567		 681.91084			43010.74483		220.31200		875.00000 
 43692.65567		 305.27265			43387.38302		68.70800		324.00000 
 43692.65567		 681.91084			43010.74483		220.31200		875.00000 
 43692.65567		 305.27265			43387.38302		68.70800		324.00000 
 43692.65567		 681.91084			43010.74483		220.31200		875.00000 
 43692.65567		 305.27265			43387.38302		68.70800		324.00000 
 43692.65567		 681.91084			43010.74483		220.31200		875.00000 
 43692.65567		 305.27265			43387.38302		68.70800		324.00000 
 43692.65567		 681.91084			43010.74483		220.31200		875.00000 
 43692.65567		 305.27265			43387.38302		68.70800		324.00000 
 43692.65567		 681.91084			43010.74483		220.31200		875.00000 
 43692.65567		 305.27265			43387.38302		68.70800		324.00000 
 43692.65567		 681.91084			43010.74483		220.31200		875.00000 
 43692.65567		 305.27265			43387.38302		68.70800		324.00000 
 43692.65567		 681.91084			43010.74483		220.31200		875.00000 
 43692.65567		 305.27265			43387.38302		68.70800		324.00000 
 43692.65567		 681.91084			43010.74483		220.31200		875.00000 
 43692.65567		 305.27265			43387.38302		68.70800		324.00000 
 43692.65567		 681.91084			43010.74483		220.31200		875.00000 
 43692.65567		 305.27265			43387.38302		68.70800		324.00000 
 43692.65567		 681.91084			43010.74483		220.31200		875.00000 
 43692.65567		 305.27265			43387.38302		68.70800		324.00000 
 43692.65567		 681.91084			43010.74483		220.31200		875.00000 
 43692.65567		 305.27265			43387.38302		68.70800		324.00000 
 43692.65567		 681.91084			43010.74483		220.31200		875.00000 
 43692.65567		 305.27265			43387.38302		68.70800		324.00000 
 43692.65567		 681.91084			43010.74483		220.31200		875.00000 
 43692.65567		 305.27265			43387.38302		68.70800		324.00000 
 43692.65567		 681.91084			43010.74483		220.31200		875.00000 
 43692.65567		 305.27265			43387.38302		68.70800		324.00000 
 43692.65567		 681.91084			43010.74483		220.31200		875.00000 
 43692.65567		 305.27265			43387.38302		68.70800		324.00000 
 43692.65567		 681.91084			43010.74483		220.31200		875.00000 
 43692.65567		 305.27265			43387.38302		68.70800		324.00000 
 43692.65567		 681.91084			43010.74483		220.31200		875.00000 
 43692.65567		 305.27265			43387.38302		68.70800		324.00000 
 43692.65567		 681.91084			43010.74483		220.31200		875.00000 
 43692.65567		 305.27265			43387.38302		68.70800		324.00000 
 43692.65567		 681.91084			43010.74483		220.31200		875.00000 
 43692.65567		 305.27265			43387.38302		68.70800		324.00000 
 43692.65567		 681.91084			43010.74483		220.31200		875.00000 
 43692.65567		 305.27265			43387.38302		68.70800		324.00000 
 43692.65567		 681.91084			43010.74483		219.90200		875.00000 
 43692.65567		 305.27265			43387.38302		68.70800		324.00000 
 43692.65567		 681.91084			43010.74483		219.90200		875.00000 
 43692.65567		 305.27265			43387.38302		68.70800		324.00000 
 43692.65567		 681.91084			43010.74483		219.90200		875.00000 
 43692.65567		 305.27265			43387.38302		68.70800		324.00000 
 43692.65567		 681.91084			43010.74483		219.90200		875.00000 
 43692.65567		 305.27265			43387.38302		68.70800		324.00000 
 43692.65567		 681.91084			43010.74483		219.90200		875.00000 
 43692.65567		 305.27265			43387.38302		68.70800		324.00000 
 43692.65567		 681.91084			43010.74483		219.90200		875.00000 
 43692.65567		 305.27265			43387.38302		68.70800		324.00000 
 43692.65567		 681.91084			43010.74483		219.90200		875.00000 
 43692.65567		 305.27265			43387.38302		68.70800		324.00000 
 43692.65567		 681.91084			43010.74483		219.90200		875.00000 
 43692.65567		 305.27265			43387.38302		68.70800		324.00000 
 43692.65567		 681.91084			43010.74483		219.90200		875.00000 
 43692.65567		 305.27265			43387.38302		68.70800		324.00000 
 43692.65567		 681.91084			43010.74483		219.90200		875.00000 
 43692.65567		 305.27265			43387.38302		68.70800		324.00000 
 43692.65567		 681.91084			43010.74483		219.90200		875.00000 
 43692.65567		 305.27265			43387.38302		68.70800		324.00000 
 43692.65567		 681.91084			43010.74483		219.90200		875.00000 
 43692.65567		 305.27265			43387.38302		68.70800		324.00000 
 43692.65567		 681.91084			43010.74483		219.90200		875.00000 
 43692.65567		 305.27265			43387.38302		68.70800		324.00000 
 43692.65567		 681.91084			43010.74483		219.90200		875.00000 
 43692.65567		 305.27265			43387.38302		68.70800		324.00000 
 43692.65567		 681.91084			43010.74483		219.90200		875.00000 
 43692.65567		 305.27265			43387.38302		68.70800		324.00000 
 43692.65567		 681.91084			43010.74483		219.90200		875.00000 
 43692.65567		 305.27265			43387.38302		68.70800		324.00000 
 43692.65567		 681.91084			43010.74483		219.90200		875.00000 
 43692.65567		 305.27265			43387.38302		68.70800		324.00000 
 43692.65567		 681.91084			43010.74483		219.90200		875.00000 
 43692.65567		 305.27265			43387.38302		68.70800		324.00000 
 43692.65567		 681.91084			43010.74483		219.90200		875.00000 
 43692.65567		 305.27265			43387.38302		68.70800		324.00000 
 43692.65567		 681.91084			43010.74483		219.90200		875.00000 
 43692.65567		 305.27265			43387.38302		68.70800		324.00000 
 43692.65567		 681.91084			43010.74483		219.90200		875.00000 
 43692.65567		 305.27265			43387.38302		68.70800		324.00000 
 43692.65567		 681.91084			43010.74483		219.90200		875.00000 
 43692.65567		 305.27265			43387.38302		68.70800		324.00000 
 43692.65567		 681.91084			43010.74483		219.90200		875.00000 
 43692.65567		 305.27265			43387.38302		68.70800		324.00000 
 43692.65567		 681.91084			43010.74483		219.90200		875.00000 
 43692.65567		 305.27265			43387.38302		68.70800		324.00000 
 43692.65567		 681.91084			43010.74483		219.90200		875.00000 
 43692.65567		 305.27265			43387.38302		68.70800		324.00000 
 43692.65567		 681.91084			43010.74483		219.90200		875.00000 
 43692.65567		 305.27265			43387.38302		68.70800		324.00000 
 43692.65567		 681.91084			43010.74483		219.90200		875.00000 
 43692.65567		 305.27265			43387.38302		68.70800		324.00000 
 43692.65567		 681.91084			43010.74483		219.90200		875.00000 
 43692.65567		 305.27265			43387.38302		68.70800		324.00000 
 43692.65567		 681.91084			43010.74483		219.90200		875.00000 
 43692.65567		 305.27265			43387.38302		68.70800		324.00000 
 43692.65567		 681.91084			43010.74483		219.90200		875.00000 
 43692.65567		 305.27265			43387.38302		68.70800		324.00000 
 43692.65567		 681.91084			43010.74483		219.90200		875.00000 
 43692.65567		 305.27265			43387.38302		68.70800		324.00000 
 43692.65567		 681.91084			43010.74483		219.90200		875.00000 
 43692.65567		 305.27265			43387.38302		68.70800		324.00000 
 43692.65567		 681.91084			43010.74483		219.90200		875.00000 
 43692.65567		 305.27265			43387.38302		68.70800		324.00000 
 43692.65567		 681.91084			43010.74483		219.90200		875.00000 
 43692.65567		 305.27265			43387.38302		68.70800		324.00000 
 43692.65567		 681.91084			43010.74483		219.90200		875.00000 
 43692.65567		 305.27265			43387.38302		68.70800		324.00000 
 43692.65567		 681.91084			43010.74483		219.90200		875.00000 
 43692.65567		 305.27265			43387.38302		68.70800		324.00000 
 43692.65567		 681.91084			43010.74483		219.90200		875.00000 
 43692.65567		 305.27265			43387.38302		68.70800		324.00000 
 43692.65567		 681.91084			43010.74483		219.90200		875.00000 
 43692.65567		 305.27265			43387.38302		68.70800		324.00000 
 43692.65567		 681.91084			43010.74483		219.90200		875.00000 
 43692.65567		 305.27265			43387.38302		68.70800		324.00000 
 43692.65567		 681.91084			43010.74483		219.90200		875.00000 
 43692.65567		 305.27265			43387.38302		68.70800		324.00000 
 43692.65567		 681.91084			43010.74483		219.90200		875.00000 
 43692.65567		 305.27265			43387.38302		68.70800		324.00000 
 43692.65567		 681.91084			43010.74483		219.90200		875.00000 
 43692.65567		 305.27265			43387.38302		68.70800		324.00000 
 43692.65567		 681.91084			43010.74483		219.90200		875.00000 
 43692.65567		 305.27265			43387.38302		68.70800		324.00000 
 43692.65567		 681.91084			43010.74483		219.90200		875.00000 
 43692.65567		 305.27265			43387.38302		68.70800		324.00000 
 43692.65567		 681.91084			43010.74483		219.90200		875.00000 
 43692.65567		 305.27265			43387.38302		68.70800		324.00000 
 43692.65567		 681.91084			43010.74483		219.90200		875.00000 
 43692.65567		 305.27265			43387.38302		68.70800		324.00000 
 43692.65567		 681.91084			43010.74483		219.90200		875.00000 
 43692.65567		 305.27265			43387.38302		68.70800		324.00000 
 43692.65567		 681.91084			43010.74483		219.90200		875.00000 
 43692.65567		 305.27265			43387.38302		68.70800		324.00000 
 43692.65567		 681.91084			43010.74483		219.90200		875.00000 
 43692.65567		 305.27265			43387.38302		68.70800		324.00000 
 43692.65567		 681.91084			43010.74483		219.90200		875.00000 
 43692.65567		 305.27265			43387.38302		68.70800		324.00000 
 43692.65567		 681.91084			43010.74483		219.90200		875.00000 
 43692.65567		 305.27265			43387.38302		68.70800		324.00000 
 43692.65567		 681.91084			43010.74483		219.90200		875.00000 
 43692.65567		 305.27265			43387.38302		68.70800		324.00000 
 43692.65567		 681.91084			43010.74483		219.90200		875.00000 
 43692.65567		 305.27265			43387.38302		68.70800		324.00000 
 43692.65567		 681.91084			43010.74483		219.90200		875.00000 
 43692.65567		 305.27265			43387.38302		68.70800		324.00000 
 43692.65567		 681.91084			43010.74483		219.90200		875.00000 
 43692.65567		 305.27265			43387.38302		68.70800		324.00000 
 43692.65567		 681.91084			43010.74483		219.90200		875.00000 
 43692.65567		 305.27265			43387.38302		68.70800		324.00000 
 43692.65567		 681.91084			43010.74483		219.90200		875.00000 
 43692.65567		 305.27265			43387.38302		68.70800		324.00000 
 43692.65567		 681.91084			43010.74483		219.90200		875.00000 
 43692.65567		 305.27265			43387.38302		68.70800		324.00000 
 43692.65567		 681.91084			43010.74483		219.90200		875.00000 
 43692.65567		 305.27265			43387.38302		68.70800		324.00000 
 43692.65567		 681.91084			43010.74483		219.90200		875.00000 
 43692.65567		 305.27265			43387.38302		68.70800		324.00000 
 43692.65567		 681.91084			43010.74483		219.90200		875.00000 
 43692.65567		 305.27265			43387.38302		68.70800		324.00000 
 43692.65567		 681.91084			43010.74483		219.90200		875.00000 
 43692.65567		 305.27265			43387.38302		68.70800		324.00000 
 43692.65567		 681.91084			43010.74483		219.90200		875.00000 
 43692.65567		 305.27265			43387.38302		68.70800		324.00000 
 43692.65567		 681.91084			43010.74483		219.90200		875.00000 
 43692.65567		 305.27265			43387.38302		68.70800		324.00000 
 43692.65567		 681.91084			43010.74483		219.90200		875.00000 
 43692.65567		 305.27265			43387.38302		68.70800		324.00000 
 43692.65567		 681.91084			43010.74483		220.86200		875.00000 
 43692.65567		 305.27265			43387.38302		68.70800		324.00000 
 43692.65567		 681.91084			43010.74483		220.86200		875.00000 
 43692.65567		 305.27265			43387.38302		68.70800		324.00000 
 43692.65567		 681.91084			43010.74483		220.86200		875.00000 
 43692.65567		 305.27265			43387.38302		68.70800		324.00000 
 43692.65567		 681.91084			43010.74483		220.86200		875.00000 
 43692.65567		 305.27265			43387.38302		68.70800		324.00000 
 43692.65567		 681.91084			43010.74483		220.86200		875.00000 
 43692.65567		 305.27265			43387.38302		68.70800		324.00000 
 43692.65567		 681.91084			43010.74483		220.86200		875.00000 
 43692.65567		 305.27265			43387.38302		68.70800		324.00000 
 43692.65567		 681.91084			43010.74483		220.86200		875.00000 
 43692.65567		 305.27265			43387.38302		68.70800		324.00000 
 43692.65567		 681.91084			43010.74483		220.86200		875.00000 
 43692.65567		 305.27265			43387.38302		68.70800		324.00000 
 43692.65567		 681.91084			43010.74483		220.86200		875.00000 
 43692.65567		 305.27265			43387.38302		68.70800		324.00000 
 43692.65567		 681.91084			43010.74483		220.86200		875.00000 
 43692.65567		 305.27265			43387.38302		68.70800		324.00000 
 43692.65567		 681.91084			43010.74483		220.86200		875.00000 
 43692.65567		 305.27265			43387.38302		68.70800		324.00000 
 43692.65567		 681.91084			43010.74483		220.86200		875.00000 
 43692.65567		 305.27265			43387.38302		68.70800		324.00000 
 43692.65567		 681.91084			43010.74483		220.86200		875.00000 
 43692.65567		 305.27265			43387.38302		68.70800		324.00000 
 43692.65567		 681.91084			43010.74483		220.86200		875.00000 
 43692.65567		 305.27265			43387.38302		68.70800		324.00000 
 43692.65567		 681.91084			43010.74483		220.86200		875.00000 
 43692.65567		 305.27265			43387.38302		68.70800		324.00000 
 43692.65567		 681.91084			43010.74483		220.86200		875.00000 
 43692.65567		 305.27265			43387.38302		68.70800		324.00000 
 43692.65567		 681.91084			43010.74483		220.86200		875.00000 
 43692.65567		 305.27265			43387.38302		68.70800		324.00000 
 43692.65567		 681.91084			43010.74483		220.86200		875.00000 
 43692.65567		 305.27265			43387.38302		68.70800		324.00000 
 43692.65567		 681.91084			43010.74483		220.86200		875.00000 
 43692.65567		 305.27265			43387.38302		68.70800		324.00000 
 43692.65567		 681.91084			43010.74483		220.86200		875.00000 
 43692.65567		 305.27265			43387.38302		68.70800		324.00000 
 43692.65567		 681.91084			43010.74483		220.86200		875.00000 
 43692.65567		 305.27265			43387.38302		68.70800		324.00000 
 43692.65567		 681.91084			43010.74483		220.86200		875.00000 
 43692.65567		 305.27265			43387.38302		68.70800		324.00000 
 43692.65567		 681.91084			43010.74483		220.86200		875.00000 
 43692.65567		 305.27265			43387.38302		68.70800		324.00000 
 43692.65567		 681.91084			43010.74483		220.86200		875.00000 
 43692.65567		 305.27265			43387.38302		68.70800		324.00000 
 43692.65567		 681.91084			43010.74483		220.86200		875.00000 
 43692.65567		 305.27265			43387.38302		68.70800		324.00000 
 43692.65567		 681.91084			43010.74483		220.86200		875.00000 
 43692.65567		 305.27265			43387.38302		68.70800		324.00000 
 43692.65567		 681.91084			43010.74483		220.86200		875.00000 
 43692.65567		 305.27265			43387.38302		68.70800		324.00000 
 43692.65567		 681.91084			43010.74483		220.86200		875.00000 
 43692.65567		 305.27265			43387.38302		68.70800		324.00000 
 43692.65567		 681.91084			43010.74483		220.86200		875.00000 
 43692.65567		 305.27265			43387.38302		68.70800		324.00000 
 43692.65567		 681.91084			43010.74483		220.86200		875.00000 
 43692.65567		 305.27265			43387.38302		68.70800		324.00000 
 43692.65567		 681.91084			43010.74483		220.86200		875.00000 
 43692.65567		 305.27265			43387.38302		68.70800		324.00000 
 43692.65567		 681.91084			43010.74483		220.86200		875.00000 
 43692.65567		 305.27265			43387.38302		68.70800		324.00000 
 43692.65567		 681.91084			43010.74483		220.86200		875.00000 
 43692.65567		 305.27265			43387.38302		68.70800		324.00000 
 43692.65567		 681.91084			43010.74483		220.86200		875.00000 
 43692.65567		 305.27265			43387.38302		68.70800		324.00000 
 43692.65567		 681.91084			43010.74483		220.86200		875.00000 
 43692.65567		 305.27265			43387.38302		68.70800		324.00000 
 43692.65567		 681.91084			43010.74483		220.86200		875.00000 
 43692.65567		 305.27265			43387.38302		68.70800		324.00000 
 43692.65567		 681.91084			43010.74483		220.86200		875.00000 
 43692.65567		 305.27265			43387.38302		68.70800		324.00000 
 43692.65567		 681.91084			43010.74483		220.86200		875.00000 
 43692.65567		 305.27265			43387.38302		68.70800		324.00000 
 43692.65567		 681.91084			43010.74483		220.86200		875.00000 
 43692.65567		 305.27265			43387.38302		68.70800		324.00000 
 43692.65567		 681.91084			43010.74483		220.86200		875.00000 
 43692.65567		 305.27265			43387.38302		68.70800		324.00000 
 43692.65567		 681.91084			43010.74483		220.86200		875.00000 
 43692.65567		 305.27265			43387.38302		68.70800		324.00000 
 43692.65567		 681.91084			43010.74483		220.86200		875.00000 
 43692.65567		 305.27265			43387.38302		68.70800		324.00000 
 43692.65567		 681.91084			43010.74483		220.86200		875.00000 
 43692.65567		 305.27265			43387.38302		68.70800		324.00000 
 43692.65567		 681.91084			43010.74483		220.86200		875.00000 
 43692.65567		 305.27265			43387.38302		68.70800		324.00000 
 43692.65567		 681.91084			43010.74483		220.86200		875.00000 
 43692.65567		 305.27265			43387.38302		68.70800		324.00000 
 43692.65567		 681.91084			43010.74483		220.86200		875.00000 
 43692.65567		 305.27265			43387.38302		68.70800		324.00000 
 43692.65567		 681.91084			43010.74483		220.86200		875.00000 
 43692.65567		 305.27265			43387.38302		68.70800		324.00000 
 43692.65567		 681.91084			43010.74483		220.86200		875.00000 
 43692.65567		 305.27265			43387.38302		68.70800		324.00000 
 43692.65567		 681.91084			43010.74483		220.86200		875.00000 
 43692.65567		 305.27265			43387.38302		68.70800		324.00000 
 43692.65567		 681.91084			43010.74483		220.86200		875.00000 
 43692.65567		 305.27265			43387.38302		68.70800		324.00000 
 43692.65567		 681.91084			43010.74483		220.86200		875.00000 
 43692.65567		 305.27265			43387.38302		68.70800		324.00000 
 43692.65567		 681.91084			43010.74483		220.86200		875.00000 
 43692.65567		 305.27265			43387.38302		68.70800		324.00000 
 43692.65567		 633.69734			43058.95834		220.86200		875.00000 
 43692.65567		 305.27265			43387.38302		68.70800		324.00000 
 43692.65567		 585.48383			43107.17184		220.86200		875.00000 
 43692.65567		 305.27265			43387.38302		68.70800		324.00000 
 43692.65567		 537.27032			43155.38535		220.86200		875.00000 
 43692.65567		 305.27265			43387.38302		68.70800		324.00000 
 43692.65567		 537.27032			43155.38535		220.86200		875.00000 
 43692.65567		 305.27265			43387.38302		68.70800		324.00000 
 43692.65567		 537.27032			43155.38535		220.86200		875.00000 
 43692.65567		 305.27265			43387.38302		68.70800		324.00000 
 43692.65567		 537.27032			43155.38535		220.86200		875.00000 
 43692.65567		 305.27265			43387.38302		68.70800		324.00000 
 43692.65567		 537.27032			43155.38535		220.86200		875.00000 
 43692.65567		 305.27265			43387.38302		68.70800		324.00000 
 43692.65567		 537.27032			43155.38535		220.86200		875.00000 
 43692.65567		 305.27265			43387.38302		68.70800		324.00000 
 43692.65567		 537.27032			43155.38535		220.86200		875.00000 
 43692.65567		 305.27265			43387.38302		68.70800		324.00000 
 43692.65567		 537.27032			43155.38535		220.86200		875.00000 
 43692.65567		 305.27265			43387.38302		68.70800		324.00000 
 43692.65567		 537.27032			43155.38535		204.82000		875.00000 
 43692.65567		 305.27265			43387.38302		68.70800		324.00000 
 43692.65567		 537.27032			43155.38535		204.82000		875.00000 
 43692.65567		 305.27265			43387.38302		68.70800		324.00000 
 43692.65567		 537.27032			43155.38535		204.82000		875.00000 
 43692.65567		 305.27265			43387.38302		68.70800		324.00000 
 43692.65567		 537.27032			43155.38535		204.82000		875.00000 
 43692.65567		 305.27265			43387.38302		68.70800		324.00000 
 43692.65567		 537.27032			43155.38535		204.82000		875.00000 
 43692.65567		 305.27265			43387.38302		68.70800		324.00000 
 43692.65567		 537.27032			43155.38535		204.82000		875.00000 
 43692.65567		 305.27265			43387.38302		68.70800		324.00000 
 43692.65567		 537.27032			43155.38535		204.82000		875.00000 
 43692.65567		 305.27265			43387.38302		68.70800		324.00000 
 43692.65567		 537.27032			43155.38535		204.82000		875.00000 
 43692.65567		 305.27265			43387.38302		68.70800		324.00000 
 43692.65567		 537.27032			43155.38535		204.82000		875.00000 
 43692.65567		 305.27265			43387.38302		68.70800		324.00000 
 43692.65567		 537.27032			43155.38535		204.82000		875.00000 
 43692.65567		 305.27265			43387.38302		68.70800		324.00000 
 43692.65567		 537.27032			43155.38535		204.82000		875.00000 
 43692.65567		 305.27265			43387.38302		68.70800		324.00000 
 43692.65567		 537.27032			43155.38535		204.82000		875.00000 
 43692.65567		 305.27265			43387.38302		68.70800		324.00000 
 43692.65567		 537.27032			43155.38535		204.82000		875.00000 
 43692.65567		 305.27265			43387.38302		68.70800		324.00000 
 43692.65567		 525.81365			43166.84203		204.82000		875.00000 
 43692.65567		 305.27265			43387.38302		68.70800		324.00000 
 43692.65567		 525.81365			43166.84203		204.82000		875.00000 
 43692.65567		 261.35540			43431.30027		68.70800		324.00000 
 43692.65567		 261.35540			43431.30027		204.82000		875.00000 
 43692.65567		 261.35540			43431.30027		68.70800		324.00000 
