Memory Total (MiB) 	 Memory Used (MiB) 	    Memory Free (MiB) 	 Power Drawed (W) 	 Clocks (Mhz) 	 
 43692.65567		 261.35540			43431.30027		169.15400		875.00000 
 43692.65567		 261.35540			43431.30027		69.64400		324.00000 
 43692.65567		 261.35540			43431.30027		169.15400		875.00000 
 43692.65567		 261.35540			43431.30027		69.64400		324.00000 
 43692.65567		 261.35540			43431.30027		169.15400		875.00000 
 43692.65567		 261.35540			43431.30027		65.24000		324.00000 
 43692.65567		 261.35540			43431.30027		169.15400		875.00000 
 43692.65567		 261.35540			43431.30027		65.24000		324.00000 
 43692.65567		 261.35540			43431.30027		169.15400		875.00000 
 43692.65567		 261.35540			43431.30027		65.24000		324.00000 
 43692.65567		 261.35540			43431.30027		169.15400		875.00000 
 43692.65567		 261.35540			43431.30027		65.24000		324.00000 
 43692.65567		 261.35540			43431.30027		169.15400		875.00000 
 43692.65567		 261.35540			43431.30027		65.24000		324.00000 
 43692.65567		 261.35540			43431.30027		169.15400		875.00000 
 43692.65567		 261.35540			43431.30027		65.24000		324.00000 
 43692.65567		 261.35540			43431.30027		169.15400		875.00000 
 43692.65567		 261.35540			43431.30027		65.24000		324.00000 
 43692.65567		 261.35540			43431.30027		169.15400		875.00000 
 43692.65567		 261.35540			43431.30027		65.24000		324.00000 
 43692.65567		 261.35540			43431.30027		169.15400		875.00000 
 43692.65567		 261.35540			43431.30027		65.24000		324.00000 
 43692.65567		 261.35540			43431.30027		169.15400		875.00000 
 43692.65567		 261.35540			43431.30027		65.24000		324.00000 
 43692.65567		 261.35540			43431.30027		169.15400		875.00000 
 43692.65567		 261.35540			43431.30027		65.24000		324.00000 
 43692.65567		 261.35540			43431.30027		169.15400		875.00000 
 43692.65567		 261.35540			43431.30027		65.24000		324.00000 
 43692.65567		 261.35540			43431.30027		169.15400		875.00000 
 43692.65567		 261.35540			43431.30027		65.24000		324.00000 
 43692.65567		 261.35540			43431.30027		169.15400		875.00000 
 43692.65567		 261.35540			43431.30027		65.24000		324.00000 
 43692.65567		 261.35540			43431.30027		169.15400		875.00000 
 43692.65567		 261.35540			43431.30027		65.24000		324.00000 
 43692.65567		 265.17429			43427.48138		169.15400		875.00000 
 43692.65567		 261.35540			43431.30027		65.24000		324.00000 
 43692.65567		 265.17429			43427.48138		169.15400		875.00000 
 43692.65567		 261.35540			43431.30027		65.24000		324.00000 
 43692.65567		 272.81207			43419.84360		169.15400		875.00000 
 43692.65567		 261.35540			43431.30027		65.24000		324.00000 
 43692.65567		 272.81207			43419.84360		169.15400		875.00000 
 43692.65567		 261.35540			43431.30027		65.24000		324.00000 
 43692.65567		 272.81207			43419.84360		169.15400		875.00000 
 43692.65567		 265.17429			43427.48138		65.24000		324.00000 
 43692.65567		 272.81207			43419.84360		169.15400		875.00000 
 43692.65567		 265.17429			43427.48138		65.24000		324.00000 
 43692.65567		 272.81207			43419.84360		146.30400		875.00000 
 43692.65567		 272.81207			43419.84360		65.24000		324.00000 
 43692.65567		 272.81207			43419.84360		146.30400		875.00000 
 43692.65567		 272.81207			43419.84360		65.24000		324.00000 
 43692.65567		 272.81207			43419.84360		146.30400		875.00000 
 43692.65567		 272.81207			43419.84360		65.24000		324.00000 
 43692.65567		 272.81207			43419.84360		146.30400		875.00000 
 43692.65567		 272.81207			43419.84360		65.24000		324.00000 
 43692.65567		 305.27265			43387.38302		146.30400		875.00000 
 43692.65567		 305.27265			43387.38302		65.24000		324.00000 
 43692.65567		 305.27265			43387.38302		146.30400		875.00000 
 43692.65567		 305.27265			43387.38302		65.24000		324.00000 
 43692.65567		 305.27265			43387.38302		146.30400		875.00000 
 43692.65567		 305.27265			43387.38302		65.24000		324.00000 
 43692.65567		 305.27265			43387.38302		146.30400		875.00000 
 43692.65567		 305.27265			43387.38302		65.24000		324.00000 
 43692.65567		 305.27265			43387.38302		146.30400		875.00000 
 43692.65567		 305.27265			43387.38302		65.24000		324.00000 
 43692.65567		 309.56891			43383.08677		146.30400		875.00000 
 43692.65567		 305.27265			43387.38302		65.24000		324.00000 
 43692.65567		 311.00099			43381.65468		146.30400		875.00000 
 43692.65567		 305.27265			43387.38302		65.24000		324.00000 
 43692.65567		 311.00099			43381.65468		146.30400		875.00000 
 43692.65567		 305.27265			43387.38302		65.24000		324.00000 
 43692.65567		 311.00099			43381.65468		146.30400		875.00000 
 43692.65567		 305.27265			43387.38302		65.24000		324.00000 
 43692.65567		 311.00099			43381.65468		146.30400		875.00000 
 43692.65567		 305.27265			43387.38302		65.24000		324.00000 
 43692.65567		 311.00099			43381.65468		146.30400		875.00000 
 43692.65567		 305.27265			43387.38302		65.24000		324.00000 
 43692.65567		 311.00099			43381.65468		146.30400		875.00000 
 43692.65567		 305.27265			43387.38302		65.24000		324.00000 
 43692.65567		 311.00099			43381.65468		146.30400		875.00000 
 43692.65567		 305.27265			43387.38302		65.24000		324.00000 
 43692.65567		 311.00099			43381.65468		146.30400		875.00000 
 43692.65567		 305.27265			43387.38302		65.24000		324.00000 
 43692.65567		 311.00099			43381.65468		146.30400		875.00000 
 43692.65567		 305.27265			43387.38302		65.24000		324.00000 
 43692.65567		 311.00099			43381.65468		146.30400		875.00000 
 43692.65567		 305.27265			43387.38302		65.24000		324.00000 
 43692.65567		 311.00099			43381.65468		146.30400		875.00000 
 43692.65567		 305.27265			43387.38302		65.24000		324.00000 
 43692.65567		 311.00099			43381.65468		146.30400		875.00000 
 43692.65567		 305.27265			43387.38302		65.24000		324.00000 
 43692.65567		 311.00099			43381.65468		146.30400		875.00000 
 43692.65567		 305.27265			43387.38302		65.24000		324.00000 
 43692.65567		 311.00099			43381.65468		146.30400		875.00000 
 43692.65567		 305.27265			43387.38302		65.24000		324.00000 
 43692.65567		 311.00099			43381.65468		146.30400		875.00000 
 43692.65567		 305.27265			43387.38302		65.24000		324.00000 
 43692.65567		 311.00099			43381.65468		146.30400		875.00000 
 43692.65567		 305.27265			43387.38302		65.24000		324.00000 
 43692.65567		 311.00099			43381.65468		146.30400		875.00000 
 43692.65567		 305.27265			43387.38302		65.24000		324.00000 
 43692.65567		 311.00099			43381.65468		146.30400		875.00000 
 43692.65567		 305.27265			43387.38302		65.24000		324.00000 
 43692.65567		 311.00099			43381.65468		146.30400		875.00000 
 43692.65567		 305.27265			43387.38302		65.24000		324.00000 
 43692.65567		 311.00099			43381.65468		146.30400		875.00000 
 43692.65567		 305.27265			43387.38302		65.24000		324.00000 
 43692.65567		 311.00099			43381.65468		146.30400		875.00000 
 43692.65567		 305.27265			43387.38302		65.24000		324.00000 
 43692.65567		 311.00099			43381.65468		146.30400		875.00000 
 43692.65567		 305.27265			43387.38302		65.24000		324.00000 
 43692.65567		 311.00099			43381.65468		146.30400		875.00000 
 43692.65567		 305.27265			43387.38302		65.24000		324.00000 
 43692.65567		 311.00099			43381.65468		137.12600		875.00000 
 43692.65567		 305.27265			43387.38302		65.24000		324.00000 
 43692.65567		 311.00099			43381.65468		137.12600		875.00000 
 43692.65567		 305.27265			43387.38302		65.24000		324.00000 
 43692.65567		 311.00099			43381.65468		137.12600		875.00000 
 43692.65567		 305.27265			43387.38302		65.24000		324.00000 
 43692.65567		 311.00099			43381.65468		137.12600		875.00000 
 43692.65567		 305.27265			43387.38302		65.24000		324.00000 
 43692.65567		 311.00099			43381.65468		137.12600		875.00000 
 43692.65567		 305.27265			43387.38302		65.24000		324.00000 
 43692.65567		 311.00099			43381.65468		137.12600		875.00000 
 43692.65567		 305.27265			43387.38302		65.24000		324.00000 
 43692.65567		 311.00099			43381.65468		137.12600		875.00000 
 43692.65567		 305.27265			43387.38302		65.24000		324.00000 
 43692.65567		 311.00099			43381.65468		137.12600		875.00000 
 43692.65567		 305.27265			43387.38302		65.24000		324.00000 
 43692.65567		 311.00099			43381.65468		137.12600		875.00000 
 43692.65567		 305.27265			43387.38302		65.24000		324.00000 
 43692.65567		 311.00099			43381.65468		137.12600		875.00000 
 43692.65567		 305.27265			43387.38302		65.24000		324.00000 
 43692.65567		 311.00099			43381.65468		137.12600		875.00000 
 43692.65567		 305.27265			43387.38302		65.24000		324.00000 
 43692.65567		 311.00099			43381.65468		137.12600		875.00000 
 43692.65567		 305.27265			43387.38302		65.24000		324.00000 
 43692.65567		 311.00099			43381.65468		137.12600		875.00000 
 43692.65567		 305.27265			43387.38302		65.24000		324.00000 
 43692.65567		 311.00099			43381.65468		137.12600		875.00000 
 43692.65567		 305.27265			43387.38302		65.24000		324.00000 
 43692.65567		 311.00099			43381.65468		137.12600		875.00000 
 43692.65567		 305.27265			43387.38302		65.24000		324.00000 
 43692.65567		 311.00099			43381.65468		137.12600		875.00000 
 43692.65567		 305.27265			43387.38302		65.24000		324.00000 
 43692.65567		 311.00099			43381.65468		137.12600		875.00000 
 43692.65567		 305.27265			43387.38302		65.24000		324.00000 
 43692.65567		 311.00099			43381.65468		137.12600		875.00000 
 43692.65567		 305.27265			43387.38302		65.24000		324.00000 
 43692.65567		 311.00099			43381.65468		137.12600		875.00000 
 43692.65567		 305.27265			43387.38302		65.24000		324.00000 
 43692.65567		 311.00099			43381.65468		137.12600		875.00000 
 43692.65567		 305.27265			43387.38302		65.24000		324.00000 
 43692.65567		 311.00099			43381.65468		137.12600		875.00000 
 43692.65567		 305.27265			43387.38302		65.24000		324.00000 
 43692.65567		 311.00099			43381.65468		137.12600		875.00000 
 43692.65567		 305.27265			43387.38302		65.24000		324.00000 
 43692.65567		 311.00099			43381.65468		137.12600		875.00000 
 43692.65567		 305.27265			43387.38302		65.24000		324.00000 
 43692.65567		 311.00099			43381.65468		137.12600		875.00000 
 43692.65567		 305.27265			43387.38302		65.24000		324.00000 
 43692.65567		 311.00099			43381.65468		137.12600		875.00000 
 43692.65567		 305.27265			43387.38302		65.24000		324.00000 
 43692.65567		 311.00099			43381.65468		137.12600		875.00000 
 43692.65567		 305.27265			43387.38302		65.24000		324.00000 
 43692.65567		 311.00099			43381.65468		137.12600		875.00000 
 43692.65567		 305.27265			43387.38302		65.24000		324.00000 
 43692.65567		 311.00099			43381.65468		137.12600		875.00000 
 43692.65567		 305.27265			43387.38302		65.24000		324.00000 
 43692.65567		 311.00099			43381.65468		137.12600		875.00000 
 43692.65567		 305.27265			43387.38302		65.24000		324.00000 
 43692.65567		 311.00099			43381.65468		137.12600		875.00000 
 43692.65567		 305.27265			43387.38302		65.24000		324.00000 
 43692.65567		 314.81988			43377.83579		137.12600		875.00000 
 43692.65567		 305.27265			43387.38302		65.24000		324.00000 
 43692.65567		 314.81988			43377.83579		137.12600		875.00000 
 43692.65567		 305.27265			43387.38302		65.24000		324.00000 
 43692.65567		 318.63877			43374.01690		133.48400		875.00000 
 43692.65567		 305.27265			43387.38302		65.24000		324.00000 
 43692.65567		 322.45767			43370.19801		133.48400		875.00000 
 43692.65567		 305.27265			43387.38302		65.24000		324.00000 
 43692.65567		 326.27656			43366.37912		133.48400		875.00000 
 43692.65567		 305.27265			43387.38302		65.24000		324.00000 
 43692.65567		 326.27656			43366.37912		133.48400		875.00000 
 43692.65567		 305.27265			43387.38302		65.24000		324.00000 
 43692.65567		 326.27656			43366.37912		133.48400		875.00000 
 43692.65567		 305.27265			43387.38302		65.24000		324.00000 
 43692.65567		 537.27032			43155.38535		133.48400		875.00000 
 43692.65567		 305.27265			43387.38302		65.24000		324.00000 
 43692.65567		 800.77385			42891.88183		133.48400		875.00000 
 43692.65567		 305.27265			43387.38302		65.24000		324.00000 
 43692.65567		 932.52561			42760.13006		133.48400		875.00000 
 43692.65567		 305.27265			43387.38302		65.24000		324.00000 
 43692.65567		 932.52561			42760.13006		133.48400		875.00000 
 43692.65567		 305.27265			43387.38302		65.24000		324.00000 
 43692.65567		 932.52561			42760.13006		133.48400		875.00000 
 43692.65567		 305.27265			43387.38302		65.24000		324.00000 
 43692.65567		 932.52561			42760.13006		133.48400		875.00000 
 43692.65567		 305.27265			43387.38302		65.24000		324.00000 
 43692.65567		 932.52561			42760.13006		133.48400		875.00000 
 43692.65567		 305.27265			43387.38302		65.24000		324.00000 
 43692.65567		 932.52561			42760.13006		133.48400		875.00000 
 43692.65567		 305.27265			43387.38302		65.24000		324.00000 
 43692.65567		 932.52561			42760.13006		133.48400		875.00000 
 43692.65567		 305.27265			43387.38302		65.24000		324.00000 
 43692.65567		 932.52561			42760.13006		133.48400		875.00000 
 43692.65567		 305.27265			43387.38302		65.24000		324.00000 
 43692.65567		 932.52561			42760.13006		133.48400		875.00000 
 43692.65567		 305.27265			43387.38302		65.24000		324.00000 
 43692.65567		 932.52561			42760.13006		133.48400		875.00000 
 43692.65567		 305.27265			43387.38302		65.24000		324.00000 
 43692.65567		 932.52561			42760.13006		133.48400		875.00000 
 43692.65567		 305.27265			43387.38302		65.24000		324.00000 
 43692.65567		 932.52561			42760.13006		133.48400		875.00000 
 43692.65567		 305.27265			43387.38302		65.24000		324.00000 
 43692.65567		 932.52561			42760.13006		133.48400		875.00000 
 43692.65567		 305.27265			43387.38302		65.24000		324.00000 
 43692.65567		 932.52561			42760.13006		133.48400		875.00000 
 43692.65567		 305.27265			43387.38302		65.24000		324.00000 
 43692.65567		 932.52561			42760.13006		133.48400		875.00000 
 43692.65567		 305.27265			43387.38302		65.24000		324.00000 
 43692.65567		 932.52561			42760.13006		133.48400		875.00000 
 43692.65567		 305.27265			43387.38302		65.24000		324.00000 
 43692.65567		 932.52561			42760.13006		133.48400		875.00000 
 43692.65567		 305.27265			43387.38302		65.24000		324.00000 
 43692.65567		 932.52561			42760.13006		133.48400		875.00000 
 43692.65567		 305.27265			43387.38302		65.24000		324.00000 
 43692.65567		 932.52561			42760.13006		133.48400		875.00000 
 43692.65567		 305.27265			43387.38302		65.24000		324.00000 
 43692.65567		 932.52561			42760.13006		133.48400		875.00000 
 43692.65567		 305.27265			43387.38302		65.24000		324.00000 
 43692.65567		 932.52561			42760.13006		133.48400		875.00000 
 43692.65567		 305.27265			43387.38302		65.24000		324.00000 
 43692.65567		 932.52561			42760.13006		133.48400		875.00000 
 43692.65567		 305.27265			43387.38302		65.24000		324.00000 
 43692.65567		 932.52561			42760.13006		133.48400		875.00000 
 43692.65567		 305.27265			43387.38302		65.24000		324.00000 
 43692.65567		 932.52561			42760.13006		133.48400		875.00000 
 43692.65567		 305.27265			43387.38302		65.24000		324.00000 
 43692.65567		 932.52561			42760.13006		133.48400		875.00000 
 43692.65567		 305.27265			43387.38302		65.24000		324.00000 
 43692.65567		 932.52561			42760.13006		133.48400		875.00000 
 43692.65567		 305.27265			43387.38302		65.24000		324.00000 
 43692.65567		 932.52561			42760.13006		133.48400		875.00000 
 43692.65567		 305.27265			43387.38302		65.24000		324.00000 
 43692.65567		 932.52561			42760.13006		133.48400		875.00000 
 43692.65567		 305.27265			43387.38302		65.24000		324.00000 
 43692.65567		 932.52561			42760.13006		133.48400		875.00000 
 43692.65567		 305.27265			43387.38302		65.24000		324.00000 
 43692.65567		 932.52561			42760.13006		133.48400		875.00000 
 43692.65567		 305.27265			43387.38302		65.24000		324.00000 
 43692.65567		 932.52561			42760.13006		133.48400		875.00000 
 43692.65567		 305.27265			43387.38302		65.24000		324.00000 
 43692.65567		 932.52561			42760.13006		133.48400		875.00000 
 43692.65567		 305.27265			43387.38302		65.24000		324.00000 
 43692.65567		 932.52561			42760.13006		133.48400		875.00000 
 43692.65567		 305.27265			43387.38302		65.24000		324.00000 
 43692.65567		 932.52561			42760.13006		133.48400		875.00000 
 43692.65567		 305.27265			43387.38302		65.24000		324.00000 
 43692.65567		 932.52561			42760.13006		133.48400		875.00000 
 43692.65567		 305.27265			43387.38302		65.24000		324.00000 
 43692.65567		 932.52561			42760.13006		133.48400		875.00000 
 43692.65567		 305.27265			43387.38302		65.24000		324.00000 
 43692.65567		 932.52561			42760.13006		133.48400		875.00000 
 43692.65567		 305.27265			43387.38302		65.24000		324.00000 
 43692.65567		 932.52561			42760.13006		133.48400		875.00000 
 43692.65567		 305.27265			43387.38302		65.24000		324.00000 
 43692.65567		 932.52561			42760.13006		133.48400		875.00000 
 43692.65567		 305.27265			43387.38302		65.24000		324.00000 
 43692.65567		 932.52561			42760.13006		133.48400		875.00000 
 43692.65567		 305.27265			43387.38302		65.24000		324.00000 
 43692.65567		 932.52561			42760.13006		133.48400		875.00000 
 43692.65567		 305.27265			43387.38302		65.24000		324.00000 
 43692.65567		 932.52561			42760.13006		133.48400		875.00000 
 43692.65567		 305.27265			43387.38302		65.24000		324.00000 
 43692.65567		 932.52561			42760.13006		133.48400		875.00000 
 43692.65567		 305.27265			43387.38302		65.24000		324.00000 
 43692.65567		 932.52561			42760.13006		133.48400		875.00000 
 43692.65567		 305.27265			43387.38302		65.24000		324.00000 
 43692.65567		 932.52561			42760.13006		133.48400		875.00000 
 43692.65567		 305.27265			43387.38302		65.24000		324.00000 
 43692.65567		 932.52561			42760.13006		133.48400		875.00000 
 43692.65567		 305.27265			43387.38302		65.24000		324.00000 
 43692.65567		 932.52561			42760.13006		133.48400		875.00000 
 43692.65567		 305.27265			43387.38302		65.24000		324.00000 
 43692.65567		 932.52561			42760.13006		133.48400		875.00000 
 43692.65567		 305.27265			43387.38302		65.24000		324.00000 
 43692.65567		 932.52561			42760.13006		133.48400		875.00000 
 43692.65567		 305.27265			43387.38302		65.24000		324.00000 
 43692.65567		 932.52561			42760.13006		133.48400		875.00000 
 43692.65567		 305.27265			43387.38302		65.24000		324.00000 
 43692.65567		 932.52561			42760.13006		133.48400		875.00000 
 43692.65567		 305.27265			43387.38302		65.24000		324.00000 
 43692.65567		 932.52561			42760.13006		133.48400		875.00000 
 43692.65567		 305.27265			43387.38302		65.24000		324.00000 
 43692.65567		 932.52561			42760.13006		133.48400		875.00000 
 43692.65567		 305.27265			43387.38302		65.24000		324.00000 
 43692.65567		 932.52561			42760.13006		133.48400		875.00000 
 43692.65567		 305.27265			43387.38302		65.24000		324.00000 
 43692.65567		 932.52561			42760.13006		133.48400		875.00000 
 43692.65567		 305.27265			43387.38302		65.24000		324.00000 
 43692.65567		 932.52561			42760.13006		133.48400		875.00000 
 43692.65567		 305.27265			43387.38302		65.24000		324.00000 
 43692.65567		 932.52561			42760.13006		184.08000		875.00000 
 43692.65567		 305.27265			43387.38302		65.24000		324.00000 
 43692.65567		 932.52561			42760.13006		184.08000		875.00000 
 43692.65567		 305.27265			43387.38302		65.24000		324.00000 
 43692.65567		 932.52561			42760.13006		184.08000		875.00000 
 43692.65567		 305.27265			43387.38302		65.24000		324.00000 
 43692.65567		 932.52561			42760.13006		184.08000		875.00000 
 43692.65567		 305.27265			43387.38302		65.24000		324.00000 
 43692.65567		 932.52561			42760.13006		184.08000		875.00000 
 43692.65567		 305.27265			43387.38302		65.24000		324.00000 
 43692.65567		 932.52561			42760.13006		184.08000		875.00000 
 43692.65567		 305.27265			43387.38302		65.24000		324.00000 
 43692.65567		 932.52561			42760.13006		184.08000		875.00000 
 43692.65567		 305.27265			43387.38302		65.24000		324.00000 
 43692.65567		 932.52561			42760.13006		184.08000		875.00000 
 43692.65567		 305.27265			43387.38302		65.24000		324.00000 
 43692.65567		 932.52561			42760.13006		184.08000		875.00000 
 43692.65567		 305.27265			43387.38302		65.24000		324.00000 
 43692.65567		 932.52561			42760.13006		184.08000		875.00000 
 43692.65567		 305.27265			43387.38302		65.24000		324.00000 
 43692.65567		 932.52561			42760.13006		184.08000		875.00000 
 43692.65567		 305.27265			43387.38302		65.24000		324.00000 
 43692.65567		 932.52561			42760.13006		184.08000		875.00000 
 43692.65567		 305.27265			43387.38302		65.24000		324.00000 
 43692.65567		 932.52561			42760.13006		184.08000		875.00000 
 43692.65567		 305.27265			43387.38302		65.24000		324.00000 
 43692.65567		 932.52561			42760.13006		184.08000		875.00000 
 43692.65567		 305.27265			43387.38302		65.24000		324.00000 
 43692.65567		 932.52561			42760.13006		184.08000		875.00000 
 43692.65567		 305.27265			43387.38302		65.24000		324.00000 
 43692.65567		 932.52561			42760.13006		184.08000		875.00000 
 43692.65567		 305.27265			43387.38302		65.24000		324.00000 
 43692.65567		 932.52561			42760.13006		184.08000		875.00000 
 43692.65567		 305.27265			43387.38302		65.24000		324.00000 
 43692.65567		 932.52561			42760.13006		184.08000		875.00000 
 43692.65567		 305.27265			43387.38302		65.24000		324.00000 
 43692.65567		 932.52561			42760.13006		184.08000		875.00000 
 43692.65567		 305.27265			43387.38302		65.24000		324.00000 
 43692.65567		 932.52561			42760.13006		184.08000		875.00000 
 43692.65567		 305.27265			43387.38302		65.24000		324.00000 
 43692.65567		 932.52561			42760.13006		184.08000		875.00000 
 43692.65567		 305.27265			43387.38302		65.24000		324.00000 
 43692.65567		 932.52561			42760.13006		184.08000		875.00000 
 43692.65567		 305.27265			43387.38302		65.24000		324.00000 
 43692.65567		 932.52561			42760.13006		184.08000		875.00000 
 43692.65567		 305.27265			43387.38302		65.24000		324.00000 
 43692.65567		 932.52561			42760.13006		184.08000		875.00000 
 43692.65567		 305.27265			43387.38302		65.24000		324.00000 
 43692.65567		 932.52561			42760.13006		184.08000		875.00000 
 43692.65567		 305.27265			43387.38302		65.24000		324.00000 
 43692.65567		 932.52561			42760.13006		184.08000		875.00000 
 43692.65567		 305.27265			43387.38302		65.24000		324.00000 
 43692.65567		 932.52561			42760.13006		184.08000		875.00000 
 43692.65567		 305.27265			43387.38302		65.24000		324.00000 
 43692.65567		 932.52561			42760.13006		184.08000		875.00000 
 43692.65567		 305.27265			43387.38302		65.24000		324.00000 
 43692.65567		 932.52561			42760.13006		184.08000		875.00000 
 43692.65567		 305.27265			43387.38302		65.24000		324.00000 
 43692.65567		 932.52561			42760.13006		184.08000		875.00000 
 43692.65567		 305.27265			43387.38302		65.24000		324.00000 
 43692.65567		 932.52561			42760.13006		184.08000		875.00000 
 43692.65567		 305.27265			43387.38302		65.24000		324.00000 
 43692.65567		 932.52561			42760.13006		184.08000		875.00000 
 43692.65567		 305.27265			43387.38302		65.24000		324.00000 
 43692.65567		 932.52561			42760.13006		184.08000		875.00000 
 43692.65567		 305.27265			43387.38302		65.24000		324.00000 
 43692.65567		 932.52561			42760.13006		184.08000		875.00000 
 43692.65567		 305.27265			43387.38302		65.24000		324.00000 
 43692.65567		 932.52561			42760.13006		184.08000		875.00000 
 43692.65567		 305.27265			43387.38302		65.24000		324.00000 
 43692.65567		 932.52561			42760.13006		184.08000		875.00000 
 43692.65567		 305.27265			43387.38302		65.24000		324.00000 
 43692.65567		 932.52561			42760.13006		184.08000		875.00000 
 43692.65567		 305.27265			43387.38302		65.24000		324.00000 
 43692.65567		 932.52561			42760.13006		184.08000		875.00000 
 43692.65567		 305.27265			43387.38302		65.24000		324.00000 
 43692.65567		 932.52561			42760.13006		184.08000		875.00000 
 43692.65567		 305.27265			43387.38302		65.24000		324.00000 
 43692.65567		 932.52561			42760.13006		184.08000		875.00000 
 43692.65567		 305.27265			43387.38302		65.24000		324.00000 
 43692.65567		 932.52561			42760.13006		184.08000		875.00000 
 43692.65567		 305.27265			43387.38302		65.24000		324.00000 
 43692.65567		 932.52561			42760.13006		184.08000		875.00000 
 43692.65567		 305.27265			43387.38302		65.24000		324.00000 
 43692.65567		 932.52561			42760.13006		184.08000		875.00000 
 43692.65567		 305.27265			43387.38302		65.24000		324.00000 
 43692.65567		 932.52561			42760.13006		184.08000		875.00000 
 43692.65567		 305.27265			43387.38302		65.24000		324.00000 
 43692.65567		 932.52561			42760.13006		184.08000		875.00000 
 43692.65567		 305.27265			43387.38302		65.24000		324.00000 
 43692.65567		 932.52561			42760.13006		184.08000		875.00000 
 43692.65567		 305.27265			43387.38302		65.24000		324.00000 
 43692.65567		 932.52561			42760.13006		184.08000		875.00000 
 43692.65567		 305.27265			43387.38302		65.24000		324.00000 
 43692.65567		 932.52561			42760.13006		184.08000		875.00000 
 43692.65567		 305.27265			43387.38302		65.24000		324.00000 
 43692.65567		 932.52561			42760.13006		184.08000		875.00000 
 43692.65567		 305.27265			43387.38302		65.24000		324.00000 
 43692.65567		 932.52561			42760.13006		184.08000		875.00000 
 43692.65567		 305.27265			43387.38302		65.24000		324.00000 
 43692.65567		 932.52561			42760.13006		184.08000		875.00000 
 43692.65567		 305.27265			43387.38302		65.24000		324.00000 
 43692.65567		 932.52561			42760.13006		184.08000		875.00000 
 43692.65567		 305.27265			43387.38302		65.24000		324.00000 
 43692.65567		 932.52561			42760.13006		184.08000		875.00000 
 43692.65567		 305.27265			43387.38302		65.24000		324.00000 
 43692.65567		 932.52561			42760.13006		184.08000		875.00000 
 43692.65567		 305.27265			43387.38302		65.24000		324.00000 
 43692.65567		 932.52561			42760.13006		184.08000		875.00000 
 43692.65567		 305.27265			43387.38302		65.24000		324.00000 
 43692.65567		 932.52561			42760.13006		184.08000		875.00000 
 43692.65567		 305.27265			43387.38302		65.24000		324.00000 
 43692.65567		 932.52561			42760.13006		184.08000		875.00000 
 43692.65567		 305.27265			43387.38302		65.24000		324.00000 
 43692.65567		 932.52561			42760.13006		184.08000		875.00000 
 43692.65567		 305.27265			43387.38302		65.24000		324.00000 
 43692.65567		 932.52561			42760.13006		184.08000		875.00000 
 43692.65567		 305.27265			43387.38302		65.24000		324.00000 
 43692.65567		 932.52561			42760.13006		184.08000		875.00000 
 43692.65567		 305.27265			43387.38302		65.24000		324.00000 
 43692.65567		 932.52561			42760.13006		184.08000		875.00000 
 43692.65567		 305.27265			43387.38302		65.24000		324.00000 
 43692.65567		 932.52561			42760.13006		184.08000		875.00000 
 43692.65567		 305.27265			43387.38302		65.24000		324.00000 
 43692.65567		 932.52561			42760.13006		184.08000		875.00000 
 43692.65567		 305.27265			43387.38302		65.24000		324.00000 
 43692.65567		 932.52561			42760.13006		184.08000		875.00000 
 43692.65567		 305.27265			43387.38302		65.24000		324.00000 
 43692.65567		 932.52561			42760.13006		209.37600		875.00000 
 43692.65567		 305.27265			43387.38302		65.24000		324.00000 
 43692.65567		 932.52561			42760.13006		209.37600		875.00000 
 43692.65567		 305.27265			43387.38302		65.24000		324.00000 
 43692.65567		 932.52561			42760.13006		209.37600		875.00000 
 43692.65567		 305.27265			43387.38302		65.24000		324.00000 
 43692.65567		 932.52561			42760.13006		209.37600		875.00000 
 43692.65567		 305.27265			43387.38302		65.24000		324.00000 
 43692.65567		 932.52561			42760.13006		209.37600		875.00000 
 43692.65567		 305.27265			43387.38302		65.24000		324.00000 
 43692.65567		 932.52561			42760.13006		209.37600		875.00000 
 43692.65567		 305.27265			43387.38302		65.24000		324.00000 
 43692.65567		 932.52561			42760.13006		209.37600		875.00000 
 43692.65567		 305.27265			43387.38302		65.24000		324.00000 
 43692.65567		 932.52561			42760.13006		209.37600		875.00000 
 43692.65567		 305.27265			43387.38302		65.24000		324.00000 
 43692.65567		 932.52561			42760.13006		209.37600		875.00000 
 43692.65567		 305.27265			43387.38302		65.24000		324.00000 
 43692.65567		 932.52561			42760.13006		209.37600		875.00000 
 43692.65567		 305.27265			43387.38302		65.24000		324.00000 
 43692.65567		 932.52561			42760.13006		209.37600		875.00000 
 43692.65567		 305.27265			43387.38302		65.24000		324.00000 
 43692.65567		 932.52561			42760.13006		209.37600		875.00000 
 43692.65567		 305.27265			43387.38302		65.24000		324.00000 
 43692.65567		 932.52561			42760.13006		209.37600		875.00000 
 43692.65567		 305.27265			43387.38302		65.24000		324.00000 
 43692.65567		 932.52561			42760.13006		209.37600		875.00000 
 43692.65567		 305.27265			43387.38302		65.24000		324.00000 
 43692.65567		 932.52561			42760.13006		209.37600		875.00000 
 43692.65567		 305.27265			43387.38302		65.24000		324.00000 
 43692.65567		 932.52561			42760.13006		209.37600		875.00000 
 43692.65567		 305.27265			43387.38302		65.24000		324.00000 
 43692.65567		 932.52561			42760.13006		209.37600		875.00000 
 43692.65567		 305.27265			43387.38302		65.24000		324.00000 
 43692.65567		 932.52561			42760.13006		209.37600		875.00000 
 43692.65567		 305.27265			43387.38302		65.24000		324.00000 
 43692.65567		 932.52561			42760.13006		209.37600		875.00000 
 43692.65567		 305.27265			43387.38302		65.24000		324.00000 
 43692.65567		 932.52561			42760.13006		209.37600		875.00000 
 43692.65567		 305.27265			43387.38302		65.24000		324.00000 
 43692.65567		 932.52561			42760.13006		209.37600		875.00000 
 43692.65567		 305.27265			43387.38302		65.24000		324.00000 
 43692.65567		 932.52561			42760.13006		209.37600		875.00000 
 43692.65567		 305.27265			43387.38302		65.24000		324.00000 
 43692.65567		 932.52561			42760.13006		209.37600		875.00000 
 43692.65567		 305.27265			43387.38302		65.24000		324.00000 
 43692.65567		 932.52561			42760.13006		209.37600		875.00000 
 43692.65567		 305.27265			43387.38302		65.24000		324.00000 
 43692.65567		 932.52561			42760.13006		209.37600		875.00000 
 43692.65567		 305.27265			43387.38302		65.24000		324.00000 
 43692.65567		 932.52561			42760.13006		209.37600		875.00000 
 43692.65567		 305.27265			43387.38302		65.24000		324.00000 
 43692.65567		 932.52561			42760.13006		209.37600		875.00000 
 43692.65567		 305.27265			43387.38302		65.24000		324.00000 
 43692.65567		 932.52561			42760.13006		209.37600		875.00000 
 43692.65567		 305.27265			43387.38302		65.24000		324.00000 
 43692.65567		 932.52561			42760.13006		209.37600		875.00000 
 43692.65567		 305.27265			43387.38302		65.24000		324.00000 
 43692.65567		 932.52561			42760.13006		209.37600		875.00000 
 43692.65567		 305.27265			43387.38302		65.24000		324.00000 
 43692.65567		 932.52561			42760.13006		209.37600		875.00000 
 43692.65567		 305.27265			43387.38302		65.24000		324.00000 
 43692.65567		 932.52561			42760.13006		209.37600		875.00000 
 43692.65567		 305.27265			43387.38302		65.24000		324.00000 
 43692.65567		 932.52561			42760.13006		209.37600		875.00000 
 43692.65567		 305.27265			43387.38302		65.24000		324.00000 
 43692.65567		 932.52561			42760.13006		209.37600		875.00000 
 43692.65567		 305.27265			43387.38302		65.24000		324.00000 
 43692.65567		 932.52561			42760.13006		209.37600		875.00000 
 43692.65567		 305.27265			43387.38302		65.24000		324.00000 
 43692.65567		 932.52561			42760.13006		209.37600		875.00000 
 43692.65567		 305.27265			43387.38302		65.24000		324.00000 
 43692.65567		 932.52561			42760.13006		209.37600		875.00000 
 43692.65567		 305.27265			43387.38302		65.24000		324.00000 
 43692.65567		 932.52561			42760.13006		209.37600		875.00000 
 43692.65567		 305.27265			43387.38302		65.24000		324.00000 
 43692.65567		 932.52561			42760.13006		209.37600		875.00000 
 43692.65567		 305.27265			43387.38302		65.24000		324.00000 
 43692.65567		 932.52561			42760.13006		209.37600		875.00000 
 43692.65567		 305.27265			43387.38302		65.24000		324.00000 
 43692.65567		 932.52561			42760.13006		209.37600		875.00000 
 43692.65567		 305.27265			43387.38302		65.24000		324.00000 
 43692.65567		 932.52561			42760.13006		209.37600		875.00000 
 43692.65567		 305.27265			43387.38302		65.24000		324.00000 
 43692.65567		 932.52561			42760.13006		209.37600		875.00000 
 43692.65567		 305.27265			43387.38302		65.24000		324.00000 
 43692.65567		 932.52561			42760.13006		209.37600		875.00000 
 43692.65567		 305.27265			43387.38302		65.24000		324.00000 
 43692.65567		 932.52561			42760.13006		209.37600		875.00000 
 43692.65567		 305.27265			43387.38302		65.24000		324.00000 
 43692.65567		 932.52561			42760.13006		209.37600		875.00000 
 43692.65567		 305.27265			43387.38302		65.24000		324.00000 
 43692.65567		 932.52561			42760.13006		209.37600		875.00000 
 43692.65567		 305.27265			43387.38302		65.24000		324.00000 
 43692.65567		 932.52561			42760.13006		209.37600		875.00000 
 43692.65567		 305.27265			43387.38302		65.24000		324.00000 
 43692.65567		 932.52561			42760.13006		209.37600		875.00000 
 43692.65567		 305.27265			43387.38302		65.24000		324.00000 
 43692.65567		 932.52561			42760.13006		209.37600		875.00000 
 43692.65567		 305.27265			43387.38302		65.24000		324.00000 
 43692.65567		 932.52561			42760.13006		209.37600		875.00000 
 43692.65567		 305.27265			43387.38302		65.24000		324.00000 
 43692.65567		 932.52561			42760.13006		209.37600		875.00000 
 43692.65567		 305.27265			43387.38302		65.24000		324.00000 
 43692.65567		 932.52561			42760.13006		209.37600		875.00000 
 43692.65567		 305.27265			43387.38302		65.24000		324.00000 
 43692.65567		 932.52561			42760.13006		209.37600		875.00000 
 43692.65567		 305.27265			43387.38302		65.24000		324.00000 
 43692.65567		 932.52561			42760.13006		209.37600		875.00000 
 43692.65567		 305.27265			43387.38302		65.24000		324.00000 
 43692.65567		 932.52561			42760.13006		209.37600		875.00000 
 43692.65567		 305.27265			43387.38302		65.24000		324.00000 
 43692.65567		 932.52561			42760.13006		209.37600		875.00000 
 43692.65567		 305.27265			43387.38302		65.24000		324.00000 
 43692.65567		 932.52561			42760.13006		209.37600		875.00000 
 43692.65567		 305.27265			43387.38302		65.24000		324.00000 
 43692.65567		 932.52561			42760.13006		209.37600		875.00000 
 43692.65567		 305.27265			43387.38302		65.24000		324.00000 
 43692.65567		 932.52561			42760.13006		209.37600		875.00000 
 43692.65567		 305.27265			43387.38302		65.24000		324.00000 
 43692.65567		 932.52561			42760.13006		209.37600		875.00000 
 43692.65567		 305.27265			43387.38302		65.24000		324.00000 
 43692.65567		 932.52561			42760.13006		209.37600		875.00000 
 43692.65567		 305.27265			43387.38302		65.24000		324.00000 
 43692.65567		 932.52561			42760.13006		209.37600		875.00000 
 43692.65567		 305.27265			43387.38302		65.24000		324.00000 
 43692.65567		 932.52561			42760.13006		209.37600		875.00000 
 43692.65567		 305.27265			43387.38302		65.24000		324.00000 
 43692.65567		 932.52561			42760.13006		217.16200		875.00000 
 43692.65567		 305.27265			43387.38302		65.24000		324.00000 
 43692.65567		 932.52561			42760.13006		217.16200		875.00000 
 43692.65567		 305.27265			43387.38302		65.24000		324.00000 
 43692.65567		 932.52561			42760.13006		217.16200		875.00000 
 43692.65567		 305.27265			43387.38302		65.24000		324.00000 
 43692.65567		 932.52561			42760.13006		217.16200		875.00000 
 43692.65567		 305.27265			43387.38302		65.24000		324.00000 
 43692.65567		 932.52561			42760.13006		217.16200		875.00000 
 43692.65567		 305.27265			43387.38302		65.24000		324.00000 
 43692.65567		 932.52561			42760.13006		217.16200		875.00000 
 43692.65567		 305.27265			43387.38302		65.24000		324.00000 
 43692.65567		 932.52561			42760.13006		217.16200		875.00000 
 43692.65567		 305.27265			43387.38302		65.24000		324.00000 
 43692.65567		 932.52561			42760.13006		217.16200		875.00000 
 43692.65567		 305.27265			43387.38302		65.24000		324.00000 
 43692.65567		 932.52561			42760.13006		217.16200		875.00000 
 43692.65567		 305.27265			43387.38302		65.24000		324.00000 
 43692.65567		 932.52561			42760.13006		217.16200		875.00000 
 43692.65567		 305.27265			43387.38302		65.24000		324.00000 
 43692.65567		 932.52561			42760.13006		217.16200		875.00000 
 43692.65567		 305.27265			43387.38302		65.24000		324.00000 
 43692.65567		 932.52561			42760.13006		217.16200		875.00000 
 43692.65567		 305.27265			43387.38302		65.24000		324.00000 
 43692.65567		 932.52561			42760.13006		217.16200		875.00000 
 43692.65567		 305.27265			43387.38302		65.24000		324.00000 
 43692.65567		 932.52561			42760.13006		217.16200		875.00000 
 43692.65567		 305.27265			43387.38302		65.24000		324.00000 
 43692.65567		 932.52561			42760.13006		217.16200		875.00000 
 43692.65567		 305.27265			43387.38302		65.24000		324.00000 
 43692.65567		 932.52561			42760.13006		217.16200		875.00000 
 43692.65567		 305.27265			43387.38302		65.24000		324.00000 
 43692.65567		 932.52561			42760.13006		217.16200		875.00000 
 43692.65567		 305.27265			43387.38302		65.24000		324.00000 
 43692.65567		 932.52561			42760.13006		217.16200		875.00000 
 43692.65567		 305.27265			43387.38302		65.24000		324.00000 
 43692.65567		 932.52561			42760.13006		217.16200		875.00000 
 43692.65567		 305.27265			43387.38302		65.24000		324.00000 
 43692.65567		 932.52561			42760.13006		217.16200		875.00000 
 43692.65567		 305.27265			43387.38302		65.24000		324.00000 
 43692.65567		 932.52561			42760.13006		217.16200		875.00000 
 43692.65567		 305.27265			43387.38302		65.24000		324.00000 
 43692.65567		 932.52561			42760.13006		217.16200		875.00000 
 43692.65567		 305.27265			43387.38302		65.24000		324.00000 
 43692.65567		 932.52561			42760.13006		217.16200		875.00000 
 43692.65567		 305.27265			43387.38302		65.24000		324.00000 
 43692.65567		 932.52561			42760.13006		217.16200		875.00000 
 43692.65567		 305.27265			43387.38302		65.24000		324.00000 
 43692.65567		 932.52561			42760.13006		217.16200		875.00000 
 43692.65567		 305.27265			43387.38302		65.24000		324.00000 
 43692.65567		 932.52561			42760.13006		217.16200		875.00000 
 43692.65567		 305.27265			43387.38302		65.24000		324.00000 
 43692.65567		 932.52561			42760.13006		217.16200		875.00000 
 43692.65567		 305.27265			43387.38302		65.24000		324.00000 
 43692.65567		 932.52561			42760.13006		217.16200		875.00000 
 43692.65567		 305.27265			43387.38302		65.24000		324.00000 
 43692.65567		 932.52561			42760.13006		217.16200		875.00000 
 43692.65567		 305.27265			43387.38302		65.24000		324.00000 
 43692.65567		 932.52561			42760.13006		217.16200		875.00000 
 43692.65567		 305.27265			43387.38302		65.24000		324.00000 
 43692.65567		 932.52561			42760.13006		217.16200		875.00000 
 43692.65567		 305.27265			43387.38302		65.24000		324.00000 
 43692.65567		 932.52561			42760.13006		217.16200		875.00000 
 43692.65567		 305.27265			43387.38302		65.24000		324.00000 
 43692.65567		 932.52561			42760.13006		217.16200		875.00000 
 43692.65567		 305.27265			43387.38302		65.24000		324.00000 
 43692.65567		 932.52561			42760.13006		217.16200		875.00000 
 43692.65567		 305.27265			43387.38302		65.24000		324.00000 
 43692.65567		 932.52561			42760.13006		217.16200		875.00000 
 43692.65567		 305.27265			43387.38302		65.24000		324.00000 
 43692.65567		 932.52561			42760.13006		217.16200		875.00000 
 43692.65567		 305.27265			43387.38302		65.24000		324.00000 
 43692.65567		 932.52561			42760.13006		217.16200		875.00000 
 43692.65567		 305.27265			43387.38302		65.24000		324.00000 
 43692.65567		 932.52561			42760.13006		217.16200		875.00000 
 43692.65567		 305.27265			43387.38302		65.24000		324.00000 
 43692.65567		 932.52561			42760.13006		217.16200		875.00000 
 43692.65567		 305.27265			43387.38302		65.24000		324.00000 
 43692.65567		 932.52561			42760.13006		217.16200		875.00000 
 43692.65567		 305.27265			43387.38302		65.24000		324.00000 
 43692.65567		 932.52561			42760.13006		217.16200		875.00000 
 43692.65567		 305.27265			43387.38302		65.24000		324.00000 
 43692.65567		 932.52561			42760.13006		217.16200		875.00000 
 43692.65567		 305.27265			43387.38302		65.24000		324.00000 
 43692.65567		 932.52561			42760.13006		217.16200		875.00000 
 43692.65567		 305.27265			43387.38302		65.24000		324.00000 
 43692.65567		 932.52561			42760.13006		217.16200		875.00000 
 43692.65567		 305.27265			43387.38302		65.24000		324.00000 
 43692.65567		 932.52561			42760.13006		217.16200		875.00000 
 43692.65567		 305.27265			43387.38302		65.24000		324.00000 
 43692.65567		 932.52561			42760.13006		217.16200		875.00000 
 43692.65567		 305.27265			43387.38302		65.24000		324.00000 
 43692.65567		 932.52561			42760.13006		217.16200		875.00000 
 43692.65567		 305.27265			43387.38302		65.24000		324.00000 
 43692.65567		 932.52561			42760.13006		217.16200		875.00000 
 43692.65567		 305.27265			43387.38302		65.24000		324.00000 
 43692.65567		 932.52561			42760.13006		217.16200		875.00000 
 43692.65567		 305.27265			43387.38302		65.24000		324.00000 
 43692.65567		 932.52561			42760.13006		217.16200		875.00000 
 43692.65567		 305.27265			43387.38302		65.24000		324.00000 
 43692.65567		 932.52561			42760.13006		217.16200		875.00000 
 43692.65567		 305.27265			43387.38302		65.24000		324.00000 
 43692.65567		 932.52561			42760.13006		217.16200		875.00000 
 43692.65567		 305.27265			43387.38302		65.24000		324.00000 
 43692.65567		 932.52561			42760.13006		217.16200		875.00000 
 43692.65567		 305.27265			43387.38302		65.24000		324.00000 
 43692.65567		 932.52561			42760.13006		217.16200		875.00000 
 43692.65567		 305.27265			43387.38302		65.24000		324.00000 
 43692.65567		 932.52561			42760.13006		217.16200		875.00000 
 43692.65567		 305.27265			43387.38302		65.24000		324.00000 
 43692.65567		 932.52561			42760.13006		217.16200		875.00000 
 43692.65567		 305.27265			43387.38302		65.24000		324.00000 
 43692.65567		 932.52561			42760.13006		217.16200		875.00000 
 43692.65567		 305.27265			43387.38302		65.24000		324.00000 
 43692.65567		 932.52561			42760.13006		217.16200		875.00000 
 43692.65567		 305.27265			43387.38302		65.24000		324.00000 
 43692.65567		 932.52561			42760.13006		217.16200		875.00000 
 43692.65567		 305.27265			43387.38302		65.24000		324.00000 
 43692.65567		 932.52561			42760.13006		217.16200		875.00000 
 43692.65567		 305.27265			43387.38302		65.24000		324.00000 
 43692.65567		 932.52561			42760.13006		217.16200		875.00000 
 43692.65567		 305.27265			43387.38302		65.24000		324.00000 
 43692.65567		 932.52561			42760.13006		217.16200		875.00000 
 43692.65567		 305.27265			43387.38302		65.24000		324.00000 
 43692.65567		 932.52561			42760.13006		217.16200		875.00000 
 43692.65567		 305.27265			43387.38302		65.24000		324.00000 
 43692.65567		 932.52561			42760.13006		217.16200		875.00000 
 43692.65567		 305.27265			43387.38302		65.24000		324.00000 
 43692.65567		 932.52561			42760.13006		220.08400		875.00000 
 43692.65567		 305.27265			43387.38302		65.24000		324.00000 
 43692.65567		 932.52561			42760.13006		220.08400		875.00000 
 43692.65567		 305.27265			43387.38302		65.24000		324.00000 
 43692.65567		 932.52561			42760.13006		220.08400		875.00000 
 43692.65567		 305.27265			43387.38302		65.24000		324.00000 
 43692.65567		 932.52561			42760.13006		220.08400		875.00000 
 43692.65567		 305.27265			43387.38302		65.24000		324.00000 
 43692.65567		 932.52561			42760.13006		220.08400		875.00000 
 43692.65567		 305.27265			43387.38302		65.24000		324.00000 
 43692.65567		 932.52561			42760.13006		220.08400		875.00000 
 43692.65567		 305.27265			43387.38302		65.24000		324.00000 
 43692.65567		 932.52561			42760.13006		220.08400		875.00000 
 43692.65567		 305.27265			43387.38302		65.24000		324.00000 
 43692.65567		 932.52561			42760.13006		220.08400		875.00000 
 43692.65567		 305.27265			43387.38302		65.24000		324.00000 
 43692.65567		 932.52561			42760.13006		220.08400		875.00000 
 43692.65567		 305.27265			43387.38302		65.24000		324.00000 
 43692.65567		 932.52561			42760.13006		220.08400		875.00000 
 43692.65567		 305.27265			43387.38302		65.24000		324.00000 
 43692.65567		 932.52561			42760.13006		220.08400		875.00000 
 43692.65567		 305.27265			43387.38302		65.24000		324.00000 
 43692.65567		 932.52561			42760.13006		220.08400		875.00000 
 43692.65567		 305.27265			43387.38302		65.24000		324.00000 
 43692.65567		 932.52561			42760.13006		220.08400		875.00000 
 43692.65567		 305.27265			43387.38302		65.24000		324.00000 
 43692.65567		 932.52561			42760.13006		220.08400		875.00000 
 43692.65567		 305.27265			43387.38302		65.24000		324.00000 
 43692.65567		 932.52561			42760.13006		220.08400		875.00000 
 43692.65567		 305.27265			43387.38302		65.24000		324.00000 
 43692.65567		 932.52561			42760.13006		220.08400		875.00000 
 43692.65567		 305.27265			43387.38302		65.24000		324.00000 
 43692.65567		 932.52561			42760.13006		220.08400		875.00000 
 43692.65567		 305.27265			43387.38302		65.24000		324.00000 
 43692.65567		 932.52561			42760.13006		220.08400		875.00000 
 43692.65567		 305.27265			43387.38302		65.24000		324.00000 
 43692.65567		 932.52561			42760.13006		220.08400		875.00000 
 43692.65567		 305.27265			43387.38302		65.24000		324.00000 
 43692.65567		 932.52561			42760.13006		220.08400		875.00000 
 43692.65567		 305.27265			43387.38302		65.24000		324.00000 
 43692.65567		 932.52561			42760.13006		220.08400		875.00000 
 43692.65567		 305.27265			43387.38302		65.24000		324.00000 
 43692.65567		 932.52561			42760.13006		220.08400		875.00000 
 43692.65567		 305.27265			43387.38302		65.24000		324.00000 
 43692.65567		 932.52561			42760.13006		220.08400		875.00000 
 43692.65567		 305.27265			43387.38302		65.24000		324.00000 
 43692.65567		 932.52561			42760.13006		220.08400		875.00000 
 43692.65567		 305.27265			43387.38302		65.24000		324.00000 
 43692.65567		 932.52561			42760.13006		220.08400		875.00000 
 43692.65567		 305.27265			43387.38302		65.24000		324.00000 
 43692.65567		 932.52561			42760.13006		220.08400		875.00000 
 43692.65567		 305.27265			43387.38302		65.24000		324.00000 
 43692.65567		 932.52561			42760.13006		220.08400		875.00000 
 43692.65567		 305.27265			43387.38302		65.24000		324.00000 
 43692.65567		 932.52561			42760.13006		220.08400		875.00000 
 43692.65567		 305.27265			43387.38302		65.24000		324.00000 
 43692.65567		 932.52561			42760.13006		220.08400		875.00000 
 43692.65567		 305.27265			43387.38302		65.24000		324.00000 
 43692.65567		 932.52561			42760.13006		220.08400		875.00000 
 43692.65567		 305.27265			43387.38302		65.24000		324.00000 
 43692.65567		 932.52561			42760.13006		220.08400		875.00000 
 43692.65567		 305.27265			43387.38302		65.24000		324.00000 
 43692.65567		 932.52561			42760.13006		220.08400		875.00000 
 43692.65567		 305.27265			43387.38302		65.24000		324.00000 
 43692.65567		 932.52561			42760.13006		220.08400		875.00000 
 43692.65567		 305.27265			43387.38302		65.24000		324.00000 
 43692.65567		 932.52561			42760.13006		220.08400		875.00000 
 43692.65567		 305.27265			43387.38302		65.24000		324.00000 
 43692.65567		 932.52561			42760.13006		220.08400		875.00000 
 43692.65567		 305.27265			43387.38302		65.24000		324.00000 
 43692.65567		 932.52561			42760.13006		220.08400		875.00000 
 43692.65567		 305.27265			43387.38302		65.24000		324.00000 
 43692.65567		 932.52561			42760.13006		220.08400		875.00000 
 43692.65567		 305.27265			43387.38302		65.24000		324.00000 
 43692.65567		 932.52561			42760.13006		220.08400		875.00000 
 43692.65567		 305.27265			43387.38302		65.24000		324.00000 
 43692.65567		 932.52561			42760.13006		220.08400		875.00000 
 43692.65567		 305.27265			43387.38302		65.24000		324.00000 
 43692.65567		 932.52561			42760.13006		220.08400		875.00000 
 43692.65567		 305.27265			43387.38302		65.24000		324.00000 
 43692.65567		 932.52561			42760.13006		220.08400		875.00000 
 43692.65567		 305.27265			43387.38302		65.24000		324.00000 
 43692.65567		 932.52561			42760.13006		220.08400		875.00000 
 43692.65567		 305.27265			43387.38302		65.24000		324.00000 
 43692.65567		 932.52561			42760.13006		220.08400		875.00000 
 43692.65567		 305.27265			43387.38302		65.24000		324.00000 
 43692.65567		 932.52561			42760.13006		220.08400		875.00000 
 43692.65567		 305.27265			43387.38302		65.24000		324.00000 
 43692.65567		 932.52561			42760.13006		220.08400		875.00000 
 43692.65567		 305.27265			43387.38302		65.24000		324.00000 
 43692.65567		 932.52561			42760.13006		220.08400		875.00000 
 43692.65567		 305.27265			43387.38302		65.24000		324.00000 
 43692.65567		 932.52561			42760.13006		220.08400		875.00000 
 43692.65567		 305.27265			43387.38302		65.24000		324.00000 
 43692.65567		 932.52561			42760.13006		220.08400		875.00000 
 43692.65567		 305.27265			43387.38302		65.24000		324.00000 
 43692.65567		 932.52561			42760.13006		220.08400		875.00000 
 43692.65567		 305.27265			43387.38302		65.24000		324.00000 
 43692.65567		 932.52561			42760.13006		220.08400		875.00000 
 43692.65567		 305.27265			43387.38302		65.24000		324.00000 
 43692.65567		 932.52561			42760.13006		220.08400		875.00000 
 43692.65567		 305.27265			43387.38302		65.24000		324.00000 
 43692.65567		 932.52561			42760.13006		220.08400		875.00000 
 43692.65567		 305.27265			43387.38302		65.24000		324.00000 
 43692.65567		 932.52561			42760.13006		220.08400		875.00000 
 43692.65567		 305.27265			43387.38302		65.24000		324.00000 
 43692.65567		 932.52561			42760.13006		220.08400		875.00000 
 43692.65567		 305.27265			43387.38302		65.24000		324.00000 
 43692.65567		 932.52561			42760.13006		220.08400		875.00000 
 43692.65567		 305.27265			43387.38302		65.24000		324.00000 
 43692.65567		 932.52561			42760.13006		220.08400		875.00000 
 43692.65567		 305.27265			43387.38302		65.24000		324.00000 
 43692.65567		 932.52561			42760.13006		220.08400		875.00000 
 43692.65567		 305.27265			43387.38302		65.24000		324.00000 
 43692.65567		 932.52561			42760.13006		220.08400		875.00000 
 43692.65567		 305.27265			43387.38302		65.24000		324.00000 
 43692.65567		 932.52561			42760.13006		220.08400		875.00000 
 43692.65567		 305.27265			43387.38302		65.24000		324.00000 
 43692.65567		 932.52561			42760.13006		220.08400		875.00000 
 43692.65567		 305.27265			43387.38302		65.24000		324.00000 
 43692.65567		 932.52561			42760.13006		220.08400		875.00000 
 43692.65567		 305.27265			43387.38302		65.24000		324.00000 
 43692.65567		 932.52561			42760.13006		220.08400		875.00000 
 43692.65567		 305.27265			43387.38302		65.24000		324.00000 
 43692.65567		 932.52561			42760.13006		220.08400		875.00000 
 43692.65567		 305.27265			43387.38302		65.24000		324.00000 
 43692.65567		 932.52561			42760.13006		220.08400		875.00000 
 43692.65567		 305.27265			43387.38302		65.24000		324.00000 
 43692.65567		 932.52561			42760.13006		220.08400		875.00000 
 43692.65567		 305.27265			43387.38302		65.24000		324.00000 
 43692.65567		 932.52561			42760.13006		220.86200		875.00000 
 43692.65567		 305.27265			43387.38302		65.24000		324.00000 
 43692.65567		 932.52561			42760.13006		220.86200		875.00000 
 43692.65567		 305.27265			43387.38302		65.24000		324.00000 
 43692.65567		 932.52561			42760.13006		220.86200		875.00000 
 43692.65567		 305.27265			43387.38302		65.24000		324.00000 
 43692.65567		 932.52561			42760.13006		220.86200		875.00000 
 43692.65567		 305.27265			43387.38302		65.24000		324.00000 
 43692.65567		 932.52561			42760.13006		220.86200		875.00000 
 43692.65567		 305.27265			43387.38302		65.24000		324.00000 
 43692.65567		 932.52561			42760.13006		220.86200		875.00000 
 43692.65567		 305.27265			43387.38302		65.24000		324.00000 
 43692.65567		 932.52561			42760.13006		220.86200		875.00000 
 43692.65567		 305.27265			43387.38302		65.24000		324.00000 
 43692.65567		 932.52561			42760.13006		220.86200		875.00000 
 43692.65567		 305.27265			43387.38302		65.24000		324.00000 
 43692.65567		 932.52561			42760.13006		220.86200		875.00000 
 43692.65567		 305.27265			43387.38302		65.24000		324.00000 
 43692.65567		 932.52561			42760.13006		220.86200		875.00000 
 43692.65567		 305.27265			43387.38302		65.24000		324.00000 
 43692.65567		 932.52561			42760.13006		220.86200		875.00000 
 43692.65567		 305.27265			43387.38302		65.24000		324.00000 
 43692.65567		 932.52561			42760.13006		220.86200		875.00000 
 43692.65567		 305.27265			43387.38302		65.24000		324.00000 
 43692.65567		 932.52561			42760.13006		220.86200		875.00000 
 43692.65567		 305.27265			43387.38302		65.24000		324.00000 
 43692.65567		 932.52561			42760.13006		220.86200		875.00000 
 43692.65567		 305.27265			43387.38302		65.24000		324.00000 
 43692.65567		 932.52561			42760.13006		220.86200		875.00000 
 43692.65567		 305.27265			43387.38302		65.24000		324.00000 
 43692.65567		 932.52561			42760.13006		220.86200		875.00000 
 43692.65567		 305.27265			43387.38302		65.24000		324.00000 
 43692.65567		 932.52561			42760.13006		220.86200		875.00000 
 43692.65567		 305.27265			43387.38302		65.24000		324.00000 
 43692.65567		 932.52561			42760.13006		220.86200		875.00000 
 43692.65567		 305.27265			43387.38302		65.24000		324.00000 
 43692.65567		 932.52561			42760.13006		220.86200		875.00000 
 43692.65567		 305.27265			43387.38302		65.24000		324.00000 
 43692.65567		 932.52561			42760.13006		220.86200		875.00000 
 43692.65567		 305.27265			43387.38302		65.24000		324.00000 
 43692.65567		 932.52561			42760.13006		220.86200		875.00000 
 43692.65567		 305.27265			43387.38302		65.24000		324.00000 
 43692.65567		 932.52561			42760.13006		220.86200		875.00000 
 43692.65567		 305.27265			43387.38302		65.24000		324.00000 
 43692.65567		 932.52561			42760.13006		220.86200		875.00000 
 43692.65567		 305.27265			43387.38302		65.24000		324.00000 
 43692.65567		 932.52561			42760.13006		220.86200		875.00000 
 43692.65567		 305.27265			43387.38302		65.24000		324.00000 
 43692.65567		 932.52561			42760.13006		220.86200		875.00000 
 43692.65567		 305.27265			43387.38302		65.24000		324.00000 
 43692.65567		 932.52561			42760.13006		220.86200		875.00000 
 43692.65567		 305.27265			43387.38302		65.24000		324.00000 
 43692.65567		 932.52561			42760.13006		220.86200		875.00000 
 43692.65567		 305.27265			43387.38302		65.24000		324.00000 
 43692.65567		 932.52561			42760.13006		220.86200		875.00000 
 43692.65567		 305.27265			43387.38302		65.24000		324.00000 
 43692.65567		 932.52561			42760.13006		220.86200		875.00000 
 43692.65567		 305.27265			43387.38302		65.24000		324.00000 
 43692.65567		 932.52561			42760.13006		220.86200		875.00000 
 43692.65567		 305.27265			43387.38302		65.24000		324.00000 
 43692.65567		 932.52561			42760.13006		220.86200		875.00000 
 43692.65567		 305.27265			43387.38302		65.24000		324.00000 
 43692.65567		 932.52561			42760.13006		220.86200		875.00000 
 43692.65567		 305.27265			43387.38302		65.24000		324.00000 
 43692.65567		 932.52561			42760.13006		220.86200		875.00000 
 43692.65567		 305.27265			43387.38302		65.24000		324.00000 
 43692.65567		 932.52561			42760.13006		220.86200		875.00000 
 43692.65567		 305.27265			43387.38302		65.24000		324.00000 
 43692.65567		 932.52561			42760.13006		220.86200		875.00000 
 43692.65567		 305.27265			43387.38302		65.24000		324.00000 
 43692.65567		 932.52561			42760.13006		220.86200		875.00000 
 43692.65567		 305.27265			43387.38302		65.24000		324.00000 
 43692.65567		 932.52561			42760.13006		220.86200		875.00000 
 43692.65567		 305.27265			43387.38302		65.24000		324.00000 
 43692.65567		 932.52561			42760.13006		220.86200		875.00000 
 43692.65567		 305.27265			43387.38302		65.24000		324.00000 
 43692.65567		 932.52561			42760.13006		220.86200		875.00000 
 43692.65567		 305.27265			43387.38302		65.24000		324.00000 
 43692.65567		 932.52561			42760.13006		220.86200		875.00000 
 43692.65567		 305.27265			43387.38302		65.24000		324.00000 
 43692.65567		 932.52561			42760.13006		220.86200		875.00000 
 43692.65567		 305.27265			43387.38302		65.24000		324.00000 
 43692.65567		 932.52561			42760.13006		220.86200		875.00000 
 43692.65567		 305.27265			43387.38302		65.24000		324.00000 
 43692.65567		 932.52561			42760.13006		220.86200		875.00000 
 43692.65567		 305.27265			43387.38302		65.24000		324.00000 
 43692.65567		 932.52561			42760.13006		220.86200		875.00000 
 43692.65567		 305.27265			43387.38302		65.24000		324.00000 
 43692.65567		 932.52561			42760.13006		220.86200		875.00000 
 43692.65567		 305.27265			43387.38302		65.24000		324.00000 
 43692.65567		 932.52561			42760.13006		220.86200		875.00000 
 43692.65567		 305.27265			43387.38302		65.24000		324.00000 
 43692.65567		 932.52561			42760.13006		220.86200		875.00000 
 43692.65567		 305.27265			43387.38302		65.24000		324.00000 
 43692.65567		 932.52561			42760.13006		220.86200		875.00000 
 43692.65567		 305.27265			43387.38302		65.24000		324.00000 
 43692.65567		 932.52561			42760.13006		220.86200		875.00000 
 43692.65567		 305.27265			43387.38302		65.24000		324.00000 
 43692.65567		 932.52561			42760.13006		220.86200		875.00000 
 43692.65567		 305.27265			43387.38302		65.24000		324.00000 
 43692.65567		 932.52561			42760.13006		220.86200		875.00000 
 43692.65567		 305.27265			43387.38302		65.24000		324.00000 
 43692.65567		 932.52561			42760.13006		220.86200		875.00000 
 43692.65567		 305.27265			43387.38302		65.24000		324.00000 
 43692.65567		 932.52561			42760.13006		220.86200		875.00000 
 43692.65567		 305.27265			43387.38302		65.24000		324.00000 
 43692.65567		 932.52561			42760.13006		220.86200		875.00000 
 43692.65567		 305.27265			43387.38302		65.24000		324.00000 
 43692.65567		 932.52561			42760.13006		220.86200		875.00000 
 43692.65567		 305.27265			43387.38302		65.24000		324.00000 
 43692.65567		 932.52561			42760.13006		220.86200		875.00000 
 43692.65567		 305.27265			43387.38302		65.24000		324.00000 
 43692.65567		 932.52561			42760.13006		220.86200		875.00000 
 43692.65567		 305.27265			43387.38302		65.24000		324.00000 
 43692.65567		 932.52561			42760.13006		220.86200		875.00000 
 43692.65567		 305.27265			43387.38302		65.24000		324.00000 
 43692.65567		 932.52561			42760.13006		220.86200		875.00000 
 43692.65567		 305.27265			43387.38302		65.24000		324.00000 
 43692.65567		 932.52561			42760.13006		220.86200		875.00000 
 43692.65567		 305.27265			43387.38302		65.24000		324.00000 
 43692.65567		 932.52561			42760.13006		220.86200		875.00000 
 43692.65567		 305.27265			43387.38302		65.24000		324.00000 
 43692.65567		 932.52561			42760.13006		220.86200		875.00000 
 43692.65567		 305.27265			43387.38302		65.24000		324.00000 
 43692.65567		 932.52561			42760.13006		220.86200		875.00000 
 43692.65567		 305.27265			43387.38302		65.24000		324.00000 
 43692.65567		 932.52561			42760.13006		220.86200		875.00000 
 43692.65567		 305.27265			43387.38302		65.24000		324.00000 
 43692.65567		 932.52561			42760.13006		220.86200		875.00000 
 43692.65567		 305.27265			43387.38302		65.24000		324.00000 
 43692.65567		 932.52561			42760.13006		220.86200		875.00000 
 43692.65567		 305.27265			43387.38302		65.24000		324.00000 
 43692.65567		 932.52561			42760.13006		220.86200		875.00000 
 43692.65567		 305.27265			43387.38302		65.24000		324.00000 
 43692.65567		 932.52561			42760.13006		220.86200		875.00000 
 43692.65567		 305.27265			43387.38302		65.24000		324.00000 
 43692.65567		 932.52561			42760.13006		220.86200		875.00000 
 43692.65567		 305.27265			43387.38302		65.24000		324.00000 
 43692.65567		 932.52561			42760.13006		220.86200		875.00000 
 43692.65567		 305.27265			43387.38302		65.24000		324.00000 
 43692.65567		 932.52561			42760.13006		220.86200		875.00000 
 43692.65567		 305.27265			43387.38302		65.24000		324.00000 
 43692.65567		 932.52561			42760.13006		220.86200		875.00000 
 43692.65567		 305.27265			43387.38302		65.24000		324.00000 
 43692.65567		 932.52561			42760.13006		220.86200		875.00000 
 43692.65567		 305.27265			43387.38302		65.24000		324.00000 
 43692.65567		 932.52561			42760.13006		220.86200		875.00000 
 43692.65567		 305.27265			43387.38302		65.24000		324.00000 
 43692.65567		 932.52561			42760.13006		220.86200		875.00000 
 43692.65567		 305.27265			43387.38302		65.24000		324.00000 
 43692.65567		 932.52561			42760.13006		220.86200		875.00000 
 43692.65567		 305.27265			43387.38302		65.24000		324.00000 
 43692.65567		 932.52561			42760.13006		220.86200		875.00000 
 43692.65567		 305.27265			43387.38302		65.24000		324.00000 
 43692.65567		 932.52561			42760.13006		220.86200		875.00000 
 43692.65567		 305.27265			43387.38302		65.24000		324.00000 
 43692.65567		 932.52561			42760.13006		220.86200		875.00000 
 43692.65567		 305.27265			43387.38302		65.24000		324.00000 
 43692.65567		 932.52561			42760.13006		220.86200		875.00000 
 43692.65567		 305.27265			43387.38302		65.24000		324.00000 
 43692.65567		 932.52561			42760.13006		220.86200		875.00000 
 43692.65567		 305.27265			43387.38302		65.24000		324.00000 
 43692.65567		 932.52561			42760.13006		220.86200		875.00000 
 43692.65567		 305.27265			43387.38302		65.24000		324.00000 
 43692.65567		 932.52561			42760.13006		220.86200		875.00000 
 43692.65567		 305.27265			43387.38302		65.24000		324.00000 
 43692.65567		 932.52561			42760.13006		220.86200		875.00000 
 43692.65567		 305.27265			43387.38302		65.24000		324.00000 
 43692.65567		 932.52561			42760.13006		220.86200		875.00000 
 43692.65567		 305.27265			43387.38302		65.24000		324.00000 
 43692.65567		 932.52561			42760.13006		220.86200		875.00000 
 43692.65567		 305.27265			43387.38302		65.24000		324.00000 
 43692.65567		 932.52561			42760.13006		220.86200		875.00000 
 43692.65567		 305.27265			43387.38302		65.24000		324.00000 
 43692.65567		 932.52561			42760.13006		220.86200		875.00000 
 43692.65567		 305.27265			43387.38302		65.24000		324.00000 
 43692.65567		 932.52561			42760.13006		220.86200		875.00000 
 43692.65567		 305.27265			43387.38302		65.24000		324.00000 
 43692.65567		 932.52561			42760.13006		220.86200		875.00000 
 43692.65567		 305.27265			43387.38302		65.24000		324.00000 
 43692.65567		 932.52561			42760.13006		220.86200		875.00000 
 43692.65567		 305.27265			43387.38302		65.24000		324.00000 
 43692.65567		 932.52561			42760.13006		220.86200		875.00000 
 43692.65567		 305.27265			43387.38302		65.24000		324.00000 
 43692.65567		 932.52561			42760.13006		220.86200		875.00000 
 43692.65567		 305.27265			43387.38302		65.24000		324.00000 
 43692.65567		 932.52561			42760.13006		220.86200		875.00000 
 43692.65567		 305.27265			43387.38302		65.24000		324.00000 
 43692.65567		 932.52561			42760.13006		220.86200		875.00000 
 43692.65567		 305.27265			43387.38302		65.24000		324.00000 
 43692.65567		 932.52561			42760.13006		220.86200		875.00000 
 43692.65567		 305.27265			43387.38302		65.24000		324.00000 
 43692.65567		 932.52561			42760.13006		220.86200		875.00000 
 43692.65567		 305.27265			43387.38302		65.24000		324.00000 
 43692.65567		 932.52561			42760.13006		220.86200		875.00000 
 43692.65567		 305.27265			43387.38302		65.24000		324.00000 
 43692.65567		 932.52561			42760.13006		220.86200		875.00000 
 43692.65567		 305.27265			43387.38302		65.24000		324.00000 
 43692.65567		 932.52561			42760.13006		220.86200		875.00000 
 43692.65567		 305.27265			43387.38302		65.24000		324.00000 
 43692.65567		 932.52561			42760.13006		220.86200		875.00000 
 43692.65567		 305.27265			43387.38302		65.24000		324.00000 
 43692.65567		 932.52561			42760.13006		220.86200		875.00000 
 43692.65567		 305.27265			43387.38302		65.24000		324.00000 
 43692.65567		 932.52561			42760.13006		220.86200		875.00000 
 43692.65567		 305.27265			43387.38302		65.24000		324.00000 
 43692.65567		 932.52561			42760.13006		220.86200		875.00000 
 43692.65567		 305.27265			43387.38302		65.24000		324.00000 
 43692.65567		 932.52561			42760.13006		220.86200		875.00000 
 43692.65567		 305.27265			43387.38302		65.24000		324.00000 
 43692.65567		 932.52561			42760.13006		220.86200		875.00000 
 43692.65567		 305.27265			43387.38302		65.24000		324.00000 
 43692.65567		 932.52561			42760.13006		220.86200		875.00000 
 43692.65567		 305.27265			43387.38302		65.24000		324.00000 
 43692.65567		 932.52561			42760.13006		220.86200		875.00000 
 43692.65567		 305.27265			43387.38302		65.24000		324.00000 
 43692.65567		 932.52561			42760.13006		220.86200		875.00000 
 43692.65567		 305.27265			43387.38302		65.24000		324.00000 
 43692.65567		 932.52561			42760.13006		220.86200		875.00000 
 43692.65567		 305.27265			43387.38302		65.24000		324.00000 
 43692.65567		 932.52561			42760.13006		220.86200		875.00000 
 43692.65567		 305.27265			43387.38302		65.24000		324.00000 
 43692.65567		 932.52561			42760.13006		220.86200		875.00000 
 43692.65567		 305.27265			43387.38302		65.24000		324.00000 
 43692.65567		 932.52561			42760.13006		220.86200		875.00000 
 43692.65567		 305.27265			43387.38302		65.24000		324.00000 
 43692.65567		 932.52561			42760.13006		220.86200		875.00000 
 43692.65567		 305.27265			43387.38302		65.24000		324.00000 
 43692.65567		 932.52561			42760.13006		220.86200		875.00000 
 43692.65567		 305.27265			43387.38302		65.24000		324.00000 
 43692.65567		 932.52561			42760.13006		220.86200		875.00000 
 43692.65567		 305.27265			43387.38302		65.24000		324.00000 
 43692.65567		 932.52561			42760.13006		220.86200		875.00000 
 43692.65567		 305.27265			43387.38302		65.24000		324.00000 
 43692.65567		 932.52561			42760.13006		220.86200		875.00000 
 43692.65567		 305.27265			43387.38302		65.24000		324.00000 
 43692.65567		 932.52561			42760.13006		220.86200		875.00000 
 43692.65567		 305.27265			43387.38302		65.24000		324.00000 
 43692.65567		 932.52561			42760.13006		220.86200		875.00000 
 43692.65567		 305.27265			43387.38302		65.24000		324.00000 
 43692.65567		 932.52561			42760.13006		220.86200		875.00000 
 43692.65567		 305.27265			43387.38302		65.24000		324.00000 
 43692.65567		 932.52561			42760.13006		220.86200		875.00000 
 43692.65567		 305.27265			43387.38302		65.24000		324.00000 
 43692.65567		 932.52561			42760.13006		220.86200		875.00000 
 43692.65567		 305.27265			43387.38302		65.24000		324.00000 
 43692.65567		 932.52561			42760.13006		220.86200		875.00000 
 43692.65567		 305.27265			43387.38302		65.24000		324.00000 
 43692.65567		 932.52561			42760.13006		220.86200		875.00000 
 43692.65567		 305.27265			43387.38302		65.24000		324.00000 
 43692.65567		 932.52561			42760.13006		220.86200		875.00000 
 43692.65567		 305.27265			43387.38302		65.24000		324.00000 
 43692.65567		 932.52561			42760.13006		220.86200		875.00000 
 43692.65567		 305.27265			43387.38302		65.24000		324.00000 
 43692.65567		 932.52561			42760.13006		220.86200		875.00000 
 43692.65567		 305.27265			43387.38302		65.24000		324.00000 
 43692.65567		 932.52561			42760.13006		220.26200		875.00000 
 43692.65567		 305.27265			43387.38302		65.24000		324.00000 
 43692.65567		 932.52561			42760.13006		220.26200		875.00000 
 43692.65567		 305.27265			43387.38302		65.24000		324.00000 
 43692.65567		 932.52561			42760.13006		220.26200		875.00000 
 43692.65567		 305.27265			43387.38302		65.24000		324.00000 
 43692.65567		 932.52561			42760.13006		220.26200		875.00000 
 43692.65567		 305.27265			43387.38302		65.24000		324.00000 
 43692.65567		 932.52561			42760.13006		220.26200		875.00000 
 43692.65567		 305.27265			43387.38302		65.24000		324.00000 
 43692.65567		 932.52561			42760.13006		220.26200		875.00000 
 43692.65567		 305.27265			43387.38302		65.24000		324.00000 
 43692.65567		 932.52561			42760.13006		220.26200		875.00000 
 43692.65567		 305.27265			43387.38302		65.24000		324.00000 
 43692.65567		 932.52561			42760.13006		220.26200		875.00000 
 43692.65567		 305.27265			43387.38302		65.24000		324.00000 
 43692.65567		 932.52561			42760.13006		220.26200		875.00000 
 43692.65567		 305.27265			43387.38302		65.24000		324.00000 
 43692.65567		 932.52561			42760.13006		220.26200		875.00000 
 43692.65567		 305.27265			43387.38302		65.24000		324.00000 
 43692.65567		 932.52561			42760.13006		220.26200		875.00000 
 43692.65567		 305.27265			43387.38302		65.24000		324.00000 
 43692.65567		 932.52561			42760.13006		220.26200		875.00000 
 43692.65567		 305.27265			43387.38302		65.24000		324.00000 
 43692.65567		 932.52561			42760.13006		220.26200		875.00000 
 43692.65567		 305.27265			43387.38302		65.24000		324.00000 
 43692.65567		 932.52561			42760.13006		220.26200		875.00000 
 43692.65567		 305.27265			43387.38302		65.24000		324.00000 
 43692.65567		 932.52561			42760.13006		220.26200		875.00000 
 43692.65567		 305.27265			43387.38302		65.24000		324.00000 
 43692.65567		 932.52561			42760.13006		220.26200		875.00000 
 43692.65567		 305.27265			43387.38302		65.24000		324.00000 
 43692.65567		 932.52561			42760.13006		220.26200		875.00000 
 43692.65567		 305.27265			43387.38302		65.24000		324.00000 
 43692.65567		 932.52561			42760.13006		220.26200		875.00000 
 43692.65567		 305.27265			43387.38302		65.24000		324.00000 
 43692.65567		 932.52561			42760.13006		220.26200		875.00000 
 43692.65567		 305.27265			43387.38302		65.24000		324.00000 
 43692.65567		 932.52561			42760.13006		220.26200		875.00000 
 43692.65567		 305.27265			43387.38302		65.24000		324.00000 
 43692.65567		 932.52561			42760.13006		220.26200		875.00000 
 43692.65567		 305.27265			43387.38302		65.24000		324.00000 
 43692.65567		 932.52561			42760.13006		220.26200		875.00000 
 43692.65567		 305.27265			43387.38302		65.24000		324.00000 
 43692.65567		 932.52561			42760.13006		220.26200		875.00000 
 43692.65567		 305.27265			43387.38302		65.24000		324.00000 
 43692.65567		 932.52561			42760.13006		220.26200		875.00000 
 43692.65567		 305.27265			43387.38302		65.24000		324.00000 
 43692.65567		 932.52561			42760.13006		220.26200		875.00000 
 43692.65567		 305.27265			43387.38302		65.24000		324.00000 
 43692.65567		 932.52561			42760.13006		220.26200		875.00000 
 43692.65567		 305.27265			43387.38302		65.24000		324.00000 
 43692.65567		 932.52561			42760.13006		220.26200		875.00000 
 43692.65567		 305.27265			43387.38302		65.24000		324.00000 
 43692.65567		 932.52561			42760.13006		220.26200		875.00000 
 43692.65567		 305.27265			43387.38302		65.24000		324.00000 
 43692.65567		 932.52561			42760.13006		220.26200		875.00000 
 43692.65567		 305.27265			43387.38302		65.24000		324.00000 
 43692.65567		 932.52561			42760.13006		220.26200		875.00000 
 43692.65567		 305.27265			43387.38302		65.24000		324.00000 
 43692.65567		 932.52561			42760.13006		220.26200		875.00000 
 43692.65567		 305.27265			43387.38302		65.24000		324.00000 
 43692.65567		 932.52561			42760.13006		220.26200		875.00000 
 43692.65567		 305.27265			43387.38302		65.24000		324.00000 
 43692.65567		 932.52561			42760.13006		220.26200		875.00000 
 43692.65567		 305.27265			43387.38302		65.24000		324.00000 
 43692.65567		 932.52561			42760.13006		220.26200		875.00000 
 43692.65567		 305.27265			43387.38302		65.24000		324.00000 
 43692.65567		 932.52561			42760.13006		220.26200		875.00000 
 43692.65567		 305.27265			43387.38302		65.24000		324.00000 
 43692.65567		 932.52561			42760.13006		220.26200		875.00000 
 43692.65567		 305.27265			43387.38302		65.24000		324.00000 
 43692.65567		 932.52561			42760.13006		220.26200		875.00000 
 43692.65567		 305.27265			43387.38302		65.24000		324.00000 
 43692.65567		 932.52561			42760.13006		220.26200		875.00000 
 43692.65567		 305.27265			43387.38302		65.24000		324.00000 
 43692.65567		 932.52561			42760.13006		220.26200		875.00000 
 43692.65567		 305.27265			43387.38302		65.24000		324.00000 
 43692.65567		 932.52561			42760.13006		220.26200		875.00000 
 43692.65567		 305.27265			43387.38302		70.74000		324.00000 
 43692.65567		 932.52561			42760.13006		220.26200		875.00000 
 43692.65567		 305.27265			43387.38302		70.74000		324.00000 
 43692.65567		 932.52561			42760.13006		220.26200		875.00000 
 43692.65567		 305.27265			43387.38302		70.74000		324.00000 
 43692.65567		 932.52561			42760.13006		220.26200		875.00000 
 43692.65567		 305.27265			43387.38302		70.74000		324.00000 
 43692.65567		 932.52561			42760.13006		220.26200		875.00000 
 43692.65567		 305.27265			43387.38302		70.74000		324.00000 
 43692.65567		 932.52561			42760.13006		220.26200		875.00000 
 43692.65567		 305.27265			43387.38302		70.74000		324.00000 
 43692.65567		 932.52561			42760.13006		220.26200		875.00000 
 43692.65567		 305.27265			43387.38302		70.74000		324.00000 
 43692.65567		 932.52561			42760.13006		220.26200		875.00000 
 43692.65567		 305.27265			43387.38302		70.74000		324.00000 
 43692.65567		 932.52561			42760.13006		220.26200		875.00000 
 43692.65567		 305.27265			43387.38302		70.74000		324.00000 
 43692.65567		 932.52561			42760.13006		220.26200		875.00000 
 43692.65567		 305.27265			43387.38302		70.74000		324.00000 
 43692.65567		 932.52561			42760.13006		220.26200		875.00000 
 43692.65567		 305.27265			43387.38302		70.74000		324.00000 
 43692.65567		 932.52561			42760.13006		220.26200		875.00000 
 43692.65567		 305.27265			43387.38302		70.74000		324.00000 
 43692.65567		 932.52561			42760.13006		220.26200		875.00000 
 43692.65567		 305.27265			43387.38302		70.74000		324.00000 
 43692.65567		 932.52561			42760.13006		220.26200		875.00000 
 43692.65567		 305.27265			43387.38302		70.74000		324.00000 
 43692.65567		 932.52561			42760.13006		220.26200		875.00000 
 43692.65567		 305.27265			43387.38302		70.74000		324.00000 
 43692.65567		 932.52561			42760.13006		220.26200		875.00000 
 43692.65567		 305.27265			43387.38302		70.74000		324.00000 
 43692.65567		 932.52561			42760.13006		220.26200		875.00000 
 43692.65567		 305.27265			43387.38302		70.74000		324.00000 
 43692.65567		 932.52561			42760.13006		220.26200		875.00000 
 43692.65567		 305.27265			43387.38302		70.74000		324.00000 
 43692.65567		 932.52561			42760.13006		220.26200		875.00000 
 43692.65567		 305.27265			43387.38302		70.74000		324.00000 
 43692.65567		 932.52561			42760.13006		220.26200		875.00000 
 43692.65567		 305.27265			43387.38302		70.74000		324.00000 
 43692.65567		 932.52561			42760.13006		220.26200		875.00000 
 43692.65567		 305.27265			43387.38302		70.74000		324.00000 
 43692.65567		 932.52561			42760.13006		220.26200		875.00000 
 43692.65567		 305.27265			43387.38302		70.74000		324.00000 
 43692.65567		 932.52561			42760.13006		220.86200		875.00000 
 43692.65567		 305.27265			43387.38302		70.74000		324.00000 
 43692.65567		 932.52561			42760.13006		220.86200		875.00000 
 43692.65567		 305.27265			43387.38302		70.74000		324.00000 
 43692.65567		 932.52561			42760.13006		220.86200		875.00000 
 43692.65567		 305.27265			43387.38302		70.74000		324.00000 
 43692.65567		 932.52561			42760.13006		220.86200		875.00000 
 43692.65567		 305.27265			43387.38302		70.74000		324.00000 
 43692.65567		 932.52561			42760.13006		220.86200		875.00000 
 43692.65567		 305.27265			43387.38302		70.74000		324.00000 
 43692.65567		 932.52561			42760.13006		220.86200		875.00000 
 43692.65567		 305.27265			43387.38302		70.74000		324.00000 
 43692.65567		 932.52561			42760.13006		220.86200		875.00000 
 43692.65567		 305.27265			43387.38302		70.74000		324.00000 
 43692.65567		 932.52561			42760.13006		220.86200		875.00000 
 43692.65567		 305.27265			43387.38302		70.74000		324.00000 
 43692.65567		 932.52561			42760.13006		220.86200		875.00000 
 43692.65567		 305.27265			43387.38302		70.74000		324.00000 
 43692.65567		 932.52561			42760.13006		220.86200		875.00000 
 43692.65567		 305.27265			43387.38302		70.74000		324.00000 
 43692.65567		 932.52561			42760.13006		220.86200		875.00000 
 43692.65567		 305.27265			43387.38302		70.74000		324.00000 
 43692.65567		 932.52561			42760.13006		220.86200		875.00000 
 43692.65567		 305.27265			43387.38302		70.74000		324.00000 
 43692.65567		 932.52561			42760.13006		220.86200		875.00000 
 43692.65567		 305.27265			43387.38302		70.74000		324.00000 
 43692.65567		 932.52561			42760.13006		220.86200		875.00000 
 43692.65567		 305.27265			43387.38302		70.74000		324.00000 
 43692.65567		 932.52561			42760.13006		220.86200		875.00000 
 43692.65567		 305.27265			43387.38302		70.74000		324.00000 
 43692.65567		 932.52561			42760.13006		220.86200		875.00000 
 43692.65567		 305.27265			43387.38302		70.74000		324.00000 
 43692.65567		 932.52561			42760.13006		220.86200		875.00000 
 43692.65567		 305.27265			43387.38302		70.74000		324.00000 
 43692.65567		 932.52561			42760.13006		220.86200		875.00000 
 43692.65567		 305.27265			43387.38302		70.74000		324.00000 
 43692.65567		 932.52561			42760.13006		220.86200		875.00000 
 43692.65567		 305.27265			43387.38302		70.74000		324.00000 
 43692.65567		 932.52561			42760.13006		220.86200		875.00000 
 43692.65567		 305.27265			43387.38302		70.74000		324.00000 
 43692.65567		 932.52561			42760.13006		220.86200		875.00000 
 43692.65567		 305.27265			43387.38302		70.74000		324.00000 
 43692.65567		 932.52561			42760.13006		220.86200		875.00000 
 43692.65567		 305.27265			43387.38302		70.74000		324.00000 
 43692.65567		 932.52561			42760.13006		220.86200		875.00000 
 43692.65567		 305.27265			43387.38302		70.74000		324.00000 
 43692.65567		 932.52561			42760.13006		220.86200		875.00000 
 43692.65567		 305.27265			43387.38302		70.74000		324.00000 
 43692.65567		 932.52561			42760.13006		220.86200		875.00000 
 43692.65567		 305.27265			43387.38302		70.74000		324.00000 
 43692.65567		 932.52561			42760.13006		220.86200		875.00000 
 43692.65567		 305.27265			43387.38302		70.74000		324.00000 
 43692.65567		 932.52561			42760.13006		220.86200		875.00000 
 43692.65567		 305.27265			43387.38302		70.74000		324.00000 
 43692.65567		 932.52561			42760.13006		220.86200		875.00000 
 43692.65567		 305.27265			43387.38302		70.74000		324.00000 
 43692.65567		 932.52561			42760.13006		220.86200		875.00000 
 43692.65567		 305.27265			43387.38302		70.74000		324.00000 
 43692.65567		 932.52561			42760.13006		220.86200		875.00000 
 43692.65567		 305.27265			43387.38302		70.74000		324.00000 
 43692.65567		 932.52561			42760.13006		220.86200		875.00000 
 43692.65567		 305.27265			43387.38302		70.74000		324.00000 
 43692.65567		 932.52561			42760.13006		220.86200		875.00000 
 43692.65567		 305.27265			43387.38302		70.74000		324.00000 
 43692.65567		 932.52561			42760.13006		220.86200		875.00000 
 43692.65567		 305.27265			43387.38302		70.74000		324.00000 
 43692.65567		 932.52561			42760.13006		220.86200		875.00000 
 43692.65567		 305.27265			43387.38302		70.74000		324.00000 
 43692.65567		 932.52561			42760.13006		220.86200		875.00000 
 43692.65567		 305.27265			43387.38302		70.74000		324.00000 
 43692.65567		 932.52561			42760.13006		220.86200		875.00000 
 43692.65567		 305.27265			43387.38302		70.74000		324.00000 
 43692.65567		 932.52561			42760.13006		220.86200		875.00000 
 43692.65567		 305.27265			43387.38302		70.74000		324.00000 
 43692.65567		 932.52561			42760.13006		220.86200		875.00000 
 43692.65567		 305.27265			43387.38302		70.74000		324.00000 
 43692.65567		 932.52561			42760.13006		220.86200		875.00000 
 43692.65567		 305.27265			43387.38302		70.74000		324.00000 
 43692.65567		 932.52561			42760.13006		220.86200		875.00000 
 43692.65567		 305.27265			43387.38302		70.74000		324.00000 
 43692.65567		 932.52561			42760.13006		220.86200		875.00000 
 43692.65567		 305.27265			43387.38302		70.74000		324.00000 
 43692.65567		 932.52561			42760.13006		220.86200		875.00000 
 43692.65567		 305.27265			43387.38302		70.74000		324.00000 
 43692.65567		 932.52561			42760.13006		220.86200		875.00000 
 43692.65567		 305.27265			43387.38302		70.74000		324.00000 
 43692.65567		 932.52561			42760.13006		220.86200		875.00000 
 43692.65567		 305.27265			43387.38302		70.74000		324.00000 
 43692.65567		 932.52561			42760.13006		220.86200		875.00000 
 43692.65567		 305.27265			43387.38302		70.74000		324.00000 
 43692.65567		 932.52561			42760.13006		220.86200		875.00000 
 43692.65567		 305.27265			43387.38302		70.74000		324.00000 
 43692.65567		 932.52561			42760.13006		220.86200		875.00000 
 43692.65567		 305.27265			43387.38302		70.74000		324.00000 
 43692.65567		 932.52561			42760.13006		220.86200		875.00000 
 43692.65567		 305.27265			43387.38302		70.74000		324.00000 
 43692.65567		 932.52561			42760.13006		220.86200		875.00000 
 43692.65567		 305.27265			43387.38302		70.74000		324.00000 
 43692.65567		 932.52561			42760.13006		220.86200		875.00000 
 43692.65567		 305.27265			43387.38302		70.74000		324.00000 
 43692.65567		 932.52561			42760.13006		220.86200		875.00000 
 43692.65567		 305.27265			43387.38302		70.74000		324.00000 
 43692.65567		 932.52561			42760.13006		220.86200		875.00000 
 43692.65567		 305.27265			43387.38302		70.74000		324.00000 
 43692.65567		 932.52561			42760.13006		220.86200		875.00000 
 43692.65567		 305.27265			43387.38302		70.74000		324.00000 
 43692.65567		 932.52561			42760.13006		220.86200		875.00000 
 43692.65567		 305.27265			43387.38302		70.74000		324.00000 
 43692.65567		 932.52561			42760.13006		220.86200		875.00000 
 43692.65567		 305.27265			43387.38302		70.74000		324.00000 
 43692.65567		 932.52561			42760.13006		220.86200		875.00000 
 43692.65567		 305.27265			43387.38302		70.74000		324.00000 
 43692.65567		 932.52561			42760.13006		220.86200		875.00000 
 43692.65567		 305.27265			43387.38302		70.74000		324.00000 
 43692.65567		 932.52561			42760.13006		220.86200		875.00000 
 43692.65567		 305.27265			43387.38302		70.74000		324.00000 
 43692.65567		 932.52561			42760.13006		220.86200		875.00000 
 43692.65567		 305.27265			43387.38302		70.74000		324.00000 
 43692.65567		 932.52561			42760.13006		220.86200		875.00000 
 43692.65567		 305.27265			43387.38302		70.74000		324.00000 
 43692.65567		 932.52561			42760.13006		220.86200		875.00000 
 43692.65567		 305.27265			43387.38302		70.74000		324.00000 
 43692.65567		 932.52561			42760.13006		220.86200		875.00000 
 43692.65567		 305.27265			43387.38302		70.74000		324.00000 
 43692.65567		 932.52561			42760.13006		220.86200		875.00000 
 43692.65567		 305.27265			43387.38302		70.74000		324.00000 
 43692.65567		 932.52561			42760.13006		220.86200		875.00000 
 43692.65567		 305.27265			43387.38302		70.74000		324.00000 
 43692.65567		 932.52561			42760.13006		220.26200		875.00000 
 43692.65567		 305.27265			43387.38302		70.74000		324.00000 
 43692.65567		 932.52561			42760.13006		220.26200		875.00000 
 43692.65567		 305.27265			43387.38302		70.74000		324.00000 
 43692.65567		 932.52561			42760.13006		220.26200		875.00000 
 43692.65567		 305.27265			43387.38302		70.74000		324.00000 
 43692.65567		 932.52561			42760.13006		220.26200		875.00000 
 43692.65567		 305.27265			43387.38302		70.74000		324.00000 
 43692.65567		 932.52561			42760.13006		220.26200		875.00000 
 43692.65567		 305.27265			43387.38302		70.74000		324.00000 
 43692.65567		 932.52561			42760.13006		220.26200		875.00000 
 43692.65567		 305.27265			43387.38302		70.74000		324.00000 
 43692.65567		 932.52561			42760.13006		220.26200		875.00000 
 43692.65567		 305.27265			43387.38302		70.74000		324.00000 
 43692.65567		 932.52561			42760.13006		220.26200		875.00000 
 43692.65567		 305.27265			43387.38302		70.74000		324.00000 
 43692.65567		 932.52561			42760.13006		220.26200		875.00000 
 43692.65567		 305.27265			43387.38302		70.74000		324.00000 
 43692.65567		 932.52561			42760.13006		220.26200		875.00000 
 43692.65567		 305.27265			43387.38302		70.74000		324.00000 
 43692.65567		 932.52561			42760.13006		220.26200		875.00000 
 43692.65567		 305.27265			43387.38302		70.74000		324.00000 
 43692.65567		 932.52561			42760.13006		220.26200		875.00000 
 43692.65567		 305.27265			43387.38302		70.74000		324.00000 
 43692.65567		 932.52561			42760.13006		220.26200		875.00000 
 43692.65567		 305.27265			43387.38302		70.74000		324.00000 
 43692.65567		 932.52561			42760.13006		220.26200		875.00000 
 43692.65567		 305.27265			43387.38302		70.74000		324.00000 
 43692.65567		 932.52561			42760.13006		220.26200		875.00000 
 43692.65567		 305.27265			43387.38302		70.74000		324.00000 
 43692.65567		 932.52561			42760.13006		220.26200		875.00000 
 43692.65567		 305.27265			43387.38302		70.74000		324.00000 
 43692.65567		 932.52561			42760.13006		220.26200		875.00000 
 43692.65567		 305.27265			43387.38302		70.74000		324.00000 
 43692.65567		 932.52561			42760.13006		220.26200		875.00000 
 43692.65567		 305.27265			43387.38302		70.74000		324.00000 
 43692.65567		 932.52561			42760.13006		220.26200		875.00000 
 43692.65567		 305.27265			43387.38302		70.74000		324.00000 
 43692.65567		 932.52561			42760.13006		220.26200		875.00000 
 43692.65567		 305.27265			43387.38302		70.74000		324.00000 
 43692.65567		 932.52561			42760.13006		220.26200		875.00000 
 43692.65567		 305.27265			43387.38302		70.74000		324.00000 
 43692.65567		 932.52561			42760.13006		220.26200		875.00000 
 43692.65567		 305.27265			43387.38302		70.74000		324.00000 
 43692.65567		 932.52561			42760.13006		220.26200		875.00000 
 43692.65567		 305.27265			43387.38302		70.74000		324.00000 
 43692.65567		 932.52561			42760.13006		220.26200		875.00000 
 43692.65567		 305.27265			43387.38302		70.74000		324.00000 
 43692.65567		 932.52561			42760.13006		220.26200		875.00000 
 43692.65567		 305.27265			43387.38302		70.74000		324.00000 
 43692.65567		 932.52561			42760.13006		220.26200		875.00000 
 43692.65567		 305.27265			43387.38302		70.74000		324.00000 
 43692.65567		 932.52561			42760.13006		220.26200		875.00000 
 43692.65567		 305.27265			43387.38302		70.74000		324.00000 
 43692.65567		 932.52561			42760.13006		220.26200		875.00000 
 43692.65567		 305.27265			43387.38302		70.74000		324.00000 
 43692.65567		 932.52561			42760.13006		220.26200		875.00000 
 43692.65567		 305.27265			43387.38302		70.74000		324.00000 
 43692.65567		 932.52561			42760.13006		220.26200		875.00000 
 43692.65567		 305.27265			43387.38302		70.74000		324.00000 
 43692.65567		 932.52561			42760.13006		220.26200		875.00000 
 43692.65567		 305.27265			43387.38302		70.74000		324.00000 
 43692.65567		 932.52561			42760.13006		220.26200		875.00000 
 43692.65567		 305.27265			43387.38302		70.74000		324.00000 
 43692.65567		 932.52561			42760.13006		220.26200		875.00000 
 43692.65567		 305.27265			43387.38302		70.74000		324.00000 
 43692.65567		 932.52561			42760.13006		220.26200		875.00000 
 43692.65567		 305.27265			43387.38302		70.74000		324.00000 
 43692.65567		 932.52561			42760.13006		220.26200		875.00000 
 43692.65567		 305.27265			43387.38302		70.74000		324.00000 
 43692.65567		 932.52561			42760.13006		220.26200		875.00000 
 43692.65567		 305.27265			43387.38302		70.74000		324.00000 
 43692.65567		 932.52561			42760.13006		220.26200		875.00000 
 43692.65567		 305.27265			43387.38302		70.74000		324.00000 
 43692.65567		 932.52561			42760.13006		220.26200		875.00000 
 43692.65567		 305.27265			43387.38302		70.74000		324.00000 
 43692.65567		 932.52561			42760.13006		220.26200		875.00000 
 43692.65567		 305.27265			43387.38302		70.74000		324.00000 
 43692.65567		 932.52561			42760.13006		220.26200		875.00000 
 43692.65567		 305.27265			43387.38302		70.74000		324.00000 
 43692.65567		 932.52561			42760.13006		220.26200		875.00000 
 43692.65567		 305.27265			43387.38302		70.74000		324.00000 
 43692.65567		 932.52561			42760.13006		220.26200		875.00000 
 43692.65567		 305.27265			43387.38302		70.74000		324.00000 
 43692.65567		 932.52561			42760.13006		220.26200		875.00000 
 43692.65567		 305.27265			43387.38302		70.74000		324.00000 
 43692.65567		 932.52561			42760.13006		220.26200		875.00000 
 43692.65567		 305.27265			43387.38302		70.74000		324.00000 
 43692.65567		 932.52561			42760.13006		220.26200		875.00000 
 43692.65567		 305.27265			43387.38302		70.74000		324.00000 
 43692.65567		 932.52561			42760.13006		220.26200		875.00000 
 43692.65567		 305.27265			43387.38302		70.74000		324.00000 
 43692.65567		 932.52561			42760.13006		220.26200		875.00000 
 43692.65567		 305.27265			43387.38302		70.74000		324.00000 
 43692.65567		 932.52561			42760.13006		220.26200		875.00000 
 43692.65567		 305.27265			43387.38302		70.74000		324.00000 
 43692.65567		 932.52561			42760.13006		220.26200		875.00000 
 43692.65567		 305.27265			43387.38302		70.74000		324.00000 
 43692.65567		 932.52561			42760.13006		220.26200		875.00000 
 43692.65567		 305.27265			43387.38302		70.74000		324.00000 
 43692.65567		 932.52561			42760.13006		220.26200		875.00000 
 43692.65567		 305.27265			43387.38302		70.74000		324.00000 
 43692.65567		 932.52561			42760.13006		220.26200		875.00000 
 43692.65567		 305.27265			43387.38302		70.74000		324.00000 
 43692.65567		 932.52561			42760.13006		220.26200		875.00000 
 43692.65567		 305.27265			43387.38302		70.74000		324.00000 
 43692.65567		 932.52561			42760.13006		220.26200		875.00000 
 43692.65567		 305.27265			43387.38302		70.74000		324.00000 
 43692.65567		 932.52561			42760.13006		220.26200		875.00000 
 43692.65567		 305.27265			43387.38302		70.74000		324.00000 
 43692.65567		 932.52561			42760.13006		220.26200		875.00000 
 43692.65567		 305.27265			43387.38302		70.74000		324.00000 
 43692.65567		 932.52561			42760.13006		220.26200		875.00000 
 43692.65567		 305.27265			43387.38302		70.74000		324.00000 
 43692.65567		 932.52561			42760.13006		220.26200		875.00000 
 43692.65567		 305.27265			43387.38302		70.74000		324.00000 
 43692.65567		 932.52561			42760.13006		220.26200		875.00000 
 43692.65567		 305.27265			43387.38302		70.74000		324.00000 
 43692.65567		 932.52561			42760.13006		220.26200		875.00000 
 43692.65567		 305.27265			43387.38302		70.74000		324.00000 
 43692.65567		 932.52561			42760.13006		220.26200		875.00000 
 43692.65567		 305.27265			43387.38302		70.74000		324.00000 
 43692.65567		 932.52561			42760.13006		220.26200		875.00000 
 43692.65567		 305.27265			43387.38302		70.74000		324.00000 
 43692.65567		 932.52561			42760.13006		220.26200		875.00000 
 43692.65567		 305.27265			43387.38302		70.74000		324.00000 
 43692.65567		 932.52561			42760.13006		220.26200		875.00000 
 43692.65567		 305.27265			43387.38302		70.74000		324.00000 
 43692.65567		 932.52561			42760.13006		220.86200		875.00000 
 43692.65567		 305.27265			43387.38302		70.74000		324.00000 
 43692.65567		 932.52561			42760.13006		220.86200		875.00000 
 43692.65567		 305.27265			43387.38302		70.74000		324.00000 
 43692.65567		 932.52561			42760.13006		220.86200		875.00000 
 43692.65567		 305.27265			43387.38302		70.74000		324.00000 
 43692.65567		 932.52561			42760.13006		220.86200		875.00000 
 43692.65567		 305.27265			43387.38302		70.74000		324.00000 
 43692.65567		 932.52561			42760.13006		220.86200		875.00000 
 43692.65567		 305.27265			43387.38302		70.74000		324.00000 
 43692.65567		 932.52561			42760.13006		220.86200		875.00000 
 43692.65567		 305.27265			43387.38302		70.74000		324.00000 
 43692.65567		 932.52561			42760.13006		220.86200		875.00000 
 43692.65567		 305.27265			43387.38302		70.74000		324.00000 
 43692.65567		 932.52561			42760.13006		220.86200		875.00000 
 43692.65567		 305.27265			43387.38302		70.74000		324.00000 
 43692.65567		 932.52561			42760.13006		220.86200		875.00000 
 43692.65567		 305.27265			43387.38302		70.74000		324.00000 
 43692.65567		 932.52561			42760.13006		220.86200		875.00000 
 43692.65567		 305.27265			43387.38302		70.74000		324.00000 
 43692.65567		 932.52561			42760.13006		220.86200		875.00000 
 43692.65567		 305.27265			43387.38302		70.74000		324.00000 
 43692.65567		 932.52561			42760.13006		220.86200		875.00000 
 43692.65567		 305.27265			43387.38302		70.74000		324.00000 
 43692.65567		 932.52561			42760.13006		220.86200		875.00000 
 43692.65567		 305.27265			43387.38302		70.74000		324.00000 
 43692.65567		 932.52561			42760.13006		220.86200		875.00000 
 43692.65567		 305.27265			43387.38302		70.74000		324.00000 
 43692.65567		 932.52561			42760.13006		220.86200		875.00000 
 43692.65567		 305.27265			43387.38302		70.74000		324.00000 
 43692.65567		 932.52561			42760.13006		220.86200		875.00000 
 43692.65567		 305.27265			43387.38302		70.74000		324.00000 
 43692.65567		 932.52561			42760.13006		220.86200		875.00000 
 43692.65567		 305.27265			43387.38302		70.74000		324.00000 
 43692.65567		 932.52561			42760.13006		220.86200		875.00000 
 43692.65567		 305.27265			43387.38302		70.74000		324.00000 
 43692.65567		 932.52561			42760.13006		220.86200		875.00000 
 43692.65567		 305.27265			43387.38302		70.74000		324.00000 
 43692.65567		 932.52561			42760.13006		220.86200		875.00000 
 43692.65567		 305.27265			43387.38302		70.74000		324.00000 
 43692.65567		 932.52561			42760.13006		220.86200		875.00000 
 43692.65567		 305.27265			43387.38302		70.74000		324.00000 
 43692.65567		 932.52561			42760.13006		220.86200		875.00000 
 43692.65567		 305.27265			43387.38302		70.74000		324.00000 
 43692.65567		 932.52561			42760.13006		220.86200		875.00000 
 43692.65567		 305.27265			43387.38302		70.74000		324.00000 
 43692.65567		 932.52561			42760.13006		220.86200		875.00000 
 43692.65567		 305.27265			43387.38302		70.74000		324.00000 
 43692.65567		 932.52561			42760.13006		220.86200		875.00000 
 43692.65567		 305.27265			43387.38302		70.74000		324.00000 
 43692.65567		 932.52561			42760.13006		220.86200		875.00000 
 43692.65567		 305.27265			43387.38302		70.74000		324.00000 
 43692.65567		 932.52561			42760.13006		220.86200		875.00000 
 43692.65567		 305.27265			43387.38302		70.74000		324.00000 
 43692.65567		 932.52561			42760.13006		220.86200		875.00000 
 43692.65567		 305.27265			43387.38302		70.74000		324.00000 
 43692.65567		 932.52561			42760.13006		220.86200		875.00000 
 43692.65567		 305.27265			43387.38302		70.74000		324.00000 
 43692.65567		 932.52561			42760.13006		220.86200		875.00000 
 43692.65567		 305.27265			43387.38302		70.74000		324.00000 
 43692.65567		 932.52561			42760.13006		220.86200		875.00000 
 43692.65567		 305.27265			43387.38302		70.74000		324.00000 
 43692.65567		 932.52561			42760.13006		220.86200		875.00000 
 43692.65567		 305.27265			43387.38302		70.74000		324.00000 
 43692.65567		 932.52561			42760.13006		220.86200		875.00000 
 43692.65567		 305.27265			43387.38302		70.74000		324.00000 
 43692.65567		 932.52561			42760.13006		220.86200		875.00000 
 43692.65567		 305.27265			43387.38302		70.74000		324.00000 
 43692.65567		 932.52561			42760.13006		220.86200		875.00000 
 43692.65567		 305.27265			43387.38302		70.74000		324.00000 
 43692.65567		 932.52561			42760.13006		220.86200		875.00000 
 43692.65567		 305.27265			43387.38302		70.74000		324.00000 
 43692.65567		 932.52561			42760.13006		220.86200		875.00000 
 43692.65567		 305.27265			43387.38302		70.74000		324.00000 
 43692.65567		 932.52561			42760.13006		220.86200		875.00000 
 43692.65567		 305.27265			43387.38302		70.74000		324.00000 
 43692.65567		 932.52561			42760.13006		220.86200		875.00000 
 43692.65567		 305.27265			43387.38302		70.74000		324.00000 
 43692.65567		 932.52561			42760.13006		220.86200		875.00000 
 43692.65567		 305.27265			43387.38302		70.74000		324.00000 
 43692.65567		 932.52561			42760.13006		220.86200		875.00000 
 43692.65567		 305.27265			43387.38302		70.74000		324.00000 
 43692.65567		 932.52561			42760.13006		220.86200		875.00000 
 43692.65567		 305.27265			43387.38302		70.74000		324.00000 
 43692.65567		 932.52561			42760.13006		220.86200		875.00000 
 43692.65567		 305.27265			43387.38302		70.74000		324.00000 
 43692.65567		 932.52561			42760.13006		220.86200		875.00000 
 43692.65567		 305.27265			43387.38302		70.74000		324.00000 
 43692.65567		 932.52561			42760.13006		220.86200		875.00000 
 43692.65567		 305.27265			43387.38302		70.74000		324.00000 
 43692.65567		 932.52561			42760.13006		220.86200		875.00000 
 43692.65567		 305.27265			43387.38302		70.74000		324.00000 
 43692.65567		 932.52561			42760.13006		220.86200		875.00000 
 43692.65567		 305.27265			43387.38302		70.74000		324.00000 
 43692.65567		 932.52561			42760.13006		220.86200		875.00000 
 43692.65567		 305.27265			43387.38302		70.74000		324.00000 
 43692.65567		 932.52561			42760.13006		220.86200		875.00000 
 43692.65567		 305.27265			43387.38302		70.74000		324.00000 
 43692.65567		 932.52561			42760.13006		220.86200		875.00000 
 43692.65567		 305.27265			43387.38302		70.74000		324.00000 
 43692.65567		 932.52561			42760.13006		220.86200		875.00000 
 43692.65567		 305.27265			43387.38302		70.74000		324.00000 
 43692.65567		 932.52561			42760.13006		220.86200		875.00000 
 43692.65567		 305.27265			43387.38302		70.74000		324.00000 
 43692.65567		 932.52561			42760.13006		220.86200		875.00000 
 43692.65567		 305.27265			43387.38302		70.74000		324.00000 
 43692.65567		 932.52561			42760.13006		220.86200		875.00000 
 43692.65567		 305.27265			43387.38302		70.74000		324.00000 
 43692.65567		 932.52561			42760.13006		220.86200		875.00000 
 43692.65567		 305.27265			43387.38302		70.74000		324.00000 
 43692.65567		 932.52561			42760.13006		220.86200		875.00000 
 43692.65567		 305.27265			43387.38302		70.74000		324.00000 
 43692.65567		 932.52561			42760.13006		220.86200		875.00000 
 43692.65567		 305.27265			43387.38302		70.74000		324.00000 
 43692.65567		 932.52561			42760.13006		220.86200		875.00000 
 43692.65567		 305.27265			43387.38302		70.74000		324.00000 
 43692.65567		 932.52561			42760.13006		220.86200		875.00000 
 43692.65567		 305.27265			43387.38302		70.74000		324.00000 
 43692.65567		 932.52561			42760.13006		220.86200		875.00000 
 43692.65567		 305.27265			43387.38302		70.74000		324.00000 
 43692.65567		 932.52561			42760.13006		220.86200		875.00000 
 43692.65567		 305.27265			43387.38302		70.74000		324.00000 
 43692.65567		 932.52561			42760.13006		220.86200		875.00000 
 43692.65567		 305.27265			43387.38302		70.74000		324.00000 
 43692.65567		 932.52561			42760.13006		220.86200		875.00000 
 43692.65567		 305.27265			43387.38302		70.74000		324.00000 
 43692.65567		 932.52561			42760.13006		220.86200		875.00000 
 43692.65567		 305.27265			43387.38302		70.74000		324.00000 
 43692.65567		 932.52561			42760.13006		220.86200		875.00000 
 43692.65567		 305.27265			43387.38302		70.74000		324.00000 
 43692.65567		 932.52561			42760.13006		220.86200		875.00000 
 43692.65567		 305.27265			43387.38302		70.74000		324.00000 
 43692.65567		 932.52561			42760.13006		220.86200		875.00000 
 43692.65567		 305.27265			43387.38302		70.74000		324.00000 
 43692.65567		 932.52561			42760.13006		220.86200		875.00000 
 43692.65567		 305.27265			43387.38302		70.74000		324.00000 
 43692.65567		 932.52561			42760.13006		220.86200		875.00000 
 43692.65567		 305.27265			43387.38302		70.74000		324.00000 
 43692.65567		 932.52561			42760.13006		220.86200		875.00000 
 43692.65567		 305.27265			43387.38302		70.74000		324.00000 
 43692.65567		 932.52561			42760.13006		220.86200		875.00000 
 43692.65567		 305.27265			43387.38302		70.74000		324.00000 
 43692.65567		 932.52561			42760.13006		220.86200		875.00000 
 43692.65567		 305.27265			43387.38302		70.74000		324.00000 
 43692.65567		 932.52561			42760.13006		220.86200		875.00000 
 43692.65567		 305.27265			43387.38302		70.74000		324.00000 
 43692.65567		 932.52561			42760.13006		220.86200		875.00000 
 43692.65567		 305.27265			43387.38302		70.74000		324.00000 
 43692.65567		 932.52561			42760.13006		220.86200		875.00000 
 43692.65567		 305.27265			43387.38302		70.74000		324.00000 
 43692.65567		 932.52561			42760.13006		220.86200		875.00000 
 43692.65567		 305.27265			43387.38302		70.74000		324.00000 
 43692.65567		 932.52561			42760.13006		220.86200		875.00000 
 43692.65567		 305.27265			43387.38302		70.74000		324.00000 
 43692.65567		 932.52561			42760.13006		220.86200		875.00000 
 43692.65567		 305.27265			43387.38302		70.74000		324.00000 
 43692.65567		 932.52561			42760.13006		220.86200		875.00000 
 43692.65567		 305.27265			43387.38302		70.74000		324.00000 
 43692.65567		 932.52561			42760.13006		220.86200		875.00000 
 43692.65567		 305.27265			43387.38302		70.74000		324.00000 
 43692.65567		 932.52561			42760.13006		220.86200		875.00000 
 43692.65567		 305.27265			43387.38302		70.74000		324.00000 
 43692.65567		 932.52561			42760.13006		220.86200		875.00000 
 43692.65567		 305.27265			43387.38302		70.74000		324.00000 
 43692.65567		 932.52561			42760.13006		220.86200		875.00000 
 43692.65567		 305.27265			43387.38302		70.74000		324.00000 
 43692.65567		 932.52561			42760.13006		220.86200		875.00000 
 43692.65567		 305.27265			43387.38302		70.74000		324.00000 
 43692.65567		 932.52561			42760.13006		220.86200		875.00000 
 43692.65567		 305.27265			43387.38302		70.74000		324.00000 
 43692.65567		 932.52561			42760.13006		220.86200		875.00000 
 43692.65567		 305.27265			43387.38302		70.74000		324.00000 
 43692.65567		 932.52561			42760.13006		220.86200		875.00000 
 43692.65567		 305.27265			43387.38302		70.74000		324.00000 
 43692.65567		 932.52561			42760.13006		220.86200		875.00000 
 43692.65567		 305.27265			43387.38302		70.74000		324.00000 
 43692.65567		 932.52561			42760.13006		220.86200		875.00000 
 43692.65567		 305.27265			43387.38302		70.74000		324.00000 
 43692.65567		 932.52561			42760.13006		220.86200		875.00000 
 43692.65567		 305.27265			43387.38302		70.74000		324.00000 
 43692.65567		 932.52561			42760.13006		220.86200		875.00000 
 43692.65567		 305.27265			43387.38302		70.74000		324.00000 
 43692.65567		 932.52561			42760.13006		220.86200		875.00000 
 43692.65567		 305.27265			43387.38302		70.74000		324.00000 
 43692.65567		 932.52561			42760.13006		220.86200		875.00000 
 43692.65567		 305.27265			43387.38302		70.74000		324.00000 
 43692.65567		 932.52561			42760.13006		220.86200		875.00000 
 43692.65567		 305.27265			43387.38302		70.74000		324.00000 
 43692.65567		 932.52561			42760.13006		220.86200		875.00000 
 43692.65567		 305.27265			43387.38302		70.74000		324.00000 
 43692.65567		 932.52561			42760.13006		220.86200		875.00000 
 43692.65567		 305.27265			43387.38302		70.74000		324.00000 
 43692.65567		 932.52561			42760.13006		220.86200		875.00000 
 43692.65567		 305.27265			43387.38302		70.74000		324.00000 
 43692.65567		 932.52561			42760.13006		220.86200		875.00000 
 43692.65567		 305.27265			43387.38302		70.74000		324.00000 
 43692.65567		 932.52561			42760.13006		220.86200		875.00000 
 43692.65567		 305.27265			43387.38302		70.74000		324.00000 
 43692.65567		 932.52561			42760.13006		220.86200		875.00000 
 43692.65567		 305.27265			43387.38302		70.74000		324.00000 
 43692.65567		 932.52561			42760.13006		220.86200		875.00000 
 43692.65567		 305.27265			43387.38302		70.74000		324.00000 
 43692.65567		 932.52561			42760.13006		220.86200		875.00000 
 43692.65567		 305.27265			43387.38302		70.74000		324.00000 
 43692.65567		 932.52561			42760.13006		220.86200		875.00000 
 43692.65567		 305.27265			43387.38302		70.74000		324.00000 
 43692.65567		 932.52561			42760.13006		220.86200		875.00000 
 43692.65567		 305.27265			43387.38302		70.74000		324.00000 
 43692.65567		 932.52561			42760.13006		220.86200		875.00000 
 43692.65567		 305.27265			43387.38302		70.74000		324.00000 
 43692.65567		 932.52561			42760.13006		220.86200		875.00000 
 43692.65567		 305.27265			43387.38302		70.74000		324.00000 
 43692.65567		 932.52561			42760.13006		220.86200		875.00000 
 43692.65567		 305.27265			43387.38302		70.74000		324.00000 
 43692.65567		 932.52561			42760.13006		220.86200		875.00000 
 43692.65567		 305.27265			43387.38302		70.74000		324.00000 
 43692.65567		 932.52561			42760.13006		220.86200		875.00000 
 43692.65567		 305.27265			43387.38302		70.74000		324.00000 
 43692.65567		 932.52561			42760.13006		220.86200		875.00000 
 43692.65567		 305.27265			43387.38302		70.74000		324.00000 
 43692.65567		 932.52561			42760.13006		220.86200		875.00000 
 43692.65567		 305.27265			43387.38302		70.74000		324.00000 
 43692.65567		 932.52561			42760.13006		220.86200		875.00000 
 43692.65567		 305.27265			43387.38302		70.74000		324.00000 
 43692.65567		 932.52561			42760.13006		220.86200		875.00000 
 43692.65567		 305.27265			43387.38302		70.74000		324.00000 
 43692.65567		 932.52561			42760.13006		220.86200		875.00000 
 43692.65567		 305.27265			43387.38302		70.74000		324.00000 
 43692.65567		 932.52561			42760.13006		220.86200		875.00000 
 43692.65567		 305.27265			43387.38302		70.74000		324.00000 
 43692.65567		 932.52561			42760.13006		220.86200		875.00000 
 43692.65567		 305.27265			43387.38302		70.74000		324.00000 
 43692.65567		 932.52561			42760.13006		220.86200		875.00000 
 43692.65567		 305.27265			43387.38302		70.74000		324.00000 
 43692.65567		 932.52561			42760.13006		220.86200		875.00000 
 43692.65567		 305.27265			43387.38302		70.74000		324.00000 
 43692.65567		 932.52561			42760.13006		220.86200		875.00000 
 43692.65567		 305.27265			43387.38302		70.74000		324.00000 
 43692.65567		 932.52561			42760.13006		220.86200		875.00000 
 43692.65567		 305.27265			43387.38302		70.74000		324.00000 
 43692.65567		 932.52561			42760.13006		220.86200		875.00000 
 43692.65567		 305.27265			43387.38302		70.74000		324.00000 
 43692.65567		 932.52561			42760.13006		220.86200		875.00000 
 43692.65567		 305.27265			43387.38302		70.74000		324.00000 
 43692.65567		 932.52561			42760.13006		220.86200		875.00000 
 43692.65567		 305.27265			43387.38302		70.74000		324.00000 
 43692.65567		 932.52561			42760.13006		220.86200		875.00000 
 43692.65567		 305.27265			43387.38302		70.74000		324.00000 
 43692.65567		 932.52561			42760.13006		220.86200		875.00000 
 43692.65567		 305.27265			43387.38302		70.74000		324.00000 
 43692.65567		 932.52561			42760.13006		220.86200		875.00000 
 43692.65567		 305.27265			43387.38302		70.74000		324.00000 
 43692.65567		 932.52561			42760.13006		220.86200		875.00000 
 43692.65567		 305.27265			43387.38302		70.74000		324.00000 
 43692.65567		 932.52561			42760.13006		220.86200		875.00000 
 43692.65567		 305.27265			43387.38302		70.74000		324.00000 
 43692.65567		 932.52561			42760.13006		220.86200		875.00000 
 43692.65567		 305.27265			43387.38302		70.74000		324.00000 
 43692.65567		 932.52561			42760.13006		220.26200		875.00000 
 43692.65567		 305.27265			43387.38302		70.74000		324.00000 
 43692.65567		 932.52561			42760.13006		220.26200		875.00000 
 43692.65567		 305.27265			43387.38302		70.74000		324.00000 
 43692.65567		 932.52561			42760.13006		220.26200		875.00000 
 43692.65567		 305.27265			43387.38302		70.74000		324.00000 
 43692.65567		 932.52561			42760.13006		220.26200		875.00000 
 43692.65567		 305.27265			43387.38302		70.74000		324.00000 
 43692.65567		 932.52561			42760.13006		220.26200		875.00000 
 43692.65567		 305.27265			43387.38302		70.74000		324.00000 
 43692.65567		 932.52561			42760.13006		220.26200		875.00000 
 43692.65567		 305.27265			43387.38302		70.74000		324.00000 
 43692.65567		 932.52561			42760.13006		220.26200		875.00000 
 43692.65567		 305.27265			43387.38302		70.74000		324.00000 
 43692.65567		 932.52561			42760.13006		220.26200		875.00000 
 43692.65567		 305.27265			43387.38302		70.74000		324.00000 
 43692.65567		 932.52561			42760.13006		220.26200		875.00000 
 43692.65567		 305.27265			43387.38302		70.74000		324.00000 
 43692.65567		 932.52561			42760.13006		220.26200		875.00000 
 43692.65567		 305.27265			43387.38302		70.74000		324.00000 
 43692.65567		 932.52561			42760.13006		220.26200		875.00000 
 43692.65567		 305.27265			43387.38302		70.74000		324.00000 
 43692.65567		 932.52561			42760.13006		220.26200		875.00000 
 43692.65567		 305.27265			43387.38302		70.74000		324.00000 
 43692.65567		 932.52561			42760.13006		220.26200		875.00000 
 43692.65567		 305.27265			43387.38302		70.74000		324.00000 
 43692.65567		 932.52561			42760.13006		220.26200		875.00000 
 43692.65567		 305.27265			43387.38302		70.74000		324.00000 
 43692.65567		 932.52561			42760.13006		220.26200		875.00000 
 43692.65567		 305.27265			43387.38302		70.74000		324.00000 
 43692.65567		 932.52561			42760.13006		220.26200		875.00000 
 43692.65567		 305.27265			43387.38302		70.74000		324.00000 
 43692.65567		 932.52561			42760.13006		220.26200		875.00000 
 43692.65567		 305.27265			43387.38302		70.74000		324.00000 
 43692.65567		 932.52561			42760.13006		220.26200		875.00000 
 43692.65567		 305.27265			43387.38302		70.74000		324.00000 
 43692.65567		 932.52561			42760.13006		220.26200		875.00000 
 43692.65567		 305.27265			43387.38302		70.74000		324.00000 
 43692.65567		 932.52561			42760.13006		220.26200		875.00000 
 43692.65567		 305.27265			43387.38302		70.74000		324.00000 
 43692.65567		 932.52561			42760.13006		220.26200		875.00000 
 43692.65567		 305.27265			43387.38302		70.74000		324.00000 
 43692.65567		 932.52561			42760.13006		220.26200		875.00000 
 43692.65567		 305.27265			43387.38302		70.74000		324.00000 
 43692.65567		 932.52561			42760.13006		220.26200		875.00000 
 43692.65567		 305.27265			43387.38302		70.74000		324.00000 
 43692.65567		 932.52561			42760.13006		220.26200		875.00000 
 43692.65567		 305.27265			43387.38302		70.74000		324.00000 
 43692.65567		 932.52561			42760.13006		220.26200		875.00000 
 43692.65567		 305.27265			43387.38302		70.74000		324.00000 
 43692.65567		 932.52561			42760.13006		220.26200		875.00000 
 43692.65567		 305.27265			43387.38302		70.74000		324.00000 
 43692.65567		 932.52561			42760.13006		220.26200		875.00000 
 43692.65567		 305.27265			43387.38302		70.74000		324.00000 
 43692.65567		 932.52561			42760.13006		220.26200		875.00000 
 43692.65567		 305.27265			43387.38302		70.74000		324.00000 
 43692.65567		 932.52561			42760.13006		220.26200		875.00000 
 43692.65567		 305.27265			43387.38302		70.74000		324.00000 
 43692.65567		 932.52561			42760.13006		220.26200		875.00000 
 43692.65567		 305.27265			43387.38302		70.74000		324.00000 
 43692.65567		 932.52561			42760.13006		220.26200		875.00000 
 43692.65567		 305.27265			43387.38302		70.74000		324.00000 
 43692.65567		 932.52561			42760.13006		220.26200		875.00000 
 43692.65567		 305.27265			43387.38302		70.74000		324.00000 
 43692.65567		 932.52561			42760.13006		220.26200		875.00000 
 43692.65567		 305.27265			43387.38302		70.74000		324.00000 
 43692.65567		 932.52561			42760.13006		220.26200		875.00000 
 43692.65567		 305.27265			43387.38302		70.74000		324.00000 
 43692.65567		 932.52561			42760.13006		220.26200		875.00000 
 43692.65567		 305.27265			43387.38302		70.74000		324.00000 
 43692.65567		 932.52561			42760.13006		220.26200		875.00000 
 43692.65567		 305.27265			43387.38302		70.74000		324.00000 
 43692.65567		 932.52561			42760.13006		220.26200		875.00000 
 43692.65567		 305.27265			43387.38302		70.74000		324.00000 
 43692.65567		 932.52561			42760.13006		220.26200		875.00000 
 43692.65567		 305.27265			43387.38302		70.74000		324.00000 
 43692.65567		 932.52561			42760.13006		220.26200		875.00000 
 43692.65567		 305.27265			43387.38302		70.74000		324.00000 
 43692.65567		 932.52561			42760.13006		220.26200		875.00000 
 43692.65567		 305.27265			43387.38302		70.74000		324.00000 
 43692.65567		 932.52561			42760.13006		220.26200		875.00000 
 43692.65567		 305.27265			43387.38302		70.74000		324.00000 
 43692.65567		 932.52561			42760.13006		220.26200		875.00000 
 43692.65567		 305.27265			43387.38302		70.74000		324.00000 
 43692.65567		 932.52561			42760.13006		220.26200		875.00000 
 43692.65567		 305.27265			43387.38302		70.74000		324.00000 
 43692.65567		 932.52561			42760.13006		220.26200		875.00000 
 43692.65567		 305.27265			43387.38302		70.74000		324.00000 
 43692.65567		 932.52561			42760.13006		220.26200		875.00000 
 43692.65567		 305.27265			43387.38302		70.74000		324.00000 
 43692.65567		 932.52561			42760.13006		220.26200		875.00000 
 43692.65567		 305.27265			43387.38302		70.74000		324.00000 
 43692.65567		 932.52561			42760.13006		220.26200		875.00000 
 43692.65567		 305.27265			43387.38302		70.74000		324.00000 
 43692.65567		 932.52561			42760.13006		220.26200		875.00000 
 43692.65567		 305.27265			43387.38302		70.74000		324.00000 
 43692.65567		 932.52561			42760.13006		220.26200		875.00000 
 43692.65567		 305.27265			43387.38302		70.74000		324.00000 
 43692.65567		 932.52561			42760.13006		220.26200		875.00000 
 43692.65567		 305.27265			43387.38302		70.74000		324.00000 
 43692.65567		 932.52561			42760.13006		220.26200		875.00000 
 43692.65567		 305.27265			43387.38302		70.74000		324.00000 
 43692.65567		 932.52561			42760.13006		220.26200		875.00000 
 43692.65567		 305.27265			43387.38302		70.74000		324.00000 
 43692.65567		 932.52561			42760.13006		220.26200		875.00000 
 43692.65567		 305.27265			43387.38302		70.74000		324.00000 
 43692.65567		 932.52561			42760.13006		220.26200		875.00000 
 43692.65567		 305.27265			43387.38302		70.74000		324.00000 
 43692.65567		 932.52561			42760.13006		220.26200		875.00000 
 43692.65567		 305.27265			43387.38302		70.74000		324.00000 
 43692.65567		 932.52561			42760.13006		220.26200		875.00000 
 43692.65567		 305.27265			43387.38302		70.74000		324.00000 
 43692.65567		 932.52561			42760.13006		220.26200		875.00000 
 43692.65567		 305.27265			43387.38302		70.74000		324.00000 
 43692.65567		 932.52561			42760.13006		220.26200		875.00000 
 43692.65567		 305.27265			43387.38302		70.74000		324.00000 
 43692.65567		 932.52561			42760.13006		220.26200		875.00000 
 43692.65567		 305.27265			43387.38302		70.74000		324.00000 
 43692.65567		 932.52561			42760.13006		220.26200		875.00000 
 43692.65567		 305.27265			43387.38302		70.74000		324.00000 
 43692.65567		 932.52561			42760.13006		220.26200		875.00000 
 43692.65567		 305.27265			43387.38302		70.74000		324.00000 
 43692.65567		 932.52561			42760.13006		220.26200		875.00000 
 43692.65567		 305.27265			43387.38302		70.74000		324.00000 
 43692.65567		 932.52561			42760.13006		220.26200		875.00000 
 43692.65567		 305.27265			43387.38302		70.74000		324.00000 
 43692.65567		 932.52561			42760.13006		220.26200		875.00000 
 43692.65567		 305.27265			43387.38302		70.74000		324.00000 
 43692.65567		 932.52561			42760.13006		220.26200		875.00000 
 43692.65567		 305.27265			43387.38302		70.74000		324.00000 
 43692.65567		 932.52561			42760.13006		220.86200		875.00000 
 43692.65567		 305.27265			43387.38302		70.74000		324.00000 
 43692.65567		 932.52561			42760.13006		220.86200		875.00000 
 43692.65567		 305.27265			43387.38302		70.74000		324.00000 
 43692.65567		 932.52561			42760.13006		220.86200		875.00000 
 43692.65567		 305.27265			43387.38302		70.74000		324.00000 
 43692.65567		 932.52561			42760.13006		220.86200		875.00000 
 43692.65567		 305.27265			43387.38302		70.74000		324.00000 
 43692.65567		 932.52561			42760.13006		220.86200		875.00000 
 43692.65567		 305.27265			43387.38302		70.74000		324.00000 
 43692.65567		 932.52561			42760.13006		220.86200		875.00000 
 43692.65567		 305.27265			43387.38302		70.74000		324.00000 
 43692.65567		 932.52561			42760.13006		220.86200		875.00000 
 43692.65567		 305.27265			43387.38302		70.74000		324.00000 
 43692.65567		 932.52561			42760.13006		220.86200		875.00000 
 43692.65567		 305.27265			43387.38302		70.74000		324.00000 
 43692.65567		 932.52561			42760.13006		220.86200		875.00000 
 43692.65567		 305.27265			43387.38302		70.74000		324.00000 
 43692.65567		 932.52561			42760.13006		220.86200		875.00000 
 43692.65567		 305.27265			43387.38302		70.74000		324.00000 
 43692.65567		 932.52561			42760.13006		220.86200		875.00000 
 43692.65567		 305.27265			43387.38302		70.74000		324.00000 
 43692.65567		 932.52561			42760.13006		220.86200		875.00000 
 43692.65567		 305.27265			43387.38302		70.74000		324.00000 
 43692.65567		 932.52561			42760.13006		220.86200		875.00000 
 43692.65567		 305.27265			43387.38302		70.74000		324.00000 
 43692.65567		 932.52561			42760.13006		220.86200		875.00000 
 43692.65567		 305.27265			43387.38302		70.74000		324.00000 
 43692.65567		 932.52561			42760.13006		220.86200		875.00000 
 43692.65567		 305.27265			43387.38302		70.74000		324.00000 
 43692.65567		 932.52561			42760.13006		220.86200		875.00000 
 43692.65567		 305.27265			43387.38302		70.74000		324.00000 
 43692.65567		 932.52561			42760.13006		220.86200		875.00000 
 43692.65567		 305.27265			43387.38302		70.74000		324.00000 
 43692.65567		 932.52561			42760.13006		220.86200		875.00000 
 43692.65567		 305.27265			43387.38302		70.74000		324.00000 
 43692.65567		 932.52561			42760.13006		220.86200		875.00000 
 43692.65567		 305.27265			43387.38302		70.74000		324.00000 
 43692.65567		 932.52561			42760.13006		220.86200		875.00000 
 43692.65567		 305.27265			43387.38302		70.74000		324.00000 
 43692.65567		 932.52561			42760.13006		220.86200		875.00000 
 43692.65567		 305.27265			43387.38302		70.74000		324.00000 
 43692.65567		 932.52561			42760.13006		220.86200		875.00000 
 43692.65567		 305.27265			43387.38302		70.74000		324.00000 
 43692.65567		 932.52561			42760.13006		220.86200		875.00000 
 43692.65567		 305.27265			43387.38302		70.74000		324.00000 
 43692.65567		 932.52561			42760.13006		220.86200		875.00000 
 43692.65567		 305.27265			43387.38302		70.74000		324.00000 
 43692.65567		 932.52561			42760.13006		220.86200		875.00000 
 43692.65567		 305.27265			43387.38302		70.74000		324.00000 
 43692.65567		 932.52561			42760.13006		220.86200		875.00000 
 43692.65567		 305.27265			43387.38302		70.74000		324.00000 
 43692.65567		 932.52561			42760.13006		220.86200		875.00000 
 43692.65567		 305.27265			43387.38302		70.74000		324.00000 
 43692.65567		 932.52561			42760.13006		220.86200		875.00000 
 43692.65567		 305.27265			43387.38302		70.74000		324.00000 
 43692.65567		 932.52561			42760.13006		220.86200		875.00000 
 43692.65567		 305.27265			43387.38302		70.74000		324.00000 
 43692.65567		 932.52561			42760.13006		220.86200		875.00000 
 43692.65567		 305.27265			43387.38302		70.74000		324.00000 
 43692.65567		 932.52561			42760.13006		220.86200		875.00000 
 43692.65567		 305.27265			43387.38302		70.74000		324.00000 
 43692.65567		 932.52561			42760.13006		220.86200		875.00000 
 43692.65567		 305.27265			43387.38302		70.74000		324.00000 
 43692.65567		 932.52561			42760.13006		220.86200		875.00000 
 43692.65567		 305.27265			43387.38302		70.74000		324.00000 
 43692.65567		 932.52561			42760.13006		220.86200		875.00000 
 43692.65567		 305.27265			43387.38302		70.74000		324.00000 
 43692.65567		 932.52561			42760.13006		220.86200		875.00000 
 43692.65567		 305.27265			43387.38302		70.74000		324.00000 
 43692.65567		 932.52561			42760.13006		220.86200		875.00000 
 43692.65567		 305.27265			43387.38302		70.74000		324.00000 
 43692.65567		 932.52561			42760.13006		220.86200		875.00000 
 43692.65567		 305.27265			43387.38302		70.74000		324.00000 
 43692.65567		 932.52561			42760.13006		220.86200		875.00000 
 43692.65567		 305.27265			43387.38302		70.74000		324.00000 
 43692.65567		 932.52561			42760.13006		220.86200		875.00000 
 43692.65567		 305.27265			43387.38302		70.74000		324.00000 
 43692.65567		 932.52561			42760.13006		220.86200		875.00000 
 43692.65567		 305.27265			43387.38302		70.74000		324.00000 
 43692.65567		 932.52561			42760.13006		220.86200		875.00000 
 43692.65567		 305.27265			43387.38302		70.74000		324.00000 
 43692.65567		 932.52561			42760.13006		220.86200		875.00000 
 43692.65567		 305.27265			43387.38302		70.74000		324.00000 
 43692.65567		 932.52561			42760.13006		220.86200		875.00000 
 43692.65567		 305.27265			43387.38302		70.74000		324.00000 
 43692.65567		 932.52561			42760.13006		220.86200		875.00000 
 43692.65567		 305.27265			43387.38302		70.74000		324.00000 
 43692.65567		 932.52561			42760.13006		220.86200		875.00000 
 43692.65567		 305.27265			43387.38302		70.74000		324.00000 
 43692.65567		 932.52561			42760.13006		220.86200		875.00000 
 43692.65567		 305.27265			43387.38302		70.74000		324.00000 
 43692.65567		 932.52561			42760.13006		220.86200		875.00000 
 43692.65567		 305.27265			43387.38302		70.74000		324.00000 
 43692.65567		 932.52561			42760.13006		220.86200		875.00000 
 43692.65567		 305.27265			43387.38302		70.74000		324.00000 
 43692.65567		 932.52561			42760.13006		220.86200		875.00000 
 43692.65567		 305.27265			43387.38302		70.74000		324.00000 
 43692.65567		 932.52561			42760.13006		220.86200		875.00000 
 43692.65567		 305.27265			43387.38302		70.74000		324.00000 
 43692.65567		 932.52561			42760.13006		220.86200		875.00000 
 43692.65567		 305.27265			43387.38302		70.74000		324.00000 
 43692.65567		 932.52561			42760.13006		220.86200		875.00000 
 43692.65567		 305.27265			43387.38302		70.74000		324.00000 
 43692.65567		 932.52561			42760.13006		220.86200		875.00000 
 43692.65567		 305.27265			43387.38302		70.74000		324.00000 
 43692.65567		 932.52561			42760.13006		220.86200		875.00000 
 43692.65567		 305.27265			43387.38302		70.74000		324.00000 
 43692.65567		 932.52561			42760.13006		220.86200		875.00000 
 43692.65567		 305.27265			43387.38302		70.74000		324.00000 
 43692.65567		 932.52561			42760.13006		220.86200		875.00000 
 43692.65567		 305.27265			43387.38302		70.74000		324.00000 
 43692.65567		 932.52561			42760.13006		220.86200		875.00000 
 43692.65567		 305.27265			43387.38302		70.74000		324.00000 
 43692.65567		 932.52561			42760.13006		220.86200		875.00000 
 43692.65567		 305.27265			43387.38302		70.74000		324.00000 
 43692.65567		 932.52561			42760.13006		220.86200		875.00000 
 43692.65567		 305.27265			43387.38302		70.74000		324.00000 
 43692.65567		 932.52561			42760.13006		220.86200		875.00000 
 43692.65567		 305.27265			43387.38302		70.74000		324.00000 
 43692.65567		 932.52561			42760.13006		220.86200		875.00000 
 43692.65567		 305.27265			43387.38302		70.74000		324.00000 
 43692.65567		 932.52561			42760.13006		220.86200		875.00000 
 43692.65567		 305.27265			43387.38302		70.74000		324.00000 
 43692.65567		 932.52561			42760.13006		220.86200		875.00000 
 43692.65567		 305.27265			43387.38302		70.74000		324.00000 
 43692.65567		 932.52561			42760.13006		220.86200		875.00000 
 43692.65567		 305.27265			43387.38302		70.74000		324.00000 
 43692.65567		 932.52561			42760.13006		220.86200		875.00000 
 43692.65567		 305.27265			43387.38302		70.74000		324.00000 
 43692.65567		 932.52561			42760.13006		220.86200		875.00000 
 43692.65567		 305.27265			43387.38302		70.74000		324.00000 
 43692.65567		 932.52561			42760.13006		220.86200		875.00000 
 43692.65567		 305.27265			43387.38302		70.74000		324.00000 
 43692.65567		 932.52561			42760.13006		220.86200		875.00000 
 43692.65567		 305.27265			43387.38302		70.74000		324.00000 
 43692.65567		 932.52561			42760.13006		220.86200		875.00000 
 43692.65567		 305.27265			43387.38302		70.74000		324.00000 
 43692.65567		 932.52561			42760.13006		220.86200		875.00000 
 43692.65567		 305.27265			43387.38302		70.74000		324.00000 
 43692.65567		 932.52561			42760.13006		220.86200		875.00000 
 43692.65567		 305.27265			43387.38302		70.74000		324.00000 
 43692.65567		 932.52561			42760.13006		220.86200		875.00000 
 43692.65567		 305.27265			43387.38302		70.74000		324.00000 
 43692.65567		 932.52561			42760.13006		220.86200		875.00000 
 43692.65567		 305.27265			43387.38302		70.74000		324.00000 
 43692.65567		 932.52561			42760.13006		220.86200		875.00000 
 43692.65567		 305.27265			43387.38302		70.74000		324.00000 
 43692.65567		 932.52561			42760.13006		220.86200		875.00000 
 43692.65567		 305.27265			43387.38302		70.74000		324.00000 
 43692.65567		 932.52561			42760.13006		220.86200		875.00000 
 43692.65567		 305.27265			43387.38302		70.74000		324.00000 
 43692.65567		 932.52561			42760.13006		220.86200		875.00000 
 43692.65567		 305.27265			43387.38302		70.74000		324.00000 
 43692.65567		 932.52561			42760.13006		220.86200		875.00000 
 43692.65567		 305.27265			43387.38302		70.74000		324.00000 
 43692.65567		 932.52561			42760.13006		220.86200		875.00000 
 43692.65567		 305.27265			43387.38302		70.74000		324.00000 
 43692.65567		 932.52561			42760.13006		220.86200		875.00000 
 43692.65567		 305.27265			43387.38302		70.74000		324.00000 
 43692.65567		 932.52561			42760.13006		220.86200		875.00000 
 43692.65567		 305.27265			43387.38302		70.74000		324.00000 
 43692.65567		 932.52561			42760.13006		220.86200		875.00000 
 43692.65567		 305.27265			43387.38302		70.74000		324.00000 
 43692.65567		 932.52561			42760.13006		220.86200		875.00000 
 43692.65567		 305.27265			43387.38302		70.74000		324.00000 
 43692.65567		 932.52561			42760.13006		220.86200		875.00000 
 43692.65567		 305.27265			43387.38302		70.74000		324.00000 
 43692.65567		 932.52561			42760.13006		220.86200		875.00000 
 43692.65567		 305.27265			43387.38302		70.74000		324.00000 
 43692.65567		 932.52561			42760.13006		220.86200		875.00000 
 43692.65567		 305.27265			43387.38302		70.74000		324.00000 
 43692.65567		 932.52561			42760.13006		220.86200		875.00000 
 43692.65567		 305.27265			43387.38302		70.74000		324.00000 
 43692.65567		 932.52561			42760.13006		220.86200		875.00000 
 43692.65567		 305.27265			43387.38302		70.74000		324.00000 
 43692.65567		 932.52561			42760.13006		220.86200		875.00000 
 43692.65567		 305.27265			43387.38302		70.74000		324.00000 
 43692.65567		 932.52561			42760.13006		220.86200		875.00000 
 43692.65567		 305.27265			43387.38302		70.74000		324.00000 
 43692.65567		 932.52561			42760.13006		220.86200		875.00000 
 43692.65567		 305.27265			43387.38302		70.74000		324.00000 
 43692.65567		 932.52561			42760.13006		220.86200		875.00000 
 43692.65567		 305.27265			43387.38302		70.74000		324.00000 
 43692.65567		 932.52561			42760.13006		220.86200		875.00000 
 43692.65567		 305.27265			43387.38302		70.74000		324.00000 
 43692.65567		 932.52561			42760.13006		220.86200		875.00000 
 43692.65567		 305.27265			43387.38302		70.74000		324.00000 
 43692.65567		 932.52561			42760.13006		220.86200		875.00000 
 43692.65567		 305.27265			43387.38302		70.74000		324.00000 
 43692.65567		 932.52561			42760.13006		220.86200		875.00000 
 43692.65567		 305.27265			43387.38302		70.74000		324.00000 
 43692.65567		 932.52561			42760.13006		220.86200		875.00000 
 43692.65567		 305.27265			43387.38302		70.74000		324.00000 
 43692.65567		 932.52561			42760.13006		220.86200		875.00000 
 43692.65567		 305.27265			43387.38302		70.74000		324.00000 
 43692.65567		 932.52561			42760.13006		220.86200		875.00000 
 43692.65567		 305.27265			43387.38302		70.74000		324.00000 
 43692.65567		 932.52561			42760.13006		220.86200		875.00000 
 43692.65567		 305.27265			43387.38302		70.74000		324.00000 
 43692.65567		 932.52561			42760.13006		220.86200		875.00000 
 43692.65567		 305.27265			43387.38302		70.74000		324.00000 
 43692.65567		 932.52561			42760.13006		220.86200		875.00000 
 43692.65567		 305.27265			43387.38302		70.74000		324.00000 
 43692.65567		 932.52561			42760.13006		220.86200		875.00000 
 43692.65567		 305.27265			43387.38302		70.74000		324.00000 
 43692.65567		 932.52561			42760.13006		220.86200		875.00000 
 43692.65567		 305.27265			43387.38302		70.74000		324.00000 
 43692.65567		 932.52561			42760.13006		220.86200		875.00000 
 43692.65567		 305.27265			43387.38302		70.74000		324.00000 
 43692.65567		 932.52561			42760.13006		220.86200		875.00000 
 43692.65567		 305.27265			43387.38302		70.74000		324.00000 
 43692.65567		 932.52561			42760.13006		220.86200		875.00000 
 43692.65567		 305.27265			43387.38302		70.74000		324.00000 
 43692.65567		 932.52561			42760.13006		220.86200		875.00000 
 43692.65567		 305.27265			43387.38302		70.74000		324.00000 
 43692.65567		 932.52561			42760.13006		220.86200		875.00000 
 43692.65567		 305.27265			43387.38302		70.74000		324.00000 
 43692.65567		 932.52561			42760.13006		220.86200		875.00000 
 43692.65567		 305.27265			43387.38302		70.74000		324.00000 
 43692.65567		 932.52561			42760.13006		220.86200		875.00000 
 43692.65567		 305.27265			43387.38302		70.74000		324.00000 
 43692.65567		 932.52561			42760.13006		220.86200		875.00000 
 43692.65567		 305.27265			43387.38302		70.74000		324.00000 
 43692.65567		 932.52561			42760.13006		220.86200		875.00000 
 43692.65567		 305.27265			43387.38302		70.74000		324.00000 
 43692.65567		 932.52561			42760.13006		220.86200		875.00000 
 43692.65567		 305.27265			43387.38302		70.74000		324.00000 
 43692.65567		 932.52561			42760.13006		220.86200		875.00000 
 43692.65567		 305.27265			43387.38302		70.74000		324.00000 
 43692.65567		 932.52561			42760.13006		220.86200		875.00000 
 43692.65567		 305.27265			43387.38302		70.74000		324.00000 
 43692.65567		 932.52561			42760.13006		220.86200		875.00000 
 43692.65567		 305.27265			43387.38302		70.74000		324.00000 
 43692.65567		 932.52561			42760.13006		220.86200		875.00000 
 43692.65567		 305.27265			43387.38302		70.74000		324.00000 
 43692.65567		 932.52561			42760.13006		220.86200		875.00000 
 43692.65567		 305.27265			43387.38302		70.74000		324.00000 
 43692.65567		 932.52561			42760.13006		220.86200		875.00000 
 43692.65567		 305.27265			43387.38302		70.74000		324.00000 
 43692.65567		 932.52561			42760.13006		220.86200		875.00000 
 43692.65567		 305.27265			43387.38302		70.74000		324.00000 
 43692.65567		 932.52561			42760.13006		220.86200		875.00000 
 43692.65567		 305.27265			43387.38302		70.74000		324.00000 
 43692.65567		 932.52561			42760.13006		220.86200		875.00000 
 43692.65567		 305.27265			43387.38302		70.74000		324.00000 
 43692.65567		 932.52561			42760.13006		220.86200		875.00000 
 43692.65567		 305.27265			43387.38302		70.74000		324.00000 
 43692.65567		 932.52561			42760.13006		220.86200		875.00000 
 43692.65567		 305.27265			43387.38302		70.74000		324.00000 
 43692.65567		 932.52561			42760.13006		220.86200		875.00000 
 43692.65567		 305.27265			43387.38302		70.74000		324.00000 
 43692.65567		 932.52561			42760.13006		220.86200		875.00000 
 43692.65567		 305.27265			43387.38302		70.74000		324.00000 
 43692.65567		 932.52561			42760.13006		220.86200		875.00000 
 43692.65567		 305.27265			43387.38302		70.74000		324.00000 
 43692.65567		 932.52561			42760.13006		221.22600		875.00000 
 43692.65567		 305.27265			43387.38302		70.74000		324.00000 
 43692.65567		 932.52561			42760.13006		221.22600		875.00000 
 43692.65567		 305.27265			43387.38302		70.74000		324.00000 
 43692.65567		 932.52561			42760.13006		221.22600		875.00000 
 43692.65567		 305.27265			43387.38302		70.74000		324.00000 
 43692.65567		 932.52561			42760.13006		221.22600		875.00000 
 43692.65567		 305.27265			43387.38302		70.74000		324.00000 
 43692.65567		 932.52561			42760.13006		221.22600		875.00000 
 43692.65567		 305.27265			43387.38302		70.74000		324.00000 
 43692.65567		 932.52561			42760.13006		221.22600		875.00000 
 43692.65567		 305.27265			43387.38302		70.74000		324.00000 
 43692.65567		 932.52561			42760.13006		221.22600		875.00000 
 43692.65567		 305.27265			43387.38302		70.74000		324.00000 
 43692.65567		 932.52561			42760.13006		221.22600		875.00000 
 43692.65567		 305.27265			43387.38302		70.74000		324.00000 
 43692.65567		 932.52561			42760.13006		221.22600		875.00000 
 43692.65567		 305.27265			43387.38302		70.74000		324.00000 
 43692.65567		 932.52561			42760.13006		221.22600		875.00000 
 43692.65567		 305.27265			43387.38302		70.74000		324.00000 
 43692.65567		 932.52561			42760.13006		221.22600		875.00000 
 43692.65567		 305.27265			43387.38302		70.74000		324.00000 
 43692.65567		 932.52561			42760.13006		221.22600		875.00000 
 43692.65567		 305.27265			43387.38302		70.74000		324.00000 
 43692.65567		 932.52561			42760.13006		221.22600		875.00000 
 43692.65567		 305.27265			43387.38302		70.74000		324.00000 
 43692.65567		 932.52561			42760.13006		221.22600		875.00000 
 43692.65567		 305.27265			43387.38302		70.74000		324.00000 
 43692.65567		 932.52561			42760.13006		221.22600		875.00000 
 43692.65567		 305.27265			43387.38302		70.74000		324.00000 
 43692.65567		 932.52561			42760.13006		221.22600		875.00000 
 43692.65567		 305.27265			43387.38302		70.74000		324.00000 
 43692.65567		 932.52561			42760.13006		221.22600		875.00000 
 43692.65567		 305.27265			43387.38302		70.74000		324.00000 
 43692.65567		 932.52561			42760.13006		221.22600		875.00000 
 43692.65567		 305.27265			43387.38302		70.74000		324.00000 
 43692.65567		 932.52561			42760.13006		221.22600		875.00000 
 43692.65567		 305.27265			43387.38302		70.74000		324.00000 
 43692.65567		 932.52561			42760.13006		221.22600		875.00000 
 43692.65567		 305.27265			43387.38302		70.74000		324.00000 
 43692.65567		 932.52561			42760.13006		221.22600		875.00000 
 43692.65567		 305.27265			43387.38302		70.74000		324.00000 
 43692.65567		 932.52561			42760.13006		221.22600		875.00000 
 43692.65567		 305.27265			43387.38302		70.74000		324.00000 
 43692.65567		 932.52561			42760.13006		221.22600		875.00000 
 43692.65567		 305.27265			43387.38302		70.74000		324.00000 
 43692.65567		 932.52561			42760.13006		221.22600		875.00000 
 43692.65567		 305.27265			43387.38302		70.74000		324.00000 
 43692.65567		 932.52561			42760.13006		221.22600		875.00000 
 43692.65567		 305.27265			43387.38302		70.74000		324.00000 
 43692.65567		 932.52561			42760.13006		221.22600		875.00000 
 43692.65567		 305.27265			43387.38302		70.74000		324.00000 
 43692.65567		 932.52561			42760.13006		221.22600		875.00000 
 43692.65567		 305.27265			43387.38302		70.74000		324.00000 
 43692.65567		 932.52561			42760.13006		221.22600		875.00000 
 43692.65567		 305.27265			43387.38302		70.74000		324.00000 
 43692.65567		 932.52561			42760.13006		221.22600		875.00000 
 43692.65567		 305.27265			43387.38302		70.74000		324.00000 
 43692.65567		 932.52561			42760.13006		221.22600		875.00000 
 43692.65567		 305.27265			43387.38302		70.74000		324.00000 
 43692.65567		 932.52561			42760.13006		221.22600		875.00000 
 43692.65567		 305.27265			43387.38302		70.74000		324.00000 
 43692.65567		 932.52561			42760.13006		221.22600		875.00000 
 43692.65567		 305.27265			43387.38302		70.74000		324.00000 
 43692.65567		 932.52561			42760.13006		221.22600		875.00000 
 43692.65567		 305.27265			43387.38302		70.74000		324.00000 
 43692.65567		 932.52561			42760.13006		221.22600		875.00000 
 43692.65567		 305.27265			43387.38302		70.74000		324.00000 
 43692.65567		 932.52561			42760.13006		221.22600		875.00000 
 43692.65567		 305.27265			43387.38302		70.74000		324.00000 
 43692.65567		 932.52561			42760.13006		221.22600		875.00000 
 43692.65567		 305.27265			43387.38302		70.74000		324.00000 
 43692.65567		 932.52561			42760.13006		221.22600		875.00000 
 43692.65567		 305.27265			43387.38302		70.74000		324.00000 
 43692.65567		 932.52561			42760.13006		221.22600		875.00000 
 43692.65567		 305.27265			43387.38302		70.74000		324.00000 
 43692.65567		 932.52561			42760.13006		221.22600		875.00000 
 43692.65567		 305.27265			43387.38302		70.74000		324.00000 
 43692.65567		 932.52561			42760.13006		221.22600		875.00000 
 43692.65567		 305.27265			43387.38302		70.74000		324.00000 
 43692.65567		 932.52561			42760.13006		221.22600		875.00000 
 43692.65567		 305.27265			43387.38302		70.74000		324.00000 
 43692.65567		 932.52561			42760.13006		221.22600		875.00000 
 43692.65567		 305.27265			43387.38302		70.74000		324.00000 
 43692.65567		 932.52561			42760.13006		221.22600		875.00000 
 43692.65567		 305.27265			43387.38302		70.74000		324.00000 
 43692.65567		 932.52561			42760.13006		221.22600		875.00000 
 43692.65567		 305.27265			43387.38302		70.74000		324.00000 
 43692.65567		 932.52561			42760.13006		221.22600		875.00000 
 43692.65567		 305.27265			43387.38302		70.74000		324.00000 
 43692.65567		 932.52561			42760.13006		221.22600		875.00000 
 43692.65567		 305.27265			43387.38302		70.74000		324.00000 
 43692.65567		 932.52561			42760.13006		221.22600		875.00000 
 43692.65567		 305.27265			43387.38302		70.74000		324.00000 
 43692.65567		 932.52561			42760.13006		221.22600		875.00000 
 43692.65567		 305.27265			43387.38302		70.74000		324.00000 
 43692.65567		 932.52561			42760.13006		221.22600		875.00000 
 43692.65567		 305.27265			43387.38302		70.74000		324.00000 
 43692.65567		 932.52561			42760.13006		221.22600		875.00000 
 43692.65567		 305.27265			43387.38302		70.74000		324.00000 
 43692.65567		 932.52561			42760.13006		221.22600		875.00000 
 43692.65567		 305.27265			43387.38302		70.74000		324.00000 
 43692.65567		 932.52561			42760.13006		221.22600		875.00000 
 43692.65567		 305.27265			43387.38302		70.74000		324.00000 
 43692.65567		 932.52561			42760.13006		221.22600		875.00000 
 43692.65567		 305.27265			43387.38302		70.74000		324.00000 
 43692.65567		 932.52561			42760.13006		221.22600		875.00000 
 43692.65567		 305.27265			43387.38302		70.74000		324.00000 
 43692.65567		 932.52561			42760.13006		221.22600		875.00000 
 43692.65567		 305.27265			43387.38302		70.74000		324.00000 
 43692.65567		 932.52561			42760.13006		221.22600		875.00000 
 43692.65567		 305.27265			43387.38302		70.74000		324.00000 
 43692.65567		 932.52561			42760.13006		221.22600		875.00000 
 43692.65567		 305.27265			43387.38302		70.74000		324.00000 
 43692.65567		 932.52561			42760.13006		221.22600		875.00000 
 43692.65567		 305.27265			43387.38302		70.74000		324.00000 
 43692.65567		 932.52561			42760.13006		221.22600		875.00000 
 43692.65567		 305.27265			43387.38302		70.74000		324.00000 
 43692.65567		 932.52561			42760.13006		221.22600		875.00000 
 43692.65567		 305.27265			43387.38302		70.74000		324.00000 
 43692.65567		 932.52561			42760.13006		221.22600		875.00000 
 43692.65567		 305.27265			43387.38302		70.74000		324.00000 
 43692.65567		 932.52561			42760.13006		221.22600		875.00000 
 43692.65567		 305.27265			43387.38302		70.74000		324.00000 
 43692.65567		 932.52561			42760.13006		221.22600		875.00000 
 43692.65567		 305.27265			43387.38302		70.74000		324.00000 
 43692.65567		 932.52561			42760.13006		221.22600		875.00000 
 43692.65567		 305.27265			43387.38302		70.74000		324.00000 
 43692.65567		 932.52561			42760.13006		221.82600		875.00000 
 43692.65567		 305.27265			43387.38302		70.74000		324.00000 
 43692.65567		 932.52561			42760.13006		221.82600		875.00000 
 43692.65567		 305.27265			43387.38302		70.74000		324.00000 
 43692.65567		 932.52561			42760.13006		221.82600		875.00000 
 43692.65567		 305.27265			43387.38302		70.74000		324.00000 
 43692.65567		 932.52561			42760.13006		221.82600		875.00000 
 43692.65567		 305.27265			43387.38302		70.74000		324.00000 
 43692.65567		 932.52561			42760.13006		221.82600		875.00000 
 43692.65567		 305.27265			43387.38302		70.74000		324.00000 
 43692.65567		 932.52561			42760.13006		221.82600		875.00000 
 43692.65567		 305.27265			43387.38302		70.74000		324.00000 
 43692.65567		 932.52561			42760.13006		221.82600		875.00000 
 43692.65567		 305.27265			43387.38302		70.74000		324.00000 
 43692.65567		 932.52561			42760.13006		221.82600		875.00000 
 43692.65567		 305.27265			43387.38302		70.74000		324.00000 
 43692.65567		 932.52561			42760.13006		221.82600		875.00000 
 43692.65567		 305.27265			43387.38302		70.74000		324.00000 
 43692.65567		 932.52561			42760.13006		221.82600		875.00000 
 43692.65567		 305.27265			43387.38302		70.74000		324.00000 
 43692.65567		 932.52561			42760.13006		221.82600		875.00000 
 43692.65567		 305.27265			43387.38302		70.74000		324.00000 
 43692.65567		 932.52561			42760.13006		221.82600		875.00000 
 43692.65567		 305.27265			43387.38302		70.74000		324.00000 
 43692.65567		 932.52561			42760.13006		221.82600		875.00000 
 43692.65567		 305.27265			43387.38302		70.74000		324.00000 
 43692.65567		 932.52561			42760.13006		221.82600		875.00000 
 43692.65567		 305.27265			43387.38302		70.74000		324.00000 
 43692.65567		 932.52561			42760.13006		221.82600		875.00000 
 43692.65567		 305.27265			43387.38302		70.74000		324.00000 
 43692.65567		 932.52561			42760.13006		221.82600		875.00000 
 43692.65567		 305.27265			43387.38302		70.74000		324.00000 
 43692.65567		 932.52561			42760.13006		221.82600		875.00000 
 43692.65567		 305.27265			43387.38302		70.74000		324.00000 
 43692.65567		 932.52561			42760.13006		221.82600		875.00000 
 43692.65567		 305.27265			43387.38302		70.74000		324.00000 
 43692.65567		 932.52561			42760.13006		221.82600		875.00000 
 43692.65567		 305.27265			43387.38302		70.74000		324.00000 
 43692.65567		 932.52561			42760.13006		221.82600		875.00000 
 43692.65567		 305.27265			43387.38302		70.74000		324.00000 
 43692.65567		 932.52561			42760.13006		221.82600		875.00000 
 43692.65567		 305.27265			43387.38302		70.74000		324.00000 
 43692.65567		 932.52561			42760.13006		221.82600		875.00000 
 43692.65567		 305.27265			43387.38302		70.74000		324.00000 
 43692.65567		 932.52561			42760.13006		221.82600		875.00000 
 43692.65567		 305.27265			43387.38302		70.74000		324.00000 
 43692.65567		 932.52561			42760.13006		221.82600		875.00000 
 43692.65567		 305.27265			43387.38302		70.74000		324.00000 
 43692.65567		 932.52561			42760.13006		221.82600		875.00000 
 43692.65567		 305.27265			43387.38302		70.74000		324.00000 
 43692.65567		 932.52561			42760.13006		221.82600		875.00000 
 43692.65567		 305.27265			43387.38302		70.74000		324.00000 
 43692.65567		 932.52561			42760.13006		221.82600		875.00000 
 43692.65567		 305.27265			43387.38302		70.74000		324.00000 
 43692.65567		 932.52561			42760.13006		221.82600		875.00000 
 43692.65567		 305.27265			43387.38302		70.74000		324.00000 
 43692.65567		 932.52561			42760.13006		221.82600		875.00000 
 43692.65567		 305.27265			43387.38302		70.74000		324.00000 
 43692.65567		 932.52561			42760.13006		221.82600		875.00000 
 43692.65567		 305.27265			43387.38302		70.74000		324.00000 
 43692.65567		 932.52561			42760.13006		221.82600		875.00000 
 43692.65567		 305.27265			43387.38302		70.74000		324.00000 
 43692.65567		 932.52561			42760.13006		221.82600		875.00000 
 43692.65567		 305.27265			43387.38302		70.74000		324.00000 
 43692.65567		 932.52561			42760.13006		221.82600		875.00000 
 43692.65567		 305.27265			43387.38302		70.74000		324.00000 
 43692.65567		 932.52561			42760.13006		221.82600		875.00000 
 43692.65567		 305.27265			43387.38302		70.74000		324.00000 
 43692.65567		 932.52561			42760.13006		221.82600		875.00000 
 43692.65567		 305.27265			43387.38302		70.74000		324.00000 
 43692.65567		 932.52561			42760.13006		221.82600		875.00000 
 43692.65567		 305.27265			43387.38302		70.74000		324.00000 
 43692.65567		 932.52561			42760.13006		221.82600		875.00000 
 43692.65567		 305.27265			43387.38302		70.74000		324.00000 
 43692.65567		 932.52561			42760.13006		221.82600		875.00000 
 43692.65567		 305.27265			43387.38302		70.74000		324.00000 
 43692.65567		 932.52561			42760.13006		221.82600		875.00000 
 43692.65567		 305.27265			43387.38302		70.74000		324.00000 
 43692.65567		 932.52561			42760.13006		221.82600		875.00000 
 43692.65567		 305.27265			43387.38302		70.74000		324.00000 
 43692.65567		 932.52561			42760.13006		221.82600		875.00000 
 43692.65567		 305.27265			43387.38302		70.74000		324.00000 
 43692.65567		 932.52561			42760.13006		221.82600		875.00000 
 43692.65567		 305.27265			43387.38302		70.74000		324.00000 
 43692.65567		 932.52561			42760.13006		221.82600		875.00000 
 43692.65567		 305.27265			43387.38302		70.74000		324.00000 
 43692.65567		 932.52561			42760.13006		221.82600		875.00000 
 43692.65567		 305.27265			43387.38302		70.74000		324.00000 
 43692.65567		 932.52561			42760.13006		221.82600		875.00000 
 43692.65567		 305.27265			43387.38302		70.74000		324.00000 
 43692.65567		 932.52561			42760.13006		221.82600		875.00000 
 43692.65567		 305.27265			43387.38302		70.74000		324.00000 
 43692.65567		 932.52561			42760.13006		221.82600		875.00000 
 43692.65567		 305.27265			43387.38302		70.74000		324.00000 
 43692.65567		 932.52561			42760.13006		221.82600		875.00000 
 43692.65567		 305.27265			43387.38302		70.74000		324.00000 
 43692.65567		 932.52561			42760.13006		221.82600		875.00000 
 43692.65567		 305.27265			43387.38302		70.74000		324.00000 
 43692.65567		 932.52561			42760.13006		221.82600		875.00000 
 43692.65567		 305.27265			43387.38302		70.74000		324.00000 
 43692.65567		 932.52561			42760.13006		221.82600		875.00000 
 43692.65567		 305.27265			43387.38302		70.74000		324.00000 
 43692.65567		 932.52561			42760.13006		221.82600		875.00000 
 43692.65567		 305.27265			43387.38302		70.74000		324.00000 
 43692.65567		 932.52561			42760.13006		221.82600		875.00000 
 43692.65567		 305.27265			43387.38302		70.74000		324.00000 
 43692.65567		 932.52561			42760.13006		221.82600		875.00000 
 43692.65567		 305.27265			43387.38302		70.74000		324.00000 
 43692.65567		 932.52561			42760.13006		221.82600		875.00000 
 43692.65567		 305.27265			43387.38302		70.74000		324.00000 
 43692.65567		 932.52561			42760.13006		221.82600		875.00000 
 43692.65567		 305.27265			43387.38302		70.74000		324.00000 
 43692.65567		 932.52561			42760.13006		221.82600		875.00000 
 43692.65567		 305.27265			43387.38302		70.74000		324.00000 
 43692.65567		 932.52561			42760.13006		221.82600		875.00000 
 43692.65567		 305.27265			43387.38302		70.74000		324.00000 
 43692.65567		 932.52561			42760.13006		221.82600		875.00000 
 43692.65567		 305.27265			43387.38302		70.74000		324.00000 
 43692.65567		 932.52561			42760.13006		221.82600		875.00000 
 43692.65567		 305.27265			43387.38302		70.74000		324.00000 
 43692.65567		 932.52561			42760.13006		221.82600		875.00000 
 43692.65567		 305.27265			43387.38302		70.74000		324.00000 
 43692.65567		 932.52561			42760.13006		221.82600		875.00000 
 43692.65567		 305.27265			43387.38302		70.74000		324.00000 
 43692.65567		 932.52561			42760.13006		221.82600		875.00000 
 43692.65567		 305.27265			43387.38302		70.74000		324.00000 
 43692.65567		 932.52561			42760.13006		221.82600		875.00000 
 43692.65567		 305.27265			43387.38302		70.74000		324.00000 
 43692.65567		 932.52561			42760.13006		221.82600		875.00000 
 43692.65567		 305.27265			43387.38302		70.74000		324.00000 
 43692.65567		 932.52561			42760.13006		221.82600		875.00000 
 43692.65567		 305.27265			43387.38302		70.74000		324.00000 
 43692.65567		 932.52561			42760.13006		221.82600		875.00000 
 43692.65567		 305.27265			43387.38302		70.74000		324.00000 
 43692.65567		 932.52561			42760.13006		221.82600		875.00000 
 43692.65567		 305.27265			43387.38302		70.74000		324.00000 
 43692.65567		 932.52561			42760.13006		221.82600		875.00000 
 43692.65567		 305.27265			43387.38302		70.74000		324.00000 
 43692.65567		 932.52561			42760.13006		221.82600		875.00000 
 43692.65567		 305.27265			43387.38302		70.74000		324.00000 
 43692.65567		 932.52561			42760.13006		221.82600		875.00000 
 43692.65567		 305.27265			43387.38302		70.74000		324.00000 
 43692.65567		 932.52561			42760.13006		221.82600		875.00000 
 43692.65567		 305.27265			43387.38302		70.74000		324.00000 
 43692.65567		 932.52561			42760.13006		221.82600		875.00000 
 43692.65567		 305.27265			43387.38302		70.74000		324.00000 
 43692.65567		 932.52561			42760.13006		221.82600		875.00000 
 43692.65567		 305.27265			43387.38302		70.74000		324.00000 
 43692.65567		 932.52561			42760.13006		221.82600		875.00000 
 43692.65567		 305.27265			43387.38302		70.74000		324.00000 
 43692.65567		 932.52561			42760.13006		221.82600		875.00000 
 43692.65567		 305.27265			43387.38302		70.74000		324.00000 
 43692.65567		 932.52561			42760.13006		221.82600		875.00000 
 43692.65567		 305.27265			43387.38302		70.74000		324.00000 
 43692.65567		 932.52561			42760.13006		221.82600		875.00000 
 43692.65567		 305.27265			43387.38302		70.74000		324.00000 
 43692.65567		 932.52561			42760.13006		221.82600		875.00000 
 43692.65567		 305.27265			43387.38302		70.74000		324.00000 
 43692.65567		 932.52561			42760.13006		221.82600		875.00000 
 43692.65567		 305.27265			43387.38302		70.74000		324.00000 
 43692.65567		 932.52561			42760.13006		221.82600		875.00000 
 43692.65567		 305.27265			43387.38302		70.74000		324.00000 
 43692.65567		 932.52561			42760.13006		221.82600		875.00000 
 43692.65567		 305.27265			43387.38302		70.74000		324.00000 
 43692.65567		 932.52561			42760.13006		221.82600		875.00000 
 43692.65567		 305.27265			43387.38302		70.74000		324.00000 
 43692.65567		 932.52561			42760.13006		221.82600		875.00000 
 43692.65567		 305.27265			43387.38302		70.74000		324.00000 
 43692.65567		 932.52561			42760.13006		221.82600		875.00000 
 43692.65567		 305.27265			43387.38302		70.74000		324.00000 
 43692.65567		 932.52561			42760.13006		221.82600		875.00000 
 43692.65567		 305.27265			43387.38302		70.74000		324.00000 
 43692.65567		 932.52561			42760.13006		221.82600		875.00000 
 43692.65567		 305.27265			43387.38302		70.74000		324.00000 
 43692.65567		 932.52561			42760.13006		221.82600		875.00000 
 43692.65567		 305.27265			43387.38302		70.74000		324.00000 
 43692.65567		 932.52561			42760.13006		221.82600		875.00000 
 43692.65567		 305.27265			43387.38302		70.74000		324.00000 
 43692.65567		 932.52561			42760.13006		221.82600		875.00000 
 43692.65567		 305.27265			43387.38302		70.74000		324.00000 
 43692.65567		 932.52561			42760.13006		221.82600		875.00000 
 43692.65567		 305.27265			43387.38302		70.74000		324.00000 
 43692.65567		 932.52561			42760.13006		221.82600		875.00000 
 43692.65567		 305.27265			43387.38302		70.74000		324.00000 
 43692.65567		 932.52561			42760.13006		221.82600		875.00000 
 43692.65567		 305.27265			43387.38302		70.74000		324.00000 
 43692.65567		 932.52561			42760.13006		221.82600		875.00000 
 43692.65567		 305.27265			43387.38302		70.74000		324.00000 
 43692.65567		 932.52561			42760.13006		221.82600		875.00000 
 43692.65567		 305.27265			43387.38302		70.74000		324.00000 
 43692.65567		 932.52561			42760.13006		221.82600		875.00000 
 43692.65567		 305.27265			43387.38302		70.74000		324.00000 
 43692.65567		 932.52561			42760.13006		221.82600		875.00000 
 43692.65567		 305.27265			43387.38302		70.74000		324.00000 
 43692.65567		 932.52561			42760.13006		221.82600		875.00000 
 43692.65567		 305.27265			43387.38302		70.74000		324.00000 
 43692.65567		 932.52561			42760.13006		221.82600		875.00000 
 43692.65567		 305.27265			43387.38302		70.74000		324.00000 
 43692.65567		 932.52561			42760.13006		221.82600		875.00000 
 43692.65567		 305.27265			43387.38302		70.74000		324.00000 
 43692.65567		 932.52561			42760.13006		221.82600		875.00000 
 43692.65567		 305.27265			43387.38302		70.74000		324.00000 
 43692.65567		 932.52561			42760.13006		221.82600		875.00000 
 43692.65567		 305.27265			43387.38302		70.74000		324.00000 
 43692.65567		 932.52561			42760.13006		221.82600		875.00000 
 43692.65567		 305.27265			43387.38302		70.74000		324.00000 
 43692.65567		 932.52561			42760.13006		221.82600		875.00000 
 43692.65567		 305.27265			43387.38302		70.74000		324.00000 
 43692.65567		 932.52561			42760.13006		221.82600		875.00000 
 43692.65567		 305.27265			43387.38302		70.74000		324.00000 
 43692.65567		 932.52561			42760.13006		221.82600		875.00000 
 43692.65567		 305.27265			43387.38302		70.74000		324.00000 
 43692.65567		 932.52561			42760.13006		221.82600		875.00000 
 43692.65567		 305.27265			43387.38302		70.74000		324.00000 
 43692.65567		 932.52561			42760.13006		221.82600		875.00000 
 43692.65567		 305.27265			43387.38302		70.74000		324.00000 
 43692.65567		 932.52561			42760.13006		221.82600		875.00000 
 43692.65567		 305.27265			43387.38302		70.74000		324.00000 
 43692.65567		 932.52561			42760.13006		221.82600		875.00000 
 43692.65567		 305.27265			43387.38302		70.74000		324.00000 
 43692.65567		 932.52561			42760.13006		221.82600		875.00000 
 43692.65567		 305.27265			43387.38302		70.74000		324.00000 
 43692.65567		 932.52561			42760.13006		221.82600		875.00000 
 43692.65567		 305.27265			43387.38302		70.74000		324.00000 
 43692.65567		 932.52561			42760.13006		221.82600		875.00000 
 43692.65567		 305.27265			43387.38302		70.74000		324.00000 
 43692.65567		 932.52561			42760.13006		221.82600		875.00000 
 43692.65567		 305.27265			43387.38302		70.74000		324.00000 
 43692.65567		 932.52561			42760.13006		221.82600		875.00000 
 43692.65567		 305.27265			43387.38302		70.74000		324.00000 
 43692.65567		 932.52561			42760.13006		221.82600		875.00000 
 43692.65567		 305.27265			43387.38302		70.74000		324.00000 
 43692.65567		 932.52561			42760.13006		221.82600		875.00000 
 43692.65567		 305.27265			43387.38302		70.74000		324.00000 
 43692.65567		 932.52561			42760.13006		221.82600		875.00000 
 43692.65567		 305.27265			43387.38302		70.74000		324.00000 
 43692.65567		 932.52561			42760.13006		221.82600		875.00000 
 43692.65567		 305.27265			43387.38302		70.74000		324.00000 
 43692.65567		 932.52561			42760.13006		221.82600		875.00000 
 43692.65567		 305.27265			43387.38302		70.74000		324.00000 
 43692.65567		 932.52561			42760.13006		221.82600		875.00000 
 43692.65567		 305.27265			43387.38302		70.74000		324.00000 
 43692.65567		 932.52561			42760.13006		221.82600		875.00000 
 43692.65567		 305.27265			43387.38302		70.74000		324.00000 
 43692.65567		 932.52561			42760.13006		221.82600		875.00000 
 43692.65567		 305.27265			43387.38302		69.65600		324.00000 
 43692.65567		 932.52561			42760.13006		221.82600		875.00000 
 43692.65567		 305.27265			43387.38302		69.65600		324.00000 
 43692.65567		 932.52561			42760.13006		221.82600		875.00000 
 43692.65567		 305.27265			43387.38302		69.65600		324.00000 
 43692.65567		 932.52561			42760.13006		220.86200		875.00000 
 43692.65567		 305.27265			43387.38302		69.65600		324.00000 
 43692.65567		 932.52561			42760.13006		220.86200		875.00000 
 43692.65567		 305.27265			43387.38302		69.65600		324.00000 
 43692.65567		 932.52561			42760.13006		220.86200		875.00000 
 43692.65567		 305.27265			43387.38302		69.65600		324.00000 
 43692.65567		 932.52561			42760.13006		220.86200		875.00000 
 43692.65567		 305.27265			43387.38302		69.65600		324.00000 
 43692.65567		 932.52561			42760.13006		220.86200		875.00000 
 43692.65567		 305.27265			43387.38302		69.65600		324.00000 
 43692.65567		 932.52561			42760.13006		220.86200		875.00000 
 43692.65567		 305.27265			43387.38302		69.65600		324.00000 
 43692.65567		 932.52561			42760.13006		220.86200		875.00000 
 43692.65567		 305.27265			43387.38302		69.65600		324.00000 
 43692.65567		 932.52561			42760.13006		220.86200		875.00000 
 43692.65567		 305.27265			43387.38302		69.65600		324.00000 
 43692.65567		 932.52561			42760.13006		220.86200		875.00000 
 43692.65567		 305.27265			43387.38302		69.65600		324.00000 
 43692.65567		 932.52561			42760.13006		220.86200		875.00000 
 43692.65567		 305.27265			43387.38302		69.65600		324.00000 
 43692.65567		 932.52561			42760.13006		220.86200		875.00000 
 43692.65567		 305.27265			43387.38302		69.65600		324.00000 
 43692.65567		 932.52561			42760.13006		220.86200		875.00000 
 43692.65567		 305.27265			43387.38302		69.65600		324.00000 
 43692.65567		 932.52561			42760.13006		220.86200		875.00000 
 43692.65567		 305.27265			43387.38302		69.65600		324.00000 
 43692.65567		 932.52561			42760.13006		220.86200		875.00000 
 43692.65567		 305.27265			43387.38302		69.65600		324.00000 
 43692.65567		 932.52561			42760.13006		220.86200		875.00000 
 43692.65567		 305.27265			43387.38302		69.65600		324.00000 
 43692.65567		 932.52561			42760.13006		220.86200		875.00000 
 43692.65567		 305.27265			43387.38302		69.65600		324.00000 
 43692.65567		 932.52561			42760.13006		220.86200		875.00000 
 43692.65567		 305.27265			43387.38302		69.65600		324.00000 
 43692.65567		 932.52561			42760.13006		220.86200		875.00000 
 43692.65567		 305.27265			43387.38302		69.65600		324.00000 
 43692.65567		 932.52561			42760.13006		220.86200		875.00000 
 43692.65567		 305.27265			43387.38302		69.65600		324.00000 
 43692.65567		 932.52561			42760.13006		220.86200		875.00000 
 43692.65567		 305.27265			43387.38302		69.65600		324.00000 
 43692.65567		 932.52561			42760.13006		220.86200		875.00000 
 43692.65567		 305.27265			43387.38302		69.65600		324.00000 
 43692.65567		 932.52561			42760.13006		220.86200		875.00000 
 43692.65567		 305.27265			43387.38302		69.65600		324.00000 
 43692.65567		 932.52561			42760.13006		220.86200		875.00000 
 43692.65567		 305.27265			43387.38302		69.65600		324.00000 
 43692.65567		 932.52561			42760.13006		220.86200		875.00000 
 43692.65567		 305.27265			43387.38302		69.65600		324.00000 
 43692.65567		 932.52561			42760.13006		220.86200		875.00000 
 43692.65567		 305.27265			43387.38302		69.65600		324.00000 
 43692.65567		 932.52561			42760.13006		220.86200		875.00000 
 43692.65567		 305.27265			43387.38302		69.65600		324.00000 
 43692.65567		 932.52561			42760.13006		220.86200		875.00000 
 43692.65567		 305.27265			43387.38302		69.65600		324.00000 
 43692.65567		 932.52561			42760.13006		220.86200		875.00000 
 43692.65567		 305.27265			43387.38302		69.65600		324.00000 
 43692.65567		 932.52561			42760.13006		220.86200		875.00000 
 43692.65567		 305.27265			43387.38302		69.65600		324.00000 
 43692.65567		 932.52561			42760.13006		220.86200		875.00000 
 43692.65567		 305.27265			43387.38302		69.65600		324.00000 
 43692.65567		 932.52561			42760.13006		220.86200		875.00000 
 43692.65567		 305.27265			43387.38302		69.65600		324.00000 
 43692.65567		 932.52561			42760.13006		220.86200		875.00000 
 43692.65567		 305.27265			43387.38302		69.65600		324.00000 
 43692.65567		 932.52561			42760.13006		220.86200		875.00000 
 43692.65567		 305.27265			43387.38302		69.65600		324.00000 
 43692.65567		 932.52561			42760.13006		220.86200		875.00000 
 43692.65567		 305.27265			43387.38302		69.65600		324.00000 
 43692.65567		 932.52561			42760.13006		220.86200		875.00000 
 43692.65567		 305.27265			43387.38302		69.65600		324.00000 
 43692.65567		 932.52561			42760.13006		220.86200		875.00000 
 43692.65567		 305.27265			43387.38302		69.65600		324.00000 
 43692.65567		 932.52561			42760.13006		220.86200		875.00000 
 43692.65567		 305.27265			43387.38302		69.65600		324.00000 
 43692.65567		 932.52561			42760.13006		220.86200		875.00000 
 43692.65567		 305.27265			43387.38302		69.65600		324.00000 
 43692.65567		 932.52561			42760.13006		220.86200		875.00000 
 43692.65567		 305.27265			43387.38302		69.65600		324.00000 
 43692.65567		 932.52561			42760.13006		220.86200		875.00000 
 43692.65567		 305.27265			43387.38302		69.65600		324.00000 
 43692.65567		 932.52561			42760.13006		220.86200		875.00000 
 43692.65567		 305.27265			43387.38302		69.65600		324.00000 
 43692.65567		 932.52561			42760.13006		220.86200		875.00000 
 43692.65567		 305.27265			43387.38302		69.65600		324.00000 
 43692.65567		 932.52561			42760.13006		220.86200		875.00000 
 43692.65567		 305.27265			43387.38302		69.65600		324.00000 
 43692.65567		 932.52561			42760.13006		220.86200		875.00000 
 43692.65567		 305.27265			43387.38302		69.65600		324.00000 
 43692.65567		 932.52561			42760.13006		220.86200		875.00000 
 43692.65567		 305.27265			43387.38302		69.65600		324.00000 
 43692.65567		 932.52561			42760.13006		220.86200		875.00000 
 43692.65567		 305.27265			43387.38302		69.65600		324.00000 
 43692.65567		 932.52561			42760.13006		220.86200		875.00000 
 43692.65567		 305.27265			43387.38302		69.65600		324.00000 
 43692.65567		 932.52561			42760.13006		220.86200		875.00000 
 43692.65567		 305.27265			43387.38302		69.65600		324.00000 
 43692.65567		 932.52561			42760.13006		220.86200		875.00000 
 43692.65567		 305.27265			43387.38302		69.65600		324.00000 
 43692.65567		 932.52561			42760.13006		220.86200		875.00000 
 43692.65567		 305.27265			43387.38302		69.65600		324.00000 
 43692.65567		 932.52561			42760.13006		220.86200		875.00000 
 43692.65567		 305.27265			43387.38302		69.65600		324.00000 
 43692.65567		 932.52561			42760.13006		220.86200		875.00000 
 43692.65567		 305.27265			43387.38302		69.65600		324.00000 
 43692.65567		 932.52561			42760.13006		220.86200		875.00000 
 43692.65567		 305.27265			43387.38302		69.65600		324.00000 
 43692.65567		 932.52561			42760.13006		220.86200		875.00000 
 43692.65567		 305.27265			43387.38302		69.65600		324.00000 
 43692.65567		 932.52561			42760.13006		220.86200		875.00000 
 43692.65567		 305.27265			43387.38302		69.65600		324.00000 
 43692.65567		 932.52561			42760.13006		220.86200		875.00000 
 43692.65567		 305.27265			43387.38302		69.65600		324.00000 
 43692.65567		 932.52561			42760.13006		220.86200		875.00000 
 43692.65567		 305.27265			43387.38302		69.65600		324.00000 
 43692.65567		 932.52561			42760.13006		220.86200		875.00000 
 43692.65567		 305.27265			43387.38302		69.65600		324.00000 
 43692.65567		 932.52561			42760.13006		220.86200		875.00000 
 43692.65567		 305.27265			43387.38302		69.65600		324.00000 
 43692.65567		 932.52561			42760.13006		220.86200		875.00000 
 43692.65567		 305.27265			43387.38302		69.65600		324.00000 
 43692.65567		 932.52561			42760.13006		220.86200		875.00000 
 43692.65567		 305.27265			43387.38302		69.65600		324.00000 
 43692.65567		 932.52561			42760.13006		220.86200		875.00000 
 43692.65567		 305.27265			43387.38302		69.65600		324.00000 
 43692.65567		 932.52561			42760.13006		220.86200		875.00000 
 43692.65567		 305.27265			43387.38302		69.65600		324.00000 
 43692.65567		 932.52561			42760.13006		220.86200		875.00000 
 43692.65567		 305.27265			43387.38302		69.65600		324.00000 
 43692.65567		 932.52561			42760.13006		221.82600		875.00000 
 43692.65567		 305.27265			43387.38302		69.65600		324.00000 
 43692.65567		 932.52561			42760.13006		221.82600		875.00000 
 43692.65567		 305.27265			43387.38302		69.65600		324.00000 
 43692.65567		 932.52561			42760.13006		221.82600		875.00000 
 43692.65567		 305.27265			43387.38302		69.65600		324.00000 
 43692.65567		 932.52561			42760.13006		221.82600		875.00000 
 43692.65567		 305.27265			43387.38302		69.65600		324.00000 
 43692.65567		 932.52561			42760.13006		221.82600		875.00000 
 43692.65567		 305.27265			43387.38302		69.65600		324.00000 
 43692.65567		 932.52561			42760.13006		221.82600		875.00000 
 43692.65567		 305.27265			43387.38302		69.65600		324.00000 
 43692.65567		 932.52561			42760.13006		221.82600		875.00000 
 43692.65567		 305.27265			43387.38302		69.65600		324.00000 
 43692.65567		 932.52561			42760.13006		221.82600		875.00000 
 43692.65567		 305.27265			43387.38302		69.65600		324.00000 
 43692.65567		 932.52561			42760.13006		221.82600		875.00000 
 43692.65567		 305.27265			43387.38302		69.65600		324.00000 
 43692.65567		 932.52561			42760.13006		221.82600		875.00000 
 43692.65567		 305.27265			43387.38302		69.65600		324.00000 
 43692.65567		 932.52561			42760.13006		221.82600		875.00000 
 43692.65567		 305.27265			43387.38302		69.65600		324.00000 
 43692.65567		 932.52561			42760.13006		221.82600		875.00000 
 43692.65567		 305.27265			43387.38302		69.65600		324.00000 
 43692.65567		 932.52561			42760.13006		221.82600		875.00000 
 43692.65567		 305.27265			43387.38302		69.65600		324.00000 
 43692.65567		 932.52561			42760.13006		221.82600		875.00000 
 43692.65567		 305.27265			43387.38302		69.65600		324.00000 
 43692.65567		 932.52561			42760.13006		221.82600		875.00000 
 43692.65567		 305.27265			43387.38302		69.65600		324.00000 
 43692.65567		 932.52561			42760.13006		221.82600		875.00000 
 43692.65567		 305.27265			43387.38302		69.65600		324.00000 
 43692.65567		 932.52561			42760.13006		221.82600		875.00000 
 43692.65567		 305.27265			43387.38302		69.65600		324.00000 
 43692.65567		 932.52561			42760.13006		221.82600		875.00000 
 43692.65567		 305.27265			43387.38302		69.65600		324.00000 
 43692.65567		 932.52561			42760.13006		221.82600		875.00000 
 43692.65567		 305.27265			43387.38302		69.65600		324.00000 
 43692.65567		 932.52561			42760.13006		221.82600		875.00000 
 43692.65567		 305.27265			43387.38302		69.65600		324.00000 
 43692.65567		 932.52561			42760.13006		221.82600		875.00000 
 43692.65567		 305.27265			43387.38302		69.65600		324.00000 
 43692.65567		 932.52561			42760.13006		221.82600		875.00000 
 43692.65567		 305.27265			43387.38302		69.65600		324.00000 
 43692.65567		 932.52561			42760.13006		221.82600		875.00000 
 43692.65567		 305.27265			43387.38302		69.65600		324.00000 
 43692.65567		 932.52561			42760.13006		221.82600		875.00000 
 43692.65567		 305.27265			43387.38302		69.65600		324.00000 
 43692.65567		 932.52561			42760.13006		221.82600		875.00000 
 43692.65567		 305.27265			43387.38302		69.65600		324.00000 
 43692.65567		 932.52561			42760.13006		221.82600		875.00000 
 43692.65567		 305.27265			43387.38302		69.65600		324.00000 
 43692.65567		 932.52561			42760.13006		221.82600		875.00000 
 43692.65567		 305.27265			43387.38302		69.65600		324.00000 
 43692.65567		 932.52561			42760.13006		221.82600		875.00000 
 43692.65567		 305.27265			43387.38302		69.65600		324.00000 
 43692.65567		 932.52561			42760.13006		221.82600		875.00000 
 43692.65567		 305.27265			43387.38302		69.65600		324.00000 
 43692.65567		 932.52561			42760.13006		221.82600		875.00000 
 43692.65567		 305.27265			43387.38302		69.65600		324.00000 
 43692.65567		 932.52561			42760.13006		221.82600		875.00000 
 43692.65567		 305.27265			43387.38302		69.65600		324.00000 
 43692.65567		 932.52561			42760.13006		221.82600		875.00000 
 43692.65567		 305.27265			43387.38302		69.65600		324.00000 
 43692.65567		 932.52561			42760.13006		221.82600		875.00000 
 43692.65567		 305.27265			43387.38302		69.65600		324.00000 
 43692.65567		 932.52561			42760.13006		221.82600		875.00000 
 43692.65567		 305.27265			43387.38302		69.65600		324.00000 
 43692.65567		 932.52561			42760.13006		221.82600		875.00000 
 43692.65567		 305.27265			43387.38302		69.65600		324.00000 
 43692.65567		 932.52561			42760.13006		221.82600		875.00000 
 43692.65567		 305.27265			43387.38302		69.65600		324.00000 
 43692.65567		 932.52561			42760.13006		221.82600		875.00000 
 43692.65567		 305.27265			43387.38302		69.65600		324.00000 
 43692.65567		 932.52561			42760.13006		221.82600		875.00000 
 43692.65567		 305.27265			43387.38302		69.65600		324.00000 
 43692.65567		 932.52561			42760.13006		221.82600		875.00000 
 43692.65567		 305.27265			43387.38302		69.65600		324.00000 
 43692.65567		 932.52561			42760.13006		221.82600		875.00000 
 43692.65567		 305.27265			43387.38302		69.65600		324.00000 
 43692.65567		 932.52561			42760.13006		221.82600		875.00000 
 43692.65567		 305.27265			43387.38302		69.65600		324.00000 
 43692.65567		 932.52561			42760.13006		221.82600		875.00000 
 43692.65567		 305.27265			43387.38302		69.65600		324.00000 
 43692.65567		 932.52561			42760.13006		221.82600		875.00000 
 43692.65567		 305.27265			43387.38302		69.65600		324.00000 
 43692.65567		 932.52561			42760.13006		221.82600		875.00000 
 43692.65567		 305.27265			43387.38302		69.65600		324.00000 
 43692.65567		 932.52561			42760.13006		221.82600		875.00000 
 43692.65567		 305.27265			43387.38302		69.65600		324.00000 
 43692.65567		 932.52561			42760.13006		221.82600		875.00000 
 43692.65567		 305.27265			43387.38302		69.65600		324.00000 
 43692.65567		 932.52561			42760.13006		221.82600		875.00000 
 43692.65567		 305.27265			43387.38302		69.65600		324.00000 
 43692.65567		 932.52561			42760.13006		221.82600		875.00000 
 43692.65567		 305.27265			43387.38302		69.65600		324.00000 
 43692.65567		 932.52561			42760.13006		221.82600		875.00000 
 43692.65567		 305.27265			43387.38302		69.65600		324.00000 
 43692.65567		 932.52561			42760.13006		221.82600		875.00000 
 43692.65567		 305.27265			43387.38302		69.65600		324.00000 
 43692.65567		 932.52561			42760.13006		221.82600		875.00000 
 43692.65567		 305.27265			43387.38302		69.65600		324.00000 
 43692.65567		 932.52561			42760.13006		221.82600		875.00000 
 43692.65567		 305.27265			43387.38302		69.65600		324.00000 
 43692.65567		 932.52561			42760.13006		221.82600		875.00000 
 43692.65567		 305.27265			43387.38302		69.65600		324.00000 
 43692.65567		 932.52561			42760.13006		221.82600		875.00000 
 43692.65567		 305.27265			43387.38302		69.65600		324.00000 
 43692.65567		 932.52561			42760.13006		221.82600		875.00000 
 43692.65567		 305.27265			43387.38302		69.65600		324.00000 
 43692.65567		 932.52561			42760.13006		221.82600		875.00000 
 43692.65567		 305.27265			43387.38302		69.65600		324.00000 
 43692.65567		 932.52561			42760.13006		221.82600		875.00000 
 43692.65567		 305.27265			43387.38302		69.65600		324.00000 
 43692.65567		 932.52561			42760.13006		221.82600		875.00000 
 43692.65567		 305.27265			43387.38302		69.65600		324.00000 
 43692.65567		 932.52561			42760.13006		221.82600		875.00000 
 43692.65567		 305.27265			43387.38302		69.65600		324.00000 
 43692.65567		 932.52561			42760.13006		221.82600		875.00000 
 43692.65567		 305.27265			43387.38302		69.65600		324.00000 
 43692.65567		 932.52561			42760.13006		221.82600		875.00000 
 43692.65567		 305.27265			43387.38302		69.65600		324.00000 
 43692.65567		 932.52561			42760.13006		221.82600		875.00000 
 43692.65567		 305.27265			43387.38302		69.65600		324.00000 
 43692.65567		 932.52561			42760.13006		221.82600		875.00000 
 43692.65567		 305.27265			43387.38302		69.65600		324.00000 
 43692.65567		 932.52561			42760.13006		221.82600		875.00000 
 43692.65567		 305.27265			43387.38302		69.65600		324.00000 
 43692.65567		 932.52561			42760.13006		221.82600		875.00000 
 43692.65567		 305.27265			43387.38302		69.65600		324.00000 
 43692.65567		 932.52561			42760.13006		220.86200		875.00000 
 43692.65567		 305.27265			43387.38302		69.65600		324.00000 
 43692.65567		 932.52561			42760.13006		220.86200		875.00000 
 43692.65567		 305.27265			43387.38302		69.65600		324.00000 
 43692.65567		 932.52561			42760.13006		220.86200		875.00000 
 43692.65567		 305.27265			43387.38302		69.65600		324.00000 
 43692.65567		 932.52561			42760.13006		220.86200		875.00000 
 43692.65567		 305.27265			43387.38302		69.65600		324.00000 
 43692.65567		 932.52561			42760.13006		220.86200		875.00000 
 43692.65567		 305.27265			43387.38302		69.65600		324.00000 
 43692.65567		 932.52561			42760.13006		220.86200		875.00000 
 43692.65567		 305.27265			43387.38302		69.65600		324.00000 
 43692.65567		 932.52561			42760.13006		220.86200		875.00000 
 43692.65567		 305.27265			43387.38302		69.65600		324.00000 
 43692.65567		 932.52561			42760.13006		220.86200		875.00000 
 43692.65567		 305.27265			43387.38302		69.65600		324.00000 
 43692.65567		 932.52561			42760.13006		220.86200		875.00000 
 43692.65567		 305.27265			43387.38302		69.65600		324.00000 
 43692.65567		 932.52561			42760.13006		220.86200		875.00000 
 43692.65567		 305.27265			43387.38302		69.65600		324.00000 
 43692.65567		 932.52561			42760.13006		220.86200		875.00000 
 43692.65567		 305.27265			43387.38302		69.65600		324.00000 
 43692.65567		 932.52561			42760.13006		220.86200		875.00000 
 43692.65567		 305.27265			43387.38302		69.65600		324.00000 
 43692.65567		 932.52561			42760.13006		220.86200		875.00000 
 43692.65567		 305.27265			43387.38302		69.65600		324.00000 
 43692.65567		 932.52561			42760.13006		220.86200		875.00000 
 43692.65567		 305.27265			43387.38302		69.65600		324.00000 
 43692.65567		 932.52561			42760.13006		220.86200		875.00000 
 43692.65567		 305.27265			43387.38302		69.65600		324.00000 
 43692.65567		 932.52561			42760.13006		220.86200		875.00000 
 43692.65567		 305.27265			43387.38302		69.65600		324.00000 
 43692.65567		 932.52561			42760.13006		220.86200		875.00000 
 43692.65567		 305.27265			43387.38302		69.65600		324.00000 
 43692.65567		 932.52561			42760.13006		220.86200		875.00000 
 43692.65567		 305.27265			43387.38302		69.65600		324.00000 
 43692.65567		 932.52561			42760.13006		220.86200		875.00000 
 43692.65567		 305.27265			43387.38302		69.65600		324.00000 
 43692.65567		 932.52561			42760.13006		220.86200		875.00000 
 43692.65567		 305.27265			43387.38302		69.65600		324.00000 
 43692.65567		 932.52561			42760.13006		220.86200		875.00000 
 43692.65567		 305.27265			43387.38302		69.65600		324.00000 
 43692.65567		 932.52561			42760.13006		220.86200		875.00000 
 43692.65567		 305.27265			43387.38302		69.65600		324.00000 
 43692.65567		 932.52561			42760.13006		220.86200		875.00000 
 43692.65567		 305.27265			43387.38302		69.65600		324.00000 
 43692.65567		 932.52561			42760.13006		220.86200		875.00000 
 43692.65567		 305.27265			43387.38302		69.65600		324.00000 
 43692.65567		 932.52561			42760.13006		220.86200		875.00000 
 43692.65567		 305.27265			43387.38302		69.65600		324.00000 
 43692.65567		 932.52561			42760.13006		220.86200		875.00000 
 43692.65567		 305.27265			43387.38302		69.65600		324.00000 
 43692.65567		 932.52561			42760.13006		220.86200		875.00000 
 43692.65567		 305.27265			43387.38302		69.65600		324.00000 
 43692.65567		 932.52561			42760.13006		220.86200		875.00000 
 43692.65567		 305.27265			43387.38302		69.65600		324.00000 
 43692.65567		 932.52561			42760.13006		220.86200		875.00000 
 43692.65567		 305.27265			43387.38302		69.65600		324.00000 
 43692.65567		 932.52561			42760.13006		220.86200		875.00000 
 43692.65567		 305.27265			43387.38302		69.65600		324.00000 
 43692.65567		 932.52561			42760.13006		220.86200		875.00000 
 43692.65567		 305.27265			43387.38302		69.65600		324.00000 
 43692.65567		 932.52561			42760.13006		220.86200		875.00000 
 43692.65567		 305.27265			43387.38302		69.65600		324.00000 
 43692.65567		 932.52561			42760.13006		220.86200		875.00000 
 43692.65567		 305.27265			43387.38302		69.65600		324.00000 
 43692.65567		 932.52561			42760.13006		220.86200		875.00000 
 43692.65567		 305.27265			43387.38302		69.65600		324.00000 
 43692.65567		 932.52561			42760.13006		220.86200		875.00000 
 43692.65567		 305.27265			43387.38302		69.65600		324.00000 
 43692.65567		 932.52561			42760.13006		220.86200		875.00000 
 43692.65567		 305.27265			43387.38302		69.65600		324.00000 
 43692.65567		 932.52561			42760.13006		220.86200		875.00000 
 43692.65567		 305.27265			43387.38302		69.65600		324.00000 
 43692.65567		 932.52561			42760.13006		220.86200		875.00000 
 43692.65567		 305.27265			43387.38302		69.65600		324.00000 
 43692.65567		 932.52561			42760.13006		220.86200		875.00000 
 43692.65567		 305.27265			43387.38302		69.65600		324.00000 
 43692.65567		 932.52561			42760.13006		220.86200		875.00000 
 43692.65567		 305.27265			43387.38302		69.65600		324.00000 
 43692.65567		 932.52561			42760.13006		220.86200		875.00000 
 43692.65567		 305.27265			43387.38302		69.65600		324.00000 
 43692.65567		 932.52561			42760.13006		220.86200		875.00000 
 43692.65567		 305.27265			43387.38302		69.65600		324.00000 
 43692.65567		 932.52561			42760.13006		220.86200		875.00000 
 43692.65567		 305.27265			43387.38302		69.65600		324.00000 
 43692.65567		 932.52561			42760.13006		220.86200		875.00000 
 43692.65567		 305.27265			43387.38302		69.65600		324.00000 
 43692.65567		 932.52561			42760.13006		220.86200		875.00000 
 43692.65567		 305.27265			43387.38302		69.65600		324.00000 
 43692.65567		 932.52561			42760.13006		220.86200		875.00000 
 43692.65567		 305.27265			43387.38302		69.65600		324.00000 
 43692.65567		 932.52561			42760.13006		220.86200		875.00000 
 43692.65567		 305.27265			43387.38302		69.65600		324.00000 
 43692.65567		 932.52561			42760.13006		220.86200		875.00000 
 43692.65567		 305.27265			43387.38302		69.65600		324.00000 
 43692.65567		 932.52561			42760.13006		220.86200		875.00000 
 43692.65567		 305.27265			43387.38302		69.65600		324.00000 
 43692.65567		 932.52561			42760.13006		220.86200		875.00000 
 43692.65567		 305.27265			43387.38302		69.65600		324.00000 
 43692.65567		 932.52561			42760.13006		220.86200		875.00000 
 43692.65567		 305.27265			43387.38302		69.65600		324.00000 
 43692.65567		 932.52561			42760.13006		220.86200		875.00000 
 43692.65567		 305.27265			43387.38302		69.65600		324.00000 
 43692.65567		 932.52561			42760.13006		220.86200		875.00000 
 43692.65567		 305.27265			43387.38302		69.65600		324.00000 
 43692.65567		 932.52561			42760.13006		220.86200		875.00000 
 43692.65567		 305.27265			43387.38302		69.65600		324.00000 
 43692.65567		 932.52561			42760.13006		220.86200		875.00000 
 43692.65567		 305.27265			43387.38302		69.65600		324.00000 
 43692.65567		 932.52561			42760.13006		220.86200		875.00000 
 43692.65567		 305.27265			43387.38302		69.65600		324.00000 
 43692.65567		 932.52561			42760.13006		220.86200		875.00000 
 43692.65567		 305.27265			43387.38302		69.65600		324.00000 
 43692.65567		 932.52561			42760.13006		220.86200		875.00000 
 43692.65567		 305.27265			43387.38302		69.65600		324.00000 
 43692.65567		 932.52561			42760.13006		220.86200		875.00000 
 43692.65567		 305.27265			43387.38302		69.65600		324.00000 
 43692.65567		 932.52561			42760.13006		220.86200		875.00000 
 43692.65567		 305.27265			43387.38302		69.65600		324.00000 
 43692.65567		 932.52561			42760.13006		220.86200		875.00000 
 43692.65567		 305.27265			43387.38302		69.65600		324.00000 
 43692.65567		 932.52561			42760.13006		220.86200		875.00000 
 43692.65567		 305.27265			43387.38302		69.65600		324.00000 
 43692.65567		 932.52561			42760.13006		220.86200		875.00000 
 43692.65567		 305.27265			43387.38302		69.65600		324.00000 
 43692.65567		 932.52561			42760.13006		220.86200		875.00000 
 43692.65567		 305.27265			43387.38302		69.65600		324.00000 
 43692.65567		 932.52561			42760.13006		220.86200		875.00000 
 43692.65567		 305.27265			43387.38302		69.65600		324.00000 
 43692.65567		 932.52561			42760.13006		220.86200		875.00000 
 43692.65567		 305.27265			43387.38302		69.65600		324.00000 
 43692.65567		 932.52561			42760.13006		221.82600		875.00000 
 43692.65567		 305.27265			43387.38302		69.65600		324.00000 
 43692.65567		 932.52561			42760.13006		221.82600		875.00000 
 43692.65567		 305.27265			43387.38302		69.65600		324.00000 
 43692.65567		 932.52561			42760.13006		221.82600		875.00000 
 43692.65567		 305.27265			43387.38302		69.65600		324.00000 
 43692.65567		 932.52561			42760.13006		221.82600		875.00000 
 43692.65567		 305.27265			43387.38302		69.65600		324.00000 
 43692.65567		 932.52561			42760.13006		221.82600		875.00000 
 43692.65567		 305.27265			43387.38302		69.65600		324.00000 
 43692.65567		 932.52561			42760.13006		221.82600		875.00000 
 43692.65567		 305.27265			43387.38302		69.65600		324.00000 
 43692.65567		 932.52561			42760.13006		221.82600		875.00000 
 43692.65567		 305.27265			43387.38302		69.65600		324.00000 
 43692.65567		 932.52561			42760.13006		221.82600		875.00000 
 43692.65567		 305.27265			43387.38302		69.65600		324.00000 
 43692.65567		 932.52561			42760.13006		221.82600		875.00000 
 43692.65567		 305.27265			43387.38302		69.65600		324.00000 
 43692.65567		 932.52561			42760.13006		221.82600		875.00000 
 43692.65567		 305.27265			43387.38302		69.65600		324.00000 
 43692.65567		 932.52561			42760.13006		221.82600		875.00000 
 43692.65567		 305.27265			43387.38302		69.65600		324.00000 
 43692.65567		 932.52561			42760.13006		221.82600		875.00000 
 43692.65567		 305.27265			43387.38302		69.65600		324.00000 
 43692.65567		 932.52561			42760.13006		221.82600		875.00000 
 43692.65567		 305.27265			43387.38302		69.65600		324.00000 
 43692.65567		 932.52561			42760.13006		221.82600		875.00000 
 43692.65567		 305.27265			43387.38302		69.65600		324.00000 
 43692.65567		 932.52561			42760.13006		221.82600		875.00000 
 43692.65567		 305.27265			43387.38302		69.65600		324.00000 
 43692.65567		 932.52561			42760.13006		221.82600		875.00000 
 43692.65567		 305.27265			43387.38302		69.65600		324.00000 
 43692.65567		 932.52561			42760.13006		221.82600		875.00000 
 43692.65567		 305.27265			43387.38302		69.65600		324.00000 
 43692.65567		 932.52561			42760.13006		221.82600		875.00000 
 43692.65567		 305.27265			43387.38302		69.65600		324.00000 
 43692.65567		 932.52561			42760.13006		221.82600		875.00000 
 43692.65567		 305.27265			43387.38302		69.65600		324.00000 
 43692.65567		 932.52561			42760.13006		221.82600		875.00000 
 43692.65567		 305.27265			43387.38302		69.65600		324.00000 
 43692.65567		 932.52561			42760.13006		221.82600		875.00000 
 43692.65567		 305.27265			43387.38302		69.65600		324.00000 
 43692.65567		 932.52561			42760.13006		221.82600		875.00000 
 43692.65567		 305.27265			43387.38302		69.65600		324.00000 
 43692.65567		 932.52561			42760.13006		221.82600		875.00000 
 43692.65567		 305.27265			43387.38302		69.65600		324.00000 
 43692.65567		 932.52561			42760.13006		221.82600		875.00000 
 43692.65567		 305.27265			43387.38302		69.65600		324.00000 
 43692.65567		 932.52561			42760.13006		221.82600		875.00000 
 43692.65567		 305.27265			43387.38302		69.65600		324.00000 
 43692.65567		 932.52561			42760.13006		221.82600		875.00000 
 43692.65567		 305.27265			43387.38302		69.65600		324.00000 
 43692.65567		 932.52561			42760.13006		221.82600		875.00000 
 43692.65567		 305.27265			43387.38302		69.65600		324.00000 
 43692.65567		 932.52561			42760.13006		221.82600		875.00000 
 43692.65567		 305.27265			43387.38302		69.65600		324.00000 
 43692.65567		 932.52561			42760.13006		221.82600		875.00000 
 43692.65567		 305.27265			43387.38302		69.65600		324.00000 
 43692.65567		 932.52561			42760.13006		221.82600		875.00000 
 43692.65567		 305.27265			43387.38302		69.65600		324.00000 
 43692.65567		 932.52561			42760.13006		221.82600		875.00000 
 43692.65567		 305.27265			43387.38302		69.65600		324.00000 
 43692.65567		 932.52561			42760.13006		221.82600		875.00000 
 43692.65567		 305.27265			43387.38302		69.65600		324.00000 
 43692.65567		 932.52561			42760.13006		221.82600		875.00000 
 43692.65567		 305.27265			43387.38302		69.65600		324.00000 
 43692.65567		 932.52561			42760.13006		221.82600		875.00000 
 43692.65567		 305.27265			43387.38302		69.65600		324.00000 
 43692.65567		 932.52561			42760.13006		221.82600		875.00000 
 43692.65567		 305.27265			43387.38302		69.65600		324.00000 
 43692.65567		 932.52561			42760.13006		221.82600		875.00000 
 43692.65567		 305.27265			43387.38302		69.65600		324.00000 
 43692.65567		 932.52561			42760.13006		221.82600		875.00000 
 43692.65567		 305.27265			43387.38302		69.65600		324.00000 
 43692.65567		 932.52561			42760.13006		221.82600		875.00000 
 43692.65567		 305.27265			43387.38302		69.65600		324.00000 
 43692.65567		 932.52561			42760.13006		221.82600		875.00000 
 43692.65567		 305.27265			43387.38302		69.65600		324.00000 
 43692.65567		 932.52561			42760.13006		221.82600		875.00000 
 43692.65567		 305.27265			43387.38302		69.65600		324.00000 
 43692.65567		 932.52561			42760.13006		221.82600		875.00000 
 43692.65567		 305.27265			43387.38302		69.65600		324.00000 
 43692.65567		 932.52561			42760.13006		221.82600		875.00000 
 43692.65567		 305.27265			43387.38302		69.65600		324.00000 
 43692.65567		 932.52561			42760.13006		221.82600		875.00000 
 43692.65567		 305.27265			43387.38302		69.65600		324.00000 
 43692.65567		 932.52561			42760.13006		221.82600		875.00000 
 43692.65567		 305.27265			43387.38302		69.65600		324.00000 
 43692.65567		 932.52561			42760.13006		221.82600		875.00000 
 43692.65567		 305.27265			43387.38302		69.65600		324.00000 
 43692.65567		 932.52561			42760.13006		221.82600		875.00000 
 43692.65567		 305.27265			43387.38302		69.65600		324.00000 
 43692.65567		 932.52561			42760.13006		221.82600		875.00000 
 43692.65567		 305.27265			43387.38302		69.65600		324.00000 
 43692.65567		 932.52561			42760.13006		221.82600		875.00000 
 43692.65567		 305.27265			43387.38302		69.65600		324.00000 
 43692.65567		 932.52561			42760.13006		221.82600		875.00000 
 43692.65567		 305.27265			43387.38302		69.65600		324.00000 
 43692.65567		 932.52561			42760.13006		221.82600		875.00000 
 43692.65567		 305.27265			43387.38302		69.65600		324.00000 
 43692.65567		 932.52561			42760.13006		221.82600		875.00000 
 43692.65567		 305.27265			43387.38302		69.65600		324.00000 
 43692.65567		 932.52561			42760.13006		221.82600		875.00000 
 43692.65567		 305.27265			43387.38302		69.65600		324.00000 
 43692.65567		 932.52561			42760.13006		221.82600		875.00000 
 43692.65567		 305.27265			43387.38302		69.65600		324.00000 
 43692.65567		 932.52561			42760.13006		221.82600		875.00000 
 43692.65567		 305.27265			43387.38302		69.65600		324.00000 
 43692.65567		 932.52561			42760.13006		221.82600		875.00000 
 43692.65567		 305.27265			43387.38302		69.65600		324.00000 
 43692.65567		 932.52561			42760.13006		221.82600		875.00000 
 43692.65567		 305.27265			43387.38302		69.65600		324.00000 
 43692.65567		 932.52561			42760.13006		221.82600		875.00000 
 43692.65567		 305.27265			43387.38302		69.65600		324.00000 
 43692.65567		 932.52561			42760.13006		221.82600		875.00000 
 43692.65567		 305.27265			43387.38302		69.65600		324.00000 
 43692.65567		 932.52561			42760.13006		221.82600		875.00000 
 43692.65567		 305.27265			43387.38302		69.65600		324.00000 
 43692.65567		 932.52561			42760.13006		221.82600		875.00000 
 43692.65567		 305.27265			43387.38302		69.65600		324.00000 
 43692.65567		 932.52561			42760.13006		221.82600		875.00000 
 43692.65567		 305.27265			43387.38302		69.65600		324.00000 
 43692.65567		 932.52561			42760.13006		221.82600		875.00000 
 43692.65567		 305.27265			43387.38302		69.65600		324.00000 
 43692.65567		 932.52561			42760.13006		221.82600		875.00000 
 43692.65567		 305.27265			43387.38302		69.65600		324.00000 
 43692.65567		 932.52561			42760.13006		221.82600		875.00000 
 43692.65567		 305.27265			43387.38302		69.65600		324.00000 
 43692.65567		 932.52561			42760.13006		221.82600		875.00000 
 43692.65567		 305.27265			43387.38302		69.65600		324.00000 
 43692.65567		 932.52561			42760.13006		221.82600		875.00000 
 43692.65567		 305.27265			43387.38302		69.65600		324.00000 
 43692.65567		 932.52561			42760.13006		221.82600		875.00000 
 43692.65567		 305.27265			43387.38302		69.65600		324.00000 
 43692.65567		 932.52561			42760.13006		221.82600		875.00000 
 43692.65567		 305.27265			43387.38302		69.65600		324.00000 
 43692.65567		 932.52561			42760.13006		221.82600		875.00000 
 43692.65567		 305.27265			43387.38302		69.65600		324.00000 
 43692.65567		 932.52561			42760.13006		221.82600		875.00000 
 43692.65567		 305.27265			43387.38302		69.65600		324.00000 
 43692.65567		 932.52561			42760.13006		221.82600		875.00000 
 43692.65567		 305.27265			43387.38302		69.65600		324.00000 
 43692.65567		 932.52561			42760.13006		221.82600		875.00000 
 43692.65567		 305.27265			43387.38302		69.65600		324.00000 
 43692.65567		 932.52561			42760.13006		221.82600		875.00000 
 43692.65567		 305.27265			43387.38302		69.65600		324.00000 
 43692.65567		 932.52561			42760.13006		221.82600		875.00000 
 43692.65567		 305.27265			43387.38302		69.65600		324.00000 
 43692.65567		 932.52561			42760.13006		221.82600		875.00000 
 43692.65567		 305.27265			43387.38302		69.65600		324.00000 
 43692.65567		 932.52561			42760.13006		221.82600		875.00000 
 43692.65567		 305.27265			43387.38302		69.65600		324.00000 
 43692.65567		 932.52561			42760.13006		221.82600		875.00000 
 43692.65567		 305.27265			43387.38302		69.65600		324.00000 
 43692.65567		 932.52561			42760.13006		221.82600		875.00000 
 43692.65567		 305.27265			43387.38302		69.65600		324.00000 
 43692.65567		 932.52561			42760.13006		221.82600		875.00000 
 43692.65567		 305.27265			43387.38302		69.65600		324.00000 
 43692.65567		 932.52561			42760.13006		221.82600		875.00000 
 43692.65567		 305.27265			43387.38302		69.65600		324.00000 
 43692.65567		 932.52561			42760.13006		221.82600		875.00000 
 43692.65567		 305.27265			43387.38302		69.65600		324.00000 
 43692.65567		 932.52561			42760.13006		221.82600		875.00000 
 43692.65567		 305.27265			43387.38302		69.65600		324.00000 
 43692.65567		 932.52561			42760.13006		221.82600		875.00000 
 43692.65567		 305.27265			43387.38302		69.65600		324.00000 
 43692.65567		 932.52561			42760.13006		221.82600		875.00000 
 43692.65567		 305.27265			43387.38302		69.65600		324.00000 
 43692.65567		 932.52561			42760.13006		221.82600		875.00000 
 43692.65567		 305.27265			43387.38302		69.65600		324.00000 
 43692.65567		 932.52561			42760.13006		221.82600		875.00000 
 43692.65567		 305.27265			43387.38302		69.65600		324.00000 
 43692.65567		 932.52561			42760.13006		221.82600		875.00000 
 43692.65567		 305.27265			43387.38302		69.65600		324.00000 
 43692.65567		 932.52561			42760.13006		221.82600		875.00000 
 43692.65567		 305.27265			43387.38302		69.65600		324.00000 
 43692.65567		 932.52561			42760.13006		221.82600		875.00000 
 43692.65567		 305.27265			43387.38302		69.65600		324.00000 
 43692.65567		 932.52561			42760.13006		221.82600		875.00000 
 43692.65567		 305.27265			43387.38302		69.65600		324.00000 
 43692.65567		 932.52561			42760.13006		221.82600		875.00000 
 43692.65567		 305.27265			43387.38302		69.65600		324.00000 
 43692.65567		 932.52561			42760.13006		221.82600		875.00000 
 43692.65567		 305.27265			43387.38302		69.65600		324.00000 
 43692.65567		 932.52561			42760.13006		221.82600		875.00000 
 43692.65567		 305.27265			43387.38302		69.65600		324.00000 
 43692.65567		 932.52561			42760.13006		221.82600		875.00000 
 43692.65567		 305.27265			43387.38302		69.65600		324.00000 
 43692.65567		 932.52561			42760.13006		221.82600		875.00000 
 43692.65567		 305.27265			43387.38302		69.65600		324.00000 
 43692.65567		 932.52561			42760.13006		221.82600		875.00000 
 43692.65567		 305.27265			43387.38302		69.65600		324.00000 
 43692.65567		 932.52561			42760.13006		221.82600		875.00000 
 43692.65567		 305.27265			43387.38302		69.65600		324.00000 
 43692.65567		 932.52561			42760.13006		221.82600		875.00000 
 43692.65567		 305.27265			43387.38302		69.65600		324.00000 
 43692.65567		 932.52561			42760.13006		221.82600		875.00000 
 43692.65567		 305.27265			43387.38302		69.65600		324.00000 
 43692.65567		 932.52561			42760.13006		221.82600		875.00000 
 43692.65567		 305.27265			43387.38302		69.65600		324.00000 
 43692.65567		 932.52561			42760.13006		221.82600		875.00000 
 43692.65567		 305.27265			43387.38302		69.65600		324.00000 
 43692.65567		 932.52561			42760.13006		221.82600		875.00000 
 43692.65567		 305.27265			43387.38302		69.65600		324.00000 
 43692.65567		 932.52561			42760.13006		221.82600		875.00000 
 43692.65567		 305.27265			43387.38302		69.65600		324.00000 
 43692.65567		 932.52561			42760.13006		221.82600		875.00000 
 43692.65567		 305.27265			43387.38302		69.65600		324.00000 
 43692.65567		 932.52561			42760.13006		221.82600		875.00000 
 43692.65567		 305.27265			43387.38302		69.65600		324.00000 
 43692.65567		 800.77385			42891.88183		221.82600		875.00000 
 43692.65567		 305.27265			43387.38302		69.65600		324.00000 
 43692.65567		 800.77385			42891.88183		221.82600		875.00000 
 43692.65567		 305.27265			43387.38302		69.65600		324.00000 
 43692.65567		 669.02208			43023.63359		221.82600		875.00000 
 43692.65567		 305.27265			43387.38302		69.65600		324.00000 
 43692.65567		 669.02208			43023.63359		221.82600		875.00000 
 43692.65567		 305.27265			43387.38302		69.65600		324.00000 
 43692.65567		 537.27032			43155.38535		221.82600		875.00000 
 43692.65567		 305.27265			43387.38302		69.65600		324.00000 
 43692.65567		 537.27032			43155.38535		221.82600		875.00000 
 43692.65567		 305.27265			43387.38302		69.65600		324.00000 
 43692.65567		 537.27032			43155.38535		221.82600		875.00000 
 43692.65567		 305.27265			43387.38302		69.65600		324.00000 
 43692.65567		 537.27032			43155.38535		221.82600		875.00000 
 43692.65567		 305.27265			43387.38302		69.65600		324.00000 
 43692.65567		 537.27032			43155.38535		221.82600		875.00000 
 43692.65567		 305.27265			43387.38302		69.65600		324.00000 
 43692.65567		 537.27032			43155.38535		221.82600		875.00000 
 43692.65567		 305.27265			43387.38302		69.65600		324.00000 
 43692.65567		 537.27032			43155.38535		221.82600		875.00000 
 43692.65567		 305.27265			43387.38302		69.65600		324.00000 
 43692.65567		 537.27032			43155.38535		221.82600		875.00000 
 43692.65567		 305.27265			43387.38302		69.65600		324.00000 
 43692.65567		 537.27032			43155.38535		221.82600		875.00000 
 43692.65567		 305.27265			43387.38302		69.65600		324.00000 
 43692.65567		 537.27032			43155.38535		221.82600		875.00000 
 43692.65567		 305.27265			43387.38302		69.65600		324.00000 
 43692.65567		 537.27032			43155.38535		221.82600		875.00000 
 43692.65567		 305.27265			43387.38302		69.65600		324.00000 
 43692.65567		 537.27032			43155.38535		221.82600		875.00000 
 43692.65567		 305.27265			43387.38302		69.65600		324.00000 
 43692.65567		 537.27032			43155.38535		221.82600		875.00000 
 43692.65567		 305.27265			43387.38302		69.65600		324.00000 
 43692.65567		 537.27032			43155.38535		221.82600		875.00000 
 43692.65567		 305.27265			43387.38302		69.65600		324.00000 
 43692.65567		 537.27032			43155.38535		221.82600		875.00000 
 43692.65567		 305.27265			43387.38302		69.65600		324.00000 
 43692.65567		 537.27032			43155.38535		194.55200		875.00000 
 43692.65567		 305.27265			43387.38302		69.65600		324.00000 
 43692.65567		 537.27032			43155.38535		194.55200		875.00000 
 43692.65567		 305.27265			43387.38302		69.65600		324.00000 
 43692.65567		 537.27032			43155.38535		194.55200		875.00000 
 43692.65567		 305.27265			43387.38302		69.65600		324.00000 
 43692.65567		 537.27032			43155.38535		194.55200		875.00000 
 43692.65567		 305.27265			43387.38302		69.65600		324.00000 
 43692.65567		 529.63254			43163.02313		194.55200		875.00000 
 43692.65567		 305.27265			43387.38302		69.65600		324.00000 
 43692.65567		 525.81365			43166.84203		194.55200		875.00000 
 43692.65567		 293.81598			43398.83969		69.65600		324.00000 
 43692.65567		 261.35540			43431.30027		194.55200		875.00000 
 43692.65567		 261.35540			43431.30027		69.65600		324.00000 
