Memory Total (MiB) 	 Memory Used (MiB) 	    Memory Free (MiB) 	 Power Drawed (W) 	 Clocks (Mhz) 	 
 43692.65567		 261.35540			43431.30027		175.75400		875.00000 
 43692.65567		 261.35540			43431.30027		67.64400		324.00000 
 43692.65567		 261.35540			43431.30027		175.75400		875.00000 
 43692.65567		 261.35540			43431.30027		67.64400		324.00000 
 43692.65567		 261.35540			43431.30027		175.75400		875.00000 
 43692.65567		 261.35540			43431.30027		67.64400		324.00000 
 43692.65567		 261.35540			43431.30027		175.75400		875.00000 
 43692.65567		 261.35540			43431.30027		67.64400		324.00000 
 43692.65567		 261.35540			43431.30027		175.75400		875.00000 
 43692.65567		 261.35540			43431.30027		67.64400		324.00000 
 43692.65567		 261.35540			43431.30027		175.75400		875.00000 
 43692.65567		 261.35540			43431.30027		67.64400		324.00000 
 43692.65567		 261.35540			43431.30027		175.75400		875.00000 
 43692.65567		 261.35540			43431.30027		67.64400		324.00000 
 43692.65567		 261.35540			43431.30027		175.75400		875.00000 
 43692.65567		 261.35540			43431.30027		67.64400		324.00000 
 43692.65567		 261.35540			43431.30027		175.75400		875.00000 
 43692.65567		 261.35540			43431.30027		67.64400		324.00000 
 43692.65567		 261.35540			43431.30027		175.75400		875.00000 
 43692.65567		 261.35540			43431.30027		67.64400		324.00000 
 43692.65567		 261.35540			43431.30027		175.75400		875.00000 
 43692.65567		 261.35540			43431.30027		67.64400		324.00000 
 43692.65567		 261.35540			43431.30027		175.75400		875.00000 
 43692.65567		 261.35540			43431.30027		67.64400		324.00000 
 43692.65567		 261.35540			43431.30027		175.75400		875.00000 
 43692.65567		 261.35540			43431.30027		67.64400		324.00000 
 43692.65567		 261.35540			43431.30027		175.75400		875.00000 
 43692.65567		 261.35540			43431.30027		67.64400		324.00000 
 43692.65567		 261.35540			43431.30027		175.75400		875.00000 
 43692.65567		 261.35540			43431.30027		67.64400		324.00000 
 43692.65567		 261.35540			43431.30027		175.75400		875.00000 
 43692.65567		 261.35540			43431.30027		67.64400		324.00000 
 43692.65567		 261.35540			43431.30027		175.75400		875.00000 
 43692.65567		 261.35540			43431.30027		67.64400		324.00000 
 43692.65567		 261.35540			43431.30027		175.75400		875.00000 
 43692.65567		 261.35540			43431.30027		67.64400		324.00000 
 43692.65567		 265.17429			43427.48138		175.75400		875.00000 
 43692.65567		 261.35540			43431.30027		67.64400		324.00000 
 43692.65567		 265.17429			43427.48138		175.75400		875.00000 
 43692.65567		 261.35540			43431.30027		67.64400		324.00000 
 43692.65567		 272.81207			43419.84360		175.75400		875.00000 
 43692.65567		 261.35540			43431.30027		67.64400		324.00000 
 43692.65567		 272.81207			43419.84360		175.75400		875.00000 
 43692.65567		 261.35540			43431.30027		67.64400		324.00000 
 43692.65567		 272.81207			43419.84360		175.75400		875.00000 
 43692.65567		 265.17429			43427.48138		67.64400		324.00000 
 43692.65567		 272.81207			43419.84360		175.75400		875.00000 
 43692.65567		 265.17429			43427.48138		67.64400		324.00000 
 43692.65567		 272.81207			43419.84360		175.75400		875.00000 
 43692.65567		 272.81207			43419.84360		67.64400		324.00000 
 43692.65567		 272.81207			43419.84360		175.75400		875.00000 
 43692.65567		 272.81207			43419.84360		67.64400		324.00000 
 43692.65567		 272.81207			43419.84360		175.75400		875.00000 
 43692.65567		 272.81207			43419.84360		67.64400		324.00000 
 43692.65567		 305.27265			43387.38302		175.75400		875.00000 
 43692.65567		 305.27265			43387.38302		67.64400		324.00000 
 43692.65567		 305.27265			43387.38302		175.75400		875.00000 
 43692.65567		 305.27265			43387.38302		67.64400		324.00000 
 43692.65567		 305.27265			43387.38302		175.75400		875.00000 
 43692.65567		 305.27265			43387.38302		67.64400		324.00000 
 43692.65567		 305.27265			43387.38302		175.75400		875.00000 
 43692.65567		 305.27265			43387.38302		67.64400		324.00000 
 43692.65567		 305.27265			43387.38302		175.75400		875.00000 
 43692.65567		 305.27265			43387.38302		67.64400		324.00000 
 43692.65567		 309.09154			43383.56413		147.50000		875.00000 
 43692.65567		 305.27265			43387.38302		67.64400		324.00000 
 43692.65567		 310.52363			43382.13204		147.50000		875.00000 
 43692.65567		 305.27265			43387.38302		67.64400		324.00000 
 43692.65567		 311.00099			43381.65468		147.50000		875.00000 
 43692.65567		 305.27265			43387.38302		67.64400		324.00000 
 43692.65567		 311.00099			43381.65468		147.50000		875.00000 
 43692.65567		 305.27265			43387.38302		67.64400		324.00000 
 43692.65567		 311.00099			43381.65468		147.50000		875.00000 
 43692.65567		 305.27265			43387.38302		67.64400		324.00000 
 43692.65567		 311.00099			43381.65468		147.50000		875.00000 
 43692.65567		 305.27265			43387.38302		67.64400		324.00000 
 43692.65567		 311.00099			43381.65468		147.50000		875.00000 
 43692.65567		 305.27265			43387.38302		67.64400		324.00000 
 43692.65567		 311.00099			43381.65468		147.50000		875.00000 
 43692.65567		 305.27265			43387.38302		67.64400		324.00000 
 43692.65567		 311.00099			43381.65468		147.50000		875.00000 
 43692.65567		 305.27265			43387.38302		67.64400		324.00000 
 43692.65567		 311.00099			43381.65468		147.50000		875.00000 
 43692.65567		 305.27265			43387.38302		67.64400		324.00000 
 43692.65567		 311.00099			43381.65468		147.50000		875.00000 
 43692.65567		 305.27265			43387.38302		67.64400		324.00000 
 43692.65567		 311.00099			43381.65468		147.50000		875.00000 
 43692.65567		 305.27265			43387.38302		67.64400		324.00000 
 43692.65567		 311.00099			43381.65468		147.50000		875.00000 
 43692.65567		 305.27265			43387.38302		67.64400		324.00000 
 43692.65567		 311.00099			43381.65468		147.50000		875.00000 
 43692.65567		 305.27265			43387.38302		67.64400		324.00000 
 43692.65567		 311.00099			43381.65468		147.50000		875.00000 
 43692.65567		 305.27265			43387.38302		67.64400		324.00000 
 43692.65567		 311.00099			43381.65468		147.50000		875.00000 
 43692.65567		 305.27265			43387.38302		67.64400		324.00000 
 43692.65567		 311.00099			43381.65468		147.50000		875.00000 
 43692.65567		 305.27265			43387.38302		67.64400		324.00000 
 43692.65567		 311.00099			43381.65468		147.50000		875.00000 
 43692.65567		 305.27265			43387.38302		67.64400		324.00000 
 43692.65567		 311.00099			43381.65468		147.50000		875.00000 
 43692.65567		 305.27265			43387.38302		67.64400		324.00000 
 43692.65567		 311.00099			43381.65468		147.50000		875.00000 
 43692.65567		 305.27265			43387.38302		67.64400		324.00000 
 43692.65567		 311.00099			43381.65468		147.50000		875.00000 
 43692.65567		 305.27265			43387.38302		67.64400		324.00000 
 43692.65567		 311.00099			43381.65468		147.50000		875.00000 
 43692.65567		 305.27265			43387.38302		66.21000		324.00000 
 43692.65567		 311.00099			43381.65468		147.50000		875.00000 
 43692.65567		 305.27265			43387.38302		66.21000		324.00000 
 43692.65567		 311.00099			43381.65468		147.50000		875.00000 
 43692.65567		 305.27265			43387.38302		66.21000		324.00000 
 43692.65567		 311.00099			43381.65468		147.50000		875.00000 
 43692.65567		 305.27265			43387.38302		66.21000		324.00000 
 43692.65567		 311.00099			43381.65468		147.50000		875.00000 
 43692.65567		 305.27265			43387.38302		66.21000		324.00000 
 43692.65567		 311.00099			43381.65468		147.50000		875.00000 
 43692.65567		 305.27265			43387.38302		66.21000		324.00000 
 43692.65567		 311.00099			43381.65468		147.50000		875.00000 
 43692.65567		 305.27265			43387.38302		66.21000		324.00000 
 43692.65567		 311.00099			43381.65468		147.50000		875.00000 
 43692.65567		 305.27265			43387.38302		66.21000		324.00000 
 43692.65567		 311.00099			43381.65468		147.50000		875.00000 
 43692.65567		 305.27265			43387.38302		66.21000		324.00000 
 43692.65567		 311.00099			43381.65468		136.53400		875.00000 
 43692.65567		 305.27265			43387.38302		66.21000		324.00000 
 43692.65567		 311.00099			43381.65468		136.53400		875.00000 
 43692.65567		 305.27265			43387.38302		66.21000		324.00000 
 43692.65567		 311.00099			43381.65468		136.53400		875.00000 
 43692.65567		 305.27265			43387.38302		66.21000		324.00000 
 43692.65567		 311.00099			43381.65468		136.53400		875.00000 
 43692.65567		 305.27265			43387.38302		66.21000		324.00000 
 43692.65567		 311.00099			43381.65468		136.53400		875.00000 
 43692.65567		 305.27265			43387.38302		66.21000		324.00000 
 43692.65567		 311.00099			43381.65468		136.53400		875.00000 
 43692.65567		 305.27265			43387.38302		66.21000		324.00000 
 43692.65567		 311.00099			43381.65468		136.53400		875.00000 
 43692.65567		 305.27265			43387.38302		66.21000		324.00000 
 43692.65567		 311.00099			43381.65468		136.53400		875.00000 
 43692.65567		 305.27265			43387.38302		66.21000		324.00000 
 43692.65567		 311.00099			43381.65468		136.53400		875.00000 
 43692.65567		 305.27265			43387.38302		66.21000		324.00000 
 43692.65567		 311.00099			43381.65468		136.53400		875.00000 
 43692.65567		 305.27265			43387.38302		66.21000		324.00000 
 43692.65567		 311.00099			43381.65468		136.53400		875.00000 
 43692.65567		 305.27265			43387.38302		66.21000		324.00000 
 43692.65567		 311.00099			43381.65468		136.53400		875.00000 
 43692.65567		 305.27265			43387.38302		66.21000		324.00000 
 43692.65567		 311.00099			43381.65468		136.53400		875.00000 
 43692.65567		 305.27265			43387.38302		66.21000		324.00000 
 43692.65567		 311.00099			43381.65468		136.53400		875.00000 
 43692.65567		 305.27265			43387.38302		66.21000		324.00000 
 43692.65567		 311.00099			43381.65468		136.53400		875.00000 
 43692.65567		 305.27265			43387.38302		66.21000		324.00000 
 43692.65567		 311.00099			43381.65468		136.53400		875.00000 
 43692.65567		 305.27265			43387.38302		66.21000		324.00000 
 43692.65567		 311.00099			43381.65468		136.53400		875.00000 
 43692.65567		 305.27265			43387.38302		66.21000		324.00000 
 43692.65567		 311.00099			43381.65468		136.53400		875.00000 
 43692.65567		 305.27265			43387.38302		66.21000		324.00000 
 43692.65567		 311.00099			43381.65468		136.53400		875.00000 
 43692.65567		 305.27265			43387.38302		66.21000		324.00000 
 43692.65567		 311.00099			43381.65468		136.53400		875.00000 
 43692.65567		 305.27265			43387.38302		66.21000		324.00000 
 43692.65567		 311.00099			43381.65468		136.53400		875.00000 
 43692.65567		 305.27265			43387.38302		66.21000		324.00000 
 43692.65567		 311.00099			43381.65468		136.53400		875.00000 
 43692.65567		 305.27265			43387.38302		66.21000		324.00000 
 43692.65567		 314.81988			43377.83579		136.53400		875.00000 
 43692.65567		 305.27265			43387.38302		66.21000		324.00000 
 43692.65567		 314.81988			43377.83579		136.53400		875.00000 
 43692.65567		 305.27265			43387.38302		66.21000		324.00000 
 43692.65567		 314.81988			43377.83579		136.53400		875.00000 
 43692.65567		 305.27265			43387.38302		66.21000		324.00000 
 43692.65567		 318.63877			43374.01690		136.53400		875.00000 
 43692.65567		 305.27265			43387.38302		66.21000		324.00000 
 43692.65567		 322.45767			43370.19801		136.53400		875.00000 
 43692.65567		 305.27265			43387.38302		66.21000		324.00000 
 43692.65567		 326.27656			43366.37912		136.53400		875.00000 
 43692.65567		 305.27265			43387.38302		66.21000		324.00000 
 43692.65567		 326.27656			43366.37912		136.53400		875.00000 
 43692.65567		 305.27265			43387.38302		66.21000		324.00000 
 43692.65567		 326.27656			43366.37912		136.53400		875.00000 
 43692.65567		 305.27265			43387.38302		66.21000		324.00000 
 43692.65567		 537.27032			43155.38535		136.53400		875.00000 
 43692.65567		 305.27265			43387.38302		66.21000		324.00000 
 43692.65567		 595.50842			43097.14725		136.53400		875.00000 
 43692.65567		 305.27265			43387.38302		66.21000		324.00000 
 43692.65567		 624.62747			43068.02820		136.53400		875.00000 
 43692.65567		 305.27265			43387.38302		66.21000		324.00000 
 43692.65567		 624.62747			43068.02820		136.53400		875.00000 
 43692.65567		 305.27265			43387.38302		66.21000		324.00000 
 43692.65567		 624.62747			43068.02820		136.53400		875.00000 
 43692.65567		 305.27265			43387.38302		66.21000		324.00000 
 43692.65567		 624.62747			43068.02820		136.53400		875.00000 
 43692.65567		 305.27265			43387.38302		66.21000		324.00000 
 43692.65567		 624.62747			43068.02820		139.50600		875.00000 
 43692.65567		 305.27265			43387.38302		66.21000		324.00000 
 43692.65567		 624.62747			43068.02820		139.50600		875.00000 
 43692.65567		 305.27265			43387.38302		66.21000		324.00000 
 43692.65567		 624.62747			43068.02820		139.50600		875.00000 
 43692.65567		 305.27265			43387.38302		66.21000		324.00000 
 43692.65567		 624.62747			43068.02820		139.50600		875.00000 
 43692.65567		 305.27265			43387.38302		66.21000		324.00000 
 43692.65567		 624.62747			43068.02820		139.50600		875.00000 
 43692.65567		 305.27265			43387.38302		66.21000		324.00000 
 43692.65567		 624.62747			43068.02820		139.50600		875.00000 
 43692.65567		 305.27265			43387.38302		66.21000		324.00000 
 43692.65567		 624.62747			43068.02820		139.50600		875.00000 
 43692.65567		 305.27265			43387.38302		66.21000		324.00000 
 43692.65567		 624.62747			43068.02820		139.50600		875.00000 
 43692.65567		 305.27265			43387.38302		66.21000		324.00000 
 43692.65567		 624.62747			43068.02820		139.50600		875.00000 
 43692.65567		 305.27265			43387.38302		66.21000		324.00000 
 43692.65567		 624.62747			43068.02820		139.50600		875.00000 
 43692.65567		 305.27265			43387.38302		66.21000		324.00000 
 43692.65567		 624.62747			43068.02820		139.50600		875.00000 
 43692.65567		 305.27265			43387.38302		66.21000		324.00000 
 43692.65567		 624.62747			43068.02820		139.50600		875.00000 
 43692.65567		 305.27265			43387.38302		66.21000		324.00000 
 43692.65567		 624.62747			43068.02820		139.50600		875.00000 
 43692.65567		 305.27265			43387.38302		66.21000		324.00000 
 43692.65567		 624.62747			43068.02820		139.50600		875.00000 
 43692.65567		 305.27265			43387.38302		66.21000		324.00000 
 43692.65567		 624.62747			43068.02820		139.50600		875.00000 
 43692.65567		 305.27265			43387.38302		66.21000		324.00000 
 43692.65567		 624.62747			43068.02820		139.50600		875.00000 
 43692.65567		 305.27265			43387.38302		66.21000		324.00000 
 43692.65567		 624.62747			43068.02820		139.50600		875.00000 
 43692.65567		 305.27265			43387.38302		66.21000		324.00000 
 43692.65567		 624.62747			43068.02820		139.50600		875.00000 
 43692.65567		 305.27265			43387.38302		66.21000		324.00000 
 43692.65567		 624.62747			43068.02820		139.50600		875.00000 
 43692.65567		 305.27265			43387.38302		66.21000		324.00000 
 43692.65567		 624.62747			43068.02820		139.50600		875.00000 
 43692.65567		 305.27265			43387.38302		66.21000		324.00000 
 43692.65567		 624.62747			43068.02820		139.50600		875.00000 
 43692.65567		 305.27265			43387.38302		66.21000		324.00000 
 43692.65567		 624.62747			43068.02820		139.50600		875.00000 
 43692.65567		 305.27265			43387.38302		66.21000		324.00000 
 43692.65567		 624.62747			43068.02820		139.50600		875.00000 
 43692.65567		 305.27265			43387.38302		66.21000		324.00000 
 43692.65567		 624.62747			43068.02820		139.50600		875.00000 
 43692.65567		 305.27265			43387.38302		66.21000		324.00000 
 43692.65567		 624.62747			43068.02820		139.50600		875.00000 
 43692.65567		 305.27265			43387.38302		66.21000		324.00000 
 43692.65567		 624.62747			43068.02820		139.50600		875.00000 
 43692.65567		 305.27265			43387.38302		66.21000		324.00000 
 43692.65567		 624.62747			43068.02820		139.50600		875.00000 
 43692.65567		 305.27265			43387.38302		66.21000		324.00000 
 43692.65567		 624.62747			43068.02820		139.50600		875.00000 
 43692.65567		 305.27265			43387.38302		66.21000		324.00000 
 43692.65567		 624.62747			43068.02820		139.50600		875.00000 
 43692.65567		 305.27265			43387.38302		66.21000		324.00000 
 43692.65567		 624.62747			43068.02820		139.50600		875.00000 
 43692.65567		 305.27265			43387.38302		66.21000		324.00000 
 43692.65567		 624.62747			43068.02820		139.50600		875.00000 
 43692.65567		 305.27265			43387.38302		66.21000		324.00000 
 43692.65567		 624.62747			43068.02820		139.50600		875.00000 
 43692.65567		 305.27265			43387.38302		66.21000		324.00000 
 43692.65567		 624.62747			43068.02820		139.50600		875.00000 
 43692.65567		 305.27265			43387.38302		66.21000		324.00000 
 43692.65567		 624.62747			43068.02820		139.50600		875.00000 
 43692.65567		 305.27265			43387.38302		66.21000		324.00000 
 43692.65567		 624.62747			43068.02820		139.50600		875.00000 
 43692.65567		 305.27265			43387.38302		66.21000		324.00000 
 43692.65567		 624.62747			43068.02820		139.50600		875.00000 
 43692.65567		 305.27265			43387.38302		66.21000		324.00000 
 43692.65567		 624.62747			43068.02820		139.50600		875.00000 
 43692.65567		 305.27265			43387.38302		66.21000		324.00000 
 43692.65567		 624.62747			43068.02820		139.50600		875.00000 
 43692.65567		 305.27265			43387.38302		66.21000		324.00000 
 43692.65567		 624.62747			43068.02820		139.50600		875.00000 
 43692.65567		 305.27265			43387.38302		66.21000		324.00000 
 43692.65567		 624.62747			43068.02820		139.50600		875.00000 
 43692.65567		 305.27265			43387.38302		66.21000		324.00000 
 43692.65567		 624.62747			43068.02820		139.50600		875.00000 
 43692.65567		 305.27265			43387.38302		66.21000		324.00000 
 43692.65567		 624.62747			43068.02820		139.50600		875.00000 
 43692.65567		 305.27265			43387.38302		66.21000		324.00000 
 43692.65567		 624.62747			43068.02820		139.50600		875.00000 
 43692.65567		 305.27265			43387.38302		66.21000		324.00000 
 43692.65567		 624.62747			43068.02820		139.50600		875.00000 
 43692.65567		 305.27265			43387.38302		66.21000		324.00000 
 43692.65567		 624.62747			43068.02820		139.50600		875.00000 
 43692.65567		 305.27265			43387.38302		66.21000		324.00000 
 43692.65567		 624.62747			43068.02820		139.50600		875.00000 
 43692.65567		 305.27265			43387.38302		66.21000		324.00000 
 43692.65567		 624.62747			43068.02820		139.50600		875.00000 
 43692.65567		 305.27265			43387.38302		66.21000		324.00000 
 43692.65567		 624.62747			43068.02820		139.50600		875.00000 
 43692.65567		 305.27265			43387.38302		66.21000		324.00000 
 43692.65567		 624.62747			43068.02820		139.50600		875.00000 
 43692.65567		 305.27265			43387.38302		66.21000		324.00000 
 43692.65567		 624.62747			43068.02820		139.50600		875.00000 
 43692.65567		 305.27265			43387.38302		66.21000		324.00000 
 43692.65567		 624.62747			43068.02820		139.50600		875.00000 
 43692.65567		 305.27265			43387.38302		66.21000		324.00000 
 43692.65567		 624.62747			43068.02820		139.50600		875.00000 
 43692.65567		 305.27265			43387.38302		66.21000		324.00000 
 43692.65567		 624.62747			43068.02820		139.50600		875.00000 
 43692.65567		 305.27265			43387.38302		66.21000		324.00000 
 43692.65567		 624.62747			43068.02820		139.50600		875.00000 
 43692.65567		 305.27265			43387.38302		66.21000		324.00000 
 43692.65567		 624.62747			43068.02820		139.50600		875.00000 
 43692.65567		 305.27265			43387.38302		66.21000		324.00000 
 43692.65567		 624.62747			43068.02820		139.50600		875.00000 
 43692.65567		 305.27265			43387.38302		66.21000		324.00000 
 43692.65567		 624.62747			43068.02820		139.50600		875.00000 
 43692.65567		 305.27265			43387.38302		66.21000		324.00000 
 43692.65567		 624.62747			43068.02820		139.50600		875.00000 
 43692.65567		 305.27265			43387.38302		66.21000		324.00000 
 43692.65567		 624.62747			43068.02820		139.50600		875.00000 
 43692.65567		 305.27265			43387.38302		66.21000		324.00000 
 43692.65567		 624.62747			43068.02820		139.50600		875.00000 
 43692.65567		 305.27265			43387.38302		66.21000		324.00000 
 43692.65567		 624.62747			43068.02820		139.50600		875.00000 
 43692.65567		 305.27265			43387.38302		66.21000		324.00000 
 43692.65567		 624.62747			43068.02820		139.50600		875.00000 
 43692.65567		 305.27265			43387.38302		66.21000		324.00000 
 43692.65567		 624.62747			43068.02820		139.50600		875.00000 
 43692.65567		 305.27265			43387.38302		66.21000		324.00000 
 43692.65567		 624.62747			43068.02820		139.50600		875.00000 
 43692.65567		 305.27265			43387.38302		66.21000		324.00000 
 43692.65567		 624.62747			43068.02820		186.79400		875.00000 
 43692.65567		 305.27265			43387.38302		66.21000		324.00000 
 43692.65567		 624.62747			43068.02820		186.79400		875.00000 
 43692.65567		 305.27265			43387.38302		66.21000		324.00000 
 43692.65567		 624.62747			43068.02820		186.79400		875.00000 
 43692.65567		 305.27265			43387.38302		66.21000		324.00000 
 43692.65567		 624.62747			43068.02820		186.79400		875.00000 
 43692.65567		 305.27265			43387.38302		66.21000		324.00000 
 43692.65567		 624.62747			43068.02820		186.79400		875.00000 
 43692.65567		 305.27265			43387.38302		66.21000		324.00000 
 43692.65567		 624.62747			43068.02820		186.79400		875.00000 
 43692.65567		 305.27265			43387.38302		66.21000		324.00000 
 43692.65567		 624.62747			43068.02820		186.79400		875.00000 
 43692.65567		 305.27265			43387.38302		66.21000		324.00000 
 43692.65567		 624.62747			43068.02820		186.79400		875.00000 
 43692.65567		 305.27265			43387.38302		66.21000		324.00000 
 43692.65567		 624.62747			43068.02820		186.79400		875.00000 
 43692.65567		 305.27265			43387.38302		66.21000		324.00000 
 43692.65567		 624.62747			43068.02820		186.79400		875.00000 
 43692.65567		 305.27265			43387.38302		66.21000		324.00000 
 43692.65567		 624.62747			43068.02820		186.79400		875.00000 
 43692.65567		 305.27265			43387.38302		66.21000		324.00000 
 43692.65567		 624.62747			43068.02820		186.79400		875.00000 
 43692.65567		 305.27265			43387.38302		66.21000		324.00000 
 43692.65567		 624.62747			43068.02820		186.79400		875.00000 
 43692.65567		 305.27265			43387.38302		66.21000		324.00000 
 43692.65567		 624.62747			43068.02820		186.79400		875.00000 
 43692.65567		 305.27265			43387.38302		66.21000		324.00000 
 43692.65567		 624.62747			43068.02820		186.79400		875.00000 
 43692.65567		 305.27265			43387.38302		66.21000		324.00000 
 43692.65567		 624.62747			43068.02820		186.79400		875.00000 
 43692.65567		 305.27265			43387.38302		66.21000		324.00000 
 43692.65567		 624.62747			43068.02820		186.79400		875.00000 
 43692.65567		 305.27265			43387.38302		66.21000		324.00000 
 43692.65567		 624.62747			43068.02820		186.79400		875.00000 
 43692.65567		 305.27265			43387.38302		66.21000		324.00000 
 43692.65567		 624.62747			43068.02820		186.79400		875.00000 
 43692.65567		 305.27265			43387.38302		66.21000		324.00000 
 43692.65567		 624.62747			43068.02820		186.79400		875.00000 
 43692.65567		 305.27265			43387.38302		66.21000		324.00000 
 43692.65567		 624.62747			43068.02820		186.79400		875.00000 
 43692.65567		 305.27265			43387.38302		66.21000		324.00000 
 43692.65567		 624.62747			43068.02820		186.79400		875.00000 
 43692.65567		 305.27265			43387.38302		66.21000		324.00000 
 43692.65567		 624.62747			43068.02820		186.79400		875.00000 
 43692.65567		 305.27265			43387.38302		66.21000		324.00000 
 43692.65567		 624.62747			43068.02820		186.79400		875.00000 
 43692.65567		 305.27265			43387.38302		66.21000		324.00000 
 43692.65567		 624.62747			43068.02820		186.79400		875.00000 
 43692.65567		 305.27265			43387.38302		66.21000		324.00000 
 43692.65567		 624.62747			43068.02820		186.79400		875.00000 
 43692.65567		 305.27265			43387.38302		66.21000		324.00000 
 43692.65567		 624.62747			43068.02820		186.79400		875.00000 
 43692.65567		 305.27265			43387.38302		66.21000		324.00000 
 43692.65567		 624.62747			43068.02820		186.79400		875.00000 
 43692.65567		 305.27265			43387.38302		66.21000		324.00000 
 43692.65567		 624.62747			43068.02820		186.79400		875.00000 
 43692.65567		 305.27265			43387.38302		66.21000		324.00000 
 43692.65567		 624.62747			43068.02820		186.79400		875.00000 
 43692.65567		 305.27265			43387.38302		66.21000		324.00000 
 43692.65567		 624.62747			43068.02820		186.79400		875.00000 
 43692.65567		 305.27265			43387.38302		66.21000		324.00000 
 43692.65567		 624.62747			43068.02820		186.79400		875.00000 
 43692.65567		 305.27265			43387.38302		66.21000		324.00000 
 43692.65567		 624.62747			43068.02820		186.79400		875.00000 
 43692.65567		 305.27265			43387.38302		66.21000		324.00000 
 43692.65567		 624.62747			43068.02820		186.79400		875.00000 
 43692.65567		 305.27265			43387.38302		66.21000		324.00000 
 43692.65567		 624.62747			43068.02820		186.79400		875.00000 
 43692.65567		 305.27265			43387.38302		66.21000		324.00000 
 43692.65567		 624.62747			43068.02820		186.79400		875.00000 
 43692.65567		 305.27265			43387.38302		66.21000		324.00000 
 43692.65567		 624.62747			43068.02820		186.79400		875.00000 
 43692.65567		 305.27265			43387.38302		66.21000		324.00000 
 43692.65567		 624.62747			43068.02820		186.79400		875.00000 
 43692.65567		 305.27265			43387.38302		66.21000		324.00000 
 43692.65567		 624.62747			43068.02820		186.79400		875.00000 
 43692.65567		 305.27265			43387.38302		66.21000		324.00000 
 43692.65567		 624.62747			43068.02820		186.79400		875.00000 
 43692.65567		 305.27265			43387.38302		66.21000		324.00000 
 43692.65567		 624.62747			43068.02820		186.79400		875.00000 
 43692.65567		 305.27265			43387.38302		66.21000		324.00000 
 43692.65567		 624.62747			43068.02820		186.79400		875.00000 
 43692.65567		 305.27265			43387.38302		66.21000		324.00000 
 43692.65567		 624.62747			43068.02820		186.79400		875.00000 
 43692.65567		 305.27265			43387.38302		66.21000		324.00000 
 43692.65567		 624.62747			43068.02820		186.79400		875.00000 
 43692.65567		 305.27265			43387.38302		66.21000		324.00000 
 43692.65567		 624.62747			43068.02820		186.79400		875.00000 
 43692.65567		 305.27265			43387.38302		66.21000		324.00000 
 43692.65567		 624.62747			43068.02820		186.79400		875.00000 
 43692.65567		 305.27265			43387.38302		66.21000		324.00000 
 43692.65567		 624.62747			43068.02820		186.79400		875.00000 
 43692.65567		 305.27265			43387.38302		66.21000		324.00000 
 43692.65567		 624.62747			43068.02820		186.79400		875.00000 
 43692.65567		 305.27265			43387.38302		66.21000		324.00000 
 43692.65567		 624.62747			43068.02820		186.79400		875.00000 
 43692.65567		 305.27265			43387.38302		66.21000		324.00000 
 43692.65567		 624.62747			43068.02820		186.79400		875.00000 
 43692.65567		 305.27265			43387.38302		66.21000		324.00000 
 43692.65567		 624.62747			43068.02820		186.79400		875.00000 
 43692.65567		 305.27265			43387.38302		66.21000		324.00000 
 43692.65567		 624.62747			43068.02820		186.79400		875.00000 
 43692.65567		 305.27265			43387.38302		66.21000		324.00000 
 43692.65567		 624.62747			43068.02820		186.79400		875.00000 
 43692.65567		 305.27265			43387.38302		66.21000		324.00000 
 43692.65567		 624.62747			43068.02820		186.79400		875.00000 
 43692.65567		 305.27265			43387.38302		66.21000		324.00000 
 43692.65567		 624.62747			43068.02820		186.79400		875.00000 
 43692.65567		 305.27265			43387.38302		66.21000		324.00000 
 43692.65567		 624.62747			43068.02820		186.79400		875.00000 
 43692.65567		 305.27265			43387.38302		66.21000		324.00000 
 43692.65567		 624.62747			43068.02820		186.79400		875.00000 
 43692.65567		 305.27265			43387.38302		66.21000		324.00000 
 43692.65567		 624.62747			43068.02820		186.79400		875.00000 
 43692.65567		 305.27265			43387.38302		66.21000		324.00000 
 43692.65567		 624.62747			43068.02820		186.79400		875.00000 
 43692.65567		 305.27265			43387.38302		66.21000		324.00000 
 43692.65567		 624.62747			43068.02820		186.79400		875.00000 
 43692.65567		 305.27265			43387.38302		66.21000		324.00000 
 43692.65567		 624.62747			43068.02820		186.79400		875.00000 
 43692.65567		 305.27265			43387.38302		66.21000		324.00000 
 43692.65567		 624.62747			43068.02820		186.79400		875.00000 
 43692.65567		 305.27265			43387.38302		66.21000		324.00000 
 43692.65567		 624.62747			43068.02820		186.79400		875.00000 
 43692.65567		 305.27265			43387.38302		66.21000		324.00000 
 43692.65567		 624.62747			43068.02820		186.79400		875.00000 
 43692.65567		 305.27265			43387.38302		66.21000		324.00000 
 43692.65567		 624.62747			43068.02820		186.79400		875.00000 
 43692.65567		 305.27265			43387.38302		66.21000		324.00000 
 43692.65567		 624.62747			43068.02820		204.89200		875.00000 
 43692.65567		 305.27265			43387.38302		66.21000		324.00000 
 43692.65567		 624.62747			43068.02820		204.89200		875.00000 
 43692.65567		 305.27265			43387.38302		66.21000		324.00000 
 43692.65567		 624.62747			43068.02820		204.89200		875.00000 
 43692.65567		 305.27265			43387.38302		66.21000		324.00000 
 43692.65567		 624.62747			43068.02820		204.89200		875.00000 
 43692.65567		 305.27265			43387.38302		66.21000		324.00000 
 43692.65567		 624.62747			43068.02820		204.89200		875.00000 
 43692.65567		 305.27265			43387.38302		66.21000		324.00000 
 43692.65567		 624.62747			43068.02820		204.89200		875.00000 
 43692.65567		 305.27265			43387.38302		66.21000		324.00000 
 43692.65567		 624.62747			43068.02820		204.89200		875.00000 
 43692.65567		 305.27265			43387.38302		66.21000		324.00000 
 43692.65567		 624.62747			43068.02820		204.89200		875.00000 
 43692.65567		 305.27265			43387.38302		66.21000		324.00000 
 43692.65567		 624.62747			43068.02820		204.89200		875.00000 
 43692.65567		 305.27265			43387.38302		66.21000		324.00000 
 43692.65567		 624.62747			43068.02820		204.89200		875.00000 
 43692.65567		 305.27265			43387.38302		66.21000		324.00000 
 43692.65567		 624.62747			43068.02820		204.89200		875.00000 
 43692.65567		 305.27265			43387.38302		66.21000		324.00000 
 43692.65567		 624.62747			43068.02820		204.89200		875.00000 
 43692.65567		 305.27265			43387.38302		66.21000		324.00000 
 43692.65567		 624.62747			43068.02820		204.89200		875.00000 
 43692.65567		 305.27265			43387.38302		66.21000		324.00000 
 43692.65567		 624.62747			43068.02820		204.89200		875.00000 
 43692.65567		 305.27265			43387.38302		66.21000		324.00000 
 43692.65567		 624.62747			43068.02820		204.89200		875.00000 
 43692.65567		 305.27265			43387.38302		66.21000		324.00000 
 43692.65567		 624.62747			43068.02820		204.89200		875.00000 
 43692.65567		 305.27265			43387.38302		66.21000		324.00000 
 43692.65567		 624.62747			43068.02820		204.89200		875.00000 
 43692.65567		 305.27265			43387.38302		66.21000		324.00000 
 43692.65567		 624.62747			43068.02820		204.89200		875.00000 
 43692.65567		 305.27265			43387.38302		66.21000		324.00000 
 43692.65567		 624.62747			43068.02820		204.89200		875.00000 
 43692.65567		 305.27265			43387.38302		66.21000		324.00000 
 43692.65567		 624.62747			43068.02820		204.89200		875.00000 
 43692.65567		 305.27265			43387.38302		66.21000		324.00000 
 43692.65567		 624.62747			43068.02820		204.89200		875.00000 
 43692.65567		 305.27265			43387.38302		66.21000		324.00000 
 43692.65567		 624.62747			43068.02820		204.89200		875.00000 
 43692.65567		 305.27265			43387.38302		66.21000		324.00000 
 43692.65567		 624.62747			43068.02820		204.89200		875.00000 
 43692.65567		 305.27265			43387.38302		66.21000		324.00000 
 43692.65567		 624.62747			43068.02820		204.89200		875.00000 
 43692.65567		 305.27265			43387.38302		66.21000		324.00000 
 43692.65567		 624.62747			43068.02820		204.89200		875.00000 
 43692.65567		 305.27265			43387.38302		66.21000		324.00000 
 43692.65567		 624.62747			43068.02820		204.89200		875.00000 
 43692.65567		 305.27265			43387.38302		66.21000		324.00000 
 43692.65567		 624.62747			43068.02820		204.89200		875.00000 
 43692.65567		 305.27265			43387.38302		66.21000		324.00000 
 43692.65567		 624.62747			43068.02820		204.89200		875.00000 
 43692.65567		 305.27265			43387.38302		66.21000		324.00000 
 43692.65567		 624.62747			43068.02820		204.89200		875.00000 
 43692.65567		 305.27265			43387.38302		66.21000		324.00000 
 43692.65567		 624.62747			43068.02820		204.89200		875.00000 
 43692.65567		 305.27265			43387.38302		66.21000		324.00000 
 43692.65567		 624.62747			43068.02820		204.89200		875.00000 
 43692.65567		 305.27265			43387.38302		66.21000		324.00000 
 43692.65567		 624.62747			43068.02820		204.89200		875.00000 
 43692.65567		 305.27265			43387.38302		66.21000		324.00000 
 43692.65567		 624.62747			43068.02820		204.89200		875.00000 
 43692.65567		 305.27265			43387.38302		66.21000		324.00000 
 43692.65567		 624.62747			43068.02820		204.89200		875.00000 
 43692.65567		 305.27265			43387.38302		66.21000		324.00000 
 43692.65567		 624.62747			43068.02820		204.89200		875.00000 
 43692.65567		 305.27265			43387.38302		66.21000		324.00000 
 43692.65567		 624.62747			43068.02820		204.89200		875.00000 
 43692.65567		 305.27265			43387.38302		66.21000		324.00000 
 43692.65567		 624.62747			43068.02820		204.89200		875.00000 
 43692.65567		 305.27265			43387.38302		66.21000		324.00000 
 43692.65567		 624.62747			43068.02820		204.89200		875.00000 
 43692.65567		 305.27265			43387.38302		66.21000		324.00000 
 43692.65567		 624.62747			43068.02820		204.89200		875.00000 
 43692.65567		 305.27265			43387.38302		66.21000		324.00000 
 43692.65567		 624.62747			43068.02820		204.89200		875.00000 
 43692.65567		 305.27265			43387.38302		66.21000		324.00000 
 43692.65567		 624.62747			43068.02820		204.89200		875.00000 
 43692.65567		 305.27265			43387.38302		66.21000		324.00000 
 43692.65567		 624.62747			43068.02820		204.89200		875.00000 
 43692.65567		 305.27265			43387.38302		66.21000		324.00000 
 43692.65567		 624.62747			43068.02820		204.89200		875.00000 
 43692.65567		 305.27265			43387.38302		66.21000		324.00000 
 43692.65567		 624.62747			43068.02820		204.89200		875.00000 
 43692.65567		 305.27265			43387.38302		66.21000		324.00000 
 43692.65567		 624.62747			43068.02820		204.89200		875.00000 
 43692.65567		 305.27265			43387.38302		66.21000		324.00000 
 43692.65567		 624.62747			43068.02820		204.89200		875.00000 
 43692.65567		 305.27265			43387.38302		66.21000		324.00000 
 43692.65567		 624.62747			43068.02820		204.89200		875.00000 
 43692.65567		 305.27265			43387.38302		66.21000		324.00000 
 43692.65567		 624.62747			43068.02820		204.89200		875.00000 
 43692.65567		 305.27265			43387.38302		66.21000		324.00000 
 43692.65567		 624.62747			43068.02820		204.89200		875.00000 
 43692.65567		 305.27265			43387.38302		66.21000		324.00000 
 43692.65567		 624.62747			43068.02820		204.89200		875.00000 
 43692.65567		 305.27265			43387.38302		66.21000		324.00000 
 43692.65567		 624.62747			43068.02820		204.89200		875.00000 
 43692.65567		 305.27265			43387.38302		66.21000		324.00000 
 43692.65567		 624.62747			43068.02820		204.89200		875.00000 
 43692.65567		 305.27265			43387.38302		66.21000		324.00000 
 43692.65567		 624.62747			43068.02820		204.89200		875.00000 
 43692.65567		 305.27265			43387.38302		66.21000		324.00000 
 43692.65567		 624.62747			43068.02820		204.89200		875.00000 
 43692.65567		 305.27265			43387.38302		66.21000		324.00000 
 43692.65567		 624.62747			43068.02820		204.89200		875.00000 
 43692.65567		 305.27265			43387.38302		66.21000		324.00000 
 43692.65567		 624.62747			43068.02820		204.89200		875.00000 
 43692.65567		 305.27265			43387.38302		66.21000		324.00000 
 43692.65567		 624.62747			43068.02820		204.89200		875.00000 
 43692.65567		 305.27265			43387.38302		66.21000		324.00000 
 43692.65567		 624.62747			43068.02820		204.89200		875.00000 
 43692.65567		 305.27265			43387.38302		66.21000		324.00000 
 43692.65567		 624.62747			43068.02820		204.89200		875.00000 
 43692.65567		 305.27265			43387.38302		66.21000		324.00000 
 43692.65567		 624.62747			43068.02820		204.89200		875.00000 
 43692.65567		 305.27265			43387.38302		66.21000		324.00000 
 43692.65567		 624.62747			43068.02820		204.89200		875.00000 
 43692.65567		 305.27265			43387.38302		66.21000		324.00000 
 43692.65567		 624.62747			43068.02820		204.89200		875.00000 
 43692.65567		 305.27265			43387.38302		66.21000		324.00000 
 43692.65567		 624.62747			43068.02820		204.89200		875.00000 
 43692.65567		 305.27265			43387.38302		66.21000		324.00000 
 43692.65567		 624.62747			43068.02820		204.89200		875.00000 
 43692.65567		 305.27265			43387.38302		66.21000		324.00000 
 43692.65567		 624.62747			43068.02820		204.89200		875.00000 
 43692.65567		 305.27265			43387.38302		66.21000		324.00000 
 43692.65567		 624.62747			43068.02820		211.53800		875.00000 
 43692.65567		 305.27265			43387.38302		66.21000		324.00000 
 43692.65567		 624.62747			43068.02820		211.53800		875.00000 
 43692.65567		 305.27265			43387.38302		66.21000		324.00000 
 43692.65567		 624.62747			43068.02820		211.53800		875.00000 
 43692.65567		 305.27265			43387.38302		66.21000		324.00000 
 43692.65567		 624.62747			43068.02820		211.53800		875.00000 
 43692.65567		 305.27265			43387.38302		66.21000		324.00000 
 43692.65567		 624.62747			43068.02820		211.53800		875.00000 
 43692.65567		 305.27265			43387.38302		66.21000		324.00000 
 43692.65567		 624.62747			43068.02820		211.53800		875.00000 
 43692.65567		 305.27265			43387.38302		66.21000		324.00000 
 43692.65567		 624.62747			43068.02820		211.53800		875.00000 
 43692.65567		 305.27265			43387.38302		66.21000		324.00000 
 43692.65567		 624.62747			43068.02820		211.53800		875.00000 
 43692.65567		 305.27265			43387.38302		66.21000		324.00000 
 43692.65567		 624.62747			43068.02820		211.53800		875.00000 
 43692.65567		 305.27265			43387.38302		66.21000		324.00000 
 43692.65567		 624.62747			43068.02820		211.53800		875.00000 
 43692.65567		 305.27265			43387.38302		66.21000		324.00000 
 43692.65567		 624.62747			43068.02820		211.53800		875.00000 
 43692.65567		 305.27265			43387.38302		66.21000		324.00000 
 43692.65567		 624.62747			43068.02820		211.53800		875.00000 
 43692.65567		 305.27265			43387.38302		66.21000		324.00000 
 43692.65567		 624.62747			43068.02820		211.53800		875.00000 
 43692.65567		 305.27265			43387.38302		66.21000		324.00000 
 43692.65567		 624.62747			43068.02820		211.53800		875.00000 
 43692.65567		 305.27265			43387.38302		66.21000		324.00000 
 43692.65567		 624.62747			43068.02820		211.53800		875.00000 
 43692.65567		 305.27265			43387.38302		66.21000		324.00000 
 43692.65567		 624.62747			43068.02820		211.53800		875.00000 
 43692.65567		 305.27265			43387.38302		66.21000		324.00000 
 43692.65567		 624.62747			43068.02820		211.53800		875.00000 
 43692.65567		 305.27265			43387.38302		66.21000		324.00000 
 43692.65567		 624.62747			43068.02820		211.53800		875.00000 
 43692.65567		 305.27265			43387.38302		66.21000		324.00000 
 43692.65567		 624.62747			43068.02820		211.53800		875.00000 
 43692.65567		 305.27265			43387.38302		66.21000		324.00000 
 43692.65567		 624.62747			43068.02820		211.53800		875.00000 
 43692.65567		 305.27265			43387.38302		66.21000		324.00000 
 43692.65567		 624.62747			43068.02820		211.53800		875.00000 
 43692.65567		 305.27265			43387.38302		66.21000		324.00000 
 43692.65567		 624.62747			43068.02820		211.53800		875.00000 
 43692.65567		 305.27265			43387.38302		66.21000		324.00000 
 43692.65567		 624.62747			43068.02820		211.53800		875.00000 
 43692.65567		 305.27265			43387.38302		66.21000		324.00000 
 43692.65567		 624.62747			43068.02820		211.53800		875.00000 
 43692.65567		 305.27265			43387.38302		66.21000		324.00000 
 43692.65567		 624.62747			43068.02820		211.53800		875.00000 
 43692.65567		 305.27265			43387.38302		66.21000		324.00000 
 43692.65567		 624.62747			43068.02820		211.53800		875.00000 
 43692.65567		 305.27265			43387.38302		66.21000		324.00000 
 43692.65567		 624.62747			43068.02820		211.53800		875.00000 
 43692.65567		 305.27265			43387.38302		66.21000		324.00000 
 43692.65567		 624.62747			43068.02820		211.53800		875.00000 
 43692.65567		 305.27265			43387.38302		66.21000		324.00000 
 43692.65567		 624.62747			43068.02820		211.53800		875.00000 
 43692.65567		 305.27265			43387.38302		66.21000		324.00000 
 43692.65567		 624.62747			43068.02820		211.53800		875.00000 
 43692.65567		 305.27265			43387.38302		66.21000		324.00000 
 43692.65567		 624.62747			43068.02820		211.53800		875.00000 
 43692.65567		 305.27265			43387.38302		66.21000		324.00000 
 43692.65567		 624.62747			43068.02820		211.53800		875.00000 
 43692.65567		 305.27265			43387.38302		66.21000		324.00000 
 43692.65567		 624.62747			43068.02820		211.53800		875.00000 
 43692.65567		 305.27265			43387.38302		66.21000		324.00000 
 43692.65567		 624.62747			43068.02820		211.53800		875.00000 
 43692.65567		 305.27265			43387.38302		66.21000		324.00000 
 43692.65567		 624.62747			43068.02820		211.53800		875.00000 
 43692.65567		 305.27265			43387.38302		66.21000		324.00000 
 43692.65567		 624.62747			43068.02820		211.53800		875.00000 
 43692.65567		 305.27265			43387.38302		66.21000		324.00000 
 43692.65567		 624.62747			43068.02820		211.53800		875.00000 
 43692.65567		 305.27265			43387.38302		66.21000		324.00000 
 43692.65567		 624.62747			43068.02820		211.53800		875.00000 
 43692.65567		 305.27265			43387.38302		66.21000		324.00000 
 43692.65567		 624.62747			43068.02820		211.53800		875.00000 
 43692.65567		 305.27265			43387.38302		66.21000		324.00000 
 43692.65567		 624.62747			43068.02820		211.53800		875.00000 
 43692.65567		 305.27265			43387.38302		66.21000		324.00000 
 43692.65567		 624.62747			43068.02820		211.53800		875.00000 
 43692.65567		 305.27265			43387.38302		66.21000		324.00000 
 43692.65567		 624.62747			43068.02820		211.53800		875.00000 
 43692.65567		 305.27265			43387.38302		66.21000		324.00000 
 43692.65567		 624.62747			43068.02820		211.53800		875.00000 
 43692.65567		 305.27265			43387.38302		66.21000		324.00000 
 43692.65567		 624.62747			43068.02820		211.53800		875.00000 
 43692.65567		 305.27265			43387.38302		66.21000		324.00000 
 43692.65567		 624.62747			43068.02820		211.53800		875.00000 
 43692.65567		 305.27265			43387.38302		66.21000		324.00000 
 43692.65567		 624.62747			43068.02820		211.53800		875.00000 
 43692.65567		 305.27265			43387.38302		66.21000		324.00000 
 43692.65567		 624.62747			43068.02820		211.53800		875.00000 
 43692.65567		 305.27265			43387.38302		66.21000		324.00000 
 43692.65567		 624.62747			43068.02820		211.53800		875.00000 
 43692.65567		 305.27265			43387.38302		66.21000		324.00000 
 43692.65567		 624.62747			43068.02820		211.53800		875.00000 
 43692.65567		 305.27265			43387.38302		66.21000		324.00000 
 43692.65567		 624.62747			43068.02820		211.53800		875.00000 
 43692.65567		 305.27265			43387.38302		66.21000		324.00000 
 43692.65567		 624.62747			43068.02820		211.53800		875.00000 
 43692.65567		 305.27265			43387.38302		66.21000		324.00000 
 43692.65567		 624.62747			43068.02820		211.53800		875.00000 
 43692.65567		 305.27265			43387.38302		66.21000		324.00000 
 43692.65567		 624.62747			43068.02820		211.53800		875.00000 
 43692.65567		 305.27265			43387.38302		66.21000		324.00000 
 43692.65567		 624.62747			43068.02820		211.53800		875.00000 
 43692.65567		 305.27265			43387.38302		66.21000		324.00000 
 43692.65567		 624.62747			43068.02820		211.53800		875.00000 
 43692.65567		 305.27265			43387.38302		66.21000		324.00000 
 43692.65567		 624.62747			43068.02820		211.53800		875.00000 
 43692.65567		 305.27265			43387.38302		66.21000		324.00000 
 43692.65567		 624.62747			43068.02820		211.53800		875.00000 
 43692.65567		 305.27265			43387.38302		66.21000		324.00000 
 43692.65567		 624.62747			43068.02820		211.53800		875.00000 
 43692.65567		 305.27265			43387.38302		66.21000		324.00000 
 43692.65567		 624.62747			43068.02820		211.53800		875.00000 
 43692.65567		 305.27265			43387.38302		66.21000		324.00000 
 43692.65567		 624.62747			43068.02820		211.53800		875.00000 
 43692.65567		 305.27265			43387.38302		66.21000		324.00000 
 43692.65567		 624.62747			43068.02820		211.53800		875.00000 
 43692.65567		 305.27265			43387.38302		66.21000		324.00000 
 43692.65567		 624.62747			43068.02820		211.53800		875.00000 
 43692.65567		 305.27265			43387.38302		66.21000		324.00000 
 43692.65567		 624.62747			43068.02820		211.53800		875.00000 
 43692.65567		 305.27265			43387.38302		66.21000		324.00000 
 43692.65567		 624.62747			43068.02820		211.53800		875.00000 
 43692.65567		 305.27265			43387.38302		66.21000		324.00000 
 43692.65567		 624.62747			43068.02820		211.53800		875.00000 
 43692.65567		 305.27265			43387.38302		66.21000		324.00000 
 43692.65567		 624.62747			43068.02820		213.39800		875.00000 
 43692.65567		 305.27265			43387.38302		66.21000		324.00000 
 43692.65567		 624.62747			43068.02820		213.39800		875.00000 
 43692.65567		 305.27265			43387.38302		66.21000		324.00000 
 43692.65567		 624.62747			43068.02820		213.39800		875.00000 
 43692.65567		 305.27265			43387.38302		66.21000		324.00000 
 43692.65567		 624.62747			43068.02820		213.39800		875.00000 
 43692.65567		 305.27265			43387.38302		66.21000		324.00000 
 43692.65567		 624.62747			43068.02820		213.39800		875.00000 
 43692.65567		 305.27265			43387.38302		66.21000		324.00000 
 43692.65567		 624.62747			43068.02820		213.39800		875.00000 
 43692.65567		 305.27265			43387.38302		66.21000		324.00000 
 43692.65567		 624.62747			43068.02820		213.39800		875.00000 
 43692.65567		 305.27265			43387.38302		66.21000		324.00000 
 43692.65567		 624.62747			43068.02820		213.39800		875.00000 
 43692.65567		 305.27265			43387.38302		66.21000		324.00000 
 43692.65567		 624.62747			43068.02820		213.39800		875.00000 
 43692.65567		 305.27265			43387.38302		66.21000		324.00000 
 43692.65567		 624.62747			43068.02820		213.39800		875.00000 
 43692.65567		 305.27265			43387.38302		66.21000		324.00000 
 43692.65567		 624.62747			43068.02820		213.39800		875.00000 
 43692.65567		 305.27265			43387.38302		66.21000		324.00000 
 43692.65567		 624.62747			43068.02820		213.39800		875.00000 
 43692.65567		 305.27265			43387.38302		66.21000		324.00000 
 43692.65567		 624.62747			43068.02820		213.39800		875.00000 
 43692.65567		 305.27265			43387.38302		66.21000		324.00000 
 43692.65567		 624.62747			43068.02820		213.39800		875.00000 
 43692.65567		 305.27265			43387.38302		66.21000		324.00000 
 43692.65567		 624.62747			43068.02820		213.39800		875.00000 
 43692.65567		 305.27265			43387.38302		66.21000		324.00000 
 43692.65567		 624.62747			43068.02820		213.39800		875.00000 
 43692.65567		 305.27265			43387.38302		66.21000		324.00000 
 43692.65567		 624.62747			43068.02820		213.39800		875.00000 
 43692.65567		 305.27265			43387.38302		66.21000		324.00000 
 43692.65567		 624.62747			43068.02820		213.39800		875.00000 
 43692.65567		 305.27265			43387.38302		66.21000		324.00000 
 43692.65567		 624.62747			43068.02820		213.39800		875.00000 
 43692.65567		 305.27265			43387.38302		66.21000		324.00000 
 43692.65567		 624.62747			43068.02820		213.39800		875.00000 
 43692.65567		 305.27265			43387.38302		66.21000		324.00000 
 43692.65567		 624.62747			43068.02820		213.39800		875.00000 
 43692.65567		 305.27265			43387.38302		66.21000		324.00000 
 43692.65567		 624.62747			43068.02820		213.39800		875.00000 
 43692.65567		 305.27265			43387.38302		66.21000		324.00000 
 43692.65567		 624.62747			43068.02820		213.39800		875.00000 
 43692.65567		 305.27265			43387.38302		66.21000		324.00000 
 43692.65567		 624.62747			43068.02820		213.39800		875.00000 
 43692.65567		 305.27265			43387.38302		66.21000		324.00000 
 43692.65567		 624.62747			43068.02820		213.39800		875.00000 
 43692.65567		 305.27265			43387.38302		66.21000		324.00000 
 43692.65567		 624.62747			43068.02820		213.39800		875.00000 
 43692.65567		 305.27265			43387.38302		66.21000		324.00000 
 43692.65567		 624.62747			43068.02820		213.39800		875.00000 
 43692.65567		 305.27265			43387.38302		66.21000		324.00000 
 43692.65567		 624.62747			43068.02820		213.39800		875.00000 
 43692.65567		 305.27265			43387.38302		66.21000		324.00000 
 43692.65567		 624.62747			43068.02820		213.39800		875.00000 
 43692.65567		 305.27265			43387.38302		66.21000		324.00000 
 43692.65567		 624.62747			43068.02820		213.39800		875.00000 
 43692.65567		 305.27265			43387.38302		66.21000		324.00000 
 43692.65567		 624.62747			43068.02820		213.39800		875.00000 
 43692.65567		 305.27265			43387.38302		66.21000		324.00000 
 43692.65567		 624.62747			43068.02820		213.39800		875.00000 
 43692.65567		 305.27265			43387.38302		66.21000		324.00000 
 43692.65567		 624.62747			43068.02820		213.39800		875.00000 
 43692.65567		 305.27265			43387.38302		66.21000		324.00000 
 43692.65567		 624.62747			43068.02820		213.39800		875.00000 
 43692.65567		 305.27265			43387.38302		66.21000		324.00000 
 43692.65567		 624.62747			43068.02820		213.39800		875.00000 
 43692.65567		 305.27265			43387.38302		66.21000		324.00000 
 43692.65567		 624.62747			43068.02820		213.39800		875.00000 
 43692.65567		 305.27265			43387.38302		66.21000		324.00000 
 43692.65567		 624.62747			43068.02820		213.39800		875.00000 
 43692.65567		 305.27265			43387.38302		66.21000		324.00000 
 43692.65567		 624.62747			43068.02820		213.39800		875.00000 
 43692.65567		 305.27265			43387.38302		66.21000		324.00000 
 43692.65567		 624.62747			43068.02820		213.39800		875.00000 
 43692.65567		 305.27265			43387.38302		66.21000		324.00000 
 43692.65567		 624.62747			43068.02820		213.39800		875.00000 
 43692.65567		 305.27265			43387.38302		66.21000		324.00000 
 43692.65567		 624.62747			43068.02820		213.39800		875.00000 
 43692.65567		 305.27265			43387.38302		66.21000		324.00000 
 43692.65567		 624.62747			43068.02820		213.39800		875.00000 
 43692.65567		 305.27265			43387.38302		66.21000		324.00000 
 43692.65567		 624.62747			43068.02820		213.39800		875.00000 
 43692.65567		 305.27265			43387.38302		66.21000		324.00000 
 43692.65567		 624.62747			43068.02820		213.39800		875.00000 
 43692.65567		 305.27265			43387.38302		66.21000		324.00000 
 43692.65567		 624.62747			43068.02820		213.39800		875.00000 
 43692.65567		 305.27265			43387.38302		66.21000		324.00000 
 43692.65567		 624.62747			43068.02820		213.39800		875.00000 
 43692.65567		 305.27265			43387.38302		66.21000		324.00000 
 43692.65567		 624.62747			43068.02820		213.39800		875.00000 
 43692.65567		 305.27265			43387.38302		66.21000		324.00000 
 43692.65567		 624.62747			43068.02820		213.39800		875.00000 
 43692.65567		 305.27265			43387.38302		66.21000		324.00000 
 43692.65567		 624.62747			43068.02820		213.39800		875.00000 
 43692.65567		 305.27265			43387.38302		66.21000		324.00000 
 43692.65567		 624.62747			43068.02820		213.39800		875.00000 
 43692.65567		 305.27265			43387.38302		66.21000		324.00000 
 43692.65567		 624.62747			43068.02820		213.39800		875.00000 
 43692.65567		 305.27265			43387.38302		66.21000		324.00000 
 43692.65567		 624.62747			43068.02820		213.39800		875.00000 
 43692.65567		 305.27265			43387.38302		66.21000		324.00000 
 43692.65567		 624.62747			43068.02820		213.39800		875.00000 
 43692.65567		 305.27265			43387.38302		66.21000		324.00000 
 43692.65567		 624.62747			43068.02820		213.39800		875.00000 
 43692.65567		 305.27265			43387.38302		66.21000		324.00000 
 43692.65567		 624.62747			43068.02820		213.39800		875.00000 
 43692.65567		 305.27265			43387.38302		66.21000		324.00000 
 43692.65567		 624.62747			43068.02820		213.39800		875.00000 
 43692.65567		 305.27265			43387.38302		66.21000		324.00000 
 43692.65567		 624.62747			43068.02820		213.39800		875.00000 
 43692.65567		 305.27265			43387.38302		66.21000		324.00000 
 43692.65567		 624.62747			43068.02820		213.39800		875.00000 
 43692.65567		 305.27265			43387.38302		66.21000		324.00000 
 43692.65567		 624.62747			43068.02820		213.39800		875.00000 
 43692.65567		 305.27265			43387.38302		66.21000		324.00000 
 43692.65567		 624.62747			43068.02820		213.39800		875.00000 
 43692.65567		 305.27265			43387.38302		66.21000		324.00000 
 43692.65567		 624.62747			43068.02820		213.39800		875.00000 
 43692.65567		 305.27265			43387.38302		66.21000		324.00000 
 43692.65567		 624.62747			43068.02820		213.39800		875.00000 
 43692.65567		 305.27265			43387.38302		66.21000		324.00000 
 43692.65567		 624.62747			43068.02820		213.39800		875.00000 
 43692.65567		 305.27265			43387.38302		66.21000		324.00000 
 43692.65567		 624.62747			43068.02820		213.39800		875.00000 
 43692.65567		 305.27265			43387.38302		66.21000		324.00000 
 43692.65567		 624.62747			43068.02820		214.50400		875.00000 
 43692.65567		 305.27265			43387.38302		66.21000		324.00000 
 43692.65567		 624.62747			43068.02820		214.50400		875.00000 
 43692.65567		 305.27265			43387.38302		66.21000		324.00000 
 43692.65567		 624.62747			43068.02820		214.50400		875.00000 
 43692.65567		 305.27265			43387.38302		66.21000		324.00000 
 43692.65567		 624.62747			43068.02820		214.50400		875.00000 
 43692.65567		 305.27265			43387.38302		66.21000		324.00000 
 43692.65567		 624.62747			43068.02820		214.50400		875.00000 
 43692.65567		 305.27265			43387.38302		66.21000		324.00000 
 43692.65567		 624.62747			43068.02820		214.50400		875.00000 
 43692.65567		 305.27265			43387.38302		66.21000		324.00000 
 43692.65567		 624.62747			43068.02820		214.50400		875.00000 
 43692.65567		 305.27265			43387.38302		66.21000		324.00000 
 43692.65567		 624.62747			43068.02820		214.50400		875.00000 
 43692.65567		 305.27265			43387.38302		66.21000		324.00000 
 43692.65567		 624.62747			43068.02820		214.50400		875.00000 
 43692.65567		 305.27265			43387.38302		66.21000		324.00000 
 43692.65567		 624.62747			43068.02820		214.50400		875.00000 
 43692.65567		 305.27265			43387.38302		66.21000		324.00000 
 43692.65567		 624.62747			43068.02820		214.50400		875.00000 
 43692.65567		 305.27265			43387.38302		66.21000		324.00000 
 43692.65567		 566.38937			43126.26630		214.50400		875.00000 
 43692.65567		 305.27265			43387.38302		66.21000		324.00000 
 43692.65567		 537.27032			43155.38535		214.50400		875.00000 
 43692.65567		 305.27265			43387.38302		66.21000		324.00000 
 43692.65567		 537.27032			43155.38535		214.50400		875.00000 
 43692.65567		 305.27265			43387.38302		66.21000		324.00000 
 43692.65567		 537.27032			43155.38535		214.50400		875.00000 
 43692.65567		 305.27265			43387.38302		66.21000		324.00000 
 43692.65567		 537.27032			43155.38535		214.50400		875.00000 
 43692.65567		 305.27265			43387.38302		66.21000		324.00000 
 43692.65567		 537.27032			43155.38535		214.50400		875.00000 
 43692.65567		 305.27265			43387.38302		66.21000		324.00000 
 43692.65567		 537.27032			43155.38535		214.50400		875.00000 
 43692.65567		 305.27265			43387.38302		66.21000		324.00000 
 43692.65567		 537.27032			43155.38535		214.50400		875.00000 
 43692.65567		 305.27265			43387.38302		66.21000		324.00000 
 43692.65567		 537.27032			43155.38535		214.50400		875.00000 
 43692.65567		 305.27265			43387.38302		66.21000		324.00000 
 43692.65567		 537.27032			43155.38535		214.50400		875.00000 
 43692.65567		 305.27265			43387.38302		66.21000		324.00000 
 43692.65567		 537.27032			43155.38535		214.50400		875.00000 
 43692.65567		 305.27265			43387.38302		66.21000		324.00000 
 43692.65567		 537.27032			43155.38535		214.50400		875.00000 
 43692.65567		 305.27265			43387.38302		66.21000		324.00000 
 43692.65567		 537.27032			43155.38535		214.50400		875.00000 
 43692.65567		 305.27265			43387.38302		66.21000		324.00000 
 43692.65567		 537.27032			43155.38535		214.50400		875.00000 
 43692.65567		 305.27265			43387.38302		66.21000		324.00000 
 43692.65567		 537.27032			43155.38535		214.50400		875.00000 
 43692.65567		 305.27265			43387.38302		66.21000		324.00000 
 43692.65567		 537.27032			43155.38535		214.50400		875.00000 
 43692.65567		 305.27265			43387.38302		66.21000		324.00000 
 43692.65567		 537.27032			43155.38535		214.50400		875.00000 
 43692.65567		 305.27265			43387.38302		66.21000		324.00000 
 43692.65567		 537.27032			43155.38535		214.50400		875.00000 
 43692.65567		 305.27265			43387.38302		66.21000		324.00000 
 43692.65567		 537.27032			43155.38535		214.50400		875.00000 
 43692.65567		 305.27265			43387.38302		66.21000		324.00000 
 43692.65567		 537.27032			43155.38535		214.50400		875.00000 
 43692.65567		 305.27265			43387.38302		66.21000		324.00000 
 43692.65567		 537.27032			43155.38535		214.50400		875.00000 
 43692.65567		 305.27265			43387.38302		66.21000		324.00000 
 43692.65567		 529.63254			43163.02313		214.50400		875.00000 
 43692.65567		 305.27265			43387.38302		66.21000		324.00000 
 43692.65567		 525.81365			43166.84203		214.50400		875.00000 
 43692.65567		 305.27265			43387.38302		66.21000		324.00000 
 43692.65567		 525.81365			43166.84203		214.50400		875.00000 
 43692.65567		 261.35540			43431.30027		66.21000		324.00000 
 43692.65567		 261.35540			43431.30027		214.50400		875.00000 
 43692.65567		 261.35540			43431.30027		66.21000		324.00000 
