Memory Total (MiB) 	 Memory Used (MiB) 	    Memory Free (MiB) 	 Power Drawed (W) 	 Clocks (Mhz) 	 
 43692.65567		 261.35540			43431.30027		169.97600		875.00000 
 43692.65567		 261.35540			43431.30027		67.61200		324.00000 
 43692.65567		 261.35540			43431.30027		169.97600		875.00000 
 43692.65567		 261.35540			43431.30027		67.61200		324.00000 
 43692.65567		 261.35540			43431.30027		169.97600		875.00000 
 43692.65567		 261.35540			43431.30027		67.61200		324.00000 
 43692.65567		 261.35540			43431.30027		169.97600		875.00000 
 43692.65567		 261.35540			43431.30027		67.61200		324.00000 
 43692.65567		 261.35540			43431.30027		169.97600		875.00000 
 43692.65567		 261.35540			43431.30027		67.61200		324.00000 
 43692.65567		 261.35540			43431.30027		169.97600		875.00000 
 43692.65567		 261.35540			43431.30027		67.61200		324.00000 
 43692.65567		 261.35540			43431.30027		169.97600		875.00000 
 43692.65567		 261.35540			43431.30027		67.61200		324.00000 
 43692.65567		 261.35540			43431.30027		169.97600		875.00000 
 43692.65567		 261.35540			43431.30027		67.61200		324.00000 
 43692.65567		 261.35540			43431.30027		169.97600		875.00000 
 43692.65567		 261.35540			43431.30027		67.61200		324.00000 
 43692.65567		 261.35540			43431.30027		169.97600		875.00000 
 43692.65567		 261.35540			43431.30027		67.61200		324.00000 
 43692.65567		 261.35540			43431.30027		169.97600		875.00000 
 43692.65567		 261.35540			43431.30027		67.61200		324.00000 
 43692.65567		 261.35540			43431.30027		169.97600		875.00000 
 43692.65567		 261.35540			43431.30027		67.61200		324.00000 
 43692.65567		 261.35540			43431.30027		169.97600		875.00000 
 43692.65567		 261.35540			43431.30027		67.61200		324.00000 
 43692.65567		 261.35540			43431.30027		169.97600		875.00000 
 43692.65567		 261.35540			43431.30027		67.61200		324.00000 
 43692.65567		 261.35540			43431.30027		169.97600		875.00000 
 43692.65567		 261.35540			43431.30027		67.61200		324.00000 
 43692.65567		 261.35540			43431.30027		169.97600		875.00000 
 43692.65567		 261.35540			43431.30027		67.61200		324.00000 
 43692.65567		 265.17429			43427.48138		169.97600		875.00000 
 43692.65567		 261.35540			43431.30027		67.61200		324.00000 
 43692.65567		 265.17429			43427.48138		169.97600		875.00000 
 43692.65567		 261.35540			43431.30027		67.61200		324.00000 
 43692.65567		 272.81207			43419.84360		169.97600		875.00000 
 43692.65567		 261.35540			43431.30027		67.61200		324.00000 
 43692.65567		 272.81207			43419.84360		169.97600		875.00000 
 43692.65567		 261.35540			43431.30027		67.61200		324.00000 
 43692.65567		 272.81207			43419.84360		169.97600		875.00000 
 43692.65567		 265.17429			43427.48138		67.61200		324.00000 
 43692.65567		 272.81207			43419.84360		169.97600		875.00000 
 43692.65567		 265.17429			43427.48138		67.61200		324.00000 
 43692.65567		 272.81207			43419.84360		169.97600		875.00000 
 43692.65567		 265.17429			43427.48138		67.61200		324.00000 
 43692.65567		 272.81207			43419.84360		169.97600		875.00000 
 43692.65567		 272.81207			43419.84360		67.61200		324.00000 
 43692.65567		 272.81207			43419.84360		169.97600		875.00000 
 43692.65567		 272.81207			43419.84360		67.61200		324.00000 
 43692.65567		 272.81207			43419.84360		169.97600		875.00000 
 43692.65567		 272.81207			43419.84360		67.61200		324.00000 
 43692.65567		 305.27265			43387.38302		169.97600		875.00000 
 43692.65567		 305.27265			43387.38302		67.61200		324.00000 
 43692.65567		 305.27265			43387.38302		169.97600		875.00000 
 43692.65567		 305.27265			43387.38302		67.61200		324.00000 
 43692.65567		 305.27265			43387.38302		169.97600		875.00000 
 43692.65567		 305.27265			43387.38302		67.61200		324.00000 
 43692.65567		 305.27265			43387.38302		169.97600		875.00000 
 43692.65567		 305.27265			43387.38302		67.61200		324.00000 
 43692.65567		 305.27265			43387.38302		169.97600		875.00000 
 43692.65567		 305.27265			43387.38302		67.61200		324.00000 
 43692.65567		 309.56891			43383.08677		169.97600		875.00000 
 43692.65567		 305.27265			43387.38302		67.61200		324.00000 
 43692.65567		 311.00099			43381.65468		169.97600		875.00000 
 43692.65567		 305.27265			43387.38302		67.61200		324.00000 
 43692.65567		 311.00099			43381.65468		169.97600		875.00000 
 43692.65567		 305.27265			43387.38302		67.61200		324.00000 
 43692.65567		 311.00099			43381.65468		169.97600		875.00000 
 43692.65567		 305.27265			43387.38302		67.61200		324.00000 
 43692.65567		 311.00099			43381.65468		169.97600		875.00000 
 43692.65567		 305.27265			43387.38302		67.61200		324.00000 
 43692.65567		 311.00099			43381.65468		146.01400		875.00000 
 43692.65567		 305.27265			43387.38302		67.61200		324.00000 
 43692.65567		 311.00099			43381.65468		146.01400		875.00000 
 43692.65567		 305.27265			43387.38302		67.61200		324.00000 
 43692.65567		 311.00099			43381.65468		146.01400		875.00000 
 43692.65567		 305.27265			43387.38302		67.61200		324.00000 
 43692.65567		 311.00099			43381.65468		146.01400		875.00000 
 43692.65567		 305.27265			43387.38302		67.61200		324.00000 
 43692.65567		 311.00099			43381.65468		146.01400		875.00000 
 43692.65567		 305.27265			43387.38302		67.61200		324.00000 
 43692.65567		 311.00099			43381.65468		146.01400		875.00000 
 43692.65567		 305.27265			43387.38302		67.61200		324.00000 
 43692.65567		 311.00099			43381.65468		146.01400		875.00000 
 43692.65567		 305.27265			43387.38302		67.61200		324.00000 
 43692.65567		 311.00099			43381.65468		146.01400		875.00000 
 43692.65567		 305.27265			43387.38302		67.61200		324.00000 
 43692.65567		 311.00099			43381.65468		146.01400		875.00000 
 43692.65567		 305.27265			43387.38302		67.61200		324.00000 
 43692.65567		 311.00099			43381.65468		146.01400		875.00000 
 43692.65567		 305.27265			43387.38302		67.61200		324.00000 
 43692.65567		 311.00099			43381.65468		146.01400		875.00000 
 43692.65567		 305.27265			43387.38302		67.61200		324.00000 
 43692.65567		 311.00099			43381.65468		146.01400		875.00000 
 43692.65567		 305.27265			43387.38302		67.61200		324.00000 
 43692.65567		 311.00099			43381.65468		146.01400		875.00000 
 43692.65567		 305.27265			43387.38302		67.61200		324.00000 
 43692.65567		 311.00099			43381.65468		146.01400		875.00000 
 43692.65567		 305.27265			43387.38302		67.61200		324.00000 
 43692.65567		 311.00099			43381.65468		146.01400		875.00000 
 43692.65567		 305.27265			43387.38302		67.61200		324.00000 
 43692.65567		 311.00099			43381.65468		146.01400		875.00000 
 43692.65567		 305.27265			43387.38302		67.61200		324.00000 
 43692.65567		 311.00099			43381.65468		146.01400		875.00000 
 43692.65567		 305.27265			43387.38302		67.61200		324.00000 
 43692.65567		 311.00099			43381.65468		146.01400		875.00000 
 43692.65567		 305.27265			43387.38302		67.61200		324.00000 
 43692.65567		 311.00099			43381.65468		146.01400		875.00000 
 43692.65567		 305.27265			43387.38302		67.61200		324.00000 
 43692.65567		 311.00099			43381.65468		146.01400		875.00000 
 43692.65567		 305.27265			43387.38302		67.61200		324.00000 
 43692.65567		 311.00099			43381.65468		146.01400		875.00000 
 43692.65567		 305.27265			43387.38302		67.61200		324.00000 
 43692.65567		 311.00099			43381.65468		146.01400		875.00000 
 43692.65567		 305.27265			43387.38302		67.61200		324.00000 
 43692.65567		 311.00099			43381.65468		146.01400		875.00000 
 43692.65567		 305.27265			43387.38302		67.61200		324.00000 
 43692.65567		 311.00099			43381.65468		146.01400		875.00000 
 43692.65567		 305.27265			43387.38302		67.61200		324.00000 
 43692.65567		 311.00099			43381.65468		146.01400		875.00000 
 43692.65567		 305.27265			43387.38302		67.61200		324.00000 
 43692.65567		 311.00099			43381.65468		146.01400		875.00000 
 43692.65567		 305.27265			43387.38302		67.61200		324.00000 
 43692.65567		 311.00099			43381.65468		146.01400		875.00000 
 43692.65567		 305.27265			43387.38302		67.61200		324.00000 
 43692.65567		 311.00099			43381.65468		146.01400		875.00000 
 43692.65567		 305.27265			43387.38302		67.61200		324.00000 
 43692.65567		 311.00099			43381.65468		146.01400		875.00000 
 43692.65567		 305.27265			43387.38302		67.61200		324.00000 
 43692.65567		 311.00099			43381.65468		146.01400		875.00000 
 43692.65567		 305.27265			43387.38302		67.61200		324.00000 
 43692.65567		 311.00099			43381.65468		146.01400		875.00000 
 43692.65567		 305.27265			43387.38302		67.61200		324.00000 
 43692.65567		 311.00099			43381.65468		135.87200		875.00000 
 43692.65567		 305.27265			43387.38302		67.61200		324.00000 
 43692.65567		 311.00099			43381.65468		135.87200		875.00000 
 43692.65567		 305.27265			43387.38302		67.61200		324.00000 
 43692.65567		 311.00099			43381.65468		135.87200		875.00000 
 43692.65567		 305.27265			43387.38302		67.61200		324.00000 
 43692.65567		 311.00099			43381.65468		135.87200		875.00000 
 43692.65567		 305.27265			43387.38302		67.61200		324.00000 
 43692.65567		 311.00099			43381.65468		135.87200		875.00000 
 43692.65567		 305.27265			43387.38302		67.61200		324.00000 
 43692.65567		 311.00099			43381.65468		135.87200		875.00000 
 43692.65567		 305.27265			43387.38302		67.61200		324.00000 
 43692.65567		 311.00099			43381.65468		135.87200		875.00000 
 43692.65567		 305.27265			43387.38302		67.61200		324.00000 
 43692.65567		 311.00099			43381.65468		135.87200		875.00000 
 43692.65567		 305.27265			43387.38302		67.61200		324.00000 
 43692.65567		 311.00099			43381.65468		135.87200		875.00000 
 43692.65567		 305.27265			43387.38302		67.61200		324.00000 
 43692.65567		 311.00099			43381.65468		135.87200		875.00000 
 43692.65567		 305.27265			43387.38302		67.61200		324.00000 
 43692.65567		 311.00099			43381.65468		135.87200		875.00000 
 43692.65567		 305.27265			43387.38302		67.61200		324.00000 
 43692.65567		 311.00099			43381.65468		135.87200		875.00000 
 43692.65567		 305.27265			43387.38302		67.61200		324.00000 
 43692.65567		 311.00099			43381.65468		135.87200		875.00000 
 43692.65567		 305.27265			43387.38302		67.61200		324.00000 
 43692.65567		 311.00099			43381.65468		135.87200		875.00000 
 43692.65567		 305.27265			43387.38302		67.61200		324.00000 
 43692.65567		 311.00099			43381.65468		135.87200		875.00000 
 43692.65567		 305.27265			43387.38302		67.61200		324.00000 
 43692.65567		 314.81988			43377.83579		135.87200		875.00000 
 43692.65567		 305.27265			43387.38302		67.61200		324.00000 
 43692.65567		 314.81988			43377.83579		135.87200		875.00000 
 43692.65567		 305.27265			43387.38302		67.61200		324.00000 
 43692.65567		 314.81988			43377.83579		135.87200		875.00000 
 43692.65567		 305.27265			43387.38302		67.61200		324.00000 
 43692.65567		 318.63877			43374.01690		135.87200		875.00000 
 43692.65567		 305.27265			43387.38302		67.61200		324.00000 
 43692.65567		 322.45767			43370.19801		135.87200		875.00000 
 43692.65567		 305.27265			43387.38302		67.61200		324.00000 
 43692.65567		 326.27656			43366.37912		135.87200		875.00000 
 43692.65567		 305.27265			43387.38302		67.61200		324.00000 
 43692.65567		 326.27656			43366.37912		135.87200		875.00000 
 43692.65567		 305.27265			43387.38302		67.61200		324.00000 
 43692.65567		 326.27656			43366.37912		135.87200		875.00000 
 43692.65567		 305.27265			43387.38302		67.61200		324.00000 
 43692.65567		 537.27032			43155.38535		135.87200		875.00000 
 43692.65567		 305.27265			43387.38302		67.61200		324.00000 
 43692.65567		 556.84214			43135.81353		135.87200		875.00000 
 43692.65567		 305.27265			43387.38302		67.61200		324.00000 
 43692.65567		 595.98578			43096.66989		135.87200		875.00000 
 43692.65567		 305.27265			43387.38302		67.61200		324.00000 
 43692.65567		 595.98578			43096.66989		135.87200		875.00000 
 43692.65567		 305.27265			43387.38302		67.61200		324.00000 
 43692.65567		 595.98578			43096.66989		135.87200		875.00000 
 43692.65567		 305.27265			43387.38302		67.61200		324.00000 
 43692.65567		 595.98578			43096.66989		135.87200		875.00000 
 43692.65567		 305.27265			43387.38302		67.61200		324.00000 
 43692.65567		 595.98578			43096.66989		135.87200		875.00000 
 43692.65567		 305.27265			43387.38302		67.61200		324.00000 
 43692.65567		 595.98578			43096.66989		135.87200		875.00000 
 43692.65567		 305.27265			43387.38302		67.61200		324.00000 
 43692.65567		 595.98578			43096.66989		135.87200		875.00000 
 43692.65567		 305.27265			43387.38302		67.61200		324.00000 
 43692.65567		 595.98578			43096.66989		135.87200		875.00000 
 43692.65567		 305.27265			43387.38302		67.61200		324.00000 
 43692.65567		 595.98578			43096.66989		135.87200		875.00000 
 43692.65567		 305.27265			43387.38302		67.61200		324.00000 
 43692.65567		 595.98578			43096.66989		135.87200		875.00000 
 43692.65567		 305.27265			43387.38302		67.61200		324.00000 
 43692.65567		 595.98578			43096.66989		135.87200		875.00000 
 43692.65567		 305.27265			43387.38302		67.61200		324.00000 
 43692.65567		 595.98578			43096.66989		135.87200		875.00000 
 43692.65567		 305.27265			43387.38302		67.61200		324.00000 
 43692.65567		 595.98578			43096.66989		135.87200		875.00000 
 43692.65567		 305.27265			43387.38302		67.61200		324.00000 
 43692.65567		 595.98578			43096.66989		135.87200		875.00000 
 43692.65567		 305.27265			43387.38302		67.61200		324.00000 
 43692.65567		 595.98578			43096.66989		135.87200		875.00000 
 43692.65567		 305.27265			43387.38302		67.61200		324.00000 
 43692.65567		 595.98578			43096.66989		135.87200		875.00000 
 43692.65567		 305.27265			43387.38302		67.61200		324.00000 
 43692.65567		 595.98578			43096.66989		135.87200		875.00000 
 43692.65567		 305.27265			43387.38302		67.61200		324.00000 
 43692.65567		 595.98578			43096.66989		135.87200		875.00000 
 43692.65567		 305.27265			43387.38302		67.61200		324.00000 
 43692.65567		 595.98578			43096.66989		135.87200		875.00000 
 43692.65567		 305.27265			43387.38302		67.61200		324.00000 
 43692.65567		 595.98578			43096.66989		153.97600		875.00000 
 43692.65567		 305.27265			43387.38302		67.61200		324.00000 
 43692.65567		 595.98578			43096.66989		153.97600		875.00000 
 43692.65567		 305.27265			43387.38302		67.61200		324.00000 
 43692.65567		 595.98578			43096.66989		153.97600		875.00000 
 43692.65567		 305.27265			43387.38302		67.61200		324.00000 
 43692.65567		 595.98578			43096.66989		153.97600		875.00000 
 43692.65567		 305.27265			43387.38302		67.61200		324.00000 
 43692.65567		 595.98578			43096.66989		153.97600		875.00000 
 43692.65567		 305.27265			43387.38302		67.61200		324.00000 
 43692.65567		 595.98578			43096.66989		153.97600		875.00000 
 43692.65567		 305.27265			43387.38302		67.61200		324.00000 
 43692.65567		 595.98578			43096.66989		153.97600		875.00000 
 43692.65567		 305.27265			43387.38302		67.61200		324.00000 
 43692.65567		 595.98578			43096.66989		153.97600		875.00000 
 43692.65567		 305.27265			43387.38302		67.61200		324.00000 
 43692.65567		 595.98578			43096.66989		153.97600		875.00000 
 43692.65567		 305.27265			43387.38302		67.61200		324.00000 
 43692.65567		 595.98578			43096.66989		153.97600		875.00000 
 43692.65567		 305.27265			43387.38302		67.61200		324.00000 
 43692.65567		 595.98578			43096.66989		153.97600		875.00000 
 43692.65567		 305.27265			43387.38302		67.61200		324.00000 
 43692.65567		 595.98578			43096.66989		153.97600		875.00000 
 43692.65567		 305.27265			43387.38302		67.61200		324.00000 
 43692.65567		 595.98578			43096.66989		153.97600		875.00000 
 43692.65567		 305.27265			43387.38302		67.61200		324.00000 
 43692.65567		 595.98578			43096.66989		153.97600		875.00000 
 43692.65567		 305.27265			43387.38302		67.61200		324.00000 
 43692.65567		 595.98578			43096.66989		153.97600		875.00000 
 43692.65567		 305.27265			43387.38302		67.61200		324.00000 
 43692.65567		 595.98578			43096.66989		153.97600		875.00000 
 43692.65567		 305.27265			43387.38302		67.61200		324.00000 
 43692.65567		 595.98578			43096.66989		153.97600		875.00000 
 43692.65567		 305.27265			43387.38302		67.61200		324.00000 
 43692.65567		 595.98578			43096.66989		153.97600		875.00000 
 43692.65567		 305.27265			43387.38302		67.61200		324.00000 
 43692.65567		 595.98578			43096.66989		153.97600		875.00000 
 43692.65567		 305.27265			43387.38302		67.61200		324.00000 
 43692.65567		 595.98578			43096.66989		153.97600		875.00000 
 43692.65567		 305.27265			43387.38302		67.61200		324.00000 
 43692.65567		 595.98578			43096.66989		153.97600		875.00000 
 43692.65567		 305.27265			43387.38302		67.61200		324.00000 
 43692.65567		 595.98578			43096.66989		153.97600		875.00000 
 43692.65567		 305.27265			43387.38302		67.61200		324.00000 
 43692.65567		 595.98578			43096.66989		153.97600		875.00000 
 43692.65567		 305.27265			43387.38302		67.61200		324.00000 
 43692.65567		 595.98578			43096.66989		153.97600		875.00000 
 43692.65567		 305.27265			43387.38302		67.61200		324.00000 
 43692.65567		 595.98578			43096.66989		153.97600		875.00000 
 43692.65567		 305.27265			43387.38302		67.61200		324.00000 
 43692.65567		 595.98578			43096.66989		153.97600		875.00000 
 43692.65567		 305.27265			43387.38302		67.61200		324.00000 
 43692.65567		 595.98578			43096.66989		153.97600		875.00000 
 43692.65567		 305.27265			43387.38302		67.61200		324.00000 
 43692.65567		 595.98578			43096.66989		153.97600		875.00000 
 43692.65567		 305.27265			43387.38302		67.61200		324.00000 
 43692.65567		 595.98578			43096.66989		153.97600		875.00000 
 43692.65567		 305.27265			43387.38302		67.61200		324.00000 
 43692.65567		 595.98578			43096.66989		153.97600		875.00000 
 43692.65567		 305.27265			43387.38302		67.61200		324.00000 
 43692.65567		 595.98578			43096.66989		153.97600		875.00000 
 43692.65567		 305.27265			43387.38302		67.61200		324.00000 
 43692.65567		 595.98578			43096.66989		153.97600		875.00000 
 43692.65567		 305.27265			43387.38302		67.61200		324.00000 
 43692.65567		 595.98578			43096.66989		153.97600		875.00000 
 43692.65567		 305.27265			43387.38302		67.61200		324.00000 
 43692.65567		 595.98578			43096.66989		153.97600		875.00000 
 43692.65567		 305.27265			43387.38302		67.61200		324.00000 
 43692.65567		 595.98578			43096.66989		153.97600		875.00000 
 43692.65567		 305.27265			43387.38302		67.61200		324.00000 
 43692.65567		 595.98578			43096.66989		153.97600		875.00000 
 43692.65567		 305.27265			43387.38302		67.61200		324.00000 
 43692.65567		 595.98578			43096.66989		153.97600		875.00000 
 43692.65567		 305.27265			43387.38302		67.61200		324.00000 
 43692.65567		 595.98578			43096.66989		153.97600		875.00000 
 43692.65567		 305.27265			43387.38302		67.61200		324.00000 
 43692.65567		 595.98578			43096.66989		153.97600		875.00000 
 43692.65567		 305.27265			43387.38302		67.61200		324.00000 
 43692.65567		 595.98578			43096.66989		153.97600		875.00000 
 43692.65567		 305.27265			43387.38302		67.61200		324.00000 
 43692.65567		 595.98578			43096.66989		153.97600		875.00000 
 43692.65567		 305.27265			43387.38302		67.61200		324.00000 
 43692.65567		 595.98578			43096.66989		153.97600		875.00000 
 43692.65567		 305.27265			43387.38302		67.61200		324.00000 
 43692.65567		 595.98578			43096.66989		153.97600		875.00000 
 43692.65567		 305.27265			43387.38302		67.61200		324.00000 
 43692.65567		 595.98578			43096.66989		153.97600		875.00000 
 43692.65567		 305.27265			43387.38302		67.61200		324.00000 
 43692.65567		 595.98578			43096.66989		153.97600		875.00000 
 43692.65567		 305.27265			43387.38302		67.61200		324.00000 
 43692.65567		 595.98578			43096.66989		153.97600		875.00000 
 43692.65567		 305.27265			43387.38302		67.61200		324.00000 
 43692.65567		 595.98578			43096.66989		153.97600		875.00000 
 43692.65567		 305.27265			43387.38302		67.61200		324.00000 
 43692.65567		 595.98578			43096.66989		153.97600		875.00000 
 43692.65567		 305.27265			43387.38302		67.61200		324.00000 
 43692.65567		 595.98578			43096.66989		153.97600		875.00000 
 43692.65567		 305.27265			43387.38302		67.61200		324.00000 
 43692.65567		 595.98578			43096.66989		153.97600		875.00000 
 43692.65567		 305.27265			43387.38302		67.61200		324.00000 
 43692.65567		 595.98578			43096.66989		153.97600		875.00000 
 43692.65567		 305.27265			43387.38302		67.61200		324.00000 
 43692.65567		 595.98578			43096.66989		153.97600		875.00000 
 43692.65567		 305.27265			43387.38302		67.61200		324.00000 
 43692.65567		 595.98578			43096.66989		153.97600		875.00000 
 43692.65567		 305.27265			43387.38302		67.61200		324.00000 
 43692.65567		 595.98578			43096.66989		153.97600		875.00000 
 43692.65567		 305.27265			43387.38302		67.61200		324.00000 
 43692.65567		 595.98578			43096.66989		153.97600		875.00000 
 43692.65567		 305.27265			43387.38302		67.61200		324.00000 
 43692.65567		 595.98578			43096.66989		190.62600		875.00000 
 43692.65567		 305.27265			43387.38302		67.61200		324.00000 
 43692.65567		 595.98578			43096.66989		190.62600		875.00000 
 43692.65567		 305.27265			43387.38302		67.61200		324.00000 
 43692.65567		 595.98578			43096.66989		190.62600		875.00000 
 43692.65567		 305.27265			43387.38302		67.61200		324.00000 
 43692.65567		 595.98578			43096.66989		190.62600		875.00000 
 43692.65567		 305.27265			43387.38302		67.61200		324.00000 
 43692.65567		 595.98578			43096.66989		190.62600		875.00000 
 43692.65567		 305.27265			43387.38302		67.61200		324.00000 
 43692.65567		 595.98578			43096.66989		190.62600		875.00000 
 43692.65567		 305.27265			43387.38302		67.61200		324.00000 
 43692.65567		 595.98578			43096.66989		190.62600		875.00000 
 43692.65567		 305.27265			43387.38302		67.61200		324.00000 
 43692.65567		 595.98578			43096.66989		190.62600		875.00000 
 43692.65567		 305.27265			43387.38302		67.61200		324.00000 
 43692.65567		 595.98578			43096.66989		190.62600		875.00000 
 43692.65567		 305.27265			43387.38302		67.61200		324.00000 
 43692.65567		 595.98578			43096.66989		190.62600		875.00000 
 43692.65567		 305.27265			43387.38302		67.61200		324.00000 
 43692.65567		 595.98578			43096.66989		190.62600		875.00000 
 43692.65567		 305.27265			43387.38302		67.61200		324.00000 
 43692.65567		 595.98578			43096.66989		190.62600		875.00000 
 43692.65567		 305.27265			43387.38302		67.61200		324.00000 
 43692.65567		 595.98578			43096.66989		190.62600		875.00000 
 43692.65567		 305.27265			43387.38302		67.61200		324.00000 
 43692.65567		 595.98578			43096.66989		190.62600		875.00000 
 43692.65567		 305.27265			43387.38302		67.61200		324.00000 
 43692.65567		 595.98578			43096.66989		190.62600		875.00000 
 43692.65567		 305.27265			43387.38302		67.61200		324.00000 
 43692.65567		 595.98578			43096.66989		190.62600		875.00000 
 43692.65567		 305.27265			43387.38302		67.61200		324.00000 
 43692.65567		 595.98578			43096.66989		190.62600		875.00000 
 43692.65567		 305.27265			43387.38302		67.61200		324.00000 
 43692.65567		 595.98578			43096.66989		190.62600		875.00000 
 43692.65567		 305.27265			43387.38302		67.61200		324.00000 
 43692.65567		 595.98578			43096.66989		190.62600		875.00000 
 43692.65567		 305.27265			43387.38302		67.61200		324.00000 
 43692.65567		 595.98578			43096.66989		190.62600		875.00000 
 43692.65567		 305.27265			43387.38302		67.61200		324.00000 
 43692.65567		 595.98578			43096.66989		190.62600		875.00000 
 43692.65567		 305.27265			43387.38302		67.61200		324.00000 
 43692.65567		 595.98578			43096.66989		190.62600		875.00000 
 43692.65567		 305.27265			43387.38302		67.61200		324.00000 
 43692.65567		 595.98578			43096.66989		190.62600		875.00000 
 43692.65567		 305.27265			43387.38302		67.61200		324.00000 
 43692.65567		 595.98578			43096.66989		190.62600		875.00000 
 43692.65567		 305.27265			43387.38302		67.61200		324.00000 
 43692.65567		 595.98578			43096.66989		190.62600		875.00000 
 43692.65567		 305.27265			43387.38302		67.61200		324.00000 
 43692.65567		 595.98578			43096.66989		190.62600		875.00000 
 43692.65567		 305.27265			43387.38302		67.61200		324.00000 
 43692.65567		 595.98578			43096.66989		190.62600		875.00000 
 43692.65567		 305.27265			43387.38302		67.61200		324.00000 
 43692.65567		 595.98578			43096.66989		190.62600		875.00000 
 43692.65567		 305.27265			43387.38302		67.61200		324.00000 
 43692.65567		 595.98578			43096.66989		190.62600		875.00000 
 43692.65567		 305.27265			43387.38302		67.61200		324.00000 
 43692.65567		 595.98578			43096.66989		190.62600		875.00000 
 43692.65567		 305.27265			43387.38302		67.61200		324.00000 
 43692.65567		 595.98578			43096.66989		190.62600		875.00000 
 43692.65567		 305.27265			43387.38302		67.61200		324.00000 
 43692.65567		 595.98578			43096.66989		190.62600		875.00000 
 43692.65567		 305.27265			43387.38302		67.61200		324.00000 
 43692.65567		 595.98578			43096.66989		190.62600		875.00000 
 43692.65567		 305.27265			43387.38302		67.61200		324.00000 
 43692.65567		 595.98578			43096.66989		190.62600		875.00000 
 43692.65567		 305.27265			43387.38302		67.61200		324.00000 
 43692.65567		 595.98578			43096.66989		190.62600		875.00000 
 43692.65567		 305.27265			43387.38302		67.61200		324.00000 
 43692.65567		 595.98578			43096.66989		190.62600		875.00000 
 43692.65567		 305.27265			43387.38302		67.61200		324.00000 
 43692.65567		 595.98578			43096.66989		190.62600		875.00000 
 43692.65567		 305.27265			43387.38302		67.61200		324.00000 
 43692.65567		 595.98578			43096.66989		190.62600		875.00000 
 43692.65567		 305.27265			43387.38302		67.61200		324.00000 
 43692.65567		 595.98578			43096.66989		190.62600		875.00000 
 43692.65567		 305.27265			43387.38302		67.61200		324.00000 
 43692.65567		 595.98578			43096.66989		190.62600		875.00000 
 43692.65567		 305.27265			43387.38302		67.61200		324.00000 
 43692.65567		 595.98578			43096.66989		190.62600		875.00000 
 43692.65567		 305.27265			43387.38302		67.61200		324.00000 
 43692.65567		 595.98578			43096.66989		190.62600		875.00000 
 43692.65567		 305.27265			43387.38302		67.61200		324.00000 
 43692.65567		 595.98578			43096.66989		190.62600		875.00000 
 43692.65567		 305.27265			43387.38302		67.61200		324.00000 
 43692.65567		 595.98578			43096.66989		190.62600		875.00000 
 43692.65567		 305.27265			43387.38302		67.61200		324.00000 
 43692.65567		 595.98578			43096.66989		190.62600		875.00000 
 43692.65567		 305.27265			43387.38302		67.61200		324.00000 
 43692.65567		 595.98578			43096.66989		190.62600		875.00000 
 43692.65567		 305.27265			43387.38302		67.61200		324.00000 
 43692.65567		 595.98578			43096.66989		190.62600		875.00000 
 43692.65567		 305.27265			43387.38302		67.61200		324.00000 
 43692.65567		 595.98578			43096.66989		190.62600		875.00000 
 43692.65567		 305.27265			43387.38302		67.61200		324.00000 
 43692.65567		 595.98578			43096.66989		190.62600		875.00000 
 43692.65567		 305.27265			43387.38302		67.61200		324.00000 
 43692.65567		 595.98578			43096.66989		190.62600		875.00000 
 43692.65567		 305.27265			43387.38302		67.61200		324.00000 
 43692.65567		 595.98578			43096.66989		190.62600		875.00000 
 43692.65567		 305.27265			43387.38302		67.61200		324.00000 
 43692.65567		 595.98578			43096.66989		190.62600		875.00000 
 43692.65567		 305.27265			43387.38302		67.61200		324.00000 
 43692.65567		 595.98578			43096.66989		190.62600		875.00000 
 43692.65567		 305.27265			43387.38302		67.61200		324.00000 
 43692.65567		 595.98578			43096.66989		190.62600		875.00000 
 43692.65567		 305.27265			43387.38302		67.61200		324.00000 
 43692.65567		 595.98578			43096.66989		190.62600		875.00000 
 43692.65567		 305.27265			43387.38302		67.61200		324.00000 
 43692.65567		 595.98578			43096.66989		190.62600		875.00000 
 43692.65567		 305.27265			43387.38302		67.61200		324.00000 
 43692.65567		 595.98578			43096.66989		190.62600		875.00000 
 43692.65567		 305.27265			43387.38302		67.61200		324.00000 
 43692.65567		 595.98578			43096.66989		190.62600		875.00000 
 43692.65567		 305.27265			43387.38302		67.61200		324.00000 
 43692.65567		 595.98578			43096.66989		205.29000		875.00000 
 43692.65567		 305.27265			43387.38302		67.61200		324.00000 
 43692.65567		 595.98578			43096.66989		205.29000		875.00000 
 43692.65567		 305.27265			43387.38302		67.61200		324.00000 
 43692.65567		 595.98578			43096.66989		205.29000		875.00000 
 43692.65567		 305.27265			43387.38302		67.61200		324.00000 
 43692.65567		 595.98578			43096.66989		205.29000		875.00000 
 43692.65567		 305.27265			43387.38302		67.61200		324.00000 
 43692.65567		 595.98578			43096.66989		205.29000		875.00000 
 43692.65567		 305.27265			43387.38302		67.61200		324.00000 
 43692.65567		 595.98578			43096.66989		205.29000		875.00000 
 43692.65567		 305.27265			43387.38302		67.61200		324.00000 
 43692.65567		 595.98578			43096.66989		205.29000		875.00000 
 43692.65567		 305.27265			43387.38302		67.61200		324.00000 
 43692.65567		 595.98578			43096.66989		205.29000		875.00000 
 43692.65567		 305.27265			43387.38302		67.61200		324.00000 
 43692.65567		 595.98578			43096.66989		205.29000		875.00000 
 43692.65567		 305.27265			43387.38302		67.61200		324.00000 
 43692.65567		 595.98578			43096.66989		205.29000		875.00000 
 43692.65567		 305.27265			43387.38302		67.61200		324.00000 
 43692.65567		 595.98578			43096.66989		205.29000		875.00000 
 43692.65567		 305.27265			43387.38302		67.61200		324.00000 
 43692.65567		 595.98578			43096.66989		205.29000		875.00000 
 43692.65567		 305.27265			43387.38302		67.61200		324.00000 
 43692.65567		 595.98578			43096.66989		205.29000		875.00000 
 43692.65567		 305.27265			43387.38302		67.61200		324.00000 
 43692.65567		 595.98578			43096.66989		205.29000		875.00000 
 43692.65567		 305.27265			43387.38302		67.61200		324.00000 
 43692.65567		 595.98578			43096.66989		205.29000		875.00000 
 43692.65567		 305.27265			43387.38302		67.61200		324.00000 
 43692.65567		 595.98578			43096.66989		205.29000		875.00000 
 43692.65567		 305.27265			43387.38302		67.61200		324.00000 
 43692.65567		 595.98578			43096.66989		205.29000		875.00000 
 43692.65567		 305.27265			43387.38302		67.61200		324.00000 
 43692.65567		 595.98578			43096.66989		205.29000		875.00000 
 43692.65567		 305.27265			43387.38302		67.61200		324.00000 
 43692.65567		 595.98578			43096.66989		205.29000		875.00000 
 43692.65567		 305.27265			43387.38302		67.61200		324.00000 
 43692.65567		 595.98578			43096.66989		205.29000		875.00000 
 43692.65567		 305.27265			43387.38302		67.61200		324.00000 
 43692.65567		 595.98578			43096.66989		205.29000		875.00000 
 43692.65567		 305.27265			43387.38302		67.61200		324.00000 
 43692.65567		 595.98578			43096.66989		205.29000		875.00000 
 43692.65567		 305.27265			43387.38302		67.61200		324.00000 
 43692.65567		 595.98578			43096.66989		205.29000		875.00000 
 43692.65567		 305.27265			43387.38302		67.61200		324.00000 
 43692.65567		 595.98578			43096.66989		205.29000		875.00000 
 43692.65567		 305.27265			43387.38302		67.61200		324.00000 
 43692.65567		 595.98578			43096.66989		205.29000		875.00000 
 43692.65567		 305.27265			43387.38302		67.61200		324.00000 
 43692.65567		 595.98578			43096.66989		205.29000		875.00000 
 43692.65567		 305.27265			43387.38302		67.61200		324.00000 
 43692.65567		 595.98578			43096.66989		205.29000		875.00000 
 43692.65567		 305.27265			43387.38302		67.61200		324.00000 
 43692.65567		 595.98578			43096.66989		205.29000		875.00000 
 43692.65567		 305.27265			43387.38302		67.61200		324.00000 
 43692.65567		 595.98578			43096.66989		205.29000		875.00000 
 43692.65567		 305.27265			43387.38302		67.61200		324.00000 
 43692.65567		 595.98578			43096.66989		205.29000		875.00000 
 43692.65567		 305.27265			43387.38302		67.61200		324.00000 
 43692.65567		 595.98578			43096.66989		205.29000		875.00000 
 43692.65567		 305.27265			43387.38302		67.61200		324.00000 
 43692.65567		 595.98578			43096.66989		205.29000		875.00000 
 43692.65567		 305.27265			43387.38302		67.61200		324.00000 
 43692.65567		 595.98578			43096.66989		205.29000		875.00000 
 43692.65567		 305.27265			43387.38302		67.61200		324.00000 
 43692.65567		 595.98578			43096.66989		205.29000		875.00000 
 43692.65567		 305.27265			43387.38302		67.61200		324.00000 
 43692.65567		 595.98578			43096.66989		205.29000		875.00000 
 43692.65567		 305.27265			43387.38302		67.61200		324.00000 
 43692.65567		 595.98578			43096.66989		205.29000		875.00000 
 43692.65567		 305.27265			43387.38302		67.61200		324.00000 
 43692.65567		 595.98578			43096.66989		205.29000		875.00000 
 43692.65567		 305.27265			43387.38302		67.61200		324.00000 
 43692.65567		 595.98578			43096.66989		205.29000		875.00000 
 43692.65567		 305.27265			43387.38302		67.61200		324.00000 
 43692.65567		 595.98578			43096.66989		205.29000		875.00000 
 43692.65567		 305.27265			43387.38302		67.61200		324.00000 
 43692.65567		 595.98578			43096.66989		205.29000		875.00000 
 43692.65567		 305.27265			43387.38302		67.61200		324.00000 
 43692.65567		 595.98578			43096.66989		205.29000		875.00000 
 43692.65567		 305.27265			43387.38302		67.61200		324.00000 
 43692.65567		 595.98578			43096.66989		205.29000		875.00000 
 43692.65567		 305.27265			43387.38302		67.61200		324.00000 
 43692.65567		 595.98578			43096.66989		205.29000		875.00000 
 43692.65567		 305.27265			43387.38302		67.61200		324.00000 
 43692.65567		 595.98578			43096.66989		205.29000		875.00000 
 43692.65567		 305.27265			43387.38302		67.61200		324.00000 
 43692.65567		 595.98578			43096.66989		205.29000		875.00000 
 43692.65567		 305.27265			43387.38302		67.61200		324.00000 
 43692.65567		 595.98578			43096.66989		205.29000		875.00000 
 43692.65567		 305.27265			43387.38302		67.61200		324.00000 
 43692.65567		 595.98578			43096.66989		205.29000		875.00000 
 43692.65567		 305.27265			43387.38302		67.61200		324.00000 
 43692.65567		 595.98578			43096.66989		205.29000		875.00000 
 43692.65567		 305.27265			43387.38302		67.61200		324.00000 
 43692.65567		 595.98578			43096.66989		205.29000		875.00000 
 43692.65567		 305.27265			43387.38302		67.61200		324.00000 
 43692.65567		 595.98578			43096.66989		205.29000		875.00000 
 43692.65567		 305.27265			43387.38302		67.61200		324.00000 
 43692.65567		 595.98578			43096.66989		205.29000		875.00000 
 43692.65567		 305.27265			43387.38302		67.61200		324.00000 
 43692.65567		 595.98578			43096.66989		205.29000		875.00000 
 43692.65567		 305.27265			43387.38302		67.61200		324.00000 
 43692.65567		 595.98578			43096.66989		205.29000		875.00000 
 43692.65567		 305.27265			43387.38302		67.61200		324.00000 
 43692.65567		 595.98578			43096.66989		205.29000		875.00000 
 43692.65567		 305.27265			43387.38302		67.61200		324.00000 
 43692.65567		 595.98578			43096.66989		205.29000		875.00000 
 43692.65567		 305.27265			43387.38302		67.61200		324.00000 
 43692.65567		 595.98578			43096.66989		205.29000		875.00000 
 43692.65567		 305.27265			43387.38302		67.61200		324.00000 
 43692.65567		 595.98578			43096.66989		205.29000		875.00000 
 43692.65567		 305.27265			43387.38302		67.61200		324.00000 
 43692.65567		 595.98578			43096.66989		205.29000		875.00000 
 43692.65567		 305.27265			43387.38302		67.61200		324.00000 
 43692.65567		 595.98578			43096.66989		205.29000		875.00000 
 43692.65567		 305.27265			43387.38302		67.61200		324.00000 
 43692.65567		 595.98578			43096.66989		205.29000		875.00000 
 43692.65567		 305.27265			43387.38302		67.61200		324.00000 
 43692.65567		 595.98578			43096.66989		211.16800		875.00000 
 43692.65567		 305.27265			43387.38302		67.61200		324.00000 
 43692.65567		 595.98578			43096.66989		211.16800		875.00000 
 43692.65567		 305.27265			43387.38302		67.61200		324.00000 
 43692.65567		 595.98578			43096.66989		211.16800		875.00000 
 43692.65567		 305.27265			43387.38302		67.61200		324.00000 
 43692.65567		 595.98578			43096.66989		211.16800		875.00000 
 43692.65567		 305.27265			43387.38302		67.61200		324.00000 
 43692.65567		 595.98578			43096.66989		211.16800		875.00000 
 43692.65567		 305.27265			43387.38302		67.61200		324.00000 
 43692.65567		 595.98578			43096.66989		211.16800		875.00000 
 43692.65567		 305.27265			43387.38302		67.61200		324.00000 
 43692.65567		 595.98578			43096.66989		211.16800		875.00000 
 43692.65567		 305.27265			43387.38302		67.61200		324.00000 
 43692.65567		 595.98578			43096.66989		211.16800		875.00000 
 43692.65567		 305.27265			43387.38302		67.61200		324.00000 
 43692.65567		 595.98578			43096.66989		211.16800		875.00000 
 43692.65567		 305.27265			43387.38302		67.61200		324.00000 
 43692.65567		 595.98578			43096.66989		211.16800		875.00000 
 43692.65567		 305.27265			43387.38302		67.61200		324.00000 
 43692.65567		 595.98578			43096.66989		211.16800		875.00000 
 43692.65567		 305.27265			43387.38302		67.61200		324.00000 
 43692.65567		 595.98578			43096.66989		211.16800		875.00000 
 43692.65567		 305.27265			43387.38302		67.61200		324.00000 
 43692.65567		 595.98578			43096.66989		211.16800		875.00000 
 43692.65567		 305.27265			43387.38302		67.61200		324.00000 
 43692.65567		 595.98578			43096.66989		211.16800		875.00000 
 43692.65567		 305.27265			43387.38302		67.61200		324.00000 
 43692.65567		 595.98578			43096.66989		211.16800		875.00000 
 43692.65567		 305.27265			43387.38302		67.61200		324.00000 
 43692.65567		 595.98578			43096.66989		211.16800		875.00000 
 43692.65567		 305.27265			43387.38302		67.61200		324.00000 
 43692.65567		 595.98578			43096.66989		211.16800		875.00000 
 43692.65567		 305.27265			43387.38302		67.61200		324.00000 
 43692.65567		 595.98578			43096.66989		211.16800		875.00000 
 43692.65567		 305.27265			43387.38302		67.61200		324.00000 
 43692.65567		 576.41396			43116.24171		211.16800		875.00000 
 43692.65567		 305.27265			43387.38302		67.61200		324.00000 
 43692.65567		 537.27032			43155.38535		211.16800		875.00000 
 43692.65567		 305.27265			43387.38302		67.61200		324.00000 
 43692.65567		 537.27032			43155.38535		211.16800		875.00000 
 43692.65567		 305.27265			43387.38302		67.61200		324.00000 
 43692.65567		 537.27032			43155.38535		211.16800		875.00000 
 43692.65567		 305.27265			43387.38302		67.61200		324.00000 
 43692.65567		 537.27032			43155.38535		211.16800		875.00000 
 43692.65567		 305.27265			43387.38302		67.61200		324.00000 
 43692.65567		 537.27032			43155.38535		211.16800		875.00000 
 43692.65567		 305.27265			43387.38302		67.61200		324.00000 
 43692.65567		 537.27032			43155.38535		211.16800		875.00000 
 43692.65567		 305.27265			43387.38302		67.61200		324.00000 
 43692.65567		 537.27032			43155.38535		211.16800		875.00000 
 43692.65567		 305.27265			43387.38302		67.61200		324.00000 
 43692.65567		 537.27032			43155.38535		211.16800		875.00000 
 43692.65567		 305.27265			43387.38302		67.61200		324.00000 
 43692.65567		 537.27032			43155.38535		211.16800		875.00000 
 43692.65567		 305.27265			43387.38302		67.61200		324.00000 
 43692.65567		 537.27032			43155.38535		211.16800		875.00000 
 43692.65567		 305.27265			43387.38302		67.61200		324.00000 
 43692.65567		 537.27032			43155.38535		211.16800		875.00000 
 43692.65567		 305.27265			43387.38302		67.61200		324.00000 
 43692.65567		 537.27032			43155.38535		211.16800		875.00000 
 43692.65567		 305.27265			43387.38302		67.61200		324.00000 
 43692.65567		 537.27032			43155.38535		211.16800		875.00000 
 43692.65567		 305.27265			43387.38302		67.61200		324.00000 
 43692.65567		 537.27032			43155.38535		211.16800		875.00000 
 43692.65567		 305.27265			43387.38302		67.61200		324.00000 
 43692.65567		 537.27032			43155.38535		211.16800		875.00000 
 43692.65567		 305.27265			43387.38302		67.61200		324.00000 
 43692.65567		 537.27032			43155.38535		211.16800		875.00000 
 43692.65567		 305.27265			43387.38302		67.61200		324.00000 
 43692.65567		 537.27032			43155.38535		211.16800		875.00000 
 43692.65567		 305.27265			43387.38302		67.61200		324.00000 
 43692.65567		 537.27032			43155.38535		211.16800		875.00000 
 43692.65567		 305.27265			43387.38302		67.61200		324.00000 
 43692.65567		 537.27032			43155.38535		211.16800		875.00000 
 43692.65567		 305.27265			43387.38302		67.61200		324.00000 
 43692.65567		 529.63254			43163.02313		211.16800		875.00000 
 43692.65567		 305.27265			43387.38302		67.61200		324.00000 
 43692.65567		 525.81365			43166.84203		211.16800		875.00000 
 43692.65567		 297.63487			43395.02080		67.61200		324.00000 
 43692.65567		 261.35540			43431.30027		173.34200		875.00000 
 43692.65567		 261.35540			43431.30027		67.61200		324.00000 
