Memory Total (MiB) 	 Memory Used (MiB) 	    Memory Free (MiB) 	 Power Drawed (W) 	 Clocks (Mhz) 	 
 43692.65567		 261.35540			43431.30027		189.41000		875.00000 
 43692.65567		 261.35540			43431.30027		70.15400		324.00000 
 43692.65567		 261.35540			43431.30027		189.41000		875.00000 
 43692.65567		 261.35540			43431.30027		70.15400		324.00000 
 43692.65567		 261.35540			43431.30027		189.41000		875.00000 
 43692.65567		 261.35540			43431.30027		70.15400		324.00000 
 43692.65567		 261.35540			43431.30027		189.41000		875.00000 
 43692.65567		 261.35540			43431.30027		70.15400		324.00000 
 43692.65567		 261.35540			43431.30027		189.41000		875.00000 
 43692.65567		 261.35540			43431.30027		70.15400		324.00000 
 43692.65567		 261.35540			43431.30027		154.18000		875.00000 
 43692.65567		 261.35540			43431.30027		70.15400		324.00000 
 43692.65567		 261.35540			43431.30027		154.18000		875.00000 
 43692.65567		 261.35540			43431.30027		70.15400		324.00000 
 43692.65567		 261.35540			43431.30027		154.18000		875.00000 
 43692.65567		 261.35540			43431.30027		70.15400		324.00000 
 43692.65567		 261.35540			43431.30027		154.18000		875.00000 
 43692.65567		 261.35540			43431.30027		70.15400		324.00000 
 43692.65567		 261.35540			43431.30027		154.18000		875.00000 
 43692.65567		 261.35540			43431.30027		70.15400		324.00000 
 43692.65567		 261.35540			43431.30027		154.18000		875.00000 
 43692.65567		 261.35540			43431.30027		70.15400		324.00000 
 43692.65567		 261.35540			43431.30027		154.18000		875.00000 
 43692.65567		 261.35540			43431.30027		70.15400		324.00000 
 43692.65567		 261.35540			43431.30027		154.18000		875.00000 
 43692.65567		 261.35540			43431.30027		70.15400		324.00000 
 43692.65567		 261.35540			43431.30027		154.18000		875.00000 
 43692.65567		 261.35540			43431.30027		70.15400		324.00000 
 43692.65567		 261.35540			43431.30027		154.18000		875.00000 
 43692.65567		 261.35540			43431.30027		70.15400		324.00000 
 43692.65567		 261.35540			43431.30027		154.18000		875.00000 
 43692.65567		 261.35540			43431.30027		70.15400		324.00000 
 43692.65567		 261.35540			43431.30027		154.18000		875.00000 
 43692.65567		 261.35540			43431.30027		70.15400		324.00000 
 43692.65567		 261.35540			43431.30027		154.18000		875.00000 
 43692.65567		 261.35540			43431.30027		70.15400		324.00000 
 43692.65567		 265.17429			43427.48138		154.18000		875.00000 
 43692.65567		 261.35540			43431.30027		70.15400		324.00000 
 43692.65567		 265.17429			43427.48138		154.18000		875.00000 
 43692.65567		 261.35540			43431.30027		70.15400		324.00000 
 43692.65567		 272.81207			43419.84360		154.18000		875.00000 
 43692.65567		 261.35540			43431.30027		70.15400		324.00000 
 43692.65567		 272.81207			43419.84360		154.18000		875.00000 
 43692.65567		 261.35540			43431.30027		70.15400		324.00000 
 43692.65567		 272.81207			43419.84360		154.18000		875.00000 
 43692.65567		 265.17429			43427.48138		70.15400		324.00000 
 43692.65567		 272.81207			43419.84360		154.18000		875.00000 
 43692.65567		 265.17429			43427.48138		70.15400		324.00000 
 43692.65567		 272.81207			43419.84360		154.18000		875.00000 
 43692.65567		 265.17429			43427.48138		70.15400		324.00000 
 43692.65567		 272.81207			43419.84360		154.18000		875.00000 
 43692.65567		 272.81207			43419.84360		70.15400		324.00000 
 43692.65567		 272.81207			43419.84360		154.18000		875.00000 
 43692.65567		 272.81207			43419.84360		70.15400		324.00000 
 43692.65567		 272.81207			43419.84360		154.18000		875.00000 
 43692.65567		 272.81207			43419.84360		70.15400		324.00000 
 43692.65567		 305.27265			43387.38302		154.18000		875.00000 
 43692.65567		 305.27265			43387.38302		70.15400		324.00000 
 43692.65567		 305.27265			43387.38302		154.18000		875.00000 
 43692.65567		 305.27265			43387.38302		70.15400		324.00000 
 43692.65567		 305.27265			43387.38302		154.18000		875.00000 
 43692.65567		 305.27265			43387.38302		70.15400		324.00000 
 43692.65567		 305.27265			43387.38302		154.18000		875.00000 
 43692.65567		 305.27265			43387.38302		70.15400		324.00000 
 43692.65567		 305.27265			43387.38302		154.18000		875.00000 
 43692.65567		 305.27265			43387.38302		70.15400		324.00000 
 43692.65567		 309.09154			43383.56413		154.18000		875.00000 
 43692.65567		 305.27265			43387.38302		70.15400		324.00000 
 43692.65567		 310.52363			43382.13204		154.18000		875.00000 
 43692.65567		 305.27265			43387.38302		70.15400		324.00000 
 43692.65567		 311.00099			43381.65468		154.18000		875.00000 
 43692.65567		 305.27265			43387.38302		70.15400		324.00000 
 43692.65567		 311.00099			43381.65468		154.18000		875.00000 
 43692.65567		 305.27265			43387.38302		70.15400		324.00000 
 43692.65567		 311.00099			43381.65468		154.18000		875.00000 
 43692.65567		 305.27265			43387.38302		70.15400		324.00000 
 43692.65567		 311.00099			43381.65468		154.18000		875.00000 
 43692.65567		 305.27265			43387.38302		70.15400		324.00000 
 43692.65567		 311.00099			43381.65468		140.43600		875.00000 
 43692.65567		 305.27265			43387.38302		70.15400		324.00000 
 43692.65567		 311.00099			43381.65468		140.43600		875.00000 
 43692.65567		 305.27265			43387.38302		70.15400		324.00000 
 43692.65567		 311.00099			43381.65468		140.43600		875.00000 
 43692.65567		 305.27265			43387.38302		70.15400		324.00000 
 43692.65567		 311.00099			43381.65468		140.43600		875.00000 
 43692.65567		 305.27265			43387.38302		70.15400		324.00000 
 43692.65567		 311.00099			43381.65468		140.43600		875.00000 
 43692.65567		 305.27265			43387.38302		70.15400		324.00000 
 43692.65567		 311.00099			43381.65468		140.43600		875.00000 
 43692.65567		 305.27265			43387.38302		70.15400		324.00000 
 43692.65567		 311.00099			43381.65468		140.43600		875.00000 
 43692.65567		 305.27265			43387.38302		70.15400		324.00000 
 43692.65567		 311.00099			43381.65468		140.43600		875.00000 
 43692.65567		 305.27265			43387.38302		70.15400		324.00000 
 43692.65567		 311.00099			43381.65468		140.43600		875.00000 
 43692.65567		 305.27265			43387.38302		70.15400		324.00000 
 43692.65567		 311.00099			43381.65468		140.43600		875.00000 
 43692.65567		 305.27265			43387.38302		70.15400		324.00000 
 43692.65567		 311.00099			43381.65468		140.43600		875.00000 
 43692.65567		 305.27265			43387.38302		70.15400		324.00000 
 43692.65567		 311.00099			43381.65468		140.43600		875.00000 
 43692.65567		 305.27265			43387.38302		70.15400		324.00000 
 43692.65567		 311.00099			43381.65468		140.43600		875.00000 
 43692.65567		 305.27265			43387.38302		70.15400		324.00000 
 43692.65567		 311.00099			43381.65468		140.43600		875.00000 
 43692.65567		 305.27265			43387.38302		70.15400		324.00000 
 43692.65567		 311.00099			43381.65468		140.43600		875.00000 
 43692.65567		 305.27265			43387.38302		70.15400		324.00000 
 43692.65567		 311.00099			43381.65468		140.43600		875.00000 
 43692.65567		 305.27265			43387.38302		70.15400		324.00000 
 43692.65567		 311.00099			43381.65468		140.43600		875.00000 
 43692.65567		 305.27265			43387.38302		70.15400		324.00000 
 43692.65567		 311.00099			43381.65468		140.43600		875.00000 
 43692.65567		 305.27265			43387.38302		70.15400		324.00000 
 43692.65567		 311.00099			43381.65468		140.43600		875.00000 
 43692.65567		 305.27265			43387.38302		70.15400		324.00000 
 43692.65567		 311.00099			43381.65468		140.43600		875.00000 
 43692.65567		 305.27265			43387.38302		70.15400		324.00000 
 43692.65567		 311.00099			43381.65468		140.43600		875.00000 
 43692.65567		 305.27265			43387.38302		70.15400		324.00000 
 43692.65567		 311.00099			43381.65468		140.43600		875.00000 
 43692.65567		 305.27265			43387.38302		70.15400		324.00000 
 43692.65567		 311.00099			43381.65468		140.43600		875.00000 
 43692.65567		 305.27265			43387.38302		70.15400		324.00000 
 43692.65567		 311.00099			43381.65468		140.43600		875.00000 
 43692.65567		 305.27265			43387.38302		70.15400		324.00000 
 43692.65567		 311.00099			43381.65468		140.43600		875.00000 
 43692.65567		 305.27265			43387.38302		70.15400		324.00000 
 43692.65567		 311.00099			43381.65468		140.43600		875.00000 
 43692.65567		 305.27265			43387.38302		70.15400		324.00000 
 43692.65567		 311.00099			43381.65468		140.43600		875.00000 
 43692.65567		 305.27265			43387.38302		70.15400		324.00000 
 43692.65567		 311.00099			43381.65468		140.43600		875.00000 
 43692.65567		 305.27265			43387.38302		70.15400		324.00000 
 43692.65567		 311.00099			43381.65468		140.43600		875.00000 
 43692.65567		 305.27265			43387.38302		70.15400		324.00000 
 43692.65567		 311.00099			43381.65468		140.43600		875.00000 
 43692.65567		 305.27265			43387.38302		70.15400		324.00000 
 43692.65567		 311.00099			43381.65468		140.43600		875.00000 
 43692.65567		 305.27265			43387.38302		70.15400		324.00000 
 43692.65567		 311.00099			43381.65468		135.62600		875.00000 
 43692.65567		 305.27265			43387.38302		70.15400		324.00000 
 43692.65567		 311.00099			43381.65468		135.62600		875.00000 
 43692.65567		 305.27265			43387.38302		70.15400		324.00000 
 43692.65567		 311.00099			43381.65468		135.62600		875.00000 
 43692.65567		 305.27265			43387.38302		70.15400		324.00000 
 43692.65567		 311.00099			43381.65468		135.62600		875.00000 
 43692.65567		 305.27265			43387.38302		70.15400		324.00000 
 43692.65567		 311.00099			43381.65468		135.62600		875.00000 
 43692.65567		 305.27265			43387.38302		70.15400		324.00000 
 43692.65567		 311.00099			43381.65468		135.62600		875.00000 
 43692.65567		 305.27265			43387.38302		70.15400		324.00000 
 43692.65567		 311.00099			43381.65468		135.62600		875.00000 
 43692.65567		 305.27265			43387.38302		70.15400		324.00000 
 43692.65567		 311.00099			43381.65468		135.62600		875.00000 
 43692.65567		 305.27265			43387.38302		70.15400		324.00000 
 43692.65567		 311.00099			43381.65468		135.62600		875.00000 
 43692.65567		 305.27265			43387.38302		70.15400		324.00000 
 43692.65567		 311.00099			43381.65468		135.62600		875.00000 
 43692.65567		 305.27265			43387.38302		70.15400		324.00000 
 43692.65567		 311.00099			43381.65468		135.62600		875.00000 
 43692.65567		 305.27265			43387.38302		70.15400		324.00000 
 43692.65567		 311.00099			43381.65468		135.62600		875.00000 
 43692.65567		 305.27265			43387.38302		70.15400		324.00000 
 43692.65567		 311.00099			43381.65468		135.62600		875.00000 
 43692.65567		 305.27265			43387.38302		70.15400		324.00000 
 43692.65567		 311.00099			43381.65468		135.62600		875.00000 
 43692.65567		 305.27265			43387.38302		70.15400		324.00000 
 43692.65567		 311.00099			43381.65468		135.62600		875.00000 
 43692.65567		 305.27265			43387.38302		70.15400		324.00000 
 43692.65567		 311.00099			43381.65468		135.62600		875.00000 
 43692.65567		 305.27265			43387.38302		70.15400		324.00000 
 43692.65567		 314.81988			43377.83579		135.62600		875.00000 
 43692.65567		 305.27265			43387.38302		70.15400		324.00000 
 43692.65567		 314.81988			43377.83579		135.62600		875.00000 
 43692.65567		 305.27265			43387.38302		70.15400		324.00000 
 43692.65567		 314.81988			43377.83579		135.62600		875.00000 
 43692.65567		 305.27265			43387.38302		70.15400		324.00000 
 43692.65567		 318.63877			43374.01690		135.62600		875.00000 
 43692.65567		 305.27265			43387.38302		70.15400		324.00000 
 43692.65567		 322.45767			43370.19801		135.62600		875.00000 
 43692.65567		 305.27265			43387.38302		70.15400		324.00000 
 43692.65567		 326.27656			43366.37912		135.62600		875.00000 
 43692.65567		 305.27265			43387.38302		70.15400		324.00000 
 43692.65567		 326.27656			43366.37912		135.62600		875.00000 
 43692.65567		 305.27265			43387.38302		70.15400		324.00000 
 43692.65567		 326.27656			43366.37912		135.62600		875.00000 
 43692.65567		 305.27265			43387.38302		70.15400		324.00000 
 43692.65567		 326.27656			43366.37912		135.62600		875.00000 
 43692.65567		 305.27265			43387.38302		70.15400		324.00000 
 43692.65567		 675.22778			43017.42789		135.62600		875.00000 
 43692.65567		 305.27265			43387.38302		70.15400		324.00000 
 43692.65567		 951.14271			42741.51297		135.62600		875.00000 
 43692.65567		 305.27265			43387.38302		70.15400		324.00000 
 43692.65567		 951.14271			42741.51297		135.62600		875.00000 
 43692.65567		 305.27265			43387.38302		70.15400		324.00000 
 43692.65567		 951.14271			42741.51297		135.62600		875.00000 
 43692.65567		 305.27265			43387.38302		70.15400		324.00000 
 43692.65567		 951.14271			42741.51297		135.62600		875.00000 
 43692.65567		 305.27265			43387.38302		70.15400		324.00000 
 43692.65567		 951.14271			42741.51297		135.62600		875.00000 
 43692.65567		 305.27265			43387.38302		70.15400		324.00000 
 43692.65567		 951.14271			42741.51297		135.62600		875.00000 
 43692.65567		 305.27265			43387.38302		70.15400		324.00000 
 43692.65567		 951.14271			42741.51297		135.62600		875.00000 
 43692.65567		 305.27265			43387.38302		70.15400		324.00000 
 43692.65567		 951.14271			42741.51297		135.62600		875.00000 
 43692.65567		 305.27265			43387.38302		70.15400		324.00000 
 43692.65567		 951.14271			42741.51297		135.62600		875.00000 
 43692.65567		 305.27265			43387.38302		70.15400		324.00000 
 43692.65567		 951.14271			42741.51297		135.62600		875.00000 
 43692.65567		 305.27265			43387.38302		70.15400		324.00000 
 43692.65567		 951.14271			42741.51297		135.62600		875.00000 
 43692.65567		 305.27265			43387.38302		70.15400		324.00000 
 43692.65567		 951.14271			42741.51297		135.62600		875.00000 
 43692.65567		 305.27265			43387.38302		70.15400		324.00000 
 43692.65567		 951.14271			42741.51297		135.62600		875.00000 
 43692.65567		 305.27265			43387.38302		70.15400		324.00000 
 43692.65567		 951.14271			42741.51297		135.62600		875.00000 
 43692.65567		 305.27265			43387.38302		70.15400		324.00000 
 43692.65567		 951.14271			42741.51297		135.62600		875.00000 
 43692.65567		 305.27265			43387.38302		70.15400		324.00000 
 43692.65567		 951.14271			42741.51297		135.62600		875.00000 
 43692.65567		 305.27265			43387.38302		70.15400		324.00000 
 43692.65567		 951.14271			42741.51297		135.62600		875.00000 
 43692.65567		 305.27265			43387.38302		70.15400		324.00000 
 43692.65567		 951.14271			42741.51297		135.62600		875.00000 
 43692.65567		 305.27265			43387.38302		70.15400		324.00000 
 43692.65567		 951.14271			42741.51297		135.62600		875.00000 
 43692.65567		 305.27265			43387.38302		70.15400		324.00000 
 43692.65567		 951.14271			42741.51297		157.33200		875.00000 
 43692.65567		 305.27265			43387.38302		70.15400		324.00000 
 43692.65567		 951.14271			42741.51297		157.33200		875.00000 
 43692.65567		 305.27265			43387.38302		70.15400		324.00000 
 43692.65567		 951.14271			42741.51297		157.33200		875.00000 
 43692.65567		 305.27265			43387.38302		70.15400		324.00000 
 43692.65567		 951.14271			42741.51297		157.33200		875.00000 
 43692.65567		 305.27265			43387.38302		70.15400		324.00000 
 43692.65567		 951.14271			42741.51297		157.33200		875.00000 
 43692.65567		 305.27265			43387.38302		70.15400		324.00000 
 43692.65567		 951.14271			42741.51297		157.33200		875.00000 
 43692.65567		 305.27265			43387.38302		70.15400		324.00000 
 43692.65567		 951.14271			42741.51297		157.33200		875.00000 
 43692.65567		 305.27265			43387.38302		70.15400		324.00000 
 43692.65567		 951.14271			42741.51297		157.33200		875.00000 
 43692.65567		 305.27265			43387.38302		70.15400		324.00000 
 43692.65567		 951.14271			42741.51297		157.33200		875.00000 
 43692.65567		 305.27265			43387.38302		70.15400		324.00000 
 43692.65567		 951.14271			42741.51297		157.33200		875.00000 
 43692.65567		 305.27265			43387.38302		70.15400		324.00000 
 43692.65567		 951.14271			42741.51297		157.33200		875.00000 
 43692.65567		 305.27265			43387.38302		70.15400		324.00000 
 43692.65567		 951.14271			42741.51297		157.33200		875.00000 
 43692.65567		 305.27265			43387.38302		70.15400		324.00000 
 43692.65567		 951.14271			42741.51297		157.33200		875.00000 
 43692.65567		 305.27265			43387.38302		70.15400		324.00000 
 43692.65567		 951.14271			42741.51297		157.33200		875.00000 
 43692.65567		 305.27265			43387.38302		70.15400		324.00000 
 43692.65567		 951.14271			42741.51297		157.33200		875.00000 
 43692.65567		 305.27265			43387.38302		70.15400		324.00000 
 43692.65567		 951.14271			42741.51297		157.33200		875.00000 
 43692.65567		 305.27265			43387.38302		70.15400		324.00000 
 43692.65567		 951.14271			42741.51297		157.33200		875.00000 
 43692.65567		 305.27265			43387.38302		70.15400		324.00000 
 43692.65567		 951.14271			42741.51297		157.33200		875.00000 
 43692.65567		 305.27265			43387.38302		70.15400		324.00000 
 43692.65567		 951.14271			42741.51297		157.33200		875.00000 
 43692.65567		 305.27265			43387.38302		70.15400		324.00000 
 43692.65567		 951.14271			42741.51297		157.33200		875.00000 
 43692.65567		 305.27265			43387.38302		70.15400		324.00000 
 43692.65567		 951.14271			42741.51297		157.33200		875.00000 
 43692.65567		 305.27265			43387.38302		70.15400		324.00000 
 43692.65567		 951.14271			42741.51297		157.33200		875.00000 
 43692.65567		 305.27265			43387.38302		70.15400		324.00000 
 43692.65567		 951.14271			42741.51297		157.33200		875.00000 
 43692.65567		 305.27265			43387.38302		70.15400		324.00000 
 43692.65567		 951.14271			42741.51297		157.33200		875.00000 
 43692.65567		 305.27265			43387.38302		70.15400		324.00000 
 43692.65567		 951.14271			42741.51297		157.33200		875.00000 
 43692.65567		 305.27265			43387.38302		70.15400		324.00000 
 43692.65567		 951.14271			42741.51297		157.33200		875.00000 
 43692.65567		 305.27265			43387.38302		70.15400		324.00000 
 43692.65567		 951.14271			42741.51297		157.33200		875.00000 
 43692.65567		 305.27265			43387.38302		70.15400		324.00000 
 43692.65567		 951.14271			42741.51297		157.33200		875.00000 
 43692.65567		 305.27265			43387.38302		70.15400		324.00000 
 43692.65567		 951.14271			42741.51297		157.33200		875.00000 
 43692.65567		 305.27265			43387.38302		70.15400		324.00000 
 43692.65567		 951.14271			42741.51297		157.33200		875.00000 
 43692.65567		 305.27265			43387.38302		70.15400		324.00000 
 43692.65567		 951.14271			42741.51297		157.33200		875.00000 
 43692.65567		 305.27265			43387.38302		70.15400		324.00000 
 43692.65567		 951.14271			42741.51297		157.33200		875.00000 
 43692.65567		 305.27265			43387.38302		70.15400		324.00000 
 43692.65567		 951.14271			42741.51297		157.33200		875.00000 
 43692.65567		 305.27265			43387.38302		70.15400		324.00000 
 43692.65567		 951.14271			42741.51297		157.33200		875.00000 
 43692.65567		 305.27265			43387.38302		70.15400		324.00000 
 43692.65567		 951.14271			42741.51297		157.33200		875.00000 
 43692.65567		 305.27265			43387.38302		70.15400		324.00000 
 43692.65567		 951.14271			42741.51297		157.33200		875.00000 
 43692.65567		 305.27265			43387.38302		70.15400		324.00000 
 43692.65567		 951.14271			42741.51297		157.33200		875.00000 
 43692.65567		 305.27265			43387.38302		70.15400		324.00000 
 43692.65567		 951.14271			42741.51297		157.33200		875.00000 
 43692.65567		 305.27265			43387.38302		70.15400		324.00000 
 43692.65567		 951.14271			42741.51297		157.33200		875.00000 
 43692.65567		 305.27265			43387.38302		70.15400		324.00000 
 43692.65567		 951.14271			42741.51297		157.33200		875.00000 
 43692.65567		 305.27265			43387.38302		70.15400		324.00000 
 43692.65567		 951.14271			42741.51297		157.33200		875.00000 
 43692.65567		 305.27265			43387.38302		70.15400		324.00000 
 43692.65567		 951.14271			42741.51297		157.33200		875.00000 
 43692.65567		 305.27265			43387.38302		70.15400		324.00000 
 43692.65567		 951.14271			42741.51297		157.33200		875.00000 
 43692.65567		 305.27265			43387.38302		70.15400		324.00000 
 43692.65567		 951.14271			42741.51297		157.33200		875.00000 
 43692.65567		 305.27265			43387.38302		70.15400		324.00000 
 43692.65567		 951.14271			42741.51297		157.33200		875.00000 
 43692.65567		 305.27265			43387.38302		70.15400		324.00000 
 43692.65567		 951.14271			42741.51297		157.33200		875.00000 
 43692.65567		 305.27265			43387.38302		70.15400		324.00000 
 43692.65567		 951.14271			42741.51297		157.33200		875.00000 
 43692.65567		 305.27265			43387.38302		70.15400		324.00000 
 43692.65567		 951.14271			42741.51297		157.33200		875.00000 
 43692.65567		 305.27265			43387.38302		70.15400		324.00000 
 43692.65567		 951.14271			42741.51297		157.33200		875.00000 
 43692.65567		 305.27265			43387.38302		70.15400		324.00000 
 43692.65567		 951.14271			42741.51297		157.33200		875.00000 
 43692.65567		 305.27265			43387.38302		70.15400		324.00000 
 43692.65567		 951.14271			42741.51297		157.33200		875.00000 
 43692.65567		 305.27265			43387.38302		70.15400		324.00000 
 43692.65567		 951.14271			42741.51297		157.33200		875.00000 
 43692.65567		 305.27265			43387.38302		70.15400		324.00000 
 43692.65567		 951.14271			42741.51297		157.33200		875.00000 
 43692.65567		 305.27265			43387.38302		70.15400		324.00000 
 43692.65567		 951.14271			42741.51297		157.33200		875.00000 
 43692.65567		 305.27265			43387.38302		70.15400		324.00000 
 43692.65567		 951.14271			42741.51297		157.33200		875.00000 
 43692.65567		 305.27265			43387.38302		70.15400		324.00000 
 43692.65567		 951.14271			42741.51297		157.33200		875.00000 
 43692.65567		 305.27265			43387.38302		70.15400		324.00000 
 43692.65567		 951.14271			42741.51297		157.33200		875.00000 
 43692.65567		 305.27265			43387.38302		70.15400		324.00000 
 43692.65567		 951.14271			42741.51297		157.33200		875.00000 
 43692.65567		 305.27265			43387.38302		70.15400		324.00000 
 43692.65567		 951.14271			42741.51297		157.33200		875.00000 
 43692.65567		 305.27265			43387.38302		70.15400		324.00000 
 43692.65567		 951.14271			42741.51297		157.33200		875.00000 
 43692.65567		 305.27265			43387.38302		70.15400		324.00000 
 43692.65567		 951.14271			42741.51297		157.33200		875.00000 
 43692.65567		 305.27265			43387.38302		70.15400		324.00000 
 43692.65567		 951.14271			42741.51297		157.33200		875.00000 
 43692.65567		 305.27265			43387.38302		70.15400		324.00000 
 43692.65567		 951.14271			42741.51297		157.33200		875.00000 
 43692.65567		 305.27265			43387.38302		70.15400		324.00000 
 43692.65567		 951.14271			42741.51297		157.33200		875.00000 
 43692.65567		 305.27265			43387.38302		70.15400		324.00000 
 43692.65567		 951.14271			42741.51297		202.20800		875.00000 
 43692.65567		 305.27265			43387.38302		70.15400		324.00000 
 43692.65567		 951.14271			42741.51297		202.20800		875.00000 
 43692.65567		 305.27265			43387.38302		70.15400		324.00000 
 43692.65567		 951.14271			42741.51297		202.20800		875.00000 
 43692.65567		 305.27265			43387.38302		70.15400		324.00000 
 43692.65567		 951.14271			42741.51297		202.20800		875.00000 
 43692.65567		 305.27265			43387.38302		70.15400		324.00000 
 43692.65567		 951.14271			42741.51297		202.20800		875.00000 
 43692.65567		 305.27265			43387.38302		70.15400		324.00000 
 43692.65567		 951.14271			42741.51297		202.20800		875.00000 
 43692.65567		 305.27265			43387.38302		70.15400		324.00000 
 43692.65567		 951.14271			42741.51297		202.20800		875.00000 
 43692.65567		 305.27265			43387.38302		70.15400		324.00000 
 43692.65567		 951.14271			42741.51297		202.20800		875.00000 
 43692.65567		 305.27265			43387.38302		70.15400		324.00000 
 43692.65567		 951.14271			42741.51297		202.20800		875.00000 
 43692.65567		 305.27265			43387.38302		70.15400		324.00000 
 43692.65567		 951.14271			42741.51297		202.20800		875.00000 
 43692.65567		 305.27265			43387.38302		70.15400		324.00000 
 43692.65567		 951.14271			42741.51297		202.20800		875.00000 
 43692.65567		 305.27265			43387.38302		70.15400		324.00000 
 43692.65567		 951.14271			42741.51297		202.20800		875.00000 
 43692.65567		 305.27265			43387.38302		70.15400		324.00000 
 43692.65567		 951.14271			42741.51297		202.20800		875.00000 
 43692.65567		 305.27265			43387.38302		70.15400		324.00000 
 43692.65567		 951.14271			42741.51297		202.20800		875.00000 
 43692.65567		 305.27265			43387.38302		70.15400		324.00000 
 43692.65567		 951.14271			42741.51297		202.20800		875.00000 
 43692.65567		 305.27265			43387.38302		70.15400		324.00000 
 43692.65567		 951.14271			42741.51297		202.20800		875.00000 
 43692.65567		 305.27265			43387.38302		70.15400		324.00000 
 43692.65567		 951.14271			42741.51297		202.20800		875.00000 
 43692.65567		 305.27265			43387.38302		70.15400		324.00000 
 43692.65567		 951.14271			42741.51297		202.20800		875.00000 
 43692.65567		 305.27265			43387.38302		70.15400		324.00000 
 43692.65567		 951.14271			42741.51297		202.20800		875.00000 
 43692.65567		 305.27265			43387.38302		70.15400		324.00000 
 43692.65567		 951.14271			42741.51297		202.20800		875.00000 
 43692.65567		 305.27265			43387.38302		70.15400		324.00000 
 43692.65567		 951.14271			42741.51297		202.20800		875.00000 
 43692.65567		 305.27265			43387.38302		70.15400		324.00000 
 43692.65567		 951.14271			42741.51297		202.20800		875.00000 
 43692.65567		 305.27265			43387.38302		70.15400		324.00000 
 43692.65567		 951.14271			42741.51297		202.20800		875.00000 
 43692.65567		 305.27265			43387.38302		70.15400		324.00000 
 43692.65567		 951.14271			42741.51297		202.20800		875.00000 
 43692.65567		 305.27265			43387.38302		70.15400		324.00000 
 43692.65567		 951.14271			42741.51297		202.20800		875.00000 
 43692.65567		 305.27265			43387.38302		70.15400		324.00000 
 43692.65567		 951.14271			42741.51297		202.20800		875.00000 
 43692.65567		 305.27265			43387.38302		70.15400		324.00000 
 43692.65567		 951.14271			42741.51297		202.20800		875.00000 
 43692.65567		 305.27265			43387.38302		70.15400		324.00000 
 43692.65567		 951.14271			42741.51297		202.20800		875.00000 
 43692.65567		 305.27265			43387.38302		70.15400		324.00000 
 43692.65567		 951.14271			42741.51297		202.20800		875.00000 
 43692.65567		 305.27265			43387.38302		70.15400		324.00000 
 43692.65567		 951.14271			42741.51297		202.20800		875.00000 
 43692.65567		 305.27265			43387.38302		70.15400		324.00000 
 43692.65567		 951.14271			42741.51297		202.20800		875.00000 
 43692.65567		 305.27265			43387.38302		70.15400		324.00000 
 43692.65567		 951.14271			42741.51297		202.20800		875.00000 
 43692.65567		 305.27265			43387.38302		70.15400		324.00000 
 43692.65567		 951.14271			42741.51297		202.20800		875.00000 
 43692.65567		 305.27265			43387.38302		70.15400		324.00000 
 43692.65567		 951.14271			42741.51297		202.20800		875.00000 
 43692.65567		 305.27265			43387.38302		70.15400		324.00000 
 43692.65567		 951.14271			42741.51297		202.20800		875.00000 
 43692.65567		 305.27265			43387.38302		70.15400		324.00000 
 43692.65567		 951.14271			42741.51297		202.20800		875.00000 
 43692.65567		 305.27265			43387.38302		70.15400		324.00000 
 43692.65567		 951.14271			42741.51297		202.20800		875.00000 
 43692.65567		 305.27265			43387.38302		70.15400		324.00000 
 43692.65567		 951.14271			42741.51297		202.20800		875.00000 
 43692.65567		 305.27265			43387.38302		70.15400		324.00000 
 43692.65567		 951.14271			42741.51297		202.20800		875.00000 
 43692.65567		 305.27265			43387.38302		70.15400		324.00000 
 43692.65567		 951.14271			42741.51297		202.20800		875.00000 
 43692.65567		 305.27265			43387.38302		70.15400		324.00000 
 43692.65567		 951.14271			42741.51297		202.20800		875.00000 
 43692.65567		 305.27265			43387.38302		70.15400		324.00000 
 43692.65567		 951.14271			42741.51297		202.20800		875.00000 
 43692.65567		 305.27265			43387.38302		70.15400		324.00000 
 43692.65567		 951.14271			42741.51297		202.20800		875.00000 
 43692.65567		 305.27265			43387.38302		70.15400		324.00000 
 43692.65567		 951.14271			42741.51297		202.20800		875.00000 
 43692.65567		 305.27265			43387.38302		70.15400		324.00000 
 43692.65567		 951.14271			42741.51297		202.20800		875.00000 
 43692.65567		 305.27265			43387.38302		70.15400		324.00000 
 43692.65567		 951.14271			42741.51297		202.20800		875.00000 
 43692.65567		 305.27265			43387.38302		70.15400		324.00000 
 43692.65567		 951.14271			42741.51297		202.20800		875.00000 
 43692.65567		 305.27265			43387.38302		70.15400		324.00000 
 43692.65567		 951.14271			42741.51297		202.20800		875.00000 
 43692.65567		 305.27265			43387.38302		70.15400		324.00000 
 43692.65567		 951.14271			42741.51297		202.20800		875.00000 
 43692.65567		 305.27265			43387.38302		70.15400		324.00000 
 43692.65567		 951.14271			42741.51297		202.20800		875.00000 
 43692.65567		 305.27265			43387.38302		70.15400		324.00000 
 43692.65567		 951.14271			42741.51297		202.20800		875.00000 
 43692.65567		 305.27265			43387.38302		70.15400		324.00000 
 43692.65567		 951.14271			42741.51297		202.20800		875.00000 
 43692.65567		 305.27265			43387.38302		70.15400		324.00000 
 43692.65567		 951.14271			42741.51297		202.20800		875.00000 
 43692.65567		 305.27265			43387.38302		70.15400		324.00000 
 43692.65567		 951.14271			42741.51297		202.20800		875.00000 
 43692.65567		 305.27265			43387.38302		70.15400		324.00000 
 43692.65567		 951.14271			42741.51297		202.20800		875.00000 
 43692.65567		 305.27265			43387.38302		70.15400		324.00000 
 43692.65567		 951.14271			42741.51297		202.20800		875.00000 
 43692.65567		 305.27265			43387.38302		70.15400		324.00000 
 43692.65567		 951.14271			42741.51297		202.20800		875.00000 
 43692.65567		 305.27265			43387.38302		70.15400		324.00000 
 43692.65567		 951.14271			42741.51297		202.20800		875.00000 
 43692.65567		 305.27265			43387.38302		70.15400		324.00000 
 43692.65567		 951.14271			42741.51297		202.20800		875.00000 
 43692.65567		 305.27265			43387.38302		70.15400		324.00000 
 43692.65567		 951.14271			42741.51297		202.20800		875.00000 
 43692.65567		 305.27265			43387.38302		70.15400		324.00000 
 43692.65567		 951.14271			42741.51297		202.20800		875.00000 
 43692.65567		 305.27265			43387.38302		70.15400		324.00000 
 43692.65567		 951.14271			42741.51297		202.20800		875.00000 
 43692.65567		 305.27265			43387.38302		70.15400		324.00000 
 43692.65567		 951.14271			42741.51297		202.20800		875.00000 
 43692.65567		 305.27265			43387.38302		70.15400		324.00000 
 43692.65567		 951.14271			42741.51297		202.20800		875.00000 
 43692.65567		 305.27265			43387.38302		70.15400		324.00000 
 43692.65567		 951.14271			42741.51297		218.21200		875.00000 
 43692.65567		 305.27265			43387.38302		70.15400		324.00000 
 43692.65567		 951.14271			42741.51297		218.21200		875.00000 
 43692.65567		 305.27265			43387.38302		70.15400		324.00000 
 43692.65567		 951.14271			42741.51297		218.21200		875.00000 
 43692.65567		 305.27265			43387.38302		70.15400		324.00000 
 43692.65567		 951.14271			42741.51297		218.21200		875.00000 
 43692.65567		 305.27265			43387.38302		70.15400		324.00000 
 43692.65567		 951.14271			42741.51297		218.21200		875.00000 
 43692.65567		 305.27265			43387.38302		70.15400		324.00000 
 43692.65567		 951.14271			42741.51297		218.21200		875.00000 
 43692.65567		 305.27265			43387.38302		70.15400		324.00000 
 43692.65567		 951.14271			42741.51297		218.21200		875.00000 
 43692.65567		 305.27265			43387.38302		70.15400		324.00000 
 43692.65567		 951.14271			42741.51297		218.21200		875.00000 
 43692.65567		 305.27265			43387.38302		70.15400		324.00000 
 43692.65567		 951.14271			42741.51297		218.21200		875.00000 
 43692.65567		 305.27265			43387.38302		70.15400		324.00000 
 43692.65567		 951.14271			42741.51297		218.21200		875.00000 
 43692.65567		 305.27265			43387.38302		70.15400		324.00000 
 43692.65567		 951.14271			42741.51297		218.21200		875.00000 
 43692.65567		 305.27265			43387.38302		70.15400		324.00000 
 43692.65567		 951.14271			42741.51297		218.21200		875.00000 
 43692.65567		 305.27265			43387.38302		70.15400		324.00000 
 43692.65567		 951.14271			42741.51297		218.21200		875.00000 
 43692.65567		 305.27265			43387.38302		70.15400		324.00000 
 43692.65567		 951.14271			42741.51297		218.21200		875.00000 
 43692.65567		 305.27265			43387.38302		70.15400		324.00000 
 43692.65567		 951.14271			42741.51297		218.21200		875.00000 
 43692.65567		 305.27265			43387.38302		70.15400		324.00000 
 43692.65567		 951.14271			42741.51297		218.21200		875.00000 
 43692.65567		 305.27265			43387.38302		70.15400		324.00000 
 43692.65567		 951.14271			42741.51297		218.21200		875.00000 
 43692.65567		 305.27265			43387.38302		70.15400		324.00000 
 43692.65567		 951.14271			42741.51297		218.21200		875.00000 
 43692.65567		 305.27265			43387.38302		70.15400		324.00000 
 43692.65567		 951.14271			42741.51297		218.21200		875.00000 
 43692.65567		 305.27265			43387.38302		70.15400		324.00000 
 43692.65567		 951.14271			42741.51297		218.21200		875.00000 
 43692.65567		 305.27265			43387.38302		70.15400		324.00000 
 43692.65567		 951.14271			42741.51297		218.21200		875.00000 
 43692.65567		 305.27265			43387.38302		70.15400		324.00000 
 43692.65567		 951.14271			42741.51297		218.21200		875.00000 
 43692.65567		 305.27265			43387.38302		70.15400		324.00000 
 43692.65567		 951.14271			42741.51297		218.21200		875.00000 
 43692.65567		 305.27265			43387.38302		70.15400		324.00000 
 43692.65567		 951.14271			42741.51297		218.21200		875.00000 
 43692.65567		 305.27265			43387.38302		70.15400		324.00000 
 43692.65567		 951.14271			42741.51297		218.21200		875.00000 
 43692.65567		 305.27265			43387.38302		70.15400		324.00000 
 43692.65567		 951.14271			42741.51297		218.21200		875.00000 
 43692.65567		 305.27265			43387.38302		70.15400		324.00000 
 43692.65567		 951.14271			42741.51297		218.21200		875.00000 
 43692.65567		 305.27265			43387.38302		70.15400		324.00000 
 43692.65567		 951.14271			42741.51297		218.21200		875.00000 
 43692.65567		 305.27265			43387.38302		70.15400		324.00000 
 43692.65567		 951.14271			42741.51297		218.21200		875.00000 
 43692.65567		 305.27265			43387.38302		70.15400		324.00000 
 43692.65567		 951.14271			42741.51297		218.21200		875.00000 
 43692.65567		 305.27265			43387.38302		70.15400		324.00000 
 43692.65567		 951.14271			42741.51297		218.21200		875.00000 
 43692.65567		 305.27265			43387.38302		70.15400		324.00000 
 43692.65567		 951.14271			42741.51297		218.21200		875.00000 
 43692.65567		 305.27265			43387.38302		70.15400		324.00000 
 43692.65567		 951.14271			42741.51297		218.21200		875.00000 
 43692.65567		 305.27265			43387.38302		70.15400		324.00000 
 43692.65567		 951.14271			42741.51297		218.21200		875.00000 
 43692.65567		 305.27265			43387.38302		70.15400		324.00000 
 43692.65567		 951.14271			42741.51297		218.21200		875.00000 
 43692.65567		 305.27265			43387.38302		70.15400		324.00000 
 43692.65567		 951.14271			42741.51297		218.21200		875.00000 
 43692.65567		 305.27265			43387.38302		70.15400		324.00000 
 43692.65567		 951.14271			42741.51297		218.21200		875.00000 
 43692.65567		 305.27265			43387.38302		70.15400		324.00000 
 43692.65567		 951.14271			42741.51297		218.21200		875.00000 
 43692.65567		 305.27265			43387.38302		70.15400		324.00000 
 43692.65567		 951.14271			42741.51297		218.21200		875.00000 
 43692.65567		 305.27265			43387.38302		70.15400		324.00000 
 43692.65567		 951.14271			42741.51297		218.21200		875.00000 
 43692.65567		 305.27265			43387.38302		70.15400		324.00000 
 43692.65567		 951.14271			42741.51297		218.21200		875.00000 
 43692.65567		 305.27265			43387.38302		70.15400		324.00000 
 43692.65567		 951.14271			42741.51297		218.21200		875.00000 
 43692.65567		 305.27265			43387.38302		70.15400		324.00000 
 43692.65567		 951.14271			42741.51297		218.21200		875.00000 
 43692.65567		 305.27265			43387.38302		70.15400		324.00000 
 43692.65567		 951.14271			42741.51297		218.21200		875.00000 
 43692.65567		 305.27265			43387.38302		70.15400		324.00000 
 43692.65567		 951.14271			42741.51297		218.21200		875.00000 
 43692.65567		 305.27265			43387.38302		70.15400		324.00000 
 43692.65567		 951.14271			42741.51297		218.21200		875.00000 
 43692.65567		 305.27265			43387.38302		70.15400		324.00000 
 43692.65567		 951.14271			42741.51297		218.21200		875.00000 
 43692.65567		 305.27265			43387.38302		70.15400		324.00000 
 43692.65567		 951.14271			42741.51297		218.21200		875.00000 
 43692.65567		 305.27265			43387.38302		70.15400		324.00000 
 43692.65567		 951.14271			42741.51297		218.21200		875.00000 
 43692.65567		 305.27265			43387.38302		70.15400		324.00000 
 43692.65567		 951.14271			42741.51297		218.21200		875.00000 
 43692.65567		 305.27265			43387.38302		70.15400		324.00000 
 43692.65567		 951.14271			42741.51297		218.21200		875.00000 
 43692.65567		 305.27265			43387.38302		70.15400		324.00000 
 43692.65567		 951.14271			42741.51297		218.21200		875.00000 
 43692.65567		 305.27265			43387.38302		70.15400		324.00000 
 43692.65567		 951.14271			42741.51297		218.21200		875.00000 
 43692.65567		 305.27265			43387.38302		70.15400		324.00000 
 43692.65567		 951.14271			42741.51297		218.21200		875.00000 
 43692.65567		 305.27265			43387.38302		70.15400		324.00000 
 43692.65567		 951.14271			42741.51297		218.21200		875.00000 
 43692.65567		 305.27265			43387.38302		70.15400		324.00000 
 43692.65567		 951.14271			42741.51297		218.21200		875.00000 
 43692.65567		 305.27265			43387.38302		70.15400		324.00000 
 43692.65567		 951.14271			42741.51297		218.21200		875.00000 
 43692.65567		 305.27265			43387.38302		70.15400		324.00000 
 43692.65567		 951.14271			42741.51297		218.21200		875.00000 
 43692.65567		 305.27265			43387.38302		70.15400		324.00000 
 43692.65567		 951.14271			42741.51297		218.21200		875.00000 
 43692.65567		 305.27265			43387.38302		70.15400		324.00000 
 43692.65567		 951.14271			42741.51297		218.21200		875.00000 
 43692.65567		 305.27265			43387.38302		70.15400		324.00000 
 43692.65567		 951.14271			42741.51297		218.21200		875.00000 
 43692.65567		 305.27265			43387.38302		70.15400		324.00000 
 43692.65567		 951.14271			42741.51297		218.21200		875.00000 
 43692.65567		 305.27265			43387.38302		70.15400		324.00000 
 43692.65567		 951.14271			42741.51297		218.21200		875.00000 
 43692.65567		 305.27265			43387.38302		70.15400		324.00000 
 43692.65567		 951.14271			42741.51297		224.33600		875.00000 
 43692.65567		 305.27265			43387.38302		70.15400		324.00000 
 43692.65567		 951.14271			42741.51297		224.33600		875.00000 
 43692.65567		 305.27265			43387.38302		70.15400		324.00000 
 43692.65567		 951.14271			42741.51297		224.33600		875.00000 
 43692.65567		 305.27265			43387.38302		70.15400		324.00000 
 43692.65567		 951.14271			42741.51297		224.33600		875.00000 
 43692.65567		 305.27265			43387.38302		70.15400		324.00000 
 43692.65567		 951.14271			42741.51297		224.33600		875.00000 
 43692.65567		 305.27265			43387.38302		70.15400		324.00000 
 43692.65567		 951.14271			42741.51297		224.33600		875.00000 
 43692.65567		 305.27265			43387.38302		70.15400		324.00000 
 43692.65567		 951.14271			42741.51297		224.33600		875.00000 
 43692.65567		 305.27265			43387.38302		70.15400		324.00000 
 43692.65567		 951.14271			42741.51297		224.33600		875.00000 
 43692.65567		 305.27265			43387.38302		70.15400		324.00000 
 43692.65567		 951.14271			42741.51297		224.33600		875.00000 
 43692.65567		 305.27265			43387.38302		70.15400		324.00000 
 43692.65567		 951.14271			42741.51297		224.33600		875.00000 
 43692.65567		 305.27265			43387.38302		70.15400		324.00000 
 43692.65567		 951.14271			42741.51297		224.33600		875.00000 
 43692.65567		 305.27265			43387.38302		70.15400		324.00000 
 43692.65567		 951.14271			42741.51297		224.33600		875.00000 
 43692.65567		 305.27265			43387.38302		70.15400		324.00000 
 43692.65567		 951.14271			42741.51297		224.33600		875.00000 
 43692.65567		 305.27265			43387.38302		70.15400		324.00000 
 43692.65567		 951.14271			42741.51297		224.33600		875.00000 
 43692.65567		 305.27265			43387.38302		70.15400		324.00000 
 43692.65567		 951.14271			42741.51297		224.33600		875.00000 
 43692.65567		 305.27265			43387.38302		70.15400		324.00000 
 43692.65567		 951.14271			42741.51297		224.33600		875.00000 
 43692.65567		 305.27265			43387.38302		70.15400		324.00000 
 43692.65567		 951.14271			42741.51297		224.33600		875.00000 
 43692.65567		 305.27265			43387.38302		70.15400		324.00000 
 43692.65567		 951.14271			42741.51297		224.33600		875.00000 
 43692.65567		 305.27265			43387.38302		70.15400		324.00000 
 43692.65567		 951.14271			42741.51297		224.33600		875.00000 
 43692.65567		 305.27265			43387.38302		70.15400		324.00000 
 43692.65567		 951.14271			42741.51297		224.33600		875.00000 
 43692.65567		 305.27265			43387.38302		70.15400		324.00000 
 43692.65567		 951.14271			42741.51297		224.33600		875.00000 
 43692.65567		 305.27265			43387.38302		70.15400		324.00000 
 43692.65567		 951.14271			42741.51297		224.33600		875.00000 
 43692.65567		 305.27265			43387.38302		70.15400		324.00000 
 43692.65567		 951.14271			42741.51297		224.33600		875.00000 
 43692.65567		 305.27265			43387.38302		70.15400		324.00000 
 43692.65567		 951.14271			42741.51297		224.33600		875.00000 
 43692.65567		 305.27265			43387.38302		70.15400		324.00000 
 43692.65567		 951.14271			42741.51297		224.33600		875.00000 
 43692.65567		 305.27265			43387.38302		70.15400		324.00000 
 43692.65567		 951.14271			42741.51297		224.33600		875.00000 
 43692.65567		 305.27265			43387.38302		70.15400		324.00000 
 43692.65567		 951.14271			42741.51297		224.33600		875.00000 
 43692.65567		 305.27265			43387.38302		70.15400		324.00000 
 43692.65567		 951.14271			42741.51297		224.33600		875.00000 
 43692.65567		 305.27265			43387.38302		70.15400		324.00000 
 43692.65567		 951.14271			42741.51297		224.33600		875.00000 
 43692.65567		 305.27265			43387.38302		70.15400		324.00000 
 43692.65567		 951.14271			42741.51297		224.33600		875.00000 
 43692.65567		 305.27265			43387.38302		70.15400		324.00000 
 43692.65567		 951.14271			42741.51297		224.33600		875.00000 
 43692.65567		 305.27265			43387.38302		70.15400		324.00000 
 43692.65567		 951.14271			42741.51297		224.33600		875.00000 
 43692.65567		 305.27265			43387.38302		70.15400		324.00000 
 43692.65567		 951.14271			42741.51297		224.33600		875.00000 
 43692.65567		 305.27265			43387.38302		70.15400		324.00000 
 43692.65567		 951.14271			42741.51297		224.33600		875.00000 
 43692.65567		 305.27265			43387.38302		70.15400		324.00000 
 43692.65567		 951.14271			42741.51297		224.33600		875.00000 
 43692.65567		 305.27265			43387.38302		70.15400		324.00000 
 43692.65567		 951.14271			42741.51297		224.33600		875.00000 
 43692.65567		 305.27265			43387.38302		70.15400		324.00000 
 43692.65567		 951.14271			42741.51297		224.33600		875.00000 
 43692.65567		 305.27265			43387.38302		70.15400		324.00000 
 43692.65567		 951.14271			42741.51297		224.33600		875.00000 
 43692.65567		 305.27265			43387.38302		70.15400		324.00000 
 43692.65567		 951.14271			42741.51297		224.33600		875.00000 
 43692.65567		 305.27265			43387.38302		70.15400		324.00000 
 43692.65567		 951.14271			42741.51297		224.33600		875.00000 
 43692.65567		 305.27265			43387.38302		70.15400		324.00000 
 43692.65567		 951.14271			42741.51297		224.33600		875.00000 
 43692.65567		 305.27265			43387.38302		70.15400		324.00000 
 43692.65567		 951.14271			42741.51297		224.33600		875.00000 
 43692.65567		 305.27265			43387.38302		70.15400		324.00000 
 43692.65567		 951.14271			42741.51297		224.33600		875.00000 
 43692.65567		 305.27265			43387.38302		70.15400		324.00000 
 43692.65567		 951.14271			42741.51297		224.33600		875.00000 
 43692.65567		 305.27265			43387.38302		70.15400		324.00000 
 43692.65567		 951.14271			42741.51297		224.33600		875.00000 
 43692.65567		 305.27265			43387.38302		70.15400		324.00000 
 43692.65567		 951.14271			42741.51297		224.33600		875.00000 
 43692.65567		 305.27265			43387.38302		70.15400		324.00000 
 43692.65567		 951.14271			42741.51297		224.33600		875.00000 
 43692.65567		 305.27265			43387.38302		70.15400		324.00000 
 43692.65567		 951.14271			42741.51297		224.33600		875.00000 
 43692.65567		 305.27265			43387.38302		70.15400		324.00000 
 43692.65567		 951.14271			42741.51297		224.33600		875.00000 
 43692.65567		 305.27265			43387.38302		70.15400		324.00000 
 43692.65567		 951.14271			42741.51297		224.33600		875.00000 
 43692.65567		 305.27265			43387.38302		70.15400		324.00000 
 43692.65567		 951.14271			42741.51297		224.33600		875.00000 
 43692.65567		 305.27265			43387.38302		70.15400		324.00000 
 43692.65567		 951.14271			42741.51297		224.33600		875.00000 
 43692.65567		 305.27265			43387.38302		70.15400		324.00000 
 43692.65567		 951.14271			42741.51297		224.33600		875.00000 
 43692.65567		 305.27265			43387.38302		70.15400		324.00000 
 43692.65567		 951.14271			42741.51297		224.33600		875.00000 
 43692.65567		 305.27265			43387.38302		70.15400		324.00000 
 43692.65567		 951.14271			42741.51297		224.33600		875.00000 
 43692.65567		 305.27265			43387.38302		70.15400		324.00000 
 43692.65567		 951.14271			42741.51297		224.33600		875.00000 
 43692.65567		 305.27265			43387.38302		70.15400		324.00000 
 43692.65567		 951.14271			42741.51297		224.33600		875.00000 
 43692.65567		 305.27265			43387.38302		70.15400		324.00000 
 43692.65567		 951.14271			42741.51297		224.33600		875.00000 
 43692.65567		 305.27265			43387.38302		70.15400		324.00000 
 43692.65567		 951.14271			42741.51297		224.33600		875.00000 
 43692.65567		 305.27265			43387.38302		70.15400		324.00000 
 43692.65567		 951.14271			42741.51297		224.33600		875.00000 
 43692.65567		 305.27265			43387.38302		70.15400		324.00000 
 43692.65567		 951.14271			42741.51297		224.33600		875.00000 
 43692.65567		 305.27265			43387.38302		70.15400		324.00000 
 43692.65567		 951.14271			42741.51297		224.33600		875.00000 
 43692.65567		 305.27265			43387.38302		70.15400		324.00000 
 43692.65567		 951.14271			42741.51297		224.33600		875.00000 
 43692.65567		 305.27265			43387.38302		70.15400		324.00000 
 43692.65567		 951.14271			42741.51297		225.72800		875.00000 
 43692.65567		 305.27265			43387.38302		70.15400		324.00000 
 43692.65567		 951.14271			42741.51297		225.72800		875.00000 
 43692.65567		 305.27265			43387.38302		70.15400		324.00000 
 43692.65567		 951.14271			42741.51297		225.72800		875.00000 
 43692.65567		 305.27265			43387.38302		70.15400		324.00000 
 43692.65567		 951.14271			42741.51297		225.72800		875.00000 
 43692.65567		 305.27265			43387.38302		70.15400		324.00000 
 43692.65567		 951.14271			42741.51297		225.72800		875.00000 
 43692.65567		 305.27265			43387.38302		70.15400		324.00000 
 43692.65567		 951.14271			42741.51297		225.72800		875.00000 
 43692.65567		 305.27265			43387.38302		70.15400		324.00000 
 43692.65567		 951.14271			42741.51297		225.72800		875.00000 
 43692.65567		 305.27265			43387.38302		70.15400		324.00000 
 43692.65567		 951.14271			42741.51297		225.72800		875.00000 
 43692.65567		 305.27265			43387.38302		70.15400		324.00000 
 43692.65567		 951.14271			42741.51297		225.72800		875.00000 
 43692.65567		 305.27265			43387.38302		70.15400		324.00000 
 43692.65567		 951.14271			42741.51297		225.72800		875.00000 
 43692.65567		 305.27265			43387.38302		70.15400		324.00000 
 43692.65567		 951.14271			42741.51297		225.72800		875.00000 
 43692.65567		 305.27265			43387.38302		70.15400		324.00000 
 43692.65567		 951.14271			42741.51297		225.72800		875.00000 
 43692.65567		 305.27265			43387.38302		70.15400		324.00000 
 43692.65567		 951.14271			42741.51297		225.72800		875.00000 
 43692.65567		 305.27265			43387.38302		70.15400		324.00000 
 43692.65567		 951.14271			42741.51297		225.72800		875.00000 
 43692.65567		 305.27265			43387.38302		70.15400		324.00000 
 43692.65567		 951.14271			42741.51297		225.72800		875.00000 
 43692.65567		 305.27265			43387.38302		70.15400		324.00000 
 43692.65567		 951.14271			42741.51297		225.72800		875.00000 
 43692.65567		 305.27265			43387.38302		70.15400		324.00000 
 43692.65567		 951.14271			42741.51297		225.72800		875.00000 
 43692.65567		 305.27265			43387.38302		70.15400		324.00000 
 43692.65567		 951.14271			42741.51297		225.72800		875.00000 
 43692.65567		 305.27265			43387.38302		70.15400		324.00000 
 43692.65567		 951.14271			42741.51297		225.72800		875.00000 
 43692.65567		 305.27265			43387.38302		70.15400		324.00000 
 43692.65567		 951.14271			42741.51297		225.72800		875.00000 
 43692.65567		 305.27265			43387.38302		70.15400		324.00000 
 43692.65567		 951.14271			42741.51297		225.72800		875.00000 
 43692.65567		 305.27265			43387.38302		70.15400		324.00000 
 43692.65567		 951.14271			42741.51297		225.72800		875.00000 
 43692.65567		 305.27265			43387.38302		70.15400		324.00000 
 43692.65567		 951.14271			42741.51297		225.72800		875.00000 
 43692.65567		 305.27265			43387.38302		70.15400		324.00000 
 43692.65567		 951.14271			42741.51297		225.72800		875.00000 
 43692.65567		 305.27265			43387.38302		70.15400		324.00000 
 43692.65567		 951.14271			42741.51297		225.72800		875.00000 
 43692.65567		 305.27265			43387.38302		70.15400		324.00000 
 43692.65567		 951.14271			42741.51297		225.72800		875.00000 
 43692.65567		 305.27265			43387.38302		70.15400		324.00000 
 43692.65567		 951.14271			42741.51297		225.72800		875.00000 
 43692.65567		 305.27265			43387.38302		70.15400		324.00000 
 43692.65567		 951.14271			42741.51297		225.72800		875.00000 
 43692.65567		 305.27265			43387.38302		70.15400		324.00000 
 43692.65567		 951.14271			42741.51297		225.72800		875.00000 
 43692.65567		 305.27265			43387.38302		70.15400		324.00000 
 43692.65567		 951.14271			42741.51297		225.72800		875.00000 
 43692.65567		 305.27265			43387.38302		70.15400		324.00000 
 43692.65567		 951.14271			42741.51297		225.72800		875.00000 
 43692.65567		 305.27265			43387.38302		70.15400		324.00000 
 43692.65567		 951.14271			42741.51297		225.72800		875.00000 
 43692.65567		 305.27265			43387.38302		70.15400		324.00000 
 43692.65567		 951.14271			42741.51297		225.72800		875.00000 
 43692.65567		 305.27265			43387.38302		70.15400		324.00000 
 43692.65567		 951.14271			42741.51297		225.72800		875.00000 
 43692.65567		 305.27265			43387.38302		70.15400		324.00000 
 43692.65567		 951.14271			42741.51297		225.72800		875.00000 
 43692.65567		 305.27265			43387.38302		70.15400		324.00000 
 43692.65567		 951.14271			42741.51297		225.72800		875.00000 
 43692.65567		 305.27265			43387.38302		70.15400		324.00000 
 43692.65567		 951.14271			42741.51297		225.72800		875.00000 
 43692.65567		 305.27265			43387.38302		70.15400		324.00000 
 43692.65567		 951.14271			42741.51297		225.72800		875.00000 
 43692.65567		 305.27265			43387.38302		70.15400		324.00000 
 43692.65567		 951.14271			42741.51297		225.72800		875.00000 
 43692.65567		 305.27265			43387.38302		70.15400		324.00000 
 43692.65567		 951.14271			42741.51297		225.72800		875.00000 
 43692.65567		 305.27265			43387.38302		70.15400		324.00000 
 43692.65567		 951.14271			42741.51297		225.72800		875.00000 
 43692.65567		 305.27265			43387.38302		70.15400		324.00000 
 43692.65567		 951.14271			42741.51297		225.72800		875.00000 
 43692.65567		 305.27265			43387.38302		70.15400		324.00000 
 43692.65567		 951.14271			42741.51297		225.72800		875.00000 
 43692.65567		 305.27265			43387.38302		70.15400		324.00000 
 43692.65567		 951.14271			42741.51297		225.72800		875.00000 
 43692.65567		 305.27265			43387.38302		70.15400		324.00000 
 43692.65567		 951.14271			42741.51297		225.72800		875.00000 
 43692.65567		 305.27265			43387.38302		70.15400		324.00000 
 43692.65567		 951.14271			42741.51297		225.72800		875.00000 
 43692.65567		 305.27265			43387.38302		70.15400		324.00000 
 43692.65567		 951.14271			42741.51297		225.72800		875.00000 
 43692.65567		 305.27265			43387.38302		70.15400		324.00000 
 43692.65567		 951.14271			42741.51297		225.72800		875.00000 
 43692.65567		 305.27265			43387.38302		70.15400		324.00000 
 43692.65567		 951.14271			42741.51297		225.72800		875.00000 
 43692.65567		 305.27265			43387.38302		70.15400		324.00000 
 43692.65567		 951.14271			42741.51297		225.72800		875.00000 
 43692.65567		 305.27265			43387.38302		70.15400		324.00000 
 43692.65567		 951.14271			42741.51297		225.72800		875.00000 
 43692.65567		 305.27265			43387.38302		70.15400		324.00000 
 43692.65567		 951.14271			42741.51297		225.72800		875.00000 
 43692.65567		 305.27265			43387.38302		70.15400		324.00000 
 43692.65567		 951.14271			42741.51297		225.72800		875.00000 
 43692.65567		 305.27265			43387.38302		70.15400		324.00000 
 43692.65567		 951.14271			42741.51297		225.72800		875.00000 
 43692.65567		 305.27265			43387.38302		70.15400		324.00000 
 43692.65567		 951.14271			42741.51297		225.72800		875.00000 
 43692.65567		 305.27265			43387.38302		70.15400		324.00000 
 43692.65567		 951.14271			42741.51297		225.72800		875.00000 
 43692.65567		 305.27265			43387.38302		70.15400		324.00000 
 43692.65567		 951.14271			42741.51297		225.72800		875.00000 
 43692.65567		 305.27265			43387.38302		70.15400		324.00000 
 43692.65567		 951.14271			42741.51297		225.72800		875.00000 
 43692.65567		 305.27265			43387.38302		70.15400		324.00000 
 43692.65567		 951.14271			42741.51297		225.72800		875.00000 
 43692.65567		 305.27265			43387.38302		70.15400		324.00000 
 43692.65567		 951.14271			42741.51297		225.72800		875.00000 
 43692.65567		 305.27265			43387.38302		70.15400		324.00000 
 43692.65567		 951.14271			42741.51297		225.72800		875.00000 
 43692.65567		 305.27265			43387.38302		70.15400		324.00000 
 43692.65567		 951.14271			42741.51297		225.72800		875.00000 
 43692.65567		 305.27265			43387.38302		70.15400		324.00000 
 43692.65567		 951.14271			42741.51297		225.72800		875.00000 
 43692.65567		 305.27265			43387.38302		70.15400		324.00000 
 43692.65567		 951.14271			42741.51297		225.72800		875.00000 
 43692.65567		 305.27265			43387.38302		70.15400		324.00000 
 43692.65567		 951.14271			42741.51297		225.72800		875.00000 
 43692.65567		 305.27265			43387.38302		70.15400		324.00000 
 43692.65567		 951.14271			42741.51297		225.72800		875.00000 
 43692.65567		 305.27265			43387.38302		70.15400		324.00000 
 43692.65567		 951.14271			42741.51297		225.72800		875.00000 
 43692.65567		 305.27265			43387.38302		70.15400		324.00000 
 43692.65567		 951.14271			42741.51297		227.51800		875.00000 
 43692.65567		 305.27265			43387.38302		70.15400		324.00000 
 43692.65567		 951.14271			42741.51297		227.51800		875.00000 
 43692.65567		 305.27265			43387.38302		70.15400		324.00000 
 43692.65567		 951.14271			42741.51297		227.51800		875.00000 
 43692.65567		 305.27265			43387.38302		70.15400		324.00000 
 43692.65567		 951.14271			42741.51297		227.51800		875.00000 
 43692.65567		 305.27265			43387.38302		70.15400		324.00000 
 43692.65567		 951.14271			42741.51297		227.51800		875.00000 
 43692.65567		 305.27265			43387.38302		70.15400		324.00000 
 43692.65567		 951.14271			42741.51297		227.51800		875.00000 
 43692.65567		 305.27265			43387.38302		70.15400		324.00000 
 43692.65567		 951.14271			42741.51297		227.51800		875.00000 
 43692.65567		 305.27265			43387.38302		70.15400		324.00000 
 43692.65567		 951.14271			42741.51297		227.51800		875.00000 
 43692.65567		 305.27265			43387.38302		70.15400		324.00000 
 43692.65567		 951.14271			42741.51297		227.51800		875.00000 
 43692.65567		 305.27265			43387.38302		70.15400		324.00000 
 43692.65567		 951.14271			42741.51297		227.51800		875.00000 
 43692.65567		 305.27265			43387.38302		70.15400		324.00000 
 43692.65567		 951.14271			42741.51297		227.51800		875.00000 
 43692.65567		 305.27265			43387.38302		70.15400		324.00000 
 43692.65567		 951.14271			42741.51297		227.51800		875.00000 
 43692.65567		 305.27265			43387.38302		70.15400		324.00000 
 43692.65567		 951.14271			42741.51297		227.51800		875.00000 
 43692.65567		 305.27265			43387.38302		70.15400		324.00000 
 43692.65567		 951.14271			42741.51297		227.51800		875.00000 
 43692.65567		 305.27265			43387.38302		70.15400		324.00000 
 43692.65567		 951.14271			42741.51297		227.51800		875.00000 
 43692.65567		 305.27265			43387.38302		70.15400		324.00000 
 43692.65567		 951.14271			42741.51297		227.51800		875.00000 
 43692.65567		 305.27265			43387.38302		70.15400		324.00000 
 43692.65567		 951.14271			42741.51297		227.51800		875.00000 
 43692.65567		 305.27265			43387.38302		70.15400		324.00000 
 43692.65567		 951.14271			42741.51297		227.51800		875.00000 
 43692.65567		 305.27265			43387.38302		70.15400		324.00000 
 43692.65567		 951.14271			42741.51297		227.51800		875.00000 
 43692.65567		 305.27265			43387.38302		70.15400		324.00000 
 43692.65567		 951.14271			42741.51297		227.51800		875.00000 
 43692.65567		 305.27265			43387.38302		70.15400		324.00000 
 43692.65567		 951.14271			42741.51297		227.51800		875.00000 
 43692.65567		 305.27265			43387.38302		70.15400		324.00000 
 43692.65567		 951.14271			42741.51297		227.51800		875.00000 
 43692.65567		 305.27265			43387.38302		70.15400		324.00000 
 43692.65567		 951.14271			42741.51297		227.51800		875.00000 
 43692.65567		 305.27265			43387.38302		70.15400		324.00000 
 43692.65567		 951.14271			42741.51297		227.51800		875.00000 
 43692.65567		 305.27265			43387.38302		70.15400		324.00000 
 43692.65567		 951.14271			42741.51297		227.51800		875.00000 
 43692.65567		 305.27265			43387.38302		70.15400		324.00000 
 43692.65567		 951.14271			42741.51297		227.51800		875.00000 
 43692.65567		 305.27265			43387.38302		70.15400		324.00000 
 43692.65567		 951.14271			42741.51297		227.51800		875.00000 
 43692.65567		 305.27265			43387.38302		70.15400		324.00000 
 43692.65567		 951.14271			42741.51297		227.51800		875.00000 
 43692.65567		 305.27265			43387.38302		70.15400		324.00000 
 43692.65567		 951.14271			42741.51297		227.51800		875.00000 
 43692.65567		 305.27265			43387.38302		70.15400		324.00000 
 43692.65567		 951.14271			42741.51297		227.51800		875.00000 
 43692.65567		 305.27265			43387.38302		70.15400		324.00000 
 43692.65567		 951.14271			42741.51297		227.51800		875.00000 
 43692.65567		 305.27265			43387.38302		70.15400		324.00000 
 43692.65567		 951.14271			42741.51297		227.51800		875.00000 
 43692.65567		 305.27265			43387.38302		70.15400		324.00000 
 43692.65567		 951.14271			42741.51297		227.51800		875.00000 
 43692.65567		 305.27265			43387.38302		70.15400		324.00000 
 43692.65567		 951.14271			42741.51297		227.51800		875.00000 
 43692.65567		 305.27265			43387.38302		70.15400		324.00000 
 43692.65567		 951.14271			42741.51297		227.51800		875.00000 
 43692.65567		 305.27265			43387.38302		70.15400		324.00000 
 43692.65567		 951.14271			42741.51297		227.51800		875.00000 
 43692.65567		 305.27265			43387.38302		70.15400		324.00000 
 43692.65567		 951.14271			42741.51297		227.51800		875.00000 
 43692.65567		 305.27265			43387.38302		70.15400		324.00000 
 43692.65567		 951.14271			42741.51297		227.51800		875.00000 
 43692.65567		 305.27265			43387.38302		70.15400		324.00000 
 43692.65567		 951.14271			42741.51297		227.51800		875.00000 
 43692.65567		 305.27265			43387.38302		70.15400		324.00000 
 43692.65567		 951.14271			42741.51297		227.51800		875.00000 
 43692.65567		 305.27265			43387.38302		70.15400		324.00000 
 43692.65567		 951.14271			42741.51297		227.51800		875.00000 
 43692.65567		 305.27265			43387.38302		70.15400		324.00000 
 43692.65567		 951.14271			42741.51297		227.51800		875.00000 
 43692.65567		 305.27265			43387.38302		70.15400		324.00000 
 43692.65567		 951.14271			42741.51297		227.51800		875.00000 
 43692.65567		 305.27265			43387.38302		70.15400		324.00000 
 43692.65567		 951.14271			42741.51297		227.51800		875.00000 
 43692.65567		 305.27265			43387.38302		70.15400		324.00000 
 43692.65567		 951.14271			42741.51297		227.51800		875.00000 
 43692.65567		 305.27265			43387.38302		70.15400		324.00000 
 43692.65567		 951.14271			42741.51297		227.51800		875.00000 
 43692.65567		 305.27265			43387.38302		70.15400		324.00000 
 43692.65567		 951.14271			42741.51297		227.51800		875.00000 
 43692.65567		 305.27265			43387.38302		70.15400		324.00000 
 43692.65567		 951.14271			42741.51297		227.51800		875.00000 
 43692.65567		 305.27265			43387.38302		70.15400		324.00000 
 43692.65567		 951.14271			42741.51297		227.51800		875.00000 
 43692.65567		 305.27265			43387.38302		70.15400		324.00000 
 43692.65567		 951.14271			42741.51297		227.51800		875.00000 
 43692.65567		 305.27265			43387.38302		70.15400		324.00000 
 43692.65567		 951.14271			42741.51297		227.51800		875.00000 
 43692.65567		 305.27265			43387.38302		70.15400		324.00000 
 43692.65567		 951.14271			42741.51297		227.51800		875.00000 
 43692.65567		 305.27265			43387.38302		70.15400		324.00000 
 43692.65567		 951.14271			42741.51297		227.51800		875.00000 
 43692.65567		 305.27265			43387.38302		70.15400		324.00000 
 43692.65567		 951.14271			42741.51297		227.51800		875.00000 
 43692.65567		 305.27265			43387.38302		70.15400		324.00000 
 43692.65567		 951.14271			42741.51297		227.51800		875.00000 
 43692.65567		 305.27265			43387.38302		70.15400		324.00000 
 43692.65567		 951.14271			42741.51297		227.51800		875.00000 
 43692.65567		 305.27265			43387.38302		70.15400		324.00000 
 43692.65567		 951.14271			42741.51297		227.51800		875.00000 
 43692.65567		 305.27265			43387.38302		70.15400		324.00000 
 43692.65567		 951.14271			42741.51297		227.51800		875.00000 
 43692.65567		 305.27265			43387.38302		70.15400		324.00000 
 43692.65567		 951.14271			42741.51297		227.51800		875.00000 
 43692.65567		 305.27265			43387.38302		70.15400		324.00000 
 43692.65567		 951.14271			42741.51297		227.51800		875.00000 
 43692.65567		 305.27265			43387.38302		70.15400		324.00000 
 43692.65567		 951.14271			42741.51297		227.51800		875.00000 
 43692.65567		 305.27265			43387.38302		70.15400		324.00000 
 43692.65567		 951.14271			42741.51297		227.51800		875.00000 
 43692.65567		 305.27265			43387.38302		70.15400		324.00000 
 43692.65567		 951.14271			42741.51297		227.51800		875.00000 
 43692.65567		 305.27265			43387.38302		70.15400		324.00000 
 43692.65567		 951.14271			42741.51297		227.51800		875.00000 
 43692.65567		 305.27265			43387.38302		70.15400		324.00000 
 43692.65567		 951.14271			42741.51297		227.14800		875.00000 
 43692.65567		 305.27265			43387.38302		70.12600		324.00000 
 43692.65567		 951.14271			42741.51297		227.14800		875.00000 
 43692.65567		 305.27265			43387.38302		70.12600		324.00000 
 43692.65567		 951.14271			42741.51297		227.14800		875.00000 
 43692.65567		 305.27265			43387.38302		70.12600		324.00000 
 43692.65567		 951.14271			42741.51297		227.14800		875.00000 
 43692.65567		 305.27265			43387.38302		70.12600		324.00000 
 43692.65567		 951.14271			42741.51297		227.14800		875.00000 
 43692.65567		 305.27265			43387.38302		70.12600		324.00000 
 43692.65567		 951.14271			42741.51297		227.14800		875.00000 
 43692.65567		 305.27265			43387.38302		70.12600		324.00000 
 43692.65567		 951.14271			42741.51297		227.14800		875.00000 
 43692.65567		 305.27265			43387.38302		70.12600		324.00000 
 43692.65567		 951.14271			42741.51297		227.14800		875.00000 
 43692.65567		 305.27265			43387.38302		70.12600		324.00000 
 43692.65567		 951.14271			42741.51297		227.14800		875.00000 
 43692.65567		 305.27265			43387.38302		70.12600		324.00000 
 43692.65567		 951.14271			42741.51297		227.14800		875.00000 
 43692.65567		 305.27265			43387.38302		70.12600		324.00000 
 43692.65567		 951.14271			42741.51297		227.14800		875.00000 
 43692.65567		 305.27265			43387.38302		70.12600		324.00000 
 43692.65567		 951.14271			42741.51297		227.14800		875.00000 
 43692.65567		 305.27265			43387.38302		70.12600		324.00000 
 43692.65567		 951.14271			42741.51297		227.14800		875.00000 
 43692.65567		 305.27265			43387.38302		70.12600		324.00000 
 43692.65567		 951.14271			42741.51297		227.14800		875.00000 
 43692.65567		 305.27265			43387.38302		70.12600		324.00000 
 43692.65567		 951.14271			42741.51297		227.14800		875.00000 
 43692.65567		 305.27265			43387.38302		70.12600		324.00000 
 43692.65567		 951.14271			42741.51297		227.14800		875.00000 
 43692.65567		 305.27265			43387.38302		70.12600		324.00000 
 43692.65567		 951.14271			42741.51297		227.14800		875.00000 
 43692.65567		 305.27265			43387.38302		70.12600		324.00000 
 43692.65567		 951.14271			42741.51297		227.14800		875.00000 
 43692.65567		 305.27265			43387.38302		70.12600		324.00000 
 43692.65567		 951.14271			42741.51297		227.14800		875.00000 
 43692.65567		 305.27265			43387.38302		70.12600		324.00000 
 43692.65567		 951.14271			42741.51297		227.14800		875.00000 
 43692.65567		 305.27265			43387.38302		70.12600		324.00000 
 43692.65567		 951.14271			42741.51297		227.14800		875.00000 
 43692.65567		 305.27265			43387.38302		70.12600		324.00000 
 43692.65567		 951.14271			42741.51297		227.14800		875.00000 
 43692.65567		 305.27265			43387.38302		70.12600		324.00000 
 43692.65567		 951.14271			42741.51297		227.14800		875.00000 
 43692.65567		 305.27265			43387.38302		70.12600		324.00000 
 43692.65567		 951.14271			42741.51297		227.14800		875.00000 
 43692.65567		 305.27265			43387.38302		70.12600		324.00000 
 43692.65567		 951.14271			42741.51297		227.14800		875.00000 
 43692.65567		 305.27265			43387.38302		70.12600		324.00000 
 43692.65567		 951.14271			42741.51297		227.14800		875.00000 
 43692.65567		 305.27265			43387.38302		70.12600		324.00000 
 43692.65567		 951.14271			42741.51297		227.14800		875.00000 
 43692.65567		 305.27265			43387.38302		70.12600		324.00000 
 43692.65567		 951.14271			42741.51297		227.14800		875.00000 
 43692.65567		 305.27265			43387.38302		70.12600		324.00000 
 43692.65567		 951.14271			42741.51297		227.14800		875.00000 
 43692.65567		 305.27265			43387.38302		70.12600		324.00000 
 43692.65567		 951.14271			42741.51297		227.14800		875.00000 
 43692.65567		 305.27265			43387.38302		70.12600		324.00000 
 43692.65567		 951.14271			42741.51297		227.14800		875.00000 
 43692.65567		 305.27265			43387.38302		70.12600		324.00000 
 43692.65567		 951.14271			42741.51297		227.14800		875.00000 
 43692.65567		 305.27265			43387.38302		70.12600		324.00000 
 43692.65567		 951.14271			42741.51297		227.14800		875.00000 
 43692.65567		 305.27265			43387.38302		70.12600		324.00000 
 43692.65567		 951.14271			42741.51297		227.14800		875.00000 
 43692.65567		 305.27265			43387.38302		70.12600		324.00000 
 43692.65567		 951.14271			42741.51297		227.14800		875.00000 
 43692.65567		 305.27265			43387.38302		70.12600		324.00000 
 43692.65567		 951.14271			42741.51297		227.14800		875.00000 
 43692.65567		 305.27265			43387.38302		70.12600		324.00000 
 43692.65567		 951.14271			42741.51297		227.14800		875.00000 
 43692.65567		 305.27265			43387.38302		70.12600		324.00000 
 43692.65567		 951.14271			42741.51297		227.14800		875.00000 
 43692.65567		 305.27265			43387.38302		70.12600		324.00000 
 43692.65567		 951.14271			42741.51297		227.14800		875.00000 
 43692.65567		 305.27265			43387.38302		70.12600		324.00000 
 43692.65567		 951.14271			42741.51297		227.14800		875.00000 
 43692.65567		 305.27265			43387.38302		70.12600		324.00000 
 43692.65567		 951.14271			42741.51297		227.14800		875.00000 
 43692.65567		 305.27265			43387.38302		70.12600		324.00000 
 43692.65567		 951.14271			42741.51297		227.14800		875.00000 
 43692.65567		 305.27265			43387.38302		70.12600		324.00000 
 43692.65567		 951.14271			42741.51297		227.14800		875.00000 
 43692.65567		 305.27265			43387.38302		70.12600		324.00000 
 43692.65567		 951.14271			42741.51297		227.14800		875.00000 
 43692.65567		 305.27265			43387.38302		70.12600		324.00000 
 43692.65567		 951.14271			42741.51297		227.14800		875.00000 
 43692.65567		 305.27265			43387.38302		70.12600		324.00000 
 43692.65567		 951.14271			42741.51297		227.14800		875.00000 
 43692.65567		 305.27265			43387.38302		70.12600		324.00000 
 43692.65567		 951.14271			42741.51297		227.14800		875.00000 
 43692.65567		 305.27265			43387.38302		70.12600		324.00000 
 43692.65567		 951.14271			42741.51297		227.14800		875.00000 
 43692.65567		 305.27265			43387.38302		70.12600		324.00000 
 43692.65567		 951.14271			42741.51297		227.14800		875.00000 
 43692.65567		 305.27265			43387.38302		70.12600		324.00000 
 43692.65567		 951.14271			42741.51297		227.14800		875.00000 
 43692.65567		 305.27265			43387.38302		70.12600		324.00000 
 43692.65567		 951.14271			42741.51297		227.14800		875.00000 
 43692.65567		 305.27265			43387.38302		70.12600		324.00000 
 43692.65567		 951.14271			42741.51297		227.14800		875.00000 
 43692.65567		 305.27265			43387.38302		70.12600		324.00000 
 43692.65567		 951.14271			42741.51297		227.14800		875.00000 
 43692.65567		 305.27265			43387.38302		70.12600		324.00000 
 43692.65567		 951.14271			42741.51297		227.14800		875.00000 
 43692.65567		 305.27265			43387.38302		70.12600		324.00000 
 43692.65567		 951.14271			42741.51297		227.14800		875.00000 
 43692.65567		 305.27265			43387.38302		70.12600		324.00000 
 43692.65567		 951.14271			42741.51297		227.14800		875.00000 
 43692.65567		 305.27265			43387.38302		70.12600		324.00000 
 43692.65567		 951.14271			42741.51297		227.14800		875.00000 
 43692.65567		 305.27265			43387.38302		70.12600		324.00000 
 43692.65567		 951.14271			42741.51297		227.14800		875.00000 
 43692.65567		 305.27265			43387.38302		70.12600		324.00000 
 43692.65567		 951.14271			42741.51297		227.14800		875.00000 
 43692.65567		 305.27265			43387.38302		70.12600		324.00000 
 43692.65567		 951.14271			42741.51297		227.14800		875.00000 
 43692.65567		 305.27265			43387.38302		70.12600		324.00000 
 43692.65567		 951.14271			42741.51297		227.14800		875.00000 
 43692.65567		 305.27265			43387.38302		70.12600		324.00000 
 43692.65567		 951.14271			42741.51297		227.14800		875.00000 
 43692.65567		 305.27265			43387.38302		70.12600		324.00000 
 43692.65567		 951.14271			42741.51297		227.14800		875.00000 
 43692.65567		 305.27265			43387.38302		70.12600		324.00000 
 43692.65567		 951.14271			42741.51297		227.14800		875.00000 
 43692.65567		 305.27265			43387.38302		70.12600		324.00000 
 43692.65567		 951.14271			42741.51297		227.14800		875.00000 
 43692.65567		 305.27265			43387.38302		70.12600		324.00000 
 43692.65567		 951.14271			42741.51297		227.14800		875.00000 
 43692.65567		 305.27265			43387.38302		70.12600		324.00000 
 43692.65567		 951.14271			42741.51297		227.14800		875.00000 
 43692.65567		 305.27265			43387.38302		70.12600		324.00000 
 43692.65567		 951.14271			42741.51297		227.14800		875.00000 
 43692.65567		 305.27265			43387.38302		70.12600		324.00000 
 43692.65567		 951.14271			42741.51297		227.14800		875.00000 
 43692.65567		 305.27265			43387.38302		70.12600		324.00000 
 43692.65567		 951.14271			42741.51297		227.14800		875.00000 
 43692.65567		 305.27265			43387.38302		70.12600		324.00000 
 43692.65567		 951.14271			42741.51297		227.14800		875.00000 
 43692.65567		 305.27265			43387.38302		70.12600		324.00000 
 43692.65567		 951.14271			42741.51297		227.14800		875.00000 
 43692.65567		 305.27265			43387.38302		70.12600		324.00000 
 43692.65567		 951.14271			42741.51297		227.14800		875.00000 
 43692.65567		 305.27265			43387.38302		70.12600		324.00000 
 43692.65567		 951.14271			42741.51297		227.14800		875.00000 
 43692.65567		 305.27265			43387.38302		70.12600		324.00000 
 43692.65567		 951.14271			42741.51297		227.14800		875.00000 
 43692.65567		 305.27265			43387.38302		70.12600		324.00000 
 43692.65567		 951.14271			42741.51297		227.14800		875.00000 
 43692.65567		 305.27265			43387.38302		70.12600		324.00000 
 43692.65567		 951.14271			42741.51297		227.14800		875.00000 
 43692.65567		 305.27265			43387.38302		70.12600		324.00000 
 43692.65567		 951.14271			42741.51297		227.14800		875.00000 
 43692.65567		 305.27265			43387.38302		70.12600		324.00000 
 43692.65567		 951.14271			42741.51297		227.14800		875.00000 
 43692.65567		 305.27265			43387.38302		70.12600		324.00000 
 43692.65567		 951.14271			42741.51297		227.14800		875.00000 
 43692.65567		 305.27265			43387.38302		70.12600		324.00000 
 43692.65567		 951.14271			42741.51297		227.14800		875.00000 
 43692.65567		 305.27265			43387.38302		70.12600		324.00000 
 43692.65567		 951.14271			42741.51297		227.14800		875.00000 
 43692.65567		 305.27265			43387.38302		70.12600		324.00000 
 43692.65567		 951.14271			42741.51297		227.14800		875.00000 
 43692.65567		 305.27265			43387.38302		70.12600		324.00000 
 43692.65567		 951.14271			42741.51297		227.14800		875.00000 
 43692.65567		 305.27265			43387.38302		70.12600		324.00000 
 43692.65567		 951.14271			42741.51297		227.14800		875.00000 
 43692.65567		 305.27265			43387.38302		70.12600		324.00000 
 43692.65567		 951.14271			42741.51297		227.14800		875.00000 
 43692.65567		 305.27265			43387.38302		70.12600		324.00000 
 43692.65567		 951.14271			42741.51297		227.14800		875.00000 
 43692.65567		 305.27265			43387.38302		70.12600		324.00000 
 43692.65567		 951.14271			42741.51297		227.14800		875.00000 
 43692.65567		 305.27265			43387.38302		70.12600		324.00000 
 43692.65567		 951.14271			42741.51297		227.14800		875.00000 
 43692.65567		 305.27265			43387.38302		70.12600		324.00000 
 43692.65567		 951.14271			42741.51297		227.14800		875.00000 
 43692.65567		 305.27265			43387.38302		70.12600		324.00000 
 43692.65567		 951.14271			42741.51297		227.14800		875.00000 
 43692.65567		 305.27265			43387.38302		70.12600		324.00000 
 43692.65567		 951.14271			42741.51297		227.14800		875.00000 
 43692.65567		 305.27265			43387.38302		70.12600		324.00000 
 43692.65567		 951.14271			42741.51297		227.14800		875.00000 
 43692.65567		 305.27265			43387.38302		70.12600		324.00000 
 43692.65567		 951.14271			42741.51297		227.14800		875.00000 
 43692.65567		 305.27265			43387.38302		70.12600		324.00000 
 43692.65567		 951.14271			42741.51297		227.14800		875.00000 
 43692.65567		 305.27265			43387.38302		70.12600		324.00000 
 43692.65567		 951.14271			42741.51297		227.14800		875.00000 
 43692.65567		 305.27265			43387.38302		70.12600		324.00000 
 43692.65567		 951.14271			42741.51297		227.14800		875.00000 
 43692.65567		 305.27265			43387.38302		70.12600		324.00000 
 43692.65567		 951.14271			42741.51297		227.14800		875.00000 
 43692.65567		 305.27265			43387.38302		70.12600		324.00000 
 43692.65567		 951.14271			42741.51297		227.14800		875.00000 
 43692.65567		 305.27265			43387.38302		70.12600		324.00000 
 43692.65567		 951.14271			42741.51297		227.14800		875.00000 
 43692.65567		 305.27265			43387.38302		70.12600		324.00000 
 43692.65567		 951.14271			42741.51297		227.14800		875.00000 
 43692.65567		 305.27265			43387.38302		70.12600		324.00000 
 43692.65567		 951.14271			42741.51297		227.14800		875.00000 
 43692.65567		 305.27265			43387.38302		70.12600		324.00000 
 43692.65567		 951.14271			42741.51297		227.14800		875.00000 
 43692.65567		 305.27265			43387.38302		70.12600		324.00000 
 43692.65567		 951.14271			42741.51297		227.14800		875.00000 
 43692.65567		 305.27265			43387.38302		70.12600		324.00000 
 43692.65567		 951.14271			42741.51297		227.14800		875.00000 
 43692.65567		 305.27265			43387.38302		70.12600		324.00000 
 43692.65567		 951.14271			42741.51297		227.14800		875.00000 
 43692.65567		 305.27265			43387.38302		70.12600		324.00000 
 43692.65567		 951.14271			42741.51297		227.14800		875.00000 
 43692.65567		 305.27265			43387.38302		70.12600		324.00000 
 43692.65567		 951.14271			42741.51297		227.14800		875.00000 
 43692.65567		 305.27265			43387.38302		70.12600		324.00000 
 43692.65567		 951.14271			42741.51297		227.14800		875.00000 
 43692.65567		 305.27265			43387.38302		70.12600		324.00000 
 43692.65567		 951.14271			42741.51297		227.14800		875.00000 
 43692.65567		 305.27265			43387.38302		70.12600		324.00000 
 43692.65567		 951.14271			42741.51297		227.14800		875.00000 
 43692.65567		 305.27265			43387.38302		70.12600		324.00000 
 43692.65567		 951.14271			42741.51297		227.14800		875.00000 
 43692.65567		 305.27265			43387.38302		70.12600		324.00000 
 43692.65567		 951.14271			42741.51297		227.14800		875.00000 
 43692.65567		 305.27265			43387.38302		70.12600		324.00000 
 43692.65567		 951.14271			42741.51297		227.14800		875.00000 
 43692.65567		 305.27265			43387.38302		70.12600		324.00000 
 43692.65567		 951.14271			42741.51297		227.14800		875.00000 
 43692.65567		 305.27265			43387.38302		70.12600		324.00000 
 43692.65567		 951.14271			42741.51297		227.14800		875.00000 
 43692.65567		 305.27265			43387.38302		70.12600		324.00000 
 43692.65567		 951.14271			42741.51297		227.14800		875.00000 
 43692.65567		 305.27265			43387.38302		70.12600		324.00000 
 43692.65567		 951.14271			42741.51297		227.14800		875.00000 
 43692.65567		 305.27265			43387.38302		70.12600		324.00000 
 43692.65567		 951.14271			42741.51297		227.14800		875.00000 
 43692.65567		 305.27265			43387.38302		70.12600		324.00000 
 43692.65567		 951.14271			42741.51297		227.14800		875.00000 
 43692.65567		 305.27265			43387.38302		70.12600		324.00000 
 43692.65567		 951.14271			42741.51297		227.14800		875.00000 
 43692.65567		 305.27265			43387.38302		70.12600		324.00000 
 43692.65567		 951.14271			42741.51297		227.14800		875.00000 
 43692.65567		 305.27265			43387.38302		70.12600		324.00000 
 43692.65567		 951.14271			42741.51297		227.14800		875.00000 
 43692.65567		 305.27265			43387.38302		70.12600		324.00000 
 43692.65567		 951.14271			42741.51297		227.14800		875.00000 
 43692.65567		 305.27265			43387.38302		70.12600		324.00000 
 43692.65567		 951.14271			42741.51297		227.14800		875.00000 
 43692.65567		 305.27265			43387.38302		70.12600		324.00000 
 43692.65567		 951.14271			42741.51297		227.14800		875.00000 
 43692.65567		 305.27265			43387.38302		70.12600		324.00000 
 43692.65567		 951.14271			42741.51297		227.14800		875.00000 
 43692.65567		 305.27265			43387.38302		70.12600		324.00000 
 43692.65567		 951.14271			42741.51297		227.14800		875.00000 
 43692.65567		 305.27265			43387.38302		70.12600		324.00000 
 43692.65567		 951.14271			42741.51297		227.14800		875.00000 
 43692.65567		 305.27265			43387.38302		70.12600		324.00000 
 43692.65567		 951.14271			42741.51297		227.14800		875.00000 
 43692.65567		 305.27265			43387.38302		70.12600		324.00000 
 43692.65567		 951.14271			42741.51297		227.14800		875.00000 
 43692.65567		 305.27265			43387.38302		70.12600		324.00000 
 43692.65567		 951.14271			42741.51297		227.14800		875.00000 
 43692.65567		 305.27265			43387.38302		70.12600		324.00000 
 43692.65567		 951.14271			42741.51297		227.14800		875.00000 
 43692.65567		 305.27265			43387.38302		70.12600		324.00000 
 43692.65567		 951.14271			42741.51297		227.14800		875.00000 
 43692.65567		 305.27265			43387.38302		70.12600		324.00000 
 43692.65567		 951.14271			42741.51297		227.14800		875.00000 
 43692.65567		 305.27265			43387.38302		70.12600		324.00000 
 43692.65567		 951.14271			42741.51297		227.14800		875.00000 
 43692.65567		 305.27265			43387.38302		70.12600		324.00000 
 43692.65567		 951.14271			42741.51297		227.14800		875.00000 
 43692.65567		 305.27265			43387.38302		70.12600		324.00000 
 43692.65567		 951.14271			42741.51297		227.14800		875.00000 
 43692.65567		 305.27265			43387.38302		70.12600		324.00000 
 43692.65567		 951.14271			42741.51297		227.14800		875.00000 
 43692.65567		 305.27265			43387.38302		70.12600		324.00000 
 43692.65567		 951.14271			42741.51297		227.14800		875.00000 
 43692.65567		 305.27265			43387.38302		70.12600		324.00000 
 43692.65567		 951.14271			42741.51297		227.14800		875.00000 
 43692.65567		 305.27265			43387.38302		70.12600		324.00000 
 43692.65567		 951.14271			42741.51297		227.14800		875.00000 
 43692.65567		 305.27265			43387.38302		70.12600		324.00000 
 43692.65567		 951.14271			42741.51297		227.14800		875.00000 
 43692.65567		 305.27265			43387.38302		70.12600		324.00000 
 43692.65567		 951.14271			42741.51297		227.14800		875.00000 
 43692.65567		 305.27265			43387.38302		70.12600		324.00000 
 43692.65567		 951.14271			42741.51297		227.14800		875.00000 
 43692.65567		 305.27265			43387.38302		70.12600		324.00000 
 43692.65567		 951.14271			42741.51297		227.14800		875.00000 
 43692.65567		 305.27265			43387.38302		70.12600		324.00000 
 43692.65567		 951.14271			42741.51297		227.14800		875.00000 
 43692.65567		 305.27265			43387.38302		70.12600		324.00000 
 43692.65567		 951.14271			42741.51297		227.14800		875.00000 
 43692.65567		 305.27265			43387.38302		70.12600		324.00000 
 43692.65567		 951.14271			42741.51297		227.14800		875.00000 
 43692.65567		 305.27265			43387.38302		70.12600		324.00000 
 43692.65567		 951.14271			42741.51297		227.14800		875.00000 
 43692.65567		 305.27265			43387.38302		70.12600		324.00000 
 43692.65567		 951.14271			42741.51297		227.14800		875.00000 
 43692.65567		 305.27265			43387.38302		70.12600		324.00000 
 43692.65567		 951.14271			42741.51297		227.14800		875.00000 
 43692.65567		 305.27265			43387.38302		70.12600		324.00000 
 43692.65567		 951.14271			42741.51297		227.14800		875.00000 
 43692.65567		 305.27265			43387.38302		70.12600		324.00000 
 43692.65567		 951.14271			42741.51297		227.14800		875.00000 
 43692.65567		 305.27265			43387.38302		70.12600		324.00000 
 43692.65567		 951.14271			42741.51297		227.14800		875.00000 
 43692.65567		 305.27265			43387.38302		70.12600		324.00000 
 43692.65567		 951.14271			42741.51297		227.14800		875.00000 
 43692.65567		 305.27265			43387.38302		70.12600		324.00000 
 43692.65567		 951.14271			42741.51297		227.14800		875.00000 
 43692.65567		 305.27265			43387.38302		70.12600		324.00000 
 43692.65567		 951.14271			42741.51297		227.14800		875.00000 
 43692.65567		 305.27265			43387.38302		70.12600		324.00000 
 43692.65567		 951.14271			42741.51297		227.14800		875.00000 
 43692.65567		 305.27265			43387.38302		70.12600		324.00000 
 43692.65567		 951.14271			42741.51297		227.14800		875.00000 
 43692.65567		 305.27265			43387.38302		70.12600		324.00000 
 43692.65567		 951.14271			42741.51297		227.14800		875.00000 
 43692.65567		 305.27265			43387.38302		70.12600		324.00000 
 43692.65567		 951.14271			42741.51297		227.14800		875.00000 
 43692.65567		 305.27265			43387.38302		70.12600		324.00000 
 43692.65567		 951.14271			42741.51297		227.14800		875.00000 
 43692.65567		 305.27265			43387.38302		70.12600		324.00000 
 43692.65567		 951.14271			42741.51297		227.14800		875.00000 
 43692.65567		 305.27265			43387.38302		70.12600		324.00000 
 43692.65567		 951.14271			42741.51297		227.14800		875.00000 
 43692.65567		 305.27265			43387.38302		70.12600		324.00000 
 43692.65567		 951.14271			42741.51297		227.14800		875.00000 
 43692.65567		 305.27265			43387.38302		70.12600		324.00000 
 43692.65567		 951.14271			42741.51297		227.14800		875.00000 
 43692.65567		 305.27265			43387.38302		70.12600		324.00000 
 43692.65567		 951.14271			42741.51297		227.14800		875.00000 
 43692.65567		 305.27265			43387.38302		70.12600		324.00000 
 43692.65567		 951.14271			42741.51297		227.14800		875.00000 
 43692.65567		 305.27265			43387.38302		70.12600		324.00000 
 43692.65567		 951.14271			42741.51297		227.14800		875.00000 
 43692.65567		 305.27265			43387.38302		70.12600		324.00000 
 43692.65567		 951.14271			42741.51297		227.14800		875.00000 
 43692.65567		 305.27265			43387.38302		70.12600		324.00000 
 43692.65567		 951.14271			42741.51297		227.14800		875.00000 
 43692.65567		 305.27265			43387.38302		70.12600		324.00000 
 43692.65567		 951.14271			42741.51297		227.14800		875.00000 
 43692.65567		 305.27265			43387.38302		70.12600		324.00000 
 43692.65567		 951.14271			42741.51297		227.14800		875.00000 
 43692.65567		 305.27265			43387.38302		70.12600		324.00000 
 43692.65567		 951.14271			42741.51297		227.14800		875.00000 
 43692.65567		 305.27265			43387.38302		70.12600		324.00000 
 43692.65567		 951.14271			42741.51297		227.14800		875.00000 
 43692.65567		 305.27265			43387.38302		70.12600		324.00000 
 43692.65567		 951.14271			42741.51297		227.14800		875.00000 
 43692.65567		 305.27265			43387.38302		70.12600		324.00000 
 43692.65567		 951.14271			42741.51297		227.14800		875.00000 
 43692.65567		 305.27265			43387.38302		70.12600		324.00000 
 43692.65567		 951.14271			42741.51297		227.14800		875.00000 
 43692.65567		 305.27265			43387.38302		70.12600		324.00000 
 43692.65567		 951.14271			42741.51297		227.14800		875.00000 
 43692.65567		 305.27265			43387.38302		70.12600		324.00000 
 43692.65567		 951.14271			42741.51297		227.14800		875.00000 
 43692.65567		 305.27265			43387.38302		70.12600		324.00000 
 43692.65567		 951.14271			42741.51297		227.14800		875.00000 
 43692.65567		 305.27265			43387.38302		70.12600		324.00000 
 43692.65567		 951.14271			42741.51297		227.14800		875.00000 
 43692.65567		 305.27265			43387.38302		70.12600		324.00000 
 43692.65567		 951.14271			42741.51297		227.14800		875.00000 
 43692.65567		 305.27265			43387.38302		70.12600		324.00000 
 43692.65567		 951.14271			42741.51297		227.14800		875.00000 
 43692.65567		 305.27265			43387.38302		70.12600		324.00000 
 43692.65567		 951.14271			42741.51297		227.14800		875.00000 
 43692.65567		 305.27265			43387.38302		70.12600		324.00000 
 43692.65567		 951.14271			42741.51297		227.14800		875.00000 
 43692.65567		 305.27265			43387.38302		70.12600		324.00000 
 43692.65567		 951.14271			42741.51297		227.14800		875.00000 
 43692.65567		 305.27265			43387.38302		70.12600		324.00000 
 43692.65567		 951.14271			42741.51297		226.54800		875.00000 
 43692.65567		 305.27265			43387.38302		70.12600		324.00000 
 43692.65567		 951.14271			42741.51297		226.54800		875.00000 
 43692.65567		 305.27265			43387.38302		70.12600		324.00000 
 43692.65567		 951.14271			42741.51297		226.54800		875.00000 
 43692.65567		 305.27265			43387.38302		70.12600		324.00000 
 43692.65567		 951.14271			42741.51297		226.54800		875.00000 
 43692.65567		 305.27265			43387.38302		70.12600		324.00000 
 43692.65567		 951.14271			42741.51297		226.54800		875.00000 
 43692.65567		 305.27265			43387.38302		70.12600		324.00000 
 43692.65567		 951.14271			42741.51297		226.54800		875.00000 
 43692.65567		 305.27265			43387.38302		70.12600		324.00000 
 43692.65567		 951.14271			42741.51297		226.54800		875.00000 
 43692.65567		 305.27265			43387.38302		70.12600		324.00000 
 43692.65567		 951.14271			42741.51297		226.54800		875.00000 
 43692.65567		 305.27265			43387.38302		70.12600		324.00000 
 43692.65567		 951.14271			42741.51297		226.54800		875.00000 
 43692.65567		 305.27265			43387.38302		70.12600		324.00000 
 43692.65567		 951.14271			42741.51297		226.54800		875.00000 
 43692.65567		 305.27265			43387.38302		70.12600		324.00000 
 43692.65567		 951.14271			42741.51297		226.54800		875.00000 
 43692.65567		 305.27265			43387.38302		70.12600		324.00000 
 43692.65567		 951.14271			42741.51297		226.54800		875.00000 
 43692.65567		 305.27265			43387.38302		70.12600		324.00000 
 43692.65567		 951.14271			42741.51297		226.54800		875.00000 
 43692.65567		 305.27265			43387.38302		70.12600		324.00000 
 43692.65567		 951.14271			42741.51297		226.54800		875.00000 
 43692.65567		 305.27265			43387.38302		70.12600		324.00000 
 43692.65567		 951.14271			42741.51297		226.54800		875.00000 
 43692.65567		 305.27265			43387.38302		70.12600		324.00000 
 43692.65567		 951.14271			42741.51297		226.54800		875.00000 
 43692.65567		 305.27265			43387.38302		70.12600		324.00000 
 43692.65567		 951.14271			42741.51297		226.54800		875.00000 
 43692.65567		 305.27265			43387.38302		70.12600		324.00000 
 43692.65567		 951.14271			42741.51297		226.54800		875.00000 
 43692.65567		 305.27265			43387.38302		70.12600		324.00000 
 43692.65567		 951.14271			42741.51297		226.54800		875.00000 
 43692.65567		 305.27265			43387.38302		70.12600		324.00000 
 43692.65567		 951.14271			42741.51297		226.54800		875.00000 
 43692.65567		 305.27265			43387.38302		70.12600		324.00000 
 43692.65567		 951.14271			42741.51297		226.54800		875.00000 
 43692.65567		 305.27265			43387.38302		70.12600		324.00000 
 43692.65567		 951.14271			42741.51297		226.54800		875.00000 
 43692.65567		 305.27265			43387.38302		70.12600		324.00000 
 43692.65567		 951.14271			42741.51297		226.54800		875.00000 
 43692.65567		 305.27265			43387.38302		70.12600		324.00000 
 43692.65567		 951.14271			42741.51297		226.54800		875.00000 
 43692.65567		 305.27265			43387.38302		70.12600		324.00000 
 43692.65567		 951.14271			42741.51297		226.54800		875.00000 
 43692.65567		 305.27265			43387.38302		70.12600		324.00000 
 43692.65567		 951.14271			42741.51297		226.54800		875.00000 
 43692.65567		 305.27265			43387.38302		70.12600		324.00000 
 43692.65567		 951.14271			42741.51297		226.54800		875.00000 
 43692.65567		 305.27265			43387.38302		70.12600		324.00000 
 43692.65567		 951.14271			42741.51297		226.54800		875.00000 
 43692.65567		 305.27265			43387.38302		70.12600		324.00000 
 43692.65567		 951.14271			42741.51297		226.54800		875.00000 
 43692.65567		 305.27265			43387.38302		70.12600		324.00000 
 43692.65567		 951.14271			42741.51297		226.54800		875.00000 
 43692.65567		 305.27265			43387.38302		70.12600		324.00000 
 43692.65567		 951.14271			42741.51297		226.54800		875.00000 
 43692.65567		 305.27265			43387.38302		70.12600		324.00000 
 43692.65567		 951.14271			42741.51297		226.54800		875.00000 
 43692.65567		 305.27265			43387.38302		70.12600		324.00000 
 43692.65567		 951.14271			42741.51297		226.54800		875.00000 
 43692.65567		 305.27265			43387.38302		70.12600		324.00000 
 43692.65567		 951.14271			42741.51297		226.54800		875.00000 
 43692.65567		 305.27265			43387.38302		70.12600		324.00000 
 43692.65567		 951.14271			42741.51297		226.54800		875.00000 
 43692.65567		 305.27265			43387.38302		70.12600		324.00000 
 43692.65567		 951.14271			42741.51297		226.54800		875.00000 
 43692.65567		 305.27265			43387.38302		70.12600		324.00000 
 43692.65567		 951.14271			42741.51297		226.54800		875.00000 
 43692.65567		 305.27265			43387.38302		70.12600		324.00000 
 43692.65567		 951.14271			42741.51297		226.54800		875.00000 
 43692.65567		 305.27265			43387.38302		70.12600		324.00000 
 43692.65567		 951.14271			42741.51297		226.54800		875.00000 
 43692.65567		 305.27265			43387.38302		70.12600		324.00000 
 43692.65567		 951.14271			42741.51297		226.54800		875.00000 
 43692.65567		 305.27265			43387.38302		70.12600		324.00000 
 43692.65567		 951.14271			42741.51297		226.54800		875.00000 
 43692.65567		 305.27265			43387.38302		70.12600		324.00000 
 43692.65567		 951.14271			42741.51297		226.54800		875.00000 
 43692.65567		 305.27265			43387.38302		70.12600		324.00000 
 43692.65567		 951.14271			42741.51297		226.54800		875.00000 
 43692.65567		 305.27265			43387.38302		70.12600		324.00000 
 43692.65567		 951.14271			42741.51297		226.54800		875.00000 
 43692.65567		 305.27265			43387.38302		70.12600		324.00000 
 43692.65567		 951.14271			42741.51297		226.54800		875.00000 
 43692.65567		 305.27265			43387.38302		70.12600		324.00000 
 43692.65567		 951.14271			42741.51297		226.54800		875.00000 
 43692.65567		 305.27265			43387.38302		70.12600		324.00000 
 43692.65567		 951.14271			42741.51297		226.54800		875.00000 
 43692.65567		 305.27265			43387.38302		70.12600		324.00000 
 43692.65567		 951.14271			42741.51297		226.54800		875.00000 
 43692.65567		 305.27265			43387.38302		70.12600		324.00000 
 43692.65567		 951.14271			42741.51297		226.54800		875.00000 
 43692.65567		 305.27265			43387.38302		70.12600		324.00000 
 43692.65567		 951.14271			42741.51297		226.54800		875.00000 
 43692.65567		 305.27265			43387.38302		70.12600		324.00000 
 43692.65567		 951.14271			42741.51297		226.54800		875.00000 
 43692.65567		 305.27265			43387.38302		70.12600		324.00000 
 43692.65567		 951.14271			42741.51297		226.54800		875.00000 
 43692.65567		 305.27265			43387.38302		70.12600		324.00000 
 43692.65567		 951.14271			42741.51297		226.54800		875.00000 
 43692.65567		 305.27265			43387.38302		70.12600		324.00000 
 43692.65567		 951.14271			42741.51297		226.54800		875.00000 
 43692.65567		 305.27265			43387.38302		70.12600		324.00000 
 43692.65567		 951.14271			42741.51297		226.54800		875.00000 
 43692.65567		 305.27265			43387.38302		70.12600		324.00000 
 43692.65567		 951.14271			42741.51297		226.54800		875.00000 
 43692.65567		 305.27265			43387.38302		70.12600		324.00000 
 43692.65567		 951.14271			42741.51297		226.54800		875.00000 
 43692.65567		 305.27265			43387.38302		70.12600		324.00000 
 43692.65567		 951.14271			42741.51297		226.54800		875.00000 
 43692.65567		 305.27265			43387.38302		70.12600		324.00000 
 43692.65567		 951.14271			42741.51297		226.54800		875.00000 
 43692.65567		 305.27265			43387.38302		70.12600		324.00000 
 43692.65567		 951.14271			42741.51297		226.54800		875.00000 
 43692.65567		 305.27265			43387.38302		70.12600		324.00000 
 43692.65567		 951.14271			42741.51297		226.54800		875.00000 
 43692.65567		 305.27265			43387.38302		70.12600		324.00000 
 43692.65567		 951.14271			42741.51297		226.54800		875.00000 
 43692.65567		 305.27265			43387.38302		70.12600		324.00000 
 43692.65567		 951.14271			42741.51297		226.54800		875.00000 
 43692.65567		 305.27265			43387.38302		70.12600		324.00000 
 43692.65567		 951.14271			42741.51297		226.54800		875.00000 
 43692.65567		 305.27265			43387.38302		70.12600		324.00000 
 43692.65567		 951.14271			42741.51297		226.54800		875.00000 
 43692.65567		 305.27265			43387.38302		70.12600		324.00000 
 43692.65567		 951.14271			42741.51297		227.14800		875.00000 
 43692.65567		 305.27265			43387.38302		70.12600		324.00000 
 43692.65567		 951.14271			42741.51297		227.14800		875.00000 
 43692.65567		 305.27265			43387.38302		70.12600		324.00000 
 43692.65567		 951.14271			42741.51297		227.14800		875.00000 
 43692.65567		 305.27265			43387.38302		70.12600		324.00000 
 43692.65567		 951.14271			42741.51297		227.14800		875.00000 
 43692.65567		 305.27265			43387.38302		70.12600		324.00000 
 43692.65567		 951.14271			42741.51297		227.14800		875.00000 
 43692.65567		 305.27265			43387.38302		70.12600		324.00000 
 43692.65567		 951.14271			42741.51297		227.14800		875.00000 
 43692.65567		 305.27265			43387.38302		70.12600		324.00000 
 43692.65567		 951.14271			42741.51297		227.14800		875.00000 
 43692.65567		 305.27265			43387.38302		70.12600		324.00000 
 43692.65567		 951.14271			42741.51297		227.14800		875.00000 
 43692.65567		 305.27265			43387.38302		70.12600		324.00000 
 43692.65567		 951.14271			42741.51297		227.14800		875.00000 
 43692.65567		 305.27265			43387.38302		70.12600		324.00000 
 43692.65567		 951.14271			42741.51297		227.14800		875.00000 
 43692.65567		 305.27265			43387.38302		70.12600		324.00000 
 43692.65567		 951.14271			42741.51297		227.14800		875.00000 
 43692.65567		 305.27265			43387.38302		70.12600		324.00000 
 43692.65567		 951.14271			42741.51297		227.14800		875.00000 
 43692.65567		 305.27265			43387.38302		70.12600		324.00000 
 43692.65567		 951.14271			42741.51297		227.14800		875.00000 
 43692.65567		 305.27265			43387.38302		70.12600		324.00000 
 43692.65567		 951.14271			42741.51297		227.14800		875.00000 
 43692.65567		 305.27265			43387.38302		70.12600		324.00000 
 43692.65567		 951.14271			42741.51297		227.14800		875.00000 
 43692.65567		 305.27265			43387.38302		70.12600		324.00000 
 43692.65567		 951.14271			42741.51297		227.14800		875.00000 
 43692.65567		 305.27265			43387.38302		70.12600		324.00000 
 43692.65567		 951.14271			42741.51297		227.14800		875.00000 
 43692.65567		 305.27265			43387.38302		70.12600		324.00000 
 43692.65567		 951.14271			42741.51297		227.14800		875.00000 
 43692.65567		 305.27265			43387.38302		70.12600		324.00000 
 43692.65567		 951.14271			42741.51297		227.14800		875.00000 
 43692.65567		 305.27265			43387.38302		70.12600		324.00000 
 43692.65567		 951.14271			42741.51297		227.14800		875.00000 
 43692.65567		 305.27265			43387.38302		70.12600		324.00000 
 43692.65567		 951.14271			42741.51297		227.14800		875.00000 
 43692.65567		 305.27265			43387.38302		70.12600		324.00000 
 43692.65567		 951.14271			42741.51297		227.14800		875.00000 
 43692.65567		 305.27265			43387.38302		70.12600		324.00000 
 43692.65567		 951.14271			42741.51297		227.14800		875.00000 
 43692.65567		 305.27265			43387.38302		70.12600		324.00000 
 43692.65567		 951.14271			42741.51297		227.14800		875.00000 
 43692.65567		 305.27265			43387.38302		70.12600		324.00000 
 43692.65567		 951.14271			42741.51297		227.14800		875.00000 
 43692.65567		 305.27265			43387.38302		70.12600		324.00000 
 43692.65567		 951.14271			42741.51297		227.14800		875.00000 
 43692.65567		 305.27265			43387.38302		70.12600		324.00000 
 43692.65567		 951.14271			42741.51297		227.14800		875.00000 
 43692.65567		 305.27265			43387.38302		70.12600		324.00000 
 43692.65567		 951.14271			42741.51297		227.14800		875.00000 
 43692.65567		 305.27265			43387.38302		70.12600		324.00000 
 43692.65567		 951.14271			42741.51297		227.14800		875.00000 
 43692.65567		 305.27265			43387.38302		70.12600		324.00000 
 43692.65567		 951.14271			42741.51297		227.14800		875.00000 
 43692.65567		 305.27265			43387.38302		70.12600		324.00000 
 43692.65567		 951.14271			42741.51297		227.14800		875.00000 
 43692.65567		 305.27265			43387.38302		70.12600		324.00000 
 43692.65567		 951.14271			42741.51297		227.14800		875.00000 
 43692.65567		 305.27265			43387.38302		70.12600		324.00000 
 43692.65567		 951.14271			42741.51297		227.14800		875.00000 
 43692.65567		 305.27265			43387.38302		70.12600		324.00000 
 43692.65567		 951.14271			42741.51297		227.14800		875.00000 
 43692.65567		 305.27265			43387.38302		70.12600		324.00000 
 43692.65567		 951.14271			42741.51297		227.14800		875.00000 
 43692.65567		 305.27265			43387.38302		70.12600		324.00000 
 43692.65567		 951.14271			42741.51297		227.14800		875.00000 
 43692.65567		 305.27265			43387.38302		70.12600		324.00000 
 43692.65567		 951.14271			42741.51297		227.14800		875.00000 
 43692.65567		 305.27265			43387.38302		70.12600		324.00000 
 43692.65567		 951.14271			42741.51297		227.14800		875.00000 
 43692.65567		 305.27265			43387.38302		70.12600		324.00000 
 43692.65567		 951.14271			42741.51297		227.14800		875.00000 
 43692.65567		 305.27265			43387.38302		70.12600		324.00000 
 43692.65567		 951.14271			42741.51297		227.14800		875.00000 
 43692.65567		 305.27265			43387.38302		70.12600		324.00000 
 43692.65567		 951.14271			42741.51297		227.14800		875.00000 
 43692.65567		 305.27265			43387.38302		70.12600		324.00000 
 43692.65567		 951.14271			42741.51297		227.14800		875.00000 
 43692.65567		 305.27265			43387.38302		70.12600		324.00000 
 43692.65567		 951.14271			42741.51297		227.14800		875.00000 
 43692.65567		 305.27265			43387.38302		70.12600		324.00000 
 43692.65567		 951.14271			42741.51297		227.14800		875.00000 
 43692.65567		 305.27265			43387.38302		70.12600		324.00000 
 43692.65567		 951.14271			42741.51297		227.14800		875.00000 
 43692.65567		 305.27265			43387.38302		70.12600		324.00000 
 43692.65567		 951.14271			42741.51297		227.14800		875.00000 
 43692.65567		 305.27265			43387.38302		70.12600		324.00000 
 43692.65567		 951.14271			42741.51297		227.14800		875.00000 
 43692.65567		 305.27265			43387.38302		70.12600		324.00000 
 43692.65567		 951.14271			42741.51297		227.14800		875.00000 
 43692.65567		 305.27265			43387.38302		70.12600		324.00000 
 43692.65567		 951.14271			42741.51297		227.14800		875.00000 
 43692.65567		 305.27265			43387.38302		70.12600		324.00000 
 43692.65567		 951.14271			42741.51297		227.14800		875.00000 
 43692.65567		 305.27265			43387.38302		70.12600		324.00000 
 43692.65567		 951.14271			42741.51297		227.14800		875.00000 
 43692.65567		 305.27265			43387.38302		70.12600		324.00000 
 43692.65567		 951.14271			42741.51297		227.14800		875.00000 
 43692.65567		 305.27265			43387.38302		70.12600		324.00000 
 43692.65567		 951.14271			42741.51297		227.14800		875.00000 
 43692.65567		 305.27265			43387.38302		70.12600		324.00000 
 43692.65567		 951.14271			42741.51297		227.14800		875.00000 
 43692.65567		 305.27265			43387.38302		70.12600		324.00000 
 43692.65567		 951.14271			42741.51297		227.14800		875.00000 
 43692.65567		 305.27265			43387.38302		70.12600		324.00000 
 43692.65567		 951.14271			42741.51297		227.14800		875.00000 
 43692.65567		 305.27265			43387.38302		70.12600		324.00000 
 43692.65567		 951.14271			42741.51297		227.14800		875.00000 
 43692.65567		 305.27265			43387.38302		70.12600		324.00000 
 43692.65567		 951.14271			42741.51297		227.14800		875.00000 
 43692.65567		 305.27265			43387.38302		70.12600		324.00000 
 43692.65567		 951.14271			42741.51297		227.14800		875.00000 
 43692.65567		 305.27265			43387.38302		70.12600		324.00000 
 43692.65567		 951.14271			42741.51297		227.14800		875.00000 
 43692.65567		 305.27265			43387.38302		70.12600		324.00000 
 43692.65567		 951.14271			42741.51297		227.14800		875.00000 
 43692.65567		 305.27265			43387.38302		70.12600		324.00000 
 43692.65567		 951.14271			42741.51297		227.14800		875.00000 
 43692.65567		 305.27265			43387.38302		70.12600		324.00000 
 43692.65567		 951.14271			42741.51297		227.14800		875.00000 
 43692.65567		 305.27265			43387.38302		70.12600		324.00000 
 43692.65567		 951.14271			42741.51297		227.14800		875.00000 
 43692.65567		 305.27265			43387.38302		70.12600		324.00000 
 43692.65567		 951.14271			42741.51297		226.54800		875.00000 
 43692.65567		 305.27265			43387.38302		70.12600		324.00000 
 43692.65567		 951.14271			42741.51297		226.54800		875.00000 
 43692.65567		 305.27265			43387.38302		70.12600		324.00000 
 43692.65567		 951.14271			42741.51297		226.54800		875.00000 
 43692.65567		 305.27265			43387.38302		70.12600		324.00000 
 43692.65567		 951.14271			42741.51297		226.54800		875.00000 
 43692.65567		 305.27265			43387.38302		70.12600		324.00000 
 43692.65567		 951.14271			42741.51297		226.54800		875.00000 
 43692.65567		 305.27265			43387.38302		70.12600		324.00000 
 43692.65567		 951.14271			42741.51297		226.54800		875.00000 
 43692.65567		 305.27265			43387.38302		70.12600		324.00000 
 43692.65567		 951.14271			42741.51297		226.54800		875.00000 
 43692.65567		 305.27265			43387.38302		70.12600		324.00000 
 43692.65567		 951.14271			42741.51297		226.54800		875.00000 
 43692.65567		 305.27265			43387.38302		70.12600		324.00000 
 43692.65567		 951.14271			42741.51297		226.54800		875.00000 
 43692.65567		 305.27265			43387.38302		70.12600		324.00000 
 43692.65567		 951.14271			42741.51297		226.54800		875.00000 
 43692.65567		 305.27265			43387.38302		70.12600		324.00000 
 43692.65567		 951.14271			42741.51297		226.54800		875.00000 
 43692.65567		 305.27265			43387.38302		70.12600		324.00000 
 43692.65567		 951.14271			42741.51297		226.54800		875.00000 
 43692.65567		 305.27265			43387.38302		70.12600		324.00000 
 43692.65567		 951.14271			42741.51297		226.54800		875.00000 
 43692.65567		 305.27265			43387.38302		70.12600		324.00000 
 43692.65567		 951.14271			42741.51297		226.54800		875.00000 
 43692.65567		 305.27265			43387.38302		70.12600		324.00000 
 43692.65567		 951.14271			42741.51297		226.54800		875.00000 
 43692.65567		 305.27265			43387.38302		70.12600		324.00000 
 43692.65567		 951.14271			42741.51297		226.54800		875.00000 
 43692.65567		 305.27265			43387.38302		70.12600		324.00000 
 43692.65567		 951.14271			42741.51297		226.54800		875.00000 
 43692.65567		 305.27265			43387.38302		70.12600		324.00000 
 43692.65567		 951.14271			42741.51297		226.54800		875.00000 
 43692.65567		 305.27265			43387.38302		70.12600		324.00000 
 43692.65567		 951.14271			42741.51297		226.54800		875.00000 
 43692.65567		 305.27265			43387.38302		70.12600		324.00000 
 43692.65567		 951.14271			42741.51297		226.54800		875.00000 
 43692.65567		 305.27265			43387.38302		70.12600		324.00000 
 43692.65567		 951.14271			42741.51297		226.54800		875.00000 
 43692.65567		 305.27265			43387.38302		70.12600		324.00000 
 43692.65567		 951.14271			42741.51297		226.54800		875.00000 
 43692.65567		 305.27265			43387.38302		70.12600		324.00000 
 43692.65567		 951.14271			42741.51297		226.54800		875.00000 
 43692.65567		 305.27265			43387.38302		70.12600		324.00000 
 43692.65567		 951.14271			42741.51297		226.54800		875.00000 
 43692.65567		 305.27265			43387.38302		70.12600		324.00000 
 43692.65567		 951.14271			42741.51297		226.54800		875.00000 
 43692.65567		 305.27265			43387.38302		70.12600		324.00000 
 43692.65567		 951.14271			42741.51297		226.54800		875.00000 
 43692.65567		 305.27265			43387.38302		70.12600		324.00000 
 43692.65567		 951.14271			42741.51297		226.54800		875.00000 
 43692.65567		 305.27265			43387.38302		70.12600		324.00000 
 43692.65567		 951.14271			42741.51297		226.54800		875.00000 
 43692.65567		 305.27265			43387.38302		70.12600		324.00000 
 43692.65567		 951.14271			42741.51297		226.54800		875.00000 
 43692.65567		 305.27265			43387.38302		70.12600		324.00000 
 43692.65567		 951.14271			42741.51297		226.54800		875.00000 
 43692.65567		 305.27265			43387.38302		70.12600		324.00000 
 43692.65567		 951.14271			42741.51297		226.54800		875.00000 
 43692.65567		 305.27265			43387.38302		70.12600		324.00000 
 43692.65567		 951.14271			42741.51297		226.54800		875.00000 
 43692.65567		 305.27265			43387.38302		70.12600		324.00000 
 43692.65567		 951.14271			42741.51297		226.54800		875.00000 
 43692.65567		 305.27265			43387.38302		70.12600		324.00000 
 43692.65567		 951.14271			42741.51297		226.54800		875.00000 
 43692.65567		 305.27265			43387.38302		70.12600		324.00000 
 43692.65567		 951.14271			42741.51297		226.54800		875.00000 
 43692.65567		 305.27265			43387.38302		70.12600		324.00000 
 43692.65567		 951.14271			42741.51297		226.54800		875.00000 
 43692.65567		 305.27265			43387.38302		70.12600		324.00000 
 43692.65567		 951.14271			42741.51297		226.54800		875.00000 
 43692.65567		 305.27265			43387.38302		70.12600		324.00000 
 43692.65567		 951.14271			42741.51297		226.54800		875.00000 
 43692.65567		 305.27265			43387.38302		70.12600		324.00000 
 43692.65567		 951.14271			42741.51297		226.54800		875.00000 
 43692.65567		 305.27265			43387.38302		70.12600		324.00000 
 43692.65567		 951.14271			42741.51297		226.54800		875.00000 
 43692.65567		 305.27265			43387.38302		70.12600		324.00000 
 43692.65567		 951.14271			42741.51297		226.54800		875.00000 
 43692.65567		 305.27265			43387.38302		70.12600		324.00000 
 43692.65567		 951.14271			42741.51297		226.54800		875.00000 
 43692.65567		 305.27265			43387.38302		70.12600		324.00000 
 43692.65567		 951.14271			42741.51297		226.54800		875.00000 
 43692.65567		 305.27265			43387.38302		70.12600		324.00000 
 43692.65567		 951.14271			42741.51297		226.54800		875.00000 
 43692.65567		 305.27265			43387.38302		70.12600		324.00000 
 43692.65567		 951.14271			42741.51297		226.54800		875.00000 
 43692.65567		 305.27265			43387.38302		70.12600		324.00000 
 43692.65567		 951.14271			42741.51297		226.54800		875.00000 
 43692.65567		 305.27265			43387.38302		70.12600		324.00000 
 43692.65567		 951.14271			42741.51297		226.54800		875.00000 
 43692.65567		 305.27265			43387.38302		70.12600		324.00000 
 43692.65567		 951.14271			42741.51297		226.54800		875.00000 
 43692.65567		 305.27265			43387.38302		70.12600		324.00000 
 43692.65567		 951.14271			42741.51297		226.54800		875.00000 
 43692.65567		 305.27265			43387.38302		70.12600		324.00000 
 43692.65567		 951.14271			42741.51297		226.54800		875.00000 
 43692.65567		 305.27265			43387.38302		70.12600		324.00000 
 43692.65567		 951.14271			42741.51297		226.54800		875.00000 
 43692.65567		 305.27265			43387.38302		70.12600		324.00000 
 43692.65567		 951.14271			42741.51297		226.54800		875.00000 
 43692.65567		 305.27265			43387.38302		70.12600		324.00000 
 43692.65567		 951.14271			42741.51297		226.54800		875.00000 
 43692.65567		 305.27265			43387.38302		70.12600		324.00000 
 43692.65567		 951.14271			42741.51297		226.54800		875.00000 
 43692.65567		 305.27265			43387.38302		70.12600		324.00000 
 43692.65567		 951.14271			42741.51297		226.54800		875.00000 
 43692.65567		 305.27265			43387.38302		70.12600		324.00000 
 43692.65567		 951.14271			42741.51297		226.54800		875.00000 
 43692.65567		 305.27265			43387.38302		70.12600		324.00000 
 43692.65567		 951.14271			42741.51297		226.54800		875.00000 
 43692.65567		 305.27265			43387.38302		70.12600		324.00000 
 43692.65567		 951.14271			42741.51297		226.54800		875.00000 
 43692.65567		 305.27265			43387.38302		70.12600		324.00000 
 43692.65567		 951.14271			42741.51297		226.54800		875.00000 
 43692.65567		 305.27265			43387.38302		70.12600		324.00000 
 43692.65567		 951.14271			42741.51297		226.54800		875.00000 
 43692.65567		 305.27265			43387.38302		70.12600		324.00000 
 43692.65567		 951.14271			42741.51297		226.54800		875.00000 
 43692.65567		 305.27265			43387.38302		70.12600		324.00000 
 43692.65567		 951.14271			42741.51297		226.54800		875.00000 
 43692.65567		 305.27265			43387.38302		70.12600		324.00000 
 43692.65567		 951.14271			42741.51297		226.54800		875.00000 
 43692.65567		 305.27265			43387.38302		70.12600		324.00000 
 43692.65567		 951.14271			42741.51297		226.54800		875.00000 
 43692.65567		 305.27265			43387.38302		70.12600		324.00000 
 43692.65567		 951.14271			42741.51297		226.54800		875.00000 
 43692.65567		 305.27265			43387.38302		70.12600		324.00000 
 43692.65567		 951.14271			42741.51297		226.54800		875.00000 
 43692.65567		 305.27265			43387.38302		70.12600		324.00000 
 43692.65567		 951.14271			42741.51297		226.54800		875.00000 
 43692.65567		 305.27265			43387.38302		70.12600		324.00000 
 43692.65567		 951.14271			42741.51297		226.54800		875.00000 
 43692.65567		 305.27265			43387.38302		70.12600		324.00000 
 43692.65567		 951.14271			42741.51297		226.54800		875.00000 
 43692.65567		 305.27265			43387.38302		70.12600		324.00000 
 43692.65567		 951.14271			42741.51297		226.54800		875.00000 
 43692.65567		 305.27265			43387.38302		70.12600		324.00000 
 43692.65567		 951.14271			42741.51297		226.54800		875.00000 
 43692.65567		 305.27265			43387.38302		70.12600		324.00000 
 43692.65567		 951.14271			42741.51297		226.54800		875.00000 
 43692.65567		 305.27265			43387.38302		70.12600		324.00000 
 43692.65567		 951.14271			42741.51297		226.54800		875.00000 
 43692.65567		 305.27265			43387.38302		70.12600		324.00000 
 43692.65567		 951.14271			42741.51297		226.54800		875.00000 
 43692.65567		 305.27265			43387.38302		70.12600		324.00000 
 43692.65567		 951.14271			42741.51297		226.54800		875.00000 
 43692.65567		 305.27265			43387.38302		70.12600		324.00000 
 43692.65567		 951.14271			42741.51297		226.54800		875.00000 
 43692.65567		 305.27265			43387.38302		70.12600		324.00000 
 43692.65567		 951.14271			42741.51297		226.54800		875.00000 
 43692.65567		 305.27265			43387.38302		70.12600		324.00000 
 43692.65567		 951.14271			42741.51297		226.54800		875.00000 
 43692.65567		 305.27265			43387.38302		70.12600		324.00000 
 43692.65567		 951.14271			42741.51297		226.54800		875.00000 
 43692.65567		 305.27265			43387.38302		70.12600		324.00000 
 43692.65567		 951.14271			42741.51297		226.54800		875.00000 
 43692.65567		 305.27265			43387.38302		70.12600		324.00000 
 43692.65567		 951.14271			42741.51297		226.54800		875.00000 
 43692.65567		 305.27265			43387.38302		70.12600		324.00000 
 43692.65567		 951.14271			42741.51297		226.54800		875.00000 
 43692.65567		 305.27265			43387.38302		70.12600		324.00000 
 43692.65567		 951.14271			42741.51297		226.54800		875.00000 
 43692.65567		 305.27265			43387.38302		70.12600		324.00000 
 43692.65567		 951.14271			42741.51297		226.54800		875.00000 
 43692.65567		 305.27265			43387.38302		70.12600		324.00000 
 43692.65567		 951.14271			42741.51297		226.54800		875.00000 
 43692.65567		 305.27265			43387.38302		70.12600		324.00000 
 43692.65567		 951.14271			42741.51297		226.54800		875.00000 
 43692.65567		 305.27265			43387.38302		70.12600		324.00000 
 43692.65567		 951.14271			42741.51297		226.54800		875.00000 
 43692.65567		 305.27265			43387.38302		70.12600		324.00000 
 43692.65567		 951.14271			42741.51297		226.54800		875.00000 
 43692.65567		 305.27265			43387.38302		70.12600		324.00000 
 43692.65567		 951.14271			42741.51297		226.54800		875.00000 
 43692.65567		 305.27265			43387.38302		70.12600		324.00000 
 43692.65567		 951.14271			42741.51297		226.54800		875.00000 
 43692.65567		 305.27265			43387.38302		70.12600		324.00000 
 43692.65567		 951.14271			42741.51297		226.54800		875.00000 
 43692.65567		 305.27265			43387.38302		70.12600		324.00000 
 43692.65567		 951.14271			42741.51297		226.54800		875.00000 
 43692.65567		 305.27265			43387.38302		70.12600		324.00000 
 43692.65567		 951.14271			42741.51297		226.54800		875.00000 
 43692.65567		 305.27265			43387.38302		70.12600		324.00000 
 43692.65567		 951.14271			42741.51297		226.54800		875.00000 
 43692.65567		 305.27265			43387.38302		70.12600		324.00000 
 43692.65567		 951.14271			42741.51297		226.54800		875.00000 
 43692.65567		 305.27265			43387.38302		70.12600		324.00000 
 43692.65567		 951.14271			42741.51297		226.54800		875.00000 
 43692.65567		 305.27265			43387.38302		70.12600		324.00000 
 43692.65567		 951.14271			42741.51297		226.54800		875.00000 
 43692.65567		 305.27265			43387.38302		70.12600		324.00000 
 43692.65567		 951.14271			42741.51297		226.54800		875.00000 
 43692.65567		 305.27265			43387.38302		70.12600		324.00000 
 43692.65567		 951.14271			42741.51297		226.54800		875.00000 
 43692.65567		 305.27265			43387.38302		70.12600		324.00000 
 43692.65567		 951.14271			42741.51297		226.54800		875.00000 
 43692.65567		 305.27265			43387.38302		70.12600		324.00000 
 43692.65567		 951.14271			42741.51297		226.54800		875.00000 
 43692.65567		 305.27265			43387.38302		70.12600		324.00000 
 43692.65567		 951.14271			42741.51297		226.54800		875.00000 
 43692.65567		 305.27265			43387.38302		70.12600		324.00000 
 43692.65567		 951.14271			42741.51297		226.54800		875.00000 
 43692.65567		 305.27265			43387.38302		70.12600		324.00000 
 43692.65567		 951.14271			42741.51297		226.54800		875.00000 
 43692.65567		 305.27265			43387.38302		70.12600		324.00000 
 43692.65567		 951.14271			42741.51297		226.54800		875.00000 
 43692.65567		 305.27265			43387.38302		70.12600		324.00000 
 43692.65567		 951.14271			42741.51297		226.54800		875.00000 
 43692.65567		 305.27265			43387.38302		70.12600		324.00000 
 43692.65567		 951.14271			42741.51297		226.54800		875.00000 
 43692.65567		 305.27265			43387.38302		70.12600		324.00000 
 43692.65567		 951.14271			42741.51297		226.54800		875.00000 
 43692.65567		 305.27265			43387.38302		70.12600		324.00000 
 43692.65567		 951.14271			42741.51297		226.54800		875.00000 
 43692.65567		 305.27265			43387.38302		70.12600		324.00000 
 43692.65567		 951.14271			42741.51297		226.54800		875.00000 
 43692.65567		 305.27265			43387.38302		70.12600		324.00000 
 43692.65567		 951.14271			42741.51297		226.54800		875.00000 
 43692.65567		 305.27265			43387.38302		70.12600		324.00000 
 43692.65567		 951.14271			42741.51297		226.54800		875.00000 
 43692.65567		 305.27265			43387.38302		70.12600		324.00000 
 43692.65567		 951.14271			42741.51297		226.54800		875.00000 
 43692.65567		 305.27265			43387.38302		70.12600		324.00000 
 43692.65567		 951.14271			42741.51297		226.54800		875.00000 
 43692.65567		 305.27265			43387.38302		70.12600		324.00000 
 43692.65567		 951.14271			42741.51297		226.54800		875.00000 
 43692.65567		 305.27265			43387.38302		70.12600		324.00000 
 43692.65567		 951.14271			42741.51297		226.54800		875.00000 
 43692.65567		 305.27265			43387.38302		70.12600		324.00000 
 43692.65567		 951.14271			42741.51297		226.54800		875.00000 
 43692.65567		 305.27265			43387.38302		70.12600		324.00000 
 43692.65567		 951.14271			42741.51297		226.54800		875.00000 
 43692.65567		 305.27265			43387.38302		70.12600		324.00000 
 43692.65567		 951.14271			42741.51297		226.54800		875.00000 
 43692.65567		 305.27265			43387.38302		70.12600		324.00000 
 43692.65567		 951.14271			42741.51297		226.54800		875.00000 
 43692.65567		 305.27265			43387.38302		70.12600		324.00000 
 43692.65567		 951.14271			42741.51297		226.54800		875.00000 
 43692.65567		 305.27265			43387.38302		70.12600		324.00000 
 43692.65567		 951.14271			42741.51297		226.54800		875.00000 
 43692.65567		 305.27265			43387.38302		70.12600		324.00000 
 43692.65567		 951.14271			42741.51297		226.54800		875.00000 
 43692.65567		 305.27265			43387.38302		70.12600		324.00000 
 43692.65567		 951.14271			42741.51297		226.54800		875.00000 
 43692.65567		 305.27265			43387.38302		70.12600		324.00000 
 43692.65567		 951.14271			42741.51297		226.54800		875.00000 
 43692.65567		 305.27265			43387.38302		70.12600		324.00000 
 43692.65567		 951.14271			42741.51297		226.54800		875.00000 
 43692.65567		 305.27265			43387.38302		70.12600		324.00000 
 43692.65567		 951.14271			42741.51297		226.54800		875.00000 
 43692.65567		 305.27265			43387.38302		70.12600		324.00000 
 43692.65567		 951.14271			42741.51297		226.54800		875.00000 
 43692.65567		 305.27265			43387.38302		70.12600		324.00000 
 43692.65567		 951.14271			42741.51297		226.54800		875.00000 
 43692.65567		 305.27265			43387.38302		70.12600		324.00000 
 43692.65567		 951.14271			42741.51297		226.54800		875.00000 
 43692.65567		 305.27265			43387.38302		70.12600		324.00000 
 43692.65567		 951.14271			42741.51297		226.54800		875.00000 
 43692.65567		 305.27265			43387.38302		70.12600		324.00000 
 43692.65567		 951.14271			42741.51297		226.54800		875.00000 
 43692.65567		 305.27265			43387.38302		70.12600		324.00000 
 43692.65567		 951.14271			42741.51297		226.54800		875.00000 
 43692.65567		 305.27265			43387.38302		70.12600		324.00000 
 43692.65567		 951.14271			42741.51297		226.54800		875.00000 
 43692.65567		 305.27265			43387.38302		70.12600		324.00000 
 43692.65567		 951.14271			42741.51297		226.54800		875.00000 
 43692.65567		 305.27265			43387.38302		70.12600		324.00000 
 43692.65567		 951.14271			42741.51297		226.54800		875.00000 
 43692.65567		 305.27265			43387.38302		70.12600		324.00000 
 43692.65567		 951.14271			42741.51297		226.54800		875.00000 
 43692.65567		 305.27265			43387.38302		70.12600		324.00000 
 43692.65567		 951.14271			42741.51297		226.54800		875.00000 
 43692.65567		 305.27265			43387.38302		70.12600		324.00000 
 43692.65567		 951.14271			42741.51297		226.54800		875.00000 
 43692.65567		 305.27265			43387.38302		70.12600		324.00000 
 43692.65567		 951.14271			42741.51297		226.54800		875.00000 
 43692.65567		 305.27265			43387.38302		70.12600		324.00000 
 43692.65567		 951.14271			42741.51297		226.54800		875.00000 
 43692.65567		 305.27265			43387.38302		70.12600		324.00000 
 43692.65567		 951.14271			42741.51297		226.54800		875.00000 
 43692.65567		 305.27265			43387.38302		70.12600		324.00000 
 43692.65567		 951.14271			42741.51297		226.54800		875.00000 
 43692.65567		 305.27265			43387.38302		70.12600		324.00000 
 43692.65567		 951.14271			42741.51297		226.54800		875.00000 
 43692.65567		 305.27265			43387.38302		70.12600		324.00000 
 43692.65567		 951.14271			42741.51297		226.54800		875.00000 
 43692.65567		 305.27265			43387.38302		70.12600		324.00000 
 43692.65567		 951.14271			42741.51297		226.54800		875.00000 
 43692.65567		 305.27265			43387.38302		70.12600		324.00000 
 43692.65567		 951.14271			42741.51297		226.54800		875.00000 
 43692.65567		 305.27265			43387.38302		70.12600		324.00000 
 43692.65567		 951.14271			42741.51297		226.54800		875.00000 
 43692.65567		 305.27265			43387.38302		70.12600		324.00000 
 43692.65567		 951.14271			42741.51297		226.54800		875.00000 
 43692.65567		 305.27265			43387.38302		70.12600		324.00000 
 43692.65567		 951.14271			42741.51297		226.54800		875.00000 
 43692.65567		 305.27265			43387.38302		70.12600		324.00000 
 43692.65567		 951.14271			42741.51297		226.54800		875.00000 
 43692.65567		 305.27265			43387.38302		70.12600		324.00000 
 43692.65567		 951.14271			42741.51297		226.54800		875.00000 
 43692.65567		 305.27265			43387.38302		70.12600		324.00000 
 43692.65567		 951.14271			42741.51297		226.54800		875.00000 
 43692.65567		 305.27265			43387.38302		70.12600		324.00000 
 43692.65567		 951.14271			42741.51297		226.54800		875.00000 
 43692.65567		 305.27265			43387.38302		70.12600		324.00000 
 43692.65567		 951.14271			42741.51297		226.54800		875.00000 
 43692.65567		 305.27265			43387.38302		70.12600		324.00000 
 43692.65567		 951.14271			42741.51297		226.54800		875.00000 
 43692.65567		 305.27265			43387.38302		70.12600		324.00000 
 43692.65567		 951.14271			42741.51297		226.54800		875.00000 
 43692.65567		 305.27265			43387.38302		70.12600		324.00000 
 43692.65567		 951.14271			42741.51297		226.54800		875.00000 
 43692.65567		 305.27265			43387.38302		70.12600		324.00000 
 43692.65567		 951.14271			42741.51297		226.54800		875.00000 
 43692.65567		 305.27265			43387.38302		70.12600		324.00000 
 43692.65567		 951.14271			42741.51297		226.54800		875.00000 
 43692.65567		 305.27265			43387.38302		70.12600		324.00000 
 43692.65567		 951.14271			42741.51297		226.54800		875.00000 
 43692.65567		 305.27265			43387.38302		70.12600		324.00000 
 43692.65567		 951.14271			42741.51297		226.54800		875.00000 
 43692.65567		 305.27265			43387.38302		70.12600		324.00000 
 43692.65567		 951.14271			42741.51297		226.54800		875.00000 
 43692.65567		 305.27265			43387.38302		70.12600		324.00000 
 43692.65567		 951.14271			42741.51297		226.54800		875.00000 
 43692.65567		 305.27265			43387.38302		70.12600		324.00000 
 43692.65567		 951.14271			42741.51297		226.54800		875.00000 
 43692.65567		 305.27265			43387.38302		70.12600		324.00000 
 43692.65567		 951.14271			42741.51297		226.54800		875.00000 
 43692.65567		 305.27265			43387.38302		70.12600		324.00000 
 43692.65567		 951.14271			42741.51297		226.54800		875.00000 
 43692.65567		 305.27265			43387.38302		70.12600		324.00000 
 43692.65567		 951.14271			42741.51297		226.54800		875.00000 
 43692.65567		 305.27265			43387.38302		70.12600		324.00000 
 43692.65567		 951.14271			42741.51297		226.54800		875.00000 
 43692.65567		 305.27265			43387.38302		70.12600		324.00000 
 43692.65567		 951.14271			42741.51297		226.54800		875.00000 
 43692.65567		 305.27265			43387.38302		70.12600		324.00000 
 43692.65567		 951.14271			42741.51297		226.54800		875.00000 
 43692.65567		 305.27265			43387.38302		70.12600		324.00000 
 43692.65567		 951.14271			42741.51297		226.54800		875.00000 
 43692.65567		 305.27265			43387.38302		70.12600		324.00000 
 43692.65567		 951.14271			42741.51297		226.54800		875.00000 
 43692.65567		 305.27265			43387.38302		70.12600		324.00000 
 43692.65567		 951.14271			42741.51297		226.54800		875.00000 
 43692.65567		 305.27265			43387.38302		70.12600		324.00000 
 43692.65567		 951.14271			42741.51297		226.54800		875.00000 
 43692.65567		 305.27265			43387.38302		70.12600		324.00000 
 43692.65567		 951.14271			42741.51297		226.54800		875.00000 
 43692.65567		 305.27265			43387.38302		70.12600		324.00000 
 43692.65567		 951.14271			42741.51297		226.54800		875.00000 
 43692.65567		 305.27265			43387.38302		70.12600		324.00000 
 43692.65567		 951.14271			42741.51297		226.54800		875.00000 
 43692.65567		 305.27265			43387.38302		70.12600		324.00000 
 43692.65567		 951.14271			42741.51297		226.54800		875.00000 
 43692.65567		 305.27265			43387.38302		70.12600		324.00000 
 43692.65567		 951.14271			42741.51297		226.54800		875.00000 
 43692.65567		 305.27265			43387.38302		70.12600		324.00000 
 43692.65567		 951.14271			42741.51297		226.54800		875.00000 
 43692.65567		 305.27265			43387.38302		70.12600		324.00000 
 43692.65567		 951.14271			42741.51297		226.54800		875.00000 
 43692.65567		 305.27265			43387.38302		70.12600		324.00000 
 43692.65567		 951.14271			42741.51297		226.54800		875.00000 
 43692.65567		 305.27265			43387.38302		70.12600		324.00000 
 43692.65567		 951.14271			42741.51297		226.54800		875.00000 
 43692.65567		 305.27265			43387.38302		70.12600		324.00000 
 43692.65567		 951.14271			42741.51297		226.54800		875.00000 
 43692.65567		 305.27265			43387.38302		70.12600		324.00000 
 43692.65567		 951.14271			42741.51297		227.14800		875.00000 
 43692.65567		 305.27265			43387.38302		70.12600		324.00000 
 43692.65567		 951.14271			42741.51297		227.14800		875.00000 
 43692.65567		 305.27265			43387.38302		70.12600		324.00000 
 43692.65567		 951.14271			42741.51297		227.14800		875.00000 
 43692.65567		 305.27265			43387.38302		70.12600		324.00000 
 43692.65567		 951.14271			42741.51297		227.14800		875.00000 
 43692.65567		 305.27265			43387.38302		70.12600		324.00000 
 43692.65567		 951.14271			42741.51297		227.14800		875.00000 
 43692.65567		 305.27265			43387.38302		70.12600		324.00000 
 43692.65567		 951.14271			42741.51297		227.14800		875.00000 
 43692.65567		 305.27265			43387.38302		70.12600		324.00000 
 43692.65567		 951.14271			42741.51297		227.14800		875.00000 
 43692.65567		 305.27265			43387.38302		70.12600		324.00000 
 43692.65567		 951.14271			42741.51297		227.14800		875.00000 
 43692.65567		 305.27265			43387.38302		70.12600		324.00000 
 43692.65567		 951.14271			42741.51297		227.14800		875.00000 
 43692.65567		 305.27265			43387.38302		70.12600		324.00000 
 43692.65567		 951.14271			42741.51297		227.14800		875.00000 
 43692.65567		 305.27265			43387.38302		70.12600		324.00000 
 43692.65567		 951.14271			42741.51297		227.14800		875.00000 
 43692.65567		 305.27265			43387.38302		70.12600		324.00000 
 43692.65567		 951.14271			42741.51297		227.14800		875.00000 
 43692.65567		 305.27265			43387.38302		70.12600		324.00000 
 43692.65567		 951.14271			42741.51297		227.14800		875.00000 
 43692.65567		 305.27265			43387.38302		70.12600		324.00000 
 43692.65567		 951.14271			42741.51297		227.14800		875.00000 
 43692.65567		 305.27265			43387.38302		70.12600		324.00000 
 43692.65567		 951.14271			42741.51297		227.14800		875.00000 
 43692.65567		 305.27265			43387.38302		70.12600		324.00000 
 43692.65567		 951.14271			42741.51297		227.14800		875.00000 
 43692.65567		 305.27265			43387.38302		70.12600		324.00000 
 43692.65567		 951.14271			42741.51297		227.14800		875.00000 
 43692.65567		 305.27265			43387.38302		70.12600		324.00000 
 43692.65567		 951.14271			42741.51297		227.14800		875.00000 
 43692.65567		 305.27265			43387.38302		70.12600		324.00000 
 43692.65567		 951.14271			42741.51297		227.14800		875.00000 
 43692.65567		 305.27265			43387.38302		70.12600		324.00000 
 43692.65567		 951.14271			42741.51297		227.14800		875.00000 
 43692.65567		 305.27265			43387.38302		70.12600		324.00000 
 43692.65567		 951.14271			42741.51297		227.14800		875.00000 
 43692.65567		 305.27265			43387.38302		70.12600		324.00000 
 43692.65567		 951.14271			42741.51297		227.14800		875.00000 
 43692.65567		 305.27265			43387.38302		70.12600		324.00000 
 43692.65567		 951.14271			42741.51297		227.14800		875.00000 
 43692.65567		 305.27265			43387.38302		70.12600		324.00000 
 43692.65567		 951.14271			42741.51297		227.14800		875.00000 
 43692.65567		 305.27265			43387.38302		70.12600		324.00000 
 43692.65567		 951.14271			42741.51297		227.14800		875.00000 
 43692.65567		 305.27265			43387.38302		70.12600		324.00000 
 43692.65567		 951.14271			42741.51297		227.14800		875.00000 
 43692.65567		 305.27265			43387.38302		70.12600		324.00000 
 43692.65567		 951.14271			42741.51297		227.14800		875.00000 
 43692.65567		 305.27265			43387.38302		70.12600		324.00000 
 43692.65567		 951.14271			42741.51297		227.14800		875.00000 
 43692.65567		 305.27265			43387.38302		70.12600		324.00000 
 43692.65567		 951.14271			42741.51297		227.14800		875.00000 
 43692.65567		 305.27265			43387.38302		70.12600		324.00000 
 43692.65567		 951.14271			42741.51297		227.14800		875.00000 
 43692.65567		 305.27265			43387.38302		70.12600		324.00000 
 43692.65567		 951.14271			42741.51297		227.14800		875.00000 
 43692.65567		 305.27265			43387.38302		70.12600		324.00000 
 43692.65567		 951.14271			42741.51297		227.14800		875.00000 
 43692.65567		 305.27265			43387.38302		70.12600		324.00000 
 43692.65567		 951.14271			42741.51297		227.14800		875.00000 
 43692.65567		 305.27265			43387.38302		70.12600		324.00000 
 43692.65567		 951.14271			42741.51297		227.14800		875.00000 
 43692.65567		 305.27265			43387.38302		70.12600		324.00000 
 43692.65567		 951.14271			42741.51297		227.14800		875.00000 
 43692.65567		 305.27265			43387.38302		70.12600		324.00000 
 43692.65567		 951.14271			42741.51297		227.14800		875.00000 
 43692.65567		 305.27265			43387.38302		70.12600		324.00000 
 43692.65567		 951.14271			42741.51297		227.14800		875.00000 
 43692.65567		 305.27265			43387.38302		70.12600		324.00000 
 43692.65567		 951.14271			42741.51297		227.14800		875.00000 
 43692.65567		 305.27265			43387.38302		70.12600		324.00000 
 43692.65567		 951.14271			42741.51297		227.14800		875.00000 
 43692.65567		 305.27265			43387.38302		70.12600		324.00000 
 43692.65567		 951.14271			42741.51297		227.14800		875.00000 
 43692.65567		 305.27265			43387.38302		70.12600		324.00000 
 43692.65567		 951.14271			42741.51297		227.14800		875.00000 
 43692.65567		 305.27265			43387.38302		70.12600		324.00000 
 43692.65567		 951.14271			42741.51297		227.14800		875.00000 
 43692.65567		 305.27265			43387.38302		70.12600		324.00000 
 43692.65567		 951.14271			42741.51297		227.14800		875.00000 
 43692.65567		 305.27265			43387.38302		70.12600		324.00000 
 43692.65567		 951.14271			42741.51297		227.14800		875.00000 
 43692.65567		 305.27265			43387.38302		70.12600		324.00000 
 43692.65567		 951.14271			42741.51297		227.14800		875.00000 
 43692.65567		 305.27265			43387.38302		70.12600		324.00000 
 43692.65567		 951.14271			42741.51297		227.14800		875.00000 
 43692.65567		 305.27265			43387.38302		70.12600		324.00000 
 43692.65567		 951.14271			42741.51297		227.14800		875.00000 
 43692.65567		 305.27265			43387.38302		70.12600		324.00000 
 43692.65567		 951.14271			42741.51297		227.14800		875.00000 
 43692.65567		 305.27265			43387.38302		70.12600		324.00000 
 43692.65567		 951.14271			42741.51297		227.14800		875.00000 
 43692.65567		 305.27265			43387.38302		70.12600		324.00000 
 43692.65567		 951.14271			42741.51297		227.14800		875.00000 
 43692.65567		 305.27265			43387.38302		70.12600		324.00000 
 43692.65567		 951.14271			42741.51297		227.14800		875.00000 
 43692.65567		 305.27265			43387.38302		70.12600		324.00000 
 43692.65567		 951.14271			42741.51297		227.14800		875.00000 
 43692.65567		 305.27265			43387.38302		70.12600		324.00000 
 43692.65567		 951.14271			42741.51297		227.14800		875.00000 
 43692.65567		 305.27265			43387.38302		70.12600		324.00000 
 43692.65567		 951.14271			42741.51297		227.14800		875.00000 
 43692.65567		 305.27265			43387.38302		70.12600		324.00000 
 43692.65567		 951.14271			42741.51297		227.14800		875.00000 
 43692.65567		 305.27265			43387.38302		70.12600		324.00000 
 43692.65567		 951.14271			42741.51297		227.14800		875.00000 
 43692.65567		 305.27265			43387.38302		70.12600		324.00000 
 43692.65567		 951.14271			42741.51297		227.14800		875.00000 
 43692.65567		 305.27265			43387.38302		70.12600		324.00000 
 43692.65567		 951.14271			42741.51297		227.14800		875.00000 
 43692.65567		 305.27265			43387.38302		70.12600		324.00000 
 43692.65567		 951.14271			42741.51297		227.14800		875.00000 
 43692.65567		 305.27265			43387.38302		70.12600		324.00000 
 43692.65567		 951.14271			42741.51297		227.14800		875.00000 
 43692.65567		 305.27265			43387.38302		70.12600		324.00000 
 43692.65567		 951.14271			42741.51297		227.14800		875.00000 
 43692.65567		 305.27265			43387.38302		70.12600		324.00000 
 43692.65567		 951.14271			42741.51297		227.14800		875.00000 
 43692.65567		 305.27265			43387.38302		70.12600		324.00000 
 43692.65567		 951.14271			42741.51297		227.14800		875.00000 
 43692.65567		 305.27265			43387.38302		70.12600		324.00000 
 43692.65567		 951.14271			42741.51297		227.14800		875.00000 
 43692.65567		 305.27265			43387.38302		70.12600		324.00000 
 43692.65567		 951.14271			42741.51297		227.14800		875.00000 
 43692.65567		 305.27265			43387.38302		70.12600		324.00000 
 43692.65567		 951.14271			42741.51297		227.14800		875.00000 
 43692.65567		 305.27265			43387.38302		70.12600		324.00000 
 43692.65567		 951.14271			42741.51297		227.14800		875.00000 
 43692.65567		 305.27265			43387.38302		70.12600		324.00000 
 43692.65567		 951.14271			42741.51297		227.14800		875.00000 
 43692.65567		 305.27265			43387.38302		70.12600		324.00000 
 43692.65567		 951.14271			42741.51297		227.14800		875.00000 
 43692.65567		 305.27265			43387.38302		70.12600		324.00000 
 43692.65567		 951.14271			42741.51297		227.14800		875.00000 
 43692.65567		 305.27265			43387.38302		70.12600		324.00000 
 43692.65567		 951.14271			42741.51297		227.14800		875.00000 
 43692.65567		 305.27265			43387.38302		70.12600		324.00000 
 43692.65567		 951.14271			42741.51297		227.14800		875.00000 
 43692.65567		 305.27265			43387.38302		70.12600		324.00000 
 43692.65567		 951.14271			42741.51297		227.14800		875.00000 
 43692.65567		 305.27265			43387.38302		70.12600		324.00000 
 43692.65567		 951.14271			42741.51297		227.14800		875.00000 
 43692.65567		 305.27265			43387.38302		70.12600		324.00000 
 43692.65567		 951.14271			42741.51297		227.14800		875.00000 
 43692.65567		 305.27265			43387.38302		70.12600		324.00000 
 43692.65567		 951.14271			42741.51297		227.14800		875.00000 
 43692.65567		 305.27265			43387.38302		70.12600		324.00000 
 43692.65567		 951.14271			42741.51297		227.14800		875.00000 
 43692.65567		 305.27265			43387.38302		70.12600		324.00000 
 43692.65567		 951.14271			42741.51297		227.14800		875.00000 
 43692.65567		 305.27265			43387.38302		70.12600		324.00000 
 43692.65567		 951.14271			42741.51297		227.14800		875.00000 
 43692.65567		 305.27265			43387.38302		70.12600		324.00000 
 43692.65567		 951.14271			42741.51297		227.14800		875.00000 
 43692.65567		 305.27265			43387.38302		70.12600		324.00000 
 43692.65567		 951.14271			42741.51297		227.14800		875.00000 
 43692.65567		 305.27265			43387.38302		70.12600		324.00000 
 43692.65567		 951.14271			42741.51297		227.14800		875.00000 
 43692.65567		 305.27265			43387.38302		70.12600		324.00000 
 43692.65567		 951.14271			42741.51297		227.14800		875.00000 
 43692.65567		 305.27265			43387.38302		70.12600		324.00000 
 43692.65567		 951.14271			42741.51297		227.14800		875.00000 
 43692.65567		 305.27265			43387.38302		70.12600		324.00000 
 43692.65567		 951.14271			42741.51297		227.14800		875.00000 
 43692.65567		 305.27265			43387.38302		70.12600		324.00000 
 43692.65567		 951.14271			42741.51297		227.14800		875.00000 
 43692.65567		 305.27265			43387.38302		70.12600		324.00000 
 43692.65567		 951.14271			42741.51297		227.14800		875.00000 
 43692.65567		 305.27265			43387.38302		70.12600		324.00000 
 43692.65567		 951.14271			42741.51297		227.14800		875.00000 
 43692.65567		 305.27265			43387.38302		70.12600		324.00000 
 43692.65567		 951.14271			42741.51297		227.14800		875.00000 
 43692.65567		 305.27265			43387.38302		70.12600		324.00000 
 43692.65567		 951.14271			42741.51297		227.14800		875.00000 
 43692.65567		 305.27265			43387.38302		70.12600		324.00000 
 43692.65567		 951.14271			42741.51297		227.14800		875.00000 
 43692.65567		 305.27265			43387.38302		70.12600		324.00000 
 43692.65567		 951.14271			42741.51297		227.14800		875.00000 
 43692.65567		 305.27265			43387.38302		70.12600		324.00000 
 43692.65567		 951.14271			42741.51297		227.14800		875.00000 
 43692.65567		 305.27265			43387.38302		70.12600		324.00000 
 43692.65567		 951.14271			42741.51297		227.14800		875.00000 
 43692.65567		 305.27265			43387.38302		70.12600		324.00000 
 43692.65567		 951.14271			42741.51297		227.14800		875.00000 
 43692.65567		 305.27265			43387.38302		70.12600		324.00000 
 43692.65567		 951.14271			42741.51297		227.14800		875.00000 
 43692.65567		 305.27265			43387.38302		70.12600		324.00000 
 43692.65567		 951.14271			42741.51297		227.14800		875.00000 
 43692.65567		 305.27265			43387.38302		70.12600		324.00000 
 43692.65567		 951.14271			42741.51297		227.14800		875.00000 
 43692.65567		 305.27265			43387.38302		70.12600		324.00000 
 43692.65567		 951.14271			42741.51297		227.14800		875.00000 
 43692.65567		 305.27265			43387.38302		70.12600		324.00000 
 43692.65567		 951.14271			42741.51297		227.14800		875.00000 
 43692.65567		 305.27265			43387.38302		70.12600		324.00000 
 43692.65567		 951.14271			42741.51297		227.14800		875.00000 
 43692.65567		 305.27265			43387.38302		70.12600		324.00000 
 43692.65567		 951.14271			42741.51297		227.14800		875.00000 
 43692.65567		 305.27265			43387.38302		70.12600		324.00000 
 43692.65567		 951.14271			42741.51297		227.14800		875.00000 
 43692.65567		 305.27265			43387.38302		70.12600		324.00000 
 43692.65567		 951.14271			42741.51297		227.14800		875.00000 
 43692.65567		 305.27265			43387.38302		70.12600		324.00000 
 43692.65567		 951.14271			42741.51297		227.14800		875.00000 
 43692.65567		 305.27265			43387.38302		70.12600		324.00000 
 43692.65567		 951.14271			42741.51297		227.14800		875.00000 
 43692.65567		 305.27265			43387.38302		70.12600		324.00000 
 43692.65567		 951.14271			42741.51297		227.14800		875.00000 
 43692.65567		 305.27265			43387.38302		70.12600		324.00000 
 43692.65567		 951.14271			42741.51297		227.14800		875.00000 
 43692.65567		 305.27265			43387.38302		70.12600		324.00000 
 43692.65567		 951.14271			42741.51297		227.14800		875.00000 
 43692.65567		 305.27265			43387.38302		70.12600		324.00000 
 43692.65567		 951.14271			42741.51297		227.14800		875.00000 
 43692.65567		 305.27265			43387.38302		70.12600		324.00000 
 43692.65567		 951.14271			42741.51297		227.14800		875.00000 
 43692.65567		 305.27265			43387.38302		70.12600		324.00000 
 43692.65567		 951.14271			42741.51297		227.14800		875.00000 
 43692.65567		 305.27265			43387.38302		70.12600		324.00000 
 43692.65567		 951.14271			42741.51297		227.14800		875.00000 
 43692.65567		 305.27265			43387.38302		70.12600		324.00000 
 43692.65567		 951.14271			42741.51297		227.14800		875.00000 
 43692.65567		 305.27265			43387.38302		70.12600		324.00000 
 43692.65567		 951.14271			42741.51297		227.14800		875.00000 
 43692.65567		 305.27265			43387.38302		70.12600		324.00000 
 43692.65567		 951.14271			42741.51297		227.14800		875.00000 
 43692.65567		 305.27265			43387.38302		70.12600		324.00000 
 43692.65567		 951.14271			42741.51297		227.14800		875.00000 
 43692.65567		 305.27265			43387.38302		70.12600		324.00000 
 43692.65567		 951.14271			42741.51297		227.14800		875.00000 
 43692.65567		 305.27265			43387.38302		70.12600		324.00000 
 43692.65567		 951.14271			42741.51297		227.14800		875.00000 
 43692.65567		 305.27265			43387.38302		70.12600		324.00000 
 43692.65567		 951.14271			42741.51297		227.14800		875.00000 
 43692.65567		 305.27265			43387.38302		70.12600		324.00000 
 43692.65567		 951.14271			42741.51297		227.14800		875.00000 
 43692.65567		 305.27265			43387.38302		70.12600		324.00000 
 43692.65567		 951.14271			42741.51297		227.14800		875.00000 
 43692.65567		 305.27265			43387.38302		70.12600		324.00000 
 43692.65567		 951.14271			42741.51297		227.14800		875.00000 
 43692.65567		 305.27265			43387.38302		70.12600		324.00000 
 43692.65567		 951.14271			42741.51297		227.14800		875.00000 
 43692.65567		 305.27265			43387.38302		70.12600		324.00000 
 43692.65567		 951.14271			42741.51297		227.14800		875.00000 
 43692.65567		 305.27265			43387.38302		70.12600		324.00000 
 43692.65567		 951.14271			42741.51297		227.14800		875.00000 
 43692.65567		 305.27265			43387.38302		70.12600		324.00000 
 43692.65567		 951.14271			42741.51297		227.14800		875.00000 
 43692.65567		 305.27265			43387.38302		70.12600		324.00000 
 43692.65567		 951.14271			42741.51297		227.14800		875.00000 
 43692.65567		 305.27265			43387.38302		70.12600		324.00000 
 43692.65567		 951.14271			42741.51297		227.14800		875.00000 
 43692.65567		 305.27265			43387.38302		70.12600		324.00000 
 43692.65567		 951.14271			42741.51297		227.14800		875.00000 
 43692.65567		 305.27265			43387.38302		70.12600		324.00000 
 43692.65567		 951.14271			42741.51297		226.54800		875.00000 
 43692.65567		 305.27265			43387.38302		70.12600		324.00000 
 43692.65567		 951.14271			42741.51297		226.54800		875.00000 
 43692.65567		 305.27265			43387.38302		70.12600		324.00000 
 43692.65567		 951.14271			42741.51297		226.54800		875.00000 
 43692.65567		 305.27265			43387.38302		70.12600		324.00000 
 43692.65567		 951.14271			42741.51297		226.54800		875.00000 
 43692.65567		 305.27265			43387.38302		70.12600		324.00000 
 43692.65567		 951.14271			42741.51297		226.54800		875.00000 
 43692.65567		 305.27265			43387.38302		70.12600		324.00000 
 43692.65567		 951.14271			42741.51297		226.54800		875.00000 
 43692.65567		 305.27265			43387.38302		70.12600		324.00000 
 43692.65567		 951.14271			42741.51297		226.54800		875.00000 
 43692.65567		 305.27265			43387.38302		70.12600		324.00000 
 43692.65567		 951.14271			42741.51297		226.54800		875.00000 
 43692.65567		 305.27265			43387.38302		70.12600		324.00000 
 43692.65567		 951.14271			42741.51297		226.54800		875.00000 
 43692.65567		 305.27265			43387.38302		70.12600		324.00000 
 43692.65567		 951.14271			42741.51297		226.54800		875.00000 
 43692.65567		 305.27265			43387.38302		70.12600		324.00000 
 43692.65567		 951.14271			42741.51297		226.54800		875.00000 
 43692.65567		 305.27265			43387.38302		70.12600		324.00000 
 43692.65567		 951.14271			42741.51297		226.54800		875.00000 
 43692.65567		 305.27265			43387.38302		70.12600		324.00000 
 43692.65567		 951.14271			42741.51297		226.54800		875.00000 
 43692.65567		 305.27265			43387.38302		70.12600		324.00000 
 43692.65567		 951.14271			42741.51297		226.54800		875.00000 
 43692.65567		 305.27265			43387.38302		70.12600		324.00000 
 43692.65567		 951.14271			42741.51297		226.54800		875.00000 
 43692.65567		 305.27265			43387.38302		70.12600		324.00000 
 43692.65567		 951.14271			42741.51297		226.54800		875.00000 
 43692.65567		 305.27265			43387.38302		70.12600		324.00000 
 43692.65567		 951.14271			42741.51297		226.54800		875.00000 
 43692.65567		 305.27265			43387.38302		70.12600		324.00000 
 43692.65567		 951.14271			42741.51297		226.54800		875.00000 
 43692.65567		 305.27265			43387.38302		70.12600		324.00000 
 43692.65567		 951.14271			42741.51297		226.54800		875.00000 
 43692.65567		 305.27265			43387.38302		70.12600		324.00000 
 43692.65567		 951.14271			42741.51297		226.54800		875.00000 
 43692.65567		 305.27265			43387.38302		70.12600		324.00000 
 43692.65567		 951.14271			42741.51297		226.54800		875.00000 
 43692.65567		 305.27265			43387.38302		70.12600		324.00000 
 43692.65567		 951.14271			42741.51297		226.54800		875.00000 
 43692.65567		 305.27265			43387.38302		70.12600		324.00000 
 43692.65567		 951.14271			42741.51297		226.54800		875.00000 
 43692.65567		 305.27265			43387.38302		70.12600		324.00000 
 43692.65567		 951.14271			42741.51297		226.54800		875.00000 
 43692.65567		 305.27265			43387.38302		70.12600		324.00000 
 43692.65567		 951.14271			42741.51297		226.54800		875.00000 
 43692.65567		 305.27265			43387.38302		70.12600		324.00000 
 43692.65567		 951.14271			42741.51297		226.54800		875.00000 
 43692.65567		 305.27265			43387.38302		70.12600		324.00000 
 43692.65567		 951.14271			42741.51297		226.54800		875.00000 
 43692.65567		 305.27265			43387.38302		70.12600		324.00000 
 43692.65567		 951.14271			42741.51297		226.54800		875.00000 
 43692.65567		 305.27265			43387.38302		70.12600		324.00000 
 43692.65567		 951.14271			42741.51297		226.54800		875.00000 
 43692.65567		 305.27265			43387.38302		70.12600		324.00000 
 43692.65567		 951.14271			42741.51297		226.54800		875.00000 
 43692.65567		 305.27265			43387.38302		70.12600		324.00000 
 43692.65567		 951.14271			42741.51297		226.54800		875.00000 
 43692.65567		 305.27265			43387.38302		70.12600		324.00000 
 43692.65567		 951.14271			42741.51297		226.54800		875.00000 
 43692.65567		 305.27265			43387.38302		70.12600		324.00000 
 43692.65567		 951.14271			42741.51297		226.54800		875.00000 
 43692.65567		 305.27265			43387.38302		70.12600		324.00000 
 43692.65567		 951.14271			42741.51297		226.54800		875.00000 
 43692.65567		 305.27265			43387.38302		70.12600		324.00000 
 43692.65567		 951.14271			42741.51297		226.54800		875.00000 
 43692.65567		 305.27265			43387.38302		70.12600		324.00000 
 43692.65567		 951.14271			42741.51297		226.54800		875.00000 
 43692.65567		 305.27265			43387.38302		70.12600		324.00000 
 43692.65567		 951.14271			42741.51297		226.54800		875.00000 
 43692.65567		 305.27265			43387.38302		70.12600		324.00000 
 43692.65567		 951.14271			42741.51297		226.54800		875.00000 
 43692.65567		 305.27265			43387.38302		70.12600		324.00000 
 43692.65567		 951.14271			42741.51297		226.54800		875.00000 
 43692.65567		 305.27265			43387.38302		70.12600		324.00000 
 43692.65567		 951.14271			42741.51297		226.54800		875.00000 
 43692.65567		 305.27265			43387.38302		70.12600		324.00000 
 43692.65567		 951.14271			42741.51297		226.54800		875.00000 
 43692.65567		 305.27265			43387.38302		70.12600		324.00000 
 43692.65567		 951.14271			42741.51297		226.54800		875.00000 
 43692.65567		 305.27265			43387.38302		70.12600		324.00000 
 43692.65567		 951.14271			42741.51297		226.54800		875.00000 
 43692.65567		 305.27265			43387.38302		70.12600		324.00000 
 43692.65567		 951.14271			42741.51297		226.54800		875.00000 
 43692.65567		 305.27265			43387.38302		70.12600		324.00000 
 43692.65567		 951.14271			42741.51297		226.54800		875.00000 
 43692.65567		 305.27265			43387.38302		70.12600		324.00000 
 43692.65567		 951.14271			42741.51297		226.54800		875.00000 
 43692.65567		 305.27265			43387.38302		70.12600		324.00000 
 43692.65567		 951.14271			42741.51297		226.54800		875.00000 
 43692.65567		 305.27265			43387.38302		70.12600		324.00000 
 43692.65567		 951.14271			42741.51297		226.54800		875.00000 
 43692.65567		 305.27265			43387.38302		70.12600		324.00000 
 43692.65567		 951.14271			42741.51297		226.54800		875.00000 
 43692.65567		 305.27265			43387.38302		70.12600		324.00000 
 43692.65567		 951.14271			42741.51297		226.54800		875.00000 
 43692.65567		 305.27265			43387.38302		70.12600		324.00000 
 43692.65567		 951.14271			42741.51297		226.54800		875.00000 
 43692.65567		 305.27265			43387.38302		70.12600		324.00000 
 43692.65567		 951.14271			42741.51297		226.54800		875.00000 
 43692.65567		 305.27265			43387.38302		70.12600		324.00000 
 43692.65567		 951.14271			42741.51297		226.54800		875.00000 
 43692.65567		 305.27265			43387.38302		70.12600		324.00000 
 43692.65567		 951.14271			42741.51297		226.54800		875.00000 
 43692.65567		 305.27265			43387.38302		70.12600		324.00000 
 43692.65567		 951.14271			42741.51297		226.54800		875.00000 
 43692.65567		 305.27265			43387.38302		70.12600		324.00000 
 43692.65567		 951.14271			42741.51297		226.54800		875.00000 
 43692.65567		 305.27265			43387.38302		70.12600		324.00000 
 43692.65567		 951.14271			42741.51297		226.54800		875.00000 
 43692.65567		 305.27265			43387.38302		70.12600		324.00000 
 43692.65567		 951.14271			42741.51297		226.54800		875.00000 
 43692.65567		 305.27265			43387.38302		70.12600		324.00000 
 43692.65567		 951.14271			42741.51297		226.54800		875.00000 
 43692.65567		 305.27265			43387.38302		70.12600		324.00000 
 43692.65567		 951.14271			42741.51297		226.54800		875.00000 
 43692.65567		 305.27265			43387.38302		70.12600		324.00000 
 43692.65567		 951.14271			42741.51297		226.54800		875.00000 
 43692.65567		 305.27265			43387.38302		70.12600		324.00000 
 43692.65567		 951.14271			42741.51297		227.14800		875.00000 
 43692.65567		 305.27265			43387.38302		70.12600		324.00000 
 43692.65567		 951.14271			42741.51297		227.14800		875.00000 
 43692.65567		 305.27265			43387.38302		70.12600		324.00000 
 43692.65567		 951.14271			42741.51297		227.14800		875.00000 
 43692.65567		 305.27265			43387.38302		70.12600		324.00000 
 43692.65567		 951.14271			42741.51297		227.14800		875.00000 
 43692.65567		 305.27265			43387.38302		70.12600		324.00000 
 43692.65567		 951.14271			42741.51297		227.14800		875.00000 
 43692.65567		 305.27265			43387.38302		70.12600		324.00000 
 43692.65567		 951.14271			42741.51297		227.14800		875.00000 
 43692.65567		 305.27265			43387.38302		70.12600		324.00000 
 43692.65567		 951.14271			42741.51297		227.14800		875.00000 
 43692.65567		 305.27265			43387.38302		70.12600		324.00000 
 43692.65567		 951.14271			42741.51297		227.14800		875.00000 
 43692.65567		 305.27265			43387.38302		70.12600		324.00000 
 43692.65567		 951.14271			42741.51297		227.14800		875.00000 
 43692.65567		 305.27265			43387.38302		70.12600		324.00000 
 43692.65567		 951.14271			42741.51297		227.14800		875.00000 
 43692.65567		 305.27265			43387.38302		70.12600		324.00000 
 43692.65567		 951.14271			42741.51297		227.14800		875.00000 
 43692.65567		 305.27265			43387.38302		70.12600		324.00000 
 43692.65567		 951.14271			42741.51297		227.14800		875.00000 
 43692.65567		 305.27265			43387.38302		70.12600		324.00000 
 43692.65567		 951.14271			42741.51297		227.14800		875.00000 
 43692.65567		 305.27265			43387.38302		70.12600		324.00000 
 43692.65567		 951.14271			42741.51297		227.14800		875.00000 
 43692.65567		 305.27265			43387.38302		70.12600		324.00000 
 43692.65567		 951.14271			42741.51297		227.14800		875.00000 
 43692.65567		 305.27265			43387.38302		70.12600		324.00000 
 43692.65567		 951.14271			42741.51297		227.14800		875.00000 
 43692.65567		 305.27265			43387.38302		70.12600		324.00000 
 43692.65567		 951.14271			42741.51297		227.14800		875.00000 
 43692.65567		 305.27265			43387.38302		70.12600		324.00000 
 43692.65567		 951.14271			42741.51297		227.14800		875.00000 
 43692.65567		 305.27265			43387.38302		70.12600		324.00000 
 43692.65567		 951.14271			42741.51297		227.14800		875.00000 
 43692.65567		 305.27265			43387.38302		70.12600		324.00000 
 43692.65567		 951.14271			42741.51297		227.14800		875.00000 
 43692.65567		 305.27265			43387.38302		70.12600		324.00000 
 43692.65567		 951.14271			42741.51297		227.14800		875.00000 
 43692.65567		 305.27265			43387.38302		70.12600		324.00000 
 43692.65567		 951.14271			42741.51297		227.14800		875.00000 
 43692.65567		 305.27265			43387.38302		70.12600		324.00000 
 43692.65567		 951.14271			42741.51297		227.14800		875.00000 
 43692.65567		 305.27265			43387.38302		70.12600		324.00000 
 43692.65567		 951.14271			42741.51297		227.14800		875.00000 
 43692.65567		 305.27265			43387.38302		70.12600		324.00000 
 43692.65567		 951.14271			42741.51297		227.14800		875.00000 
 43692.65567		 305.27265			43387.38302		70.12600		324.00000 
 43692.65567		 951.14271			42741.51297		227.14800		875.00000 
 43692.65567		 305.27265			43387.38302		70.12600		324.00000 
 43692.65567		 951.14271			42741.51297		227.14800		875.00000 
 43692.65567		 305.27265			43387.38302		70.12600		324.00000 
 43692.65567		 951.14271			42741.51297		227.14800		875.00000 
 43692.65567		 305.27265			43387.38302		70.12600		324.00000 
 43692.65567		 951.14271			42741.51297		227.14800		875.00000 
 43692.65567		 305.27265			43387.38302		70.12600		324.00000 
 43692.65567		 951.14271			42741.51297		227.14800		875.00000 
 43692.65567		 305.27265			43387.38302		70.12600		324.00000 
 43692.65567		 951.14271			42741.51297		227.14800		875.00000 
 43692.65567		 305.27265			43387.38302		70.12600		324.00000 
 43692.65567		 951.14271			42741.51297		227.14800		875.00000 
 43692.65567		 305.27265			43387.38302		70.12600		324.00000 
 43692.65567		 951.14271			42741.51297		227.14800		875.00000 
 43692.65567		 305.27265			43387.38302		70.12600		324.00000 
 43692.65567		 951.14271			42741.51297		227.14800		875.00000 
 43692.65567		 305.27265			43387.38302		70.12600		324.00000 
 43692.65567		 951.14271			42741.51297		227.14800		875.00000 
 43692.65567		 305.27265			43387.38302		70.12600		324.00000 
 43692.65567		 951.14271			42741.51297		227.14800		875.00000 
 43692.65567		 305.27265			43387.38302		70.12600		324.00000 
 43692.65567		 951.14271			42741.51297		227.14800		875.00000 
 43692.65567		 305.27265			43387.38302		70.12600		324.00000 
 43692.65567		 951.14271			42741.51297		227.14800		875.00000 
 43692.65567		 305.27265			43387.38302		70.12600		324.00000 
 43692.65567		 951.14271			42741.51297		227.14800		875.00000 
 43692.65567		 305.27265			43387.38302		70.12600		324.00000 
 43692.65567		 951.14271			42741.51297		227.14800		875.00000 
 43692.65567		 305.27265			43387.38302		70.12600		324.00000 
 43692.65567		 951.14271			42741.51297		227.14800		875.00000 
 43692.65567		 305.27265			43387.38302		70.12600		324.00000 
 43692.65567		 951.14271			42741.51297		227.14800		875.00000 
 43692.65567		 305.27265			43387.38302		70.12600		324.00000 
 43692.65567		 951.14271			42741.51297		227.14800		875.00000 
 43692.65567		 305.27265			43387.38302		70.12600		324.00000 
 43692.65567		 951.14271			42741.51297		227.14800		875.00000 
 43692.65567		 305.27265			43387.38302		70.12600		324.00000 
 43692.65567		 951.14271			42741.51297		227.14800		875.00000 
 43692.65567		 305.27265			43387.38302		70.12600		324.00000 
 43692.65567		 951.14271			42741.51297		227.14800		875.00000 
 43692.65567		 305.27265			43387.38302		70.12600		324.00000 
 43692.65567		 951.14271			42741.51297		227.14800		875.00000 
 43692.65567		 305.27265			43387.38302		70.12600		324.00000 
 43692.65567		 951.14271			42741.51297		227.14800		875.00000 
 43692.65567		 305.27265			43387.38302		70.12600		324.00000 
 43692.65567		 951.14271			42741.51297		227.14800		875.00000 
 43692.65567		 305.27265			43387.38302		70.12600		324.00000 
 43692.65567		 951.14271			42741.51297		227.14800		875.00000 
 43692.65567		 305.27265			43387.38302		70.12600		324.00000 
 43692.65567		 951.14271			42741.51297		227.14800		875.00000 
 43692.65567		 305.27265			43387.38302		70.12600		324.00000 
 43692.65567		 951.14271			42741.51297		227.14800		875.00000 
 43692.65567		 305.27265			43387.38302		70.12600		324.00000 
 43692.65567		 951.14271			42741.51297		227.14800		875.00000 
 43692.65567		 305.27265			43387.38302		70.12600		324.00000 
 43692.65567		 951.14271			42741.51297		227.14800		875.00000 
 43692.65567		 305.27265			43387.38302		70.12600		324.00000 
 43692.65567		 951.14271			42741.51297		227.14800		875.00000 
 43692.65567		 305.27265			43387.38302		70.12600		324.00000 
 43692.65567		 951.14271			42741.51297		227.14800		875.00000 
 43692.65567		 305.27265			43387.38302		70.12600		324.00000 
 43692.65567		 951.14271			42741.51297		227.14800		875.00000 
 43692.65567		 305.27265			43387.38302		70.12600		324.00000 
 43692.65567		 951.14271			42741.51297		227.14800		875.00000 
 43692.65567		 305.27265			43387.38302		70.12600		324.00000 
 43692.65567		 951.14271			42741.51297		227.14800		875.00000 
 43692.65567		 305.27265			43387.38302		70.12600		324.00000 
 43692.65567		 951.14271			42741.51297		227.14800		875.00000 
 43692.65567		 305.27265			43387.38302		70.12600		324.00000 
 43692.65567		 951.14271			42741.51297		227.14800		875.00000 
 43692.65567		 305.27265			43387.38302		70.12600		324.00000 
 43692.65567		 951.14271			42741.51297		227.14800		875.00000 
 43692.65567		 305.27265			43387.38302		70.12600		324.00000 
 43692.65567		 951.14271			42741.51297		227.14800		875.00000 
 43692.65567		 305.27265			43387.38302		70.12600		324.00000 
 43692.65567		 951.14271			42741.51297		227.14800		875.00000 
 43692.65567		 305.27265			43387.38302		70.12600		324.00000 
 43692.65567		 951.14271			42741.51297		227.14800		875.00000 
 43692.65567		 305.27265			43387.38302		70.12600		324.00000 
 43692.65567		 951.14271			42741.51297		226.54800		875.00000 
 43692.65567		 305.27265			43387.38302		70.12600		324.00000 
 43692.65567		 951.14271			42741.51297		226.54800		875.00000 
 43692.65567		 305.27265			43387.38302		70.12600		324.00000 
 43692.65567		 951.14271			42741.51297		226.54800		875.00000 
 43692.65567		 305.27265			43387.38302		70.12600		324.00000 
 43692.65567		 951.14271			42741.51297		226.54800		875.00000 
 43692.65567		 305.27265			43387.38302		70.12600		324.00000 
 43692.65567		 951.14271			42741.51297		226.54800		875.00000 
 43692.65567		 305.27265			43387.38302		70.12600		324.00000 
 43692.65567		 951.14271			42741.51297		226.54800		875.00000 
 43692.65567		 305.27265			43387.38302		70.12600		324.00000 
 43692.65567		 951.14271			42741.51297		226.54800		875.00000 
 43692.65567		 305.27265			43387.38302		70.12600		324.00000 
 43692.65567		 951.14271			42741.51297		226.54800		875.00000 
 43692.65567		 305.27265			43387.38302		70.12600		324.00000 
 43692.65567		 951.14271			42741.51297		226.54800		875.00000 
 43692.65567		 305.27265			43387.38302		70.12600		324.00000 
 43692.65567		 951.14271			42741.51297		226.54800		875.00000 
 43692.65567		 305.27265			43387.38302		70.12600		324.00000 
 43692.65567		 951.14271			42741.51297		226.54800		875.00000 
 43692.65567		 305.27265			43387.38302		70.12600		324.00000 
 43692.65567		 951.14271			42741.51297		226.54800		875.00000 
 43692.65567		 305.27265			43387.38302		70.12600		324.00000 
 43692.65567		 951.14271			42741.51297		226.54800		875.00000 
 43692.65567		 305.27265			43387.38302		70.12600		324.00000 
 43692.65567		 951.14271			42741.51297		226.54800		875.00000 
 43692.65567		 305.27265			43387.38302		70.12600		324.00000 
 43692.65567		 951.14271			42741.51297		226.54800		875.00000 
 43692.65567		 305.27265			43387.38302		70.12600		324.00000 
 43692.65567		 951.14271			42741.51297		226.54800		875.00000 
 43692.65567		 305.27265			43387.38302		70.12600		324.00000 
 43692.65567		 951.14271			42741.51297		226.54800		875.00000 
 43692.65567		 305.27265			43387.38302		70.12600		324.00000 
 43692.65567		 951.14271			42741.51297		226.54800		875.00000 
 43692.65567		 305.27265			43387.38302		70.12600		324.00000 
 43692.65567		 951.14271			42741.51297		226.54800		875.00000 
 43692.65567		 305.27265			43387.38302		70.12600		324.00000 
 43692.65567		 951.14271			42741.51297		226.54800		875.00000 
 43692.65567		 305.27265			43387.38302		70.12600		324.00000 
 43692.65567		 951.14271			42741.51297		226.54800		875.00000 
 43692.65567		 305.27265			43387.38302		70.12600		324.00000 
 43692.65567		 951.14271			42741.51297		226.54800		875.00000 
 43692.65567		 305.27265			43387.38302		70.12600		324.00000 
 43692.65567		 951.14271			42741.51297		226.54800		875.00000 
 43692.65567		 305.27265			43387.38302		70.12600		324.00000 
 43692.65567		 951.14271			42741.51297		226.54800		875.00000 
 43692.65567		 305.27265			43387.38302		70.12600		324.00000 
 43692.65567		 951.14271			42741.51297		226.54800		875.00000 
 43692.65567		 305.27265			43387.38302		70.12600		324.00000 
 43692.65567		 951.14271			42741.51297		226.54800		875.00000 
 43692.65567		 305.27265			43387.38302		70.12600		324.00000 
 43692.65567		 951.14271			42741.51297		226.54800		875.00000 
 43692.65567		 305.27265			43387.38302		70.12600		324.00000 
 43692.65567		 951.14271			42741.51297		226.54800		875.00000 
 43692.65567		 305.27265			43387.38302		70.12600		324.00000 
 43692.65567		 951.14271			42741.51297		226.54800		875.00000 
 43692.65567		 305.27265			43387.38302		70.12600		324.00000 
 43692.65567		 951.14271			42741.51297		226.54800		875.00000 
 43692.65567		 305.27265			43387.38302		70.12600		324.00000 
 43692.65567		 951.14271			42741.51297		226.54800		875.00000 
 43692.65567		 305.27265			43387.38302		70.12600		324.00000 
 43692.65567		 951.14271			42741.51297		226.54800		875.00000 
 43692.65567		 305.27265			43387.38302		70.12600		324.00000 
 43692.65567		 951.14271			42741.51297		226.54800		875.00000 
 43692.65567		 305.27265			43387.38302		70.12600		324.00000 
 43692.65567		 951.14271			42741.51297		226.54800		875.00000 
 43692.65567		 305.27265			43387.38302		70.12600		324.00000 
 43692.65567		 951.14271			42741.51297		226.54800		875.00000 
 43692.65567		 305.27265			43387.38302		70.12600		324.00000 
 43692.65567		 951.14271			42741.51297		226.54800		875.00000 
 43692.65567		 305.27265			43387.38302		70.12600		324.00000 
 43692.65567		 951.14271			42741.51297		226.54800		875.00000 
 43692.65567		 305.27265			43387.38302		70.12600		324.00000 
 43692.65567		 951.14271			42741.51297		226.54800		875.00000 
 43692.65567		 305.27265			43387.38302		70.12600		324.00000 
 43692.65567		 951.14271			42741.51297		226.54800		875.00000 
 43692.65567		 305.27265			43387.38302		70.12600		324.00000 
 43692.65567		 951.14271			42741.51297		226.54800		875.00000 
 43692.65567		 305.27265			43387.38302		70.12600		324.00000 
 43692.65567		 951.14271			42741.51297		226.54800		875.00000 
 43692.65567		 305.27265			43387.38302		70.12600		324.00000 
 43692.65567		 951.14271			42741.51297		226.54800		875.00000 
 43692.65567		 305.27265			43387.38302		70.12600		324.00000 
 43692.65567		 951.14271			42741.51297		226.54800		875.00000 
 43692.65567		 305.27265			43387.38302		70.12600		324.00000 
 43692.65567		 951.14271			42741.51297		226.54800		875.00000 
 43692.65567		 305.27265			43387.38302		70.12600		324.00000 
 43692.65567		 951.14271			42741.51297		226.54800		875.00000 
 43692.65567		 305.27265			43387.38302		70.12600		324.00000 
 43692.65567		 951.14271			42741.51297		226.54800		875.00000 
 43692.65567		 305.27265			43387.38302		70.12600		324.00000 
 43692.65567		 951.14271			42741.51297		226.54800		875.00000 
 43692.65567		 305.27265			43387.38302		70.12600		324.00000 
 43692.65567		 951.14271			42741.51297		226.54800		875.00000 
 43692.65567		 305.27265			43387.38302		70.12600		324.00000 
 43692.65567		 951.14271			42741.51297		226.54800		875.00000 
 43692.65567		 305.27265			43387.38302		70.12600		324.00000 
 43692.65567		 951.14271			42741.51297		226.54800		875.00000 
 43692.65567		 305.27265			43387.38302		70.12600		324.00000 
 43692.65567		 951.14271			42741.51297		226.54800		875.00000 
 43692.65567		 305.27265			43387.38302		70.12600		324.00000 
 43692.65567		 951.14271			42741.51297		226.54800		875.00000 
 43692.65567		 305.27265			43387.38302		70.12600		324.00000 
 43692.65567		 951.14271			42741.51297		226.54800		875.00000 
 43692.65567		 305.27265			43387.38302		70.12600		324.00000 
 43692.65567		 951.14271			42741.51297		226.54800		875.00000 
 43692.65567		 305.27265			43387.38302		70.12600		324.00000 
 43692.65567		 951.14271			42741.51297		226.54800		875.00000 
 43692.65567		 305.27265			43387.38302		70.12600		324.00000 
 43692.65567		 951.14271			42741.51297		226.54800		875.00000 
 43692.65567		 305.27265			43387.38302		70.12600		324.00000 
 43692.65567		 951.14271			42741.51297		226.54800		875.00000 
 43692.65567		 305.27265			43387.38302		70.12600		324.00000 
 43692.65567		 951.14271			42741.51297		226.54800		875.00000 
 43692.65567		 305.27265			43387.38302		70.12600		324.00000 
 43692.65567		 951.14271			42741.51297		226.54800		875.00000 
 43692.65567		 305.27265			43387.38302		70.12600		324.00000 
 43692.65567		 951.14271			42741.51297		226.54800		875.00000 
 43692.65567		 305.27265			43387.38302		70.12600		324.00000 
 43692.65567		 951.14271			42741.51297		226.54800		875.00000 
 43692.65567		 305.27265			43387.38302		70.12600		324.00000 
 43692.65567		 951.14271			42741.51297		226.54800		875.00000 
 43692.65567		 305.27265			43387.38302		70.12600		324.00000 
 43692.65567		 951.14271			42741.51297		226.54800		875.00000 
 43692.65567		 305.27265			43387.38302		70.12600		324.00000 
 43692.65567		 951.14271			42741.51297		226.54800		875.00000 
 43692.65567		 305.27265			43387.38302		70.12600		324.00000 
 43692.65567		 951.14271			42741.51297		227.14800		875.00000 
 43692.65567		 305.27265			43387.38302		70.12600		324.00000 
 43692.65567		 951.14271			42741.51297		227.14800		875.00000 
 43692.65567		 305.27265			43387.38302		70.12600		324.00000 
 43692.65567		 951.14271			42741.51297		227.14800		875.00000 
 43692.65567		 305.27265			43387.38302		70.12600		324.00000 
 43692.65567		 951.14271			42741.51297		227.14800		875.00000 
 43692.65567		 305.27265			43387.38302		70.12600		324.00000 
 43692.65567		 951.14271			42741.51297		227.14800		875.00000 
 43692.65567		 305.27265			43387.38302		70.12600		324.00000 
 43692.65567		 951.14271			42741.51297		227.14800		875.00000 
 43692.65567		 305.27265			43387.38302		70.12600		324.00000 
 43692.65567		 951.14271			42741.51297		227.14800		875.00000 
 43692.65567		 305.27265			43387.38302		70.12600		324.00000 
 43692.65567		 951.14271			42741.51297		227.14800		875.00000 
 43692.65567		 305.27265			43387.38302		70.12600		324.00000 
 43692.65567		 951.14271			42741.51297		227.14800		875.00000 
 43692.65567		 305.27265			43387.38302		70.12600		324.00000 
 43692.65567		 951.14271			42741.51297		227.14800		875.00000 
 43692.65567		 305.27265			43387.38302		70.12600		324.00000 
 43692.65567		 951.14271			42741.51297		227.14800		875.00000 
 43692.65567		 305.27265			43387.38302		70.12600		324.00000 
 43692.65567		 951.14271			42741.51297		227.14800		875.00000 
 43692.65567		 305.27265			43387.38302		70.12600		324.00000 
 43692.65567		 951.14271			42741.51297		227.14800		875.00000 
 43692.65567		 305.27265			43387.38302		70.12600		324.00000 
 43692.65567		 951.14271			42741.51297		227.14800		875.00000 
 43692.65567		 305.27265			43387.38302		70.12600		324.00000 
 43692.65567		 951.14271			42741.51297		227.14800		875.00000 
 43692.65567		 305.27265			43387.38302		70.12600		324.00000 
 43692.65567		 951.14271			42741.51297		227.14800		875.00000 
 43692.65567		 305.27265			43387.38302		70.12600		324.00000 
 43692.65567		 951.14271			42741.51297		227.14800		875.00000 
 43692.65567		 305.27265			43387.38302		70.12600		324.00000 
 43692.65567		 951.14271			42741.51297		227.14800		875.00000 
 43692.65567		 305.27265			43387.38302		70.12600		324.00000 
 43692.65567		 951.14271			42741.51297		227.14800		875.00000 
 43692.65567		 305.27265			43387.38302		70.12600		324.00000 
 43692.65567		 951.14271			42741.51297		227.14800		875.00000 
 43692.65567		 305.27265			43387.38302		70.12600		324.00000 
 43692.65567		 951.14271			42741.51297		227.14800		875.00000 
 43692.65567		 305.27265			43387.38302		70.12600		324.00000 
 43692.65567		 951.14271			42741.51297		227.14800		875.00000 
 43692.65567		 305.27265			43387.38302		70.12600		324.00000 
 43692.65567		 951.14271			42741.51297		227.14800		875.00000 
 43692.65567		 305.27265			43387.38302		70.12600		324.00000 
 43692.65567		 951.14271			42741.51297		227.14800		875.00000 
 43692.65567		 305.27265			43387.38302		70.12600		324.00000 
 43692.65567		 951.14271			42741.51297		227.14800		875.00000 
 43692.65567		 305.27265			43387.38302		70.12600		324.00000 
 43692.65567		 951.14271			42741.51297		227.14800		875.00000 
 43692.65567		 305.27265			43387.38302		70.12600		324.00000 
 43692.65567		 951.14271			42741.51297		227.14800		875.00000 
 43692.65567		 305.27265			43387.38302		70.12600		324.00000 
 43692.65567		 951.14271			42741.51297		227.14800		875.00000 
 43692.65567		 305.27265			43387.38302		70.12600		324.00000 
 43692.65567		 951.14271			42741.51297		227.14800		875.00000 
 43692.65567		 305.27265			43387.38302		70.12600		324.00000 
 43692.65567		 951.14271			42741.51297		227.14800		875.00000 
 43692.65567		 305.27265			43387.38302		70.12600		324.00000 
 43692.65567		 951.14271			42741.51297		227.14800		875.00000 
 43692.65567		 305.27265			43387.38302		70.12600		324.00000 
 43692.65567		 951.14271			42741.51297		227.14800		875.00000 
 43692.65567		 305.27265			43387.38302		70.12600		324.00000 
 43692.65567		 951.14271			42741.51297		227.14800		875.00000 
 43692.65567		 305.27265			43387.38302		70.12600		324.00000 
 43692.65567		 951.14271			42741.51297		227.14800		875.00000 
 43692.65567		 305.27265			43387.38302		70.12600		324.00000 
 43692.65567		 951.14271			42741.51297		227.14800		875.00000 
 43692.65567		 305.27265			43387.38302		70.12600		324.00000 
 43692.65567		 951.14271			42741.51297		227.14800		875.00000 
 43692.65567		 305.27265			43387.38302		70.12600		324.00000 
 43692.65567		 951.14271			42741.51297		227.14800		875.00000 
 43692.65567		 305.27265			43387.38302		70.12600		324.00000 
 43692.65567		 951.14271			42741.51297		227.14800		875.00000 
 43692.65567		 305.27265			43387.38302		70.12600		324.00000 
 43692.65567		 951.14271			42741.51297		227.14800		875.00000 
 43692.65567		 305.27265			43387.38302		70.12600		324.00000 
 43692.65567		 951.14271			42741.51297		227.14800		875.00000 
 43692.65567		 305.27265			43387.38302		70.12600		324.00000 
 43692.65567		 951.14271			42741.51297		227.14800		875.00000 
 43692.65567		 305.27265			43387.38302		70.12600		324.00000 
 43692.65567		 951.14271			42741.51297		227.14800		875.00000 
 43692.65567		 305.27265			43387.38302		70.12600		324.00000 
 43692.65567		 951.14271			42741.51297		227.14800		875.00000 
 43692.65567		 305.27265			43387.38302		70.12600		324.00000 
 43692.65567		 951.14271			42741.51297		227.14800		875.00000 
 43692.65567		 305.27265			43387.38302		70.12600		324.00000 
 43692.65567		 951.14271			42741.51297		227.14800		875.00000 
 43692.65567		 305.27265			43387.38302		70.12600		324.00000 
 43692.65567		 951.14271			42741.51297		227.14800		875.00000 
 43692.65567		 305.27265			43387.38302		70.12600		324.00000 
 43692.65567		 951.14271			42741.51297		227.14800		875.00000 
 43692.65567		 305.27265			43387.38302		70.12600		324.00000 
 43692.65567		 951.14271			42741.51297		227.14800		875.00000 
 43692.65567		 305.27265			43387.38302		70.12600		324.00000 
 43692.65567		 951.14271			42741.51297		227.14800		875.00000 
 43692.65567		 305.27265			43387.38302		70.12600		324.00000 
 43692.65567		 951.14271			42741.51297		227.14800		875.00000 
 43692.65567		 305.27265			43387.38302		70.12600		324.00000 
 43692.65567		 951.14271			42741.51297		227.14800		875.00000 
 43692.65567		 305.27265			43387.38302		70.12600		324.00000 
 43692.65567		 951.14271			42741.51297		227.14800		875.00000 
 43692.65567		 305.27265			43387.38302		70.12600		324.00000 
 43692.65567		 951.14271			42741.51297		227.14800		875.00000 
 43692.65567		 305.27265			43387.38302		70.12600		324.00000 
 43692.65567		 951.14271			42741.51297		227.14800		875.00000 
 43692.65567		 305.27265			43387.38302		70.12600		324.00000 
 43692.65567		 951.14271			42741.51297		227.14800		875.00000 
 43692.65567		 305.27265			43387.38302		70.12600		324.00000 
 43692.65567		 951.14271			42741.51297		227.14800		875.00000 
 43692.65567		 305.27265			43387.38302		70.12600		324.00000 
 43692.65567		 951.14271			42741.51297		227.14800		875.00000 
 43692.65567		 305.27265			43387.38302		70.12600		324.00000 
 43692.65567		 951.14271			42741.51297		227.14800		875.00000 
 43692.65567		 305.27265			43387.38302		70.12600		324.00000 
 43692.65567		 951.14271			42741.51297		227.14800		875.00000 
 43692.65567		 305.27265			43387.38302		70.12600		324.00000 
 43692.65567		 951.14271			42741.51297		227.14800		875.00000 
 43692.65567		 305.27265			43387.38302		70.12600		324.00000 
 43692.65567		 951.14271			42741.51297		227.14800		875.00000 
 43692.65567		 305.27265			43387.38302		70.12600		324.00000 
 43692.65567		 951.14271			42741.51297		227.14800		875.00000 
 43692.65567		 305.27265			43387.38302		70.12600		324.00000 
 43692.65567		 951.14271			42741.51297		227.14800		875.00000 
 43692.65567		 305.27265			43387.38302		70.12600		324.00000 
 43692.65567		 951.14271			42741.51297		227.14800		875.00000 
 43692.65567		 305.27265			43387.38302		70.12600		324.00000 
 43692.65567		 951.14271			42741.51297		227.14800		875.00000 
 43692.65567		 305.27265			43387.38302		70.12600		324.00000 
 43692.65567		 951.14271			42741.51297		227.14800		875.00000 
 43692.65567		 305.27265			43387.38302		70.12600		324.00000 
 43692.65567		 951.14271			42741.51297		227.14800		875.00000 
 43692.65567		 305.27265			43387.38302		70.12600		324.00000 
 43692.65567		 951.14271			42741.51297		227.14800		875.00000 
 43692.65567		 305.27265			43387.38302		70.12600		324.00000 
 43692.65567		 951.14271			42741.51297		227.14800		875.00000 
 43692.65567		 305.27265			43387.38302		70.12600		324.00000 
 43692.65567		 951.14271			42741.51297		227.14800		875.00000 
 43692.65567		 305.27265			43387.38302		70.12600		324.00000 
 43692.65567		 951.14271			42741.51297		227.14800		875.00000 
 43692.65567		 305.27265			43387.38302		70.12600		324.00000 
 43692.65567		 951.14271			42741.51297		227.14800		875.00000 
 43692.65567		 305.27265			43387.38302		70.12600		324.00000 
 43692.65567		 951.14271			42741.51297		227.14800		875.00000 
 43692.65567		 305.27265			43387.38302		70.12600		324.00000 
 43692.65567		 951.14271			42741.51297		227.14800		875.00000 
 43692.65567		 305.27265			43387.38302		70.12600		324.00000 
 43692.65567		 951.14271			42741.51297		227.14800		875.00000 
 43692.65567		 305.27265			43387.38302		70.12600		324.00000 
 43692.65567		 951.14271			42741.51297		227.14800		875.00000 
 43692.65567		 305.27265			43387.38302		70.12600		324.00000 
 43692.65567		 951.14271			42741.51297		227.14800		875.00000 
 43692.65567		 305.27265			43387.38302		70.12600		324.00000 
 43692.65567		 951.14271			42741.51297		227.14800		875.00000 
 43692.65567		 305.27265			43387.38302		70.12600		324.00000 
 43692.65567		 951.14271			42741.51297		227.14800		875.00000 
 43692.65567		 305.27265			43387.38302		70.12600		324.00000 
 43692.65567		 951.14271			42741.51297		227.14800		875.00000 
 43692.65567		 305.27265			43387.38302		70.12600		324.00000 
 43692.65567		 951.14271			42741.51297		227.14800		875.00000 
 43692.65567		 305.27265			43387.38302		70.12600		324.00000 
 43692.65567		 951.14271			42741.51297		227.14800		875.00000 
 43692.65567		 305.27265			43387.38302		70.12600		324.00000 
 43692.65567		 951.14271			42741.51297		227.14800		875.00000 
 43692.65567		 305.27265			43387.38302		70.12600		324.00000 
 43692.65567		 951.14271			42741.51297		227.14800		875.00000 
 43692.65567		 305.27265			43387.38302		70.12600		324.00000 
 43692.65567		 951.14271			42741.51297		227.14800		875.00000 
 43692.65567		 305.27265			43387.38302		70.12600		324.00000 
 43692.65567		 951.14271			42741.51297		227.14800		875.00000 
 43692.65567		 305.27265			43387.38302		70.12600		324.00000 
 43692.65567		 951.14271			42741.51297		227.14800		875.00000 
 43692.65567		 305.27265			43387.38302		70.12600		324.00000 
 43692.65567		 951.14271			42741.51297		227.14800		875.00000 
 43692.65567		 305.27265			43387.38302		70.12600		324.00000 
 43692.65567		 951.14271			42741.51297		227.14800		875.00000 
 43692.65567		 305.27265			43387.38302		70.12600		324.00000 
 43692.65567		 951.14271			42741.51297		227.14800		875.00000 
 43692.65567		 305.27265			43387.38302		70.12600		324.00000 
 43692.65567		 951.14271			42741.51297		227.14800		875.00000 
 43692.65567		 305.27265			43387.38302		70.12600		324.00000 
 43692.65567		 951.14271			42741.51297		227.14800		875.00000 
 43692.65567		 305.27265			43387.38302		70.12600		324.00000 
 43692.65567		 951.14271			42741.51297		227.14800		875.00000 
 43692.65567		 305.27265			43387.38302		70.12600		324.00000 
 43692.65567		 951.14271			42741.51297		227.14800		875.00000 
 43692.65567		 305.27265			43387.38302		70.12600		324.00000 
 43692.65567		 951.14271			42741.51297		227.14800		875.00000 
 43692.65567		 305.27265			43387.38302		70.12600		324.00000 
 43692.65567		 951.14271			42741.51297		227.14800		875.00000 
 43692.65567		 305.27265			43387.38302		70.12600		324.00000 
 43692.65567		 951.14271			42741.51297		227.14800		875.00000 
 43692.65567		 305.27265			43387.38302		70.12600		324.00000 
 43692.65567		 951.14271			42741.51297		227.14800		875.00000 
 43692.65567		 305.27265			43387.38302		70.12600		324.00000 
 43692.65567		 951.14271			42741.51297		227.14800		875.00000 
 43692.65567		 305.27265			43387.38302		70.12600		324.00000 
 43692.65567		 951.14271			42741.51297		227.14800		875.00000 
 43692.65567		 305.27265			43387.38302		70.12600		324.00000 
 43692.65567		 951.14271			42741.51297		227.14800		875.00000 
 43692.65567		 305.27265			43387.38302		70.12600		324.00000 
 43692.65567		 951.14271			42741.51297		227.14800		875.00000 
 43692.65567		 305.27265			43387.38302		70.12600		324.00000 
 43692.65567		 951.14271			42741.51297		227.14800		875.00000 
 43692.65567		 305.27265			43387.38302		70.12600		324.00000 
 43692.65567		 951.14271			42741.51297		227.14800		875.00000 
 43692.65567		 305.27265			43387.38302		70.12600		324.00000 
 43692.65567		 951.14271			42741.51297		227.14800		875.00000 
 43692.65567		 305.27265			43387.38302		70.12600		324.00000 
 43692.65567		 951.14271			42741.51297		227.14800		875.00000 
 43692.65567		 305.27265			43387.38302		70.12600		324.00000 
 43692.65567		 951.14271			42741.51297		227.14800		875.00000 
 43692.65567		 305.27265			43387.38302		70.12600		324.00000 
 43692.65567		 951.14271			42741.51297		227.14800		875.00000 
 43692.65567		 305.27265			43387.38302		70.12600		324.00000 
 43692.65567		 951.14271			42741.51297		227.14800		875.00000 
 43692.65567		 305.27265			43387.38302		70.12600		324.00000 
 43692.65567		 951.14271			42741.51297		227.14800		875.00000 
 43692.65567		 305.27265			43387.38302		70.12600		324.00000 
 43692.65567		 951.14271			42741.51297		227.14800		875.00000 
 43692.65567		 305.27265			43387.38302		70.12600		324.00000 
 43692.65567		 951.14271			42741.51297		227.14800		875.00000 
 43692.65567		 305.27265			43387.38302		70.12600		324.00000 
 43692.65567		 951.14271			42741.51297		227.14800		875.00000 
 43692.65567		 305.27265			43387.38302		70.12600		324.00000 
 43692.65567		 951.14271			42741.51297		227.14800		875.00000 
 43692.65567		 305.27265			43387.38302		70.12600		324.00000 
 43692.65567		 951.14271			42741.51297		227.14800		875.00000 
 43692.65567		 305.27265			43387.38302		70.12600		324.00000 
 43692.65567		 951.14271			42741.51297		227.14800		875.00000 
 43692.65567		 305.27265			43387.38302		70.12600		324.00000 
 43692.65567		 951.14271			42741.51297		227.14800		875.00000 
 43692.65567		 305.27265			43387.38302		70.12600		324.00000 
 43692.65567		 951.14271			42741.51297		227.14800		875.00000 
 43692.65567		 305.27265			43387.38302		70.12600		324.00000 
 43692.65567		 951.14271			42741.51297		227.14800		875.00000 
 43692.65567		 305.27265			43387.38302		70.12600		324.00000 
 43692.65567		 951.14271			42741.51297		227.14800		875.00000 
 43692.65567		 305.27265			43387.38302		70.12600		324.00000 
 43692.65567		 951.14271			42741.51297		227.14800		875.00000 
 43692.65567		 305.27265			43387.38302		70.12600		324.00000 
 43692.65567		 951.14271			42741.51297		227.14800		875.00000 
 43692.65567		 305.27265			43387.38302		70.12600		324.00000 
 43692.65567		 951.14271			42741.51297		227.14800		875.00000 
 43692.65567		 305.27265			43387.38302		70.12600		324.00000 
 43692.65567		 951.14271			42741.51297		227.14800		875.00000 
 43692.65567		 305.27265			43387.38302		70.12600		324.00000 
 43692.65567		 951.14271			42741.51297		227.14800		875.00000 
 43692.65567		 305.27265			43387.38302		70.12600		324.00000 
 43692.65567		 951.14271			42741.51297		227.14800		875.00000 
 43692.65567		 305.27265			43387.38302		70.12600		324.00000 
 43692.65567		 951.14271			42741.51297		227.14800		875.00000 
 43692.65567		 305.27265			43387.38302		70.12600		324.00000 
 43692.65567		 951.14271			42741.51297		227.14800		875.00000 
 43692.65567		 305.27265			43387.38302		70.12600		324.00000 
 43692.65567		 951.14271			42741.51297		227.14800		875.00000 
 43692.65567		 305.27265			43387.38302		70.12600		324.00000 
 43692.65567		 951.14271			42741.51297		227.14800		875.00000 
 43692.65567		 305.27265			43387.38302		70.12600		324.00000 
 43692.65567		 951.14271			42741.51297		227.14800		875.00000 
 43692.65567		 305.27265			43387.38302		70.12600		324.00000 
 43692.65567		 951.14271			42741.51297		227.14800		875.00000 
 43692.65567		 305.27265			43387.38302		70.12600		324.00000 
 43692.65567		 951.14271			42741.51297		227.14800		875.00000 
 43692.65567		 305.27265			43387.38302		70.12600		324.00000 
 43692.65567		 951.14271			42741.51297		227.14800		875.00000 
 43692.65567		 305.27265			43387.38302		70.12600		324.00000 
 43692.65567		 951.14271			42741.51297		227.14800		875.00000 
 43692.65567		 305.27265			43387.38302		70.12600		324.00000 
 43692.65567		 951.14271			42741.51297		227.14800		875.00000 
 43692.65567		 305.27265			43387.38302		70.12600		324.00000 
 43692.65567		 951.14271			42741.51297		227.14800		875.00000 
 43692.65567		 305.27265			43387.38302		70.12600		324.00000 
 43692.65567		 951.14271			42741.51297		227.14800		875.00000 
 43692.65567		 305.27265			43387.38302		70.12600		324.00000 
 43692.65567		 951.14271			42741.51297		227.14800		875.00000 
 43692.65567		 305.27265			43387.38302		70.12600		324.00000 
 43692.65567		 951.14271			42741.51297		227.14800		875.00000 
 43692.65567		 305.27265			43387.38302		70.12600		324.00000 
 43692.65567		 951.14271			42741.51297		227.14800		875.00000 
 43692.65567		 305.27265			43387.38302		70.12600		324.00000 
 43692.65567		 951.14271			42741.51297		227.14800		875.00000 
 43692.65567		 305.27265			43387.38302		70.12600		324.00000 
 43692.65567		 951.14271			42741.51297		227.14800		875.00000 
 43692.65567		 305.27265			43387.38302		70.12600		324.00000 
 43692.65567		 951.14271			42741.51297		227.14800		875.00000 
 43692.65567		 305.27265			43387.38302		70.12600		324.00000 
 43692.65567		 951.14271			42741.51297		227.14800		875.00000 
 43692.65567		 305.27265			43387.38302		70.12600		324.00000 
 43692.65567		 951.14271			42741.51297		227.14800		875.00000 
 43692.65567		 305.27265			43387.38302		70.12600		324.00000 
 43692.65567		 951.14271			42741.51297		227.14800		875.00000 
 43692.65567		 305.27265			43387.38302		70.12600		324.00000 
 43692.65567		 951.14271			42741.51297		227.14800		875.00000 
 43692.65567		 305.27265			43387.38302		70.12600		324.00000 
 43692.65567		 951.14271			42741.51297		227.14800		875.00000 
 43692.65567		 305.27265			43387.38302		70.12600		324.00000 
 43692.65567		 951.14271			42741.51297		227.14800		875.00000 
 43692.65567		 305.27265			43387.38302		70.12600		324.00000 
 43692.65567		 951.14271			42741.51297		227.14800		875.00000 
 43692.65567		 305.27265			43387.38302		70.12600		324.00000 
 43692.65567		 951.14271			42741.51297		227.14800		875.00000 
 43692.65567		 305.27265			43387.38302		70.12600		324.00000 
 43692.65567		 951.14271			42741.51297		227.14800		875.00000 
 43692.65567		 305.27265			43387.38302		70.12600		324.00000 
 43692.65567		 951.14271			42741.51297		227.14800		875.00000 
 43692.65567		 305.27265			43387.38302		70.12600		324.00000 
 43692.65567		 951.14271			42741.51297		227.14800		875.00000 
 43692.65567		 305.27265			43387.38302		70.12600		324.00000 
 43692.65567		 951.14271			42741.51297		227.14800		875.00000 
 43692.65567		 305.27265			43387.38302		70.12600		324.00000 
 43692.65567		 951.14271			42741.51297		227.14800		875.00000 
 43692.65567		 305.27265			43387.38302		70.12600		324.00000 
 43692.65567		 951.14271			42741.51297		227.14800		875.00000 
 43692.65567		 305.27265			43387.38302		70.12600		324.00000 
 43692.65567		 951.14271			42741.51297		227.14800		875.00000 
 43692.65567		 305.27265			43387.38302		70.12600		324.00000 
 43692.65567		 951.14271			42741.51297		227.14800		875.00000 
 43692.65567		 305.27265			43387.38302		70.12600		324.00000 
 43692.65567		 951.14271			42741.51297		227.14800		875.00000 
 43692.65567		 305.27265			43387.38302		70.12600		324.00000 
 43692.65567		 951.14271			42741.51297		227.14800		875.00000 
 43692.65567		 305.27265			43387.38302		70.12600		324.00000 
 43692.65567		 951.14271			42741.51297		227.14800		875.00000 
 43692.65567		 305.27265			43387.38302		70.12600		324.00000 
 43692.65567		 951.14271			42741.51297		227.14800		875.00000 
 43692.65567		 305.27265			43387.38302		70.12600		324.00000 
 43692.65567		 951.14271			42741.51297		227.14800		875.00000 
 43692.65567		 305.27265			43387.38302		70.12600		324.00000 
 43692.65567		 951.14271			42741.51297		227.14800		875.00000 
 43692.65567		 305.27265			43387.38302		70.12600		324.00000 
 43692.65567		 951.14271			42741.51297		227.14800		875.00000 
 43692.65567		 305.27265			43387.38302		70.12600		324.00000 
 43692.65567		 951.14271			42741.51297		227.14800		875.00000 
 43692.65567		 305.27265			43387.38302		70.12600		324.00000 
 43692.65567		 951.14271			42741.51297		227.14800		875.00000 
 43692.65567		 305.27265			43387.38302		70.12600		324.00000 
 43692.65567		 951.14271			42741.51297		227.14800		875.00000 
 43692.65567		 305.27265			43387.38302		70.12600		324.00000 
 43692.65567		 951.14271			42741.51297		227.14800		875.00000 
 43692.65567		 305.27265			43387.38302		70.12600		324.00000 
 43692.65567		 951.14271			42741.51297		227.14800		875.00000 
 43692.65567		 305.27265			43387.38302		70.12600		324.00000 
 43692.65567		 951.14271			42741.51297		227.14800		875.00000 
 43692.65567		 305.27265			43387.38302		70.12600		324.00000 
 43692.65567		 951.14271			42741.51297		227.14800		875.00000 
 43692.65567		 305.27265			43387.38302		70.12600		324.00000 
 43692.65567		 951.14271			42741.51297		227.14800		875.00000 
 43692.65567		 305.27265			43387.38302		70.12600		324.00000 
 43692.65567		 951.14271			42741.51297		227.14800		875.00000 
 43692.65567		 305.27265			43387.38302		70.12600		324.00000 
 43692.65567		 951.14271			42741.51297		227.14800		875.00000 
 43692.65567		 305.27265			43387.38302		70.12600		324.00000 
 43692.65567		 951.14271			42741.51297		227.14800		875.00000 
 43692.65567		 305.27265			43387.38302		70.12600		324.00000 
 43692.65567		 951.14271			42741.51297		227.14800		875.00000 
 43692.65567		 305.27265			43387.38302		70.12600		324.00000 
 43692.65567		 951.14271			42741.51297		227.14800		875.00000 
 43692.65567		 305.27265			43387.38302		70.12600		324.00000 
 43692.65567		 951.14271			42741.51297		227.14800		875.00000 
 43692.65567		 305.27265			43387.38302		70.12600		324.00000 
 43692.65567		 951.14271			42741.51297		227.14800		875.00000 
 43692.65567		 305.27265			43387.38302		70.12600		324.00000 
 43692.65567		 951.14271			42741.51297		227.14800		875.00000 
 43692.65567		 305.27265			43387.38302		70.12600		324.00000 
 43692.65567		 951.14271			42741.51297		227.14800		875.00000 
 43692.65567		 305.27265			43387.38302		70.12600		324.00000 
 43692.65567		 951.14271			42741.51297		227.14800		875.00000 
 43692.65567		 305.27265			43387.38302		70.12600		324.00000 
 43692.65567		 951.14271			42741.51297		227.14800		875.00000 
 43692.65567		 305.27265			43387.38302		70.12600		324.00000 
 43692.65567		 951.14271			42741.51297		227.14800		875.00000 
 43692.65567		 305.27265			43387.38302		70.12600		324.00000 
 43692.65567		 951.14271			42741.51297		227.14800		875.00000 
 43692.65567		 305.27265			43387.38302		70.12600		324.00000 
 43692.65567		 951.14271			42741.51297		227.14800		875.00000 
 43692.65567		 305.27265			43387.38302		70.12600		324.00000 
 43692.65567		 951.14271			42741.51297		227.14800		875.00000 
 43692.65567		 305.27265			43387.38302		70.12600		324.00000 
 43692.65567		 951.14271			42741.51297		227.14800		875.00000 
 43692.65567		 305.27265			43387.38302		70.12600		324.00000 
 43692.65567		 951.14271			42741.51297		227.14800		875.00000 
 43692.65567		 305.27265			43387.38302		70.12600		324.00000 
 43692.65567		 951.14271			42741.51297		227.14800		875.00000 
 43692.65567		 305.27265			43387.38302		70.12600		324.00000 
 43692.65567		 951.14271			42741.51297		227.14800		875.00000 
 43692.65567		 305.27265			43387.38302		70.12600		324.00000 
 43692.65567		 951.14271			42741.51297		227.14800		875.00000 
 43692.65567		 305.27265			43387.38302		70.12600		324.00000 
 43692.65567		 951.14271			42741.51297		227.14800		875.00000 
 43692.65567		 305.27265			43387.38302		70.12600		324.00000 
 43692.65567		 951.14271			42741.51297		227.14800		875.00000 
 43692.65567		 305.27265			43387.38302		70.12600		324.00000 
 43692.65567		 951.14271			42741.51297		227.14800		875.00000 
 43692.65567		 305.27265			43387.38302		70.12600		324.00000 
 43692.65567		 951.14271			42741.51297		227.14800		875.00000 
 43692.65567		 305.27265			43387.38302		70.12600		324.00000 
 43692.65567		 951.14271			42741.51297		227.14800		875.00000 
 43692.65567		 305.27265			43387.38302		70.12600		324.00000 
 43692.65567		 951.14271			42741.51297		227.14800		875.00000 
 43692.65567		 305.27265			43387.38302		70.12600		324.00000 
 43692.65567		 951.14271			42741.51297		227.14800		875.00000 
 43692.65567		 305.27265			43387.38302		70.12600		324.00000 
 43692.65567		 951.14271			42741.51297		227.14800		875.00000 
 43692.65567		 305.27265			43387.38302		70.12600		324.00000 
 43692.65567		 951.14271			42741.51297		227.14800		875.00000 
 43692.65567		 305.27265			43387.38302		70.12600		324.00000 
 43692.65567		 951.14271			42741.51297		227.14800		875.00000 
 43692.65567		 305.27265			43387.38302		70.12600		324.00000 
 43692.65567		 951.14271			42741.51297		227.14800		875.00000 
 43692.65567		 305.27265			43387.38302		70.12600		324.00000 
 43692.65567		 951.14271			42741.51297		227.14800		875.00000 
 43692.65567		 305.27265			43387.38302		70.12600		324.00000 
 43692.65567		 951.14271			42741.51297		227.14800		875.00000 
 43692.65567		 305.27265			43387.38302		70.12600		324.00000 
 43692.65567		 951.14271			42741.51297		227.14800		875.00000 
 43692.65567		 305.27265			43387.38302		70.12600		324.00000 
 43692.65567		 951.14271			42741.51297		227.14800		875.00000 
 43692.65567		 305.27265			43387.38302		70.12600		324.00000 
 43692.65567		 951.14271			42741.51297		227.14800		875.00000 
 43692.65567		 305.27265			43387.38302		70.12600		324.00000 
 43692.65567		 951.14271			42741.51297		227.14800		875.00000 
 43692.65567		 305.27265			43387.38302		70.12600		324.00000 
 43692.65567		 813.18525			42879.47043		227.14800		875.00000 
 43692.65567		 305.27265			43387.38302		70.12600		324.00000 
 43692.65567		 813.18525			42879.47043		227.14800		875.00000 
 43692.65567		 305.27265			43387.38302		70.12600		324.00000 
 43692.65567		 675.22778			43017.42789		227.14800		875.00000 
 43692.65567		 305.27265			43387.38302		70.12600		324.00000 
 43692.65567		 675.22778			43017.42789		227.14800		875.00000 
 43692.65567		 305.27265			43387.38302		70.12600		324.00000 
 43692.65567		 537.27032			43155.38535		227.14800		875.00000 
 43692.65567		 305.27265			43387.38302		70.12600		324.00000 
 43692.65567		 537.27032			43155.38535		227.14800		875.00000 
 43692.65567		 305.27265			43387.38302		70.12600		324.00000 
 43692.65567		 537.27032			43155.38535		227.14800		875.00000 
 43692.65567		 305.27265			43387.38302		70.12600		324.00000 
 43692.65567		 537.27032			43155.38535		227.14800		875.00000 
 43692.65567		 305.27265			43387.38302		70.12600		324.00000 
 43692.65567		 537.27032			43155.38535		227.14800		875.00000 
 43692.65567		 305.27265			43387.38302		70.12600		324.00000 
 43692.65567		 537.27032			43155.38535		227.14800		875.00000 
 43692.65567		 305.27265			43387.38302		70.12600		324.00000 
 43692.65567		 537.27032			43155.38535		227.14800		875.00000 
 43692.65567		 305.27265			43387.38302		70.12600		324.00000 
 43692.65567		 537.27032			43155.38535		227.14800		875.00000 
 43692.65567		 305.27265			43387.38302		70.12600		324.00000 
 43692.65567		 537.27032			43155.38535		227.14800		875.00000 
 43692.65567		 305.27265			43387.38302		70.12600		324.00000 
 43692.65567		 537.27032			43155.38535		227.14800		875.00000 
 43692.65567		 305.27265			43387.38302		70.12600		324.00000 
 43692.65567		 537.27032			43155.38535		227.14800		875.00000 
 43692.65567		 305.27265			43387.38302		70.12600		324.00000 
 43692.65567		 537.27032			43155.38535		227.14800		875.00000 
 43692.65567		 305.27265			43387.38302		70.12600		324.00000 
 43692.65567		 537.27032			43155.38535		227.14800		875.00000 
 43692.65567		 305.27265			43387.38302		70.12600		324.00000 
 43692.65567		 537.27032			43155.38535		227.14800		875.00000 
 43692.65567		 305.27265			43387.38302		70.12600		324.00000 
 43692.65567		 537.27032			43155.38535		227.14800		875.00000 
 43692.65567		 305.27265			43387.38302		70.12600		324.00000 
 43692.65567		 537.27032			43155.38535		227.14800		875.00000 
 43692.65567		 305.27265			43387.38302		70.12600		324.00000 
 43692.65567		 537.27032			43155.38535		227.14800		875.00000 
 43692.65567		 305.27265			43387.38302		70.12600		324.00000 
 43692.65567		 537.27032			43155.38535		227.14800		875.00000 
 43692.65567		 305.27265			43387.38302		70.12600		324.00000 
 43692.65567		 529.63254			43163.02313		227.14800		875.00000 
 43692.65567		 305.27265			43387.38302		70.12600		324.00000 
 43692.65567		 525.81365			43166.84203		227.14800		875.00000 
 43692.65567		 293.81598			43398.83969		70.12600		324.00000 
 43692.65567		 261.35540			43431.30027		183.03800		875.00000 
 43692.65567		 261.35540			43431.30027		70.12600		324.00000 
