Memory Total (MiB) 	 Memory Used (MiB) 	    Memory Free (MiB) 	 Power Drawed (W) 	 Clocks (Mhz) 	 
 43692.65567		 261.35540			43431.30027		195.39000		875.00000 
 43692.65567		 261.35540			43431.30027		69.19600		324.00000 
 43692.65567		 261.35540			43431.30027		195.39000		875.00000 
 43692.65567		 261.35540			43431.30027		69.19600		324.00000 
 43692.65567		 261.35540			43431.30027		195.39000		875.00000 
 43692.65567		 261.35540			43431.30027		69.19600		324.00000 
 43692.65567		 261.35540			43431.30027		195.39000		875.00000 
 43692.65567		 261.35540			43431.30027		69.19600		324.00000 
 43692.65567		 261.35540			43431.30027		195.39000		875.00000 
 43692.65567		 261.35540			43431.30027		69.19600		324.00000 
 43692.65567		 261.35540			43431.30027		195.39000		875.00000 
 43692.65567		 261.35540			43431.30027		69.19600		324.00000 
 43692.65567		 261.35540			43431.30027		195.39000		875.00000 
 43692.65567		 261.35540			43431.30027		69.19600		324.00000 
 43692.65567		 261.35540			43431.30027		195.39000		875.00000 
 43692.65567		 261.35540			43431.30027		69.19600		324.00000 
 43692.65567		 261.35540			43431.30027		195.39000		875.00000 
 43692.65567		 261.35540			43431.30027		69.19600		324.00000 
 43692.65567		 261.35540			43431.30027		195.39000		875.00000 
 43692.65567		 261.35540			43431.30027		69.19600		324.00000 
 43692.65567		 261.35540			43431.30027		195.39000		875.00000 
 43692.65567		 261.35540			43431.30027		69.19600		324.00000 
 43692.65567		 261.35540			43431.30027		195.39000		875.00000 
 43692.65567		 261.35540			43431.30027		69.19600		324.00000 
 43692.65567		 261.35540			43431.30027		195.39000		875.00000 
 43692.65567		 261.35540			43431.30027		69.19600		324.00000 
 43692.65567		 261.35540			43431.30027		195.39000		875.00000 
 43692.65567		 261.35540			43431.30027		69.19600		324.00000 
 43692.65567		 261.35540			43431.30027		195.39000		875.00000 
 43692.65567		 261.35540			43431.30027		69.19600		324.00000 
 43692.65567		 261.35540			43431.30027		195.39000		875.00000 
 43692.65567		 261.35540			43431.30027		69.19600		324.00000 
 43692.65567		 261.35540			43431.30027		195.39000		875.00000 
 43692.65567		 261.35540			43431.30027		69.19600		324.00000 
 43692.65567		 261.35540			43431.30027		195.39000		875.00000 
 43692.65567		 261.35540			43431.30027		69.19600		324.00000 
 43692.65567		 261.35540			43431.30027		195.39000		875.00000 
 43692.65567		 261.35540			43431.30027		69.19600		324.00000 
 43692.65567		 265.17429			43427.48138		156.24600		875.00000 
 43692.65567		 261.35540			43431.30027		69.19600		324.00000 
 43692.65567		 272.81207			43419.84360		156.24600		875.00000 
 43692.65567		 261.35540			43431.30027		69.19600		324.00000 
 43692.65567		 272.81207			43419.84360		156.24600		875.00000 
 43692.65567		 261.35540			43431.30027		69.19600		324.00000 
 43692.65567		 272.81207			43419.84360		156.24600		875.00000 
 43692.65567		 265.17429			43427.48138		69.19600		324.00000 
 43692.65567		 272.81207			43419.84360		156.24600		875.00000 
 43692.65567		 265.17429			43427.48138		69.19600		324.00000 
 43692.65567		 272.81207			43419.84360		156.24600		875.00000 
 43692.65567		 265.17429			43427.48138		69.19600		324.00000 
 43692.65567		 272.81207			43419.84360		156.24600		875.00000 
 43692.65567		 272.81207			43419.84360		69.19600		324.00000 
 43692.65567		 272.81207			43419.84360		156.24600		875.00000 
 43692.65567		 272.81207			43419.84360		69.19600		324.00000 
 43692.65567		 272.81207			43419.84360		156.24600		875.00000 
 43692.65567		 272.81207			43419.84360		69.19600		324.00000 
 43692.65567		 305.27265			43387.38302		156.24600		875.00000 
 43692.65567		 305.27265			43387.38302		69.19600		324.00000 
 43692.65567		 305.27265			43387.38302		156.24600		875.00000 
 43692.65567		 305.27265			43387.38302		69.19600		324.00000 
 43692.65567		 305.27265			43387.38302		156.24600		875.00000 
 43692.65567		 305.27265			43387.38302		69.19600		324.00000 
 43692.65567		 305.27265			43387.38302		156.24600		875.00000 
 43692.65567		 305.27265			43387.38302		69.19600		324.00000 
 43692.65567		 305.27265			43387.38302		156.24600		875.00000 
 43692.65567		 305.27265			43387.38302		69.19600		324.00000 
 43692.65567		 309.56891			43383.08677		156.24600		875.00000 
 43692.65567		 305.27265			43387.38302		69.19600		324.00000 
 43692.65567		 311.00099			43381.65468		156.24600		875.00000 
 43692.65567		 305.27265			43387.38302		69.19600		324.00000 
 43692.65567		 311.00099			43381.65468		156.24600		875.00000 
 43692.65567		 305.27265			43387.38302		69.19600		324.00000 
 43692.65567		 311.00099			43381.65468		156.24600		875.00000 
 43692.65567		 305.27265			43387.38302		69.19600		324.00000 
 43692.65567		 311.00099			43381.65468		156.24600		875.00000 
 43692.65567		 305.27265			43387.38302		69.19600		324.00000 
 43692.65567		 311.00099			43381.65468		156.24600		875.00000 
 43692.65567		 305.27265			43387.38302		69.19600		324.00000 
 43692.65567		 311.00099			43381.65468		156.24600		875.00000 
 43692.65567		 305.27265			43387.38302		69.19600		324.00000 
 43692.65567		 311.00099			43381.65468		156.24600		875.00000 
 43692.65567		 305.27265			43387.38302		69.19600		324.00000 
 43692.65567		 311.00099			43381.65468		156.24600		875.00000 
 43692.65567		 305.27265			43387.38302		69.19600		324.00000 
 43692.65567		 311.00099			43381.65468		156.24600		875.00000 
 43692.65567		 305.27265			43387.38302		69.19600		324.00000 
 43692.65567		 311.00099			43381.65468		156.24600		875.00000 
 43692.65567		 305.27265			43387.38302		69.19600		324.00000 
 43692.65567		 311.00099			43381.65468		156.24600		875.00000 
 43692.65567		 305.27265			43387.38302		69.19600		324.00000 
 43692.65567		 311.00099			43381.65468		156.24600		875.00000 
 43692.65567		 305.27265			43387.38302		69.19600		324.00000 
 43692.65567		 311.00099			43381.65468		156.24600		875.00000 
 43692.65567		 305.27265			43387.38302		69.19600		324.00000 
 43692.65567		 311.00099			43381.65468		156.24600		875.00000 
 43692.65567		 305.27265			43387.38302		69.19600		324.00000 
 43692.65567		 311.00099			43381.65468		156.24600		875.00000 
 43692.65567		 305.27265			43387.38302		69.19600		324.00000 
 43692.65567		 311.00099			43381.65468		156.24600		875.00000 
 43692.65567		 305.27265			43387.38302		69.19600		324.00000 
 43692.65567		 311.00099			43381.65468		140.43600		875.00000 
 43692.65567		 305.27265			43387.38302		69.19600		324.00000 
 43692.65567		 311.00099			43381.65468		140.43600		875.00000 
 43692.65567		 305.27265			43387.38302		69.19600		324.00000 
 43692.65567		 311.00099			43381.65468		140.43600		875.00000 
 43692.65567		 305.27265			43387.38302		69.19600		324.00000 
 43692.65567		 311.00099			43381.65468		140.43600		875.00000 
 43692.65567		 305.27265			43387.38302		69.19600		324.00000 
 43692.65567		 311.00099			43381.65468		140.43600		875.00000 
 43692.65567		 305.27265			43387.38302		69.19600		324.00000 
 43692.65567		 311.00099			43381.65468		140.43600		875.00000 
 43692.65567		 305.27265			43387.38302		69.19600		324.00000 
 43692.65567		 311.00099			43381.65468		140.43600		875.00000 
 43692.65567		 305.27265			43387.38302		69.19600		324.00000 
 43692.65567		 311.00099			43381.65468		140.43600		875.00000 
 43692.65567		 305.27265			43387.38302		69.19600		324.00000 
 43692.65567		 311.00099			43381.65468		140.43600		875.00000 
 43692.65567		 305.27265			43387.38302		69.19600		324.00000 
 43692.65567		 311.00099			43381.65468		140.43600		875.00000 
 43692.65567		 305.27265			43387.38302		69.19600		324.00000 
 43692.65567		 311.00099			43381.65468		140.43600		875.00000 
 43692.65567		 305.27265			43387.38302		69.19600		324.00000 
 43692.65567		 311.00099			43381.65468		140.43600		875.00000 
 43692.65567		 305.27265			43387.38302		69.19600		324.00000 
 43692.65567		 311.00099			43381.65468		140.43600		875.00000 
 43692.65567		 305.27265			43387.38302		69.19600		324.00000 
 43692.65567		 311.00099			43381.65468		140.43600		875.00000 
 43692.65567		 305.27265			43387.38302		69.19600		324.00000 
 43692.65567		 311.00099			43381.65468		140.43600		875.00000 
 43692.65567		 305.27265			43387.38302		69.19600		324.00000 
 43692.65567		 311.00099			43381.65468		140.43600		875.00000 
 43692.65567		 305.27265			43387.38302		69.19600		324.00000 
 43692.65567		 311.00099			43381.65468		140.43600		875.00000 
 43692.65567		 305.27265			43387.38302		69.19600		324.00000 
 43692.65567		 311.00099			43381.65468		140.43600		875.00000 
 43692.65567		 305.27265			43387.38302		69.19600		324.00000 
 43692.65567		 311.00099			43381.65468		140.43600		875.00000 
 43692.65567		 305.27265			43387.38302		69.19600		324.00000 
 43692.65567		 311.00099			43381.65468		140.43600		875.00000 
 43692.65567		 305.27265			43387.38302		69.19600		324.00000 
 43692.65567		 311.00099			43381.65468		140.43600		875.00000 
 43692.65567		 305.27265			43387.38302		69.19600		324.00000 
 43692.65567		 311.00099			43381.65468		140.43600		875.00000 
 43692.65567		 305.27265			43387.38302		69.19600		324.00000 
 43692.65567		 311.00099			43381.65468		140.43600		875.00000 
 43692.65567		 305.27265			43387.38302		69.19600		324.00000 
 43692.65567		 311.00099			43381.65468		140.43600		875.00000 
 43692.65567		 305.27265			43387.38302		69.19600		324.00000 
 43692.65567		 311.00099			43381.65468		140.43600		875.00000 
 43692.65567		 305.27265			43387.38302		69.19600		324.00000 
 43692.65567		 311.00099			43381.65468		140.43600		875.00000 
 43692.65567		 305.27265			43387.38302		69.19600		324.00000 
 43692.65567		 311.00099			43381.65468		140.43600		875.00000 
 43692.65567		 305.27265			43387.38302		69.19600		324.00000 
 43692.65567		 311.00099			43381.65468		140.43600		875.00000 
 43692.65567		 305.27265			43387.38302		69.19600		324.00000 
 43692.65567		 311.00099			43381.65468		140.43600		875.00000 
 43692.65567		 305.27265			43387.38302		69.19600		324.00000 
 43692.65567		 311.00099			43381.65468		140.43600		875.00000 
 43692.65567		 305.27265			43387.38302		69.19600		324.00000 
 43692.65567		 311.00099			43381.65468		140.43600		875.00000 
 43692.65567		 305.27265			43387.38302		69.19600		324.00000 
 43692.65567		 311.00099			43381.65468		135.03600		875.00000 
 43692.65567		 305.27265			43387.38302		69.19600		324.00000 
 43692.65567		 311.00099			43381.65468		135.03600		875.00000 
 43692.65567		 305.27265			43387.38302		69.19600		324.00000 
 43692.65567		 311.00099			43381.65468		135.03600		875.00000 
 43692.65567		 305.27265			43387.38302		69.19600		324.00000 
 43692.65567		 311.00099			43381.65468		135.03600		875.00000 
 43692.65567		 305.27265			43387.38302		69.19600		324.00000 
 43692.65567		 311.00099			43381.65468		135.03600		875.00000 
 43692.65567		 305.27265			43387.38302		69.19600		324.00000 
 43692.65567		 314.81988			43377.83579		135.03600		875.00000 
 43692.65567		 305.27265			43387.38302		69.19600		324.00000 
 43692.65567		 314.81988			43377.83579		135.03600		875.00000 
 43692.65567		 305.27265			43387.38302		69.19600		324.00000 
 43692.65567		 314.81988			43377.83579		135.03600		875.00000 
 43692.65567		 305.27265			43387.38302		69.19600		324.00000 
 43692.65567		 318.63877			43374.01690		135.03600		875.00000 
 43692.65567		 305.27265			43387.38302		69.19600		324.00000 
 43692.65567		 322.45767			43370.19801		135.03600		875.00000 
 43692.65567		 305.27265			43387.38302		69.19600		324.00000 
 43692.65567		 326.27656			43366.37912		135.03600		875.00000 
 43692.65567		 305.27265			43387.38302		69.19600		324.00000 
 43692.65567		 326.27656			43366.37912		135.03600		875.00000 
 43692.65567		 305.27265			43387.38302		69.19600		324.00000 
 43692.65567		 326.27656			43366.37912		135.03600		875.00000 
 43692.65567		 305.27265			43387.38302		69.19600		324.00000 
 43692.65567		 537.27032			43155.38535		135.03600		875.00000 
 43692.65567		 305.27265			43387.38302		69.19600		324.00000 
 43692.65567		 673.79570			43018.85997		135.03600		875.00000 
 43692.65567		 305.27265			43387.38302		69.19600		324.00000 
 43692.65567		 742.05839			42950.59728		135.03600		875.00000 
 43692.65567		 305.27265			43387.38302		69.19600		324.00000 
 43692.65567		 742.05839			42950.59728		135.03600		875.00000 
 43692.65567		 305.27265			43387.38302		69.19600		324.00000 
 43692.65567		 742.05839			42950.59728		135.03600		875.00000 
 43692.65567		 305.27265			43387.38302		69.19600		324.00000 
 43692.65567		 742.05839			42950.59728		135.03600		875.00000 
 43692.65567		 305.27265			43387.38302		69.19600		324.00000 
 43692.65567		 742.05839			42950.59728		135.03600		875.00000 
 43692.65567		 305.27265			43387.38302		69.19600		324.00000 
 43692.65567		 742.05839			42950.59728		135.03600		875.00000 
 43692.65567		 305.27265			43387.38302		69.19600		324.00000 
 43692.65567		 742.05839			42950.59728		135.03600		875.00000 
 43692.65567		 305.27265			43387.38302		69.19600		324.00000 
 43692.65567		 742.05839			42950.59728		135.03600		875.00000 
 43692.65567		 305.27265			43387.38302		69.19600		324.00000 
 43692.65567		 742.05839			42950.59728		135.03600		875.00000 
 43692.65567		 305.27265			43387.38302		69.19600		324.00000 
 43692.65567		 742.05839			42950.59728		135.03600		875.00000 
 43692.65567		 305.27265			43387.38302		69.19600		324.00000 
 43692.65567		 742.05839			42950.59728		135.03600		875.00000 
 43692.65567		 305.27265			43387.38302		69.19600		324.00000 
 43692.65567		 742.05839			42950.59728		135.03600		875.00000 
 43692.65567		 305.27265			43387.38302		69.19600		324.00000 
 43692.65567		 742.05839			42950.59728		135.03600		875.00000 
 43692.65567		 305.27265			43387.38302		69.19600		324.00000 
 43692.65567		 742.05839			42950.59728		135.03600		875.00000 
 43692.65567		 305.27265			43387.38302		69.19600		324.00000 
 43692.65567		 742.05839			42950.59728		135.03600		875.00000 
 43692.65567		 305.27265			43387.38302		69.19600		324.00000 
 43692.65567		 742.05839			42950.59728		135.03600		875.00000 
 43692.65567		 305.27265			43387.38302		69.19600		324.00000 
 43692.65567		 742.05839			42950.59728		135.03600		875.00000 
 43692.65567		 305.27265			43387.38302		69.19600		324.00000 
 43692.65567		 742.05839			42950.59728		135.03600		875.00000 
 43692.65567		 305.27265			43387.38302		69.19600		324.00000 
 43692.65567		 742.05839			42950.59728		135.03600		875.00000 
 43692.65567		 305.27265			43387.38302		69.19600		324.00000 
 43692.65567		 742.05839			42950.59728		135.03600		875.00000 
 43692.65567		 305.27265			43387.38302		69.19600		324.00000 
 43692.65567		 742.05839			42950.59728		135.03600		875.00000 
 43692.65567		 305.27265			43387.38302		69.19600		324.00000 
 43692.65567		 742.05839			42950.59728		135.03600		875.00000 
 43692.65567		 305.27265			43387.38302		69.19600		324.00000 
 43692.65567		 742.05839			42950.59728		135.03600		875.00000 
 43692.65567		 305.27265			43387.38302		69.19600		324.00000 
 43692.65567		 742.05839			42950.59728		135.03600		875.00000 
 43692.65567		 305.27265			43387.38302		69.19600		324.00000 
 43692.65567		 742.05839			42950.59728		135.03600		875.00000 
 43692.65567		 305.27265			43387.38302		69.19600		324.00000 
 43692.65567		 742.05839			42950.59728		135.03600		875.00000 
 43692.65567		 305.27265			43387.38302		69.19600		324.00000 
 43692.65567		 742.05839			42950.59728		135.03600		875.00000 
 43692.65567		 305.27265			43387.38302		69.19600		324.00000 
 43692.65567		 742.05839			42950.59728		135.03600		875.00000 
 43692.65567		 305.27265			43387.38302		69.19600		324.00000 
 43692.65567		 742.05839			42950.59728		135.03600		875.00000 
 43692.65567		 305.27265			43387.38302		69.19600		324.00000 
 43692.65567		 742.05839			42950.59728		135.03600		875.00000 
 43692.65567		 305.27265			43387.38302		69.19600		324.00000 
 43692.65567		 742.05839			42950.59728		135.03600		875.00000 
 43692.65567		 305.27265			43387.38302		69.19600		324.00000 
 43692.65567		 742.05839			42950.59728		135.03600		875.00000 
 43692.65567		 305.27265			43387.38302		69.19600		324.00000 
 43692.65567		 742.05839			42950.59728		135.03600		875.00000 
 43692.65567		 305.27265			43387.38302		69.19600		324.00000 
 43692.65567		 742.05839			42950.59728		135.03600		875.00000 
 43692.65567		 305.27265			43387.38302		69.19600		324.00000 
 43692.65567		 742.05839			42950.59728		135.03600		875.00000 
 43692.65567		 305.27265			43387.38302		69.19600		324.00000 
 43692.65567		 742.05839			42950.59728		135.03600		875.00000 
 43692.65567		 305.27265			43387.38302		69.19600		324.00000 
 43692.65567		 742.05839			42950.59728		135.03600		875.00000 
 43692.65567		 305.27265			43387.38302		69.19600		324.00000 
 43692.65567		 742.05839			42950.59728		135.03600		875.00000 
 43692.65567		 305.27265			43387.38302		69.19600		324.00000 
 43692.65567		 742.05839			42950.59728		135.03600		875.00000 
 43692.65567		 305.27265			43387.38302		69.19600		324.00000 
 43692.65567		 742.05839			42950.59728		135.03600		875.00000 
 43692.65567		 305.27265			43387.38302		69.19600		324.00000 
 43692.65567		 742.05839			42950.59728		174.24000		875.00000 
 43692.65567		 305.27265			43387.38302		69.19600		324.00000 
 43692.65567		 742.05839			42950.59728		174.24000		875.00000 
 43692.65567		 305.27265			43387.38302		69.19600		324.00000 
 43692.65567		 742.05839			42950.59728		174.24000		875.00000 
 43692.65567		 305.27265			43387.38302		69.19600		324.00000 
 43692.65567		 742.05839			42950.59728		174.24000		875.00000 
 43692.65567		 305.27265			43387.38302		69.19600		324.00000 
 43692.65567		 742.05839			42950.59728		174.24000		875.00000 
 43692.65567		 305.27265			43387.38302		69.19600		324.00000 
 43692.65567		 742.05839			42950.59728		174.24000		875.00000 
 43692.65567		 305.27265			43387.38302		69.19600		324.00000 
 43692.65567		 742.05839			42950.59728		174.24000		875.00000 
 43692.65567		 305.27265			43387.38302		69.19600		324.00000 
 43692.65567		 742.05839			42950.59728		174.24000		875.00000 
 43692.65567		 305.27265			43387.38302		69.19600		324.00000 
 43692.65567		 742.05839			42950.59728		174.24000		875.00000 
 43692.65567		 305.27265			43387.38302		69.19600		324.00000 
 43692.65567		 742.05839			42950.59728		174.24000		875.00000 
 43692.65567		 305.27265			43387.38302		69.19600		324.00000 
 43692.65567		 742.05839			42950.59728		174.24000		875.00000 
 43692.65567		 305.27265			43387.38302		69.19600		324.00000 
 43692.65567		 742.05839			42950.59728		174.24000		875.00000 
 43692.65567		 305.27265			43387.38302		69.19600		324.00000 
 43692.65567		 742.05839			42950.59728		174.24000		875.00000 
 43692.65567		 305.27265			43387.38302		69.19600		324.00000 
 43692.65567		 742.05839			42950.59728		174.24000		875.00000 
 43692.65567		 305.27265			43387.38302		69.19600		324.00000 
 43692.65567		 742.05839			42950.59728		174.24000		875.00000 
 43692.65567		 305.27265			43387.38302		69.19600		324.00000 
 43692.65567		 742.05839			42950.59728		174.24000		875.00000 
 43692.65567		 305.27265			43387.38302		69.19600		324.00000 
 43692.65567		 742.05839			42950.59728		174.24000		875.00000 
 43692.65567		 305.27265			43387.38302		69.19600		324.00000 
 43692.65567		 742.05839			42950.59728		174.24000		875.00000 
 43692.65567		 305.27265			43387.38302		69.19600		324.00000 
 43692.65567		 742.05839			42950.59728		174.24000		875.00000 
 43692.65567		 305.27265			43387.38302		69.19600		324.00000 
 43692.65567		 742.05839			42950.59728		174.24000		875.00000 
 43692.65567		 305.27265			43387.38302		69.19600		324.00000 
 43692.65567		 742.05839			42950.59728		174.24000		875.00000 
 43692.65567		 305.27265			43387.38302		69.19600		324.00000 
 43692.65567		 742.05839			42950.59728		174.24000		875.00000 
 43692.65567		 305.27265			43387.38302		69.19600		324.00000 
 43692.65567		 742.05839			42950.59728		174.24000		875.00000 
 43692.65567		 305.27265			43387.38302		69.19600		324.00000 
 43692.65567		 742.05839			42950.59728		174.24000		875.00000 
 43692.65567		 305.27265			43387.38302		69.19600		324.00000 
 43692.65567		 742.05839			42950.59728		174.24000		875.00000 
 43692.65567		 305.27265			43387.38302		69.19600		324.00000 
 43692.65567		 742.05839			42950.59728		174.24000		875.00000 
 43692.65567		 305.27265			43387.38302		69.19600		324.00000 
 43692.65567		 742.05839			42950.59728		174.24000		875.00000 
 43692.65567		 305.27265			43387.38302		69.19600		324.00000 
 43692.65567		 742.05839			42950.59728		174.24000		875.00000 
 43692.65567		 305.27265			43387.38302		69.19600		324.00000 
 43692.65567		 742.05839			42950.59728		174.24000		875.00000 
 43692.65567		 305.27265			43387.38302		69.19600		324.00000 
 43692.65567		 742.05839			42950.59728		174.24000		875.00000 
 43692.65567		 305.27265			43387.38302		69.19600		324.00000 
 43692.65567		 742.05839			42950.59728		174.24000		875.00000 
 43692.65567		 305.27265			43387.38302		69.19600		324.00000 
 43692.65567		 742.05839			42950.59728		174.24000		875.00000 
 43692.65567		 305.27265			43387.38302		69.19600		324.00000 
 43692.65567		 742.05839			42950.59728		174.24000		875.00000 
 43692.65567		 305.27265			43387.38302		69.19600		324.00000 
 43692.65567		 742.05839			42950.59728		174.24000		875.00000 
 43692.65567		 305.27265			43387.38302		69.19600		324.00000 
 43692.65567		 742.05839			42950.59728		174.24000		875.00000 
 43692.65567		 305.27265			43387.38302		69.19600		324.00000 
 43692.65567		 742.05839			42950.59728		174.24000		875.00000 
 43692.65567		 305.27265			43387.38302		69.19600		324.00000 
 43692.65567		 742.05839			42950.59728		174.24000		875.00000 
 43692.65567		 305.27265			43387.38302		69.19600		324.00000 
 43692.65567		 742.05839			42950.59728		174.24000		875.00000 
 43692.65567		 305.27265			43387.38302		69.19600		324.00000 
 43692.65567		 742.05839			42950.59728		174.24000		875.00000 
 43692.65567		 305.27265			43387.38302		69.19600		324.00000 
 43692.65567		 742.05839			42950.59728		174.24000		875.00000 
 43692.65567		 305.27265			43387.38302		69.19600		324.00000 
 43692.65567		 742.05839			42950.59728		174.24000		875.00000 
 43692.65567		 305.27265			43387.38302		69.19600		324.00000 
 43692.65567		 742.05839			42950.59728		174.24000		875.00000 
 43692.65567		 305.27265			43387.38302		69.19600		324.00000 
 43692.65567		 742.05839			42950.59728		174.24000		875.00000 
 43692.65567		 305.27265			43387.38302		69.19600		324.00000 
 43692.65567		 742.05839			42950.59728		174.24000		875.00000 
 43692.65567		 305.27265			43387.38302		69.19600		324.00000 
 43692.65567		 742.05839			42950.59728		174.24000		875.00000 
 43692.65567		 305.27265			43387.38302		69.19600		324.00000 
 43692.65567		 742.05839			42950.59728		174.24000		875.00000 
 43692.65567		 305.27265			43387.38302		69.19600		324.00000 
 43692.65567		 742.05839			42950.59728		174.24000		875.00000 
 43692.65567		 305.27265			43387.38302		69.19600		324.00000 
 43692.65567		 742.05839			42950.59728		174.24000		875.00000 
 43692.65567		 305.27265			43387.38302		69.19600		324.00000 
 43692.65567		 742.05839			42950.59728		174.24000		875.00000 
 43692.65567		 305.27265			43387.38302		69.19600		324.00000 
 43692.65567		 742.05839			42950.59728		174.24000		875.00000 
 43692.65567		 305.27265			43387.38302		69.19600		324.00000 
 43692.65567		 742.05839			42950.59728		174.24000		875.00000 
 43692.65567		 305.27265			43387.38302		69.19600		324.00000 
 43692.65567		 742.05839			42950.59728		174.24000		875.00000 
 43692.65567		 305.27265			43387.38302		69.19600		324.00000 
 43692.65567		 742.05839			42950.59728		174.24000		875.00000 
 43692.65567		 305.27265			43387.38302		69.19600		324.00000 
 43692.65567		 742.05839			42950.59728		174.24000		875.00000 
 43692.65567		 305.27265			43387.38302		69.19600		324.00000 
 43692.65567		 742.05839			42950.59728		174.24000		875.00000 
 43692.65567		 305.27265			43387.38302		69.19600		324.00000 
 43692.65567		 742.05839			42950.59728		174.24000		875.00000 
 43692.65567		 305.27265			43387.38302		69.19600		324.00000 
 43692.65567		 742.05839			42950.59728		174.24000		875.00000 
 43692.65567		 305.27265			43387.38302		69.19600		324.00000 
 43692.65567		 742.05839			42950.59728		174.24000		875.00000 
 43692.65567		 305.27265			43387.38302		69.19600		324.00000 
 43692.65567		 742.05839			42950.59728		174.24000		875.00000 
 43692.65567		 305.27265			43387.38302		69.19600		324.00000 
 43692.65567		 742.05839			42950.59728		174.24000		875.00000 
 43692.65567		 305.27265			43387.38302		69.19600		324.00000 
 43692.65567		 742.05839			42950.59728		174.24000		875.00000 
 43692.65567		 305.27265			43387.38302		69.19600		324.00000 
 43692.65567		 742.05839			42950.59728		174.24000		875.00000 
 43692.65567		 305.27265			43387.38302		69.19600		324.00000 
 43692.65567		 742.05839			42950.59728		174.24000		875.00000 
 43692.65567		 305.27265			43387.38302		69.19600		324.00000 
 43692.65567		 742.05839			42950.59728		174.24000		875.00000 
 43692.65567		 305.27265			43387.38302		69.19600		324.00000 
 43692.65567		 742.05839			42950.59728		204.33000		875.00000 
 43692.65567		 305.27265			43387.38302		69.19600		324.00000 
 43692.65567		 742.05839			42950.59728		204.33000		875.00000 
 43692.65567		 305.27265			43387.38302		69.19600		324.00000 
 43692.65567		 742.05839			42950.59728		204.33000		875.00000 
 43692.65567		 305.27265			43387.38302		69.19600		324.00000 
 43692.65567		 742.05839			42950.59728		204.33000		875.00000 
 43692.65567		 305.27265			43387.38302		69.19600		324.00000 
 43692.65567		 742.05839			42950.59728		204.33000		875.00000 
 43692.65567		 305.27265			43387.38302		69.19600		324.00000 
 43692.65567		 742.05839			42950.59728		204.33000		875.00000 
 43692.65567		 305.27265			43387.38302		69.19600		324.00000 
 43692.65567		 742.05839			42950.59728		204.33000		875.00000 
 43692.65567		 305.27265			43387.38302		69.19600		324.00000 
 43692.65567		 742.05839			42950.59728		204.33000		875.00000 
 43692.65567		 305.27265			43387.38302		69.19600		324.00000 
 43692.65567		 742.05839			42950.59728		204.33000		875.00000 
 43692.65567		 305.27265			43387.38302		69.19600		324.00000 
 43692.65567		 742.05839			42950.59728		204.33000		875.00000 
 43692.65567		 305.27265			43387.38302		69.19600		324.00000 
 43692.65567		 742.05839			42950.59728		204.33000		875.00000 
 43692.65567		 305.27265			43387.38302		69.19600		324.00000 
 43692.65567		 742.05839			42950.59728		204.33000		875.00000 
 43692.65567		 305.27265			43387.38302		69.19600		324.00000 
 43692.65567		 742.05839			42950.59728		204.33000		875.00000 
 43692.65567		 305.27265			43387.38302		69.19600		324.00000 
 43692.65567		 742.05839			42950.59728		204.33000		875.00000 
 43692.65567		 305.27265			43387.38302		69.19600		324.00000 
 43692.65567		 742.05839			42950.59728		204.33000		875.00000 
 43692.65567		 305.27265			43387.38302		69.19600		324.00000 
 43692.65567		 742.05839			42950.59728		204.33000		875.00000 
 43692.65567		 305.27265			43387.38302		69.19600		324.00000 
 43692.65567		 742.05839			42950.59728		204.33000		875.00000 
 43692.65567		 305.27265			43387.38302		69.19600		324.00000 
 43692.65567		 742.05839			42950.59728		204.33000		875.00000 
 43692.65567		 305.27265			43387.38302		69.19600		324.00000 
 43692.65567		 742.05839			42950.59728		204.33000		875.00000 
 43692.65567		 305.27265			43387.38302		69.19600		324.00000 
 43692.65567		 742.05839			42950.59728		204.33000		875.00000 
 43692.65567		 305.27265			43387.38302		69.19600		324.00000 
 43692.65567		 742.05839			42950.59728		204.33000		875.00000 
 43692.65567		 305.27265			43387.38302		69.19600		324.00000 
 43692.65567		 742.05839			42950.59728		204.33000		875.00000 
 43692.65567		 305.27265			43387.38302		69.19600		324.00000 
 43692.65567		 742.05839			42950.59728		204.33000		875.00000 
 43692.65567		 305.27265			43387.38302		69.19600		324.00000 
 43692.65567		 742.05839			42950.59728		204.33000		875.00000 
 43692.65567		 305.27265			43387.38302		69.19600		324.00000 
 43692.65567		 742.05839			42950.59728		204.33000		875.00000 
 43692.65567		 305.27265			43387.38302		69.19600		324.00000 
 43692.65567		 742.05839			42950.59728		204.33000		875.00000 
 43692.65567		 305.27265			43387.38302		69.19600		324.00000 
 43692.65567		 742.05839			42950.59728		204.33000		875.00000 
 43692.65567		 305.27265			43387.38302		69.19600		324.00000 
 43692.65567		 742.05839			42950.59728		204.33000		875.00000 
 43692.65567		 305.27265			43387.38302		69.19600		324.00000 
 43692.65567		 742.05839			42950.59728		204.33000		875.00000 
 43692.65567		 305.27265			43387.38302		69.19600		324.00000 
 43692.65567		 742.05839			42950.59728		204.33000		875.00000 
 43692.65567		 305.27265			43387.38302		69.19600		324.00000 
 43692.65567		 742.05839			42950.59728		204.33000		875.00000 
 43692.65567		 305.27265			43387.38302		69.19600		324.00000 
 43692.65567		 742.05839			42950.59728		204.33000		875.00000 
 43692.65567		 305.27265			43387.38302		69.19600		324.00000 
 43692.65567		 742.05839			42950.59728		204.33000		875.00000 
 43692.65567		 305.27265			43387.38302		69.19600		324.00000 
 43692.65567		 742.05839			42950.59728		204.33000		875.00000 
 43692.65567		 305.27265			43387.38302		69.19600		324.00000 
 43692.65567		 742.05839			42950.59728		204.33000		875.00000 
 43692.65567		 305.27265			43387.38302		69.19600		324.00000 
 43692.65567		 742.05839			42950.59728		204.33000		875.00000 
 43692.65567		 305.27265			43387.38302		69.19600		324.00000 
 43692.65567		 742.05839			42950.59728		204.33000		875.00000 
 43692.65567		 305.27265			43387.38302		69.19600		324.00000 
 43692.65567		 742.05839			42950.59728		204.33000		875.00000 
 43692.65567		 305.27265			43387.38302		69.19600		324.00000 
 43692.65567		 742.05839			42950.59728		204.33000		875.00000 
 43692.65567		 305.27265			43387.38302		69.19600		324.00000 
 43692.65567		 742.05839			42950.59728		204.33000		875.00000 
 43692.65567		 305.27265			43387.38302		69.19600		324.00000 
 43692.65567		 742.05839			42950.59728		204.33000		875.00000 
 43692.65567		 305.27265			43387.38302		69.19600		324.00000 
 43692.65567		 742.05839			42950.59728		204.33000		875.00000 
 43692.65567		 305.27265			43387.38302		69.19600		324.00000 
 43692.65567		 742.05839			42950.59728		204.33000		875.00000 
 43692.65567		 305.27265			43387.38302		69.19600		324.00000 
 43692.65567		 742.05839			42950.59728		204.33000		875.00000 
 43692.65567		 305.27265			43387.38302		69.19600		324.00000 
 43692.65567		 742.05839			42950.59728		204.33000		875.00000 
 43692.65567		 305.27265			43387.38302		69.19600		324.00000 
 43692.65567		 742.05839			42950.59728		204.33000		875.00000 
 43692.65567		 305.27265			43387.38302		69.19600		324.00000 
 43692.65567		 742.05839			42950.59728		204.33000		875.00000 
 43692.65567		 305.27265			43387.38302		69.19600		324.00000 
 43692.65567		 742.05839			42950.59728		204.33000		875.00000 
 43692.65567		 305.27265			43387.38302		69.19600		324.00000 
 43692.65567		 742.05839			42950.59728		204.33000		875.00000 
 43692.65567		 305.27265			43387.38302		69.19600		324.00000 
 43692.65567		 742.05839			42950.59728		204.33000		875.00000 
 43692.65567		 305.27265			43387.38302		69.19600		324.00000 
 43692.65567		 742.05839			42950.59728		204.33000		875.00000 
 43692.65567		 305.27265			43387.38302		69.19600		324.00000 
 43692.65567		 742.05839			42950.59728		204.33000		875.00000 
 43692.65567		 305.27265			43387.38302		69.19600		324.00000 
 43692.65567		 742.05839			42950.59728		204.33000		875.00000 
 43692.65567		 305.27265			43387.38302		69.19600		324.00000 
 43692.65567		 742.05839			42950.59728		204.33000		875.00000 
 43692.65567		 305.27265			43387.38302		69.19600		324.00000 
 43692.65567		 742.05839			42950.59728		204.33000		875.00000 
 43692.65567		 305.27265			43387.38302		69.19600		324.00000 
 43692.65567		 742.05839			42950.59728		204.33000		875.00000 
 43692.65567		 305.27265			43387.38302		69.19600		324.00000 
 43692.65567		 742.05839			42950.59728		204.33000		875.00000 
 43692.65567		 305.27265			43387.38302		69.19600		324.00000 
 43692.65567		 742.05839			42950.59728		204.33000		875.00000 
 43692.65567		 305.27265			43387.38302		69.19600		324.00000 
 43692.65567		 742.05839			42950.59728		204.33000		875.00000 
 43692.65567		 305.27265			43387.38302		69.19600		324.00000 
 43692.65567		 742.05839			42950.59728		204.33000		875.00000 
 43692.65567		 305.27265			43387.38302		69.19600		324.00000 
 43692.65567		 742.05839			42950.59728		204.33000		875.00000 
 43692.65567		 305.27265			43387.38302		69.19600		324.00000 
 43692.65567		 742.05839			42950.59728		204.33000		875.00000 
 43692.65567		 305.27265			43387.38302		69.19600		324.00000 
 43692.65567		 742.05839			42950.59728		204.33000		875.00000 
 43692.65567		 305.27265			43387.38302		69.19600		324.00000 
 43692.65567		 742.05839			42950.59728		204.33000		875.00000 
 43692.65567		 305.27265			43387.38302		69.19600		324.00000 
 43692.65567		 742.05839			42950.59728		215.88400		875.00000 
 43692.65567		 305.27265			43387.38302		69.19600		324.00000 
 43692.65567		 742.05839			42950.59728		215.88400		875.00000 
 43692.65567		 305.27265			43387.38302		69.19600		324.00000 
 43692.65567		 742.05839			42950.59728		215.88400		875.00000 
 43692.65567		 305.27265			43387.38302		69.19600		324.00000 
 43692.65567		 742.05839			42950.59728		215.88400		875.00000 
 43692.65567		 305.27265			43387.38302		69.19600		324.00000 
 43692.65567		 742.05839			42950.59728		215.88400		875.00000 
 43692.65567		 305.27265			43387.38302		69.19600		324.00000 
 43692.65567		 742.05839			42950.59728		215.88400		875.00000 
 43692.65567		 305.27265			43387.38302		69.19600		324.00000 
 43692.65567		 742.05839			42950.59728		215.88400		875.00000 
 43692.65567		 305.27265			43387.38302		69.19600		324.00000 
 43692.65567		 742.05839			42950.59728		215.88400		875.00000 
 43692.65567		 305.27265			43387.38302		69.19600		324.00000 
 43692.65567		 742.05839			42950.59728		215.88400		875.00000 
 43692.65567		 305.27265			43387.38302		69.19600		324.00000 
 43692.65567		 742.05839			42950.59728		215.88400		875.00000 
 43692.65567		 305.27265			43387.38302		69.19600		324.00000 
 43692.65567		 742.05839			42950.59728		215.88400		875.00000 
 43692.65567		 305.27265			43387.38302		69.19600		324.00000 
 43692.65567		 742.05839			42950.59728		215.88400		875.00000 
 43692.65567		 305.27265			43387.38302		69.19600		324.00000 
 43692.65567		 742.05839			42950.59728		215.88400		875.00000 
 43692.65567		 305.27265			43387.38302		69.19600		324.00000 
 43692.65567		 742.05839			42950.59728		215.88400		875.00000 
 43692.65567		 305.27265			43387.38302		69.19600		324.00000 
 43692.65567		 742.05839			42950.59728		215.88400		875.00000 
 43692.65567		 305.27265			43387.38302		69.19600		324.00000 
 43692.65567		 742.05839			42950.59728		215.88400		875.00000 
 43692.65567		 305.27265			43387.38302		69.19600		324.00000 
 43692.65567		 742.05839			42950.59728		215.88400		875.00000 
 43692.65567		 305.27265			43387.38302		69.19600		324.00000 
 43692.65567		 742.05839			42950.59728		215.88400		875.00000 
 43692.65567		 305.27265			43387.38302		69.19600		324.00000 
 43692.65567		 742.05839			42950.59728		215.88400		875.00000 
 43692.65567		 305.27265			43387.38302		69.19600		324.00000 
 43692.65567		 742.05839			42950.59728		215.88400		875.00000 
 43692.65567		 305.27265			43387.38302		69.19600		324.00000 
 43692.65567		 742.05839			42950.59728		215.88400		875.00000 
 43692.65567		 305.27265			43387.38302		69.19600		324.00000 
 43692.65567		 742.05839			42950.59728		215.88400		875.00000 
 43692.65567		 305.27265			43387.38302		69.19600		324.00000 
 43692.65567		 742.05839			42950.59728		215.88400		875.00000 
 43692.65567		 305.27265			43387.38302		69.19600		324.00000 
 43692.65567		 742.05839			42950.59728		215.88400		875.00000 
 43692.65567		 305.27265			43387.38302		69.19600		324.00000 
 43692.65567		 742.05839			42950.59728		215.88400		875.00000 
 43692.65567		 305.27265			43387.38302		69.19600		324.00000 
 43692.65567		 742.05839			42950.59728		215.88400		875.00000 
 43692.65567		 305.27265			43387.38302		69.19600		324.00000 
 43692.65567		 742.05839			42950.59728		215.88400		875.00000 
 43692.65567		 305.27265			43387.38302		69.19600		324.00000 
 43692.65567		 742.05839			42950.59728		215.88400		875.00000 
 43692.65567		 305.27265			43387.38302		69.19600		324.00000 
 43692.65567		 742.05839			42950.59728		215.88400		875.00000 
 43692.65567		 305.27265			43387.38302		69.19600		324.00000 
 43692.65567		 742.05839			42950.59728		215.88400		875.00000 
 43692.65567		 305.27265			43387.38302		69.19600		324.00000 
 43692.65567		 742.05839			42950.59728		215.88400		875.00000 
 43692.65567		 305.27265			43387.38302		69.19600		324.00000 
 43692.65567		 742.05839			42950.59728		215.88400		875.00000 
 43692.65567		 305.27265			43387.38302		69.19600		324.00000 
 43692.65567		 742.05839			42950.59728		215.88400		875.00000 
 43692.65567		 305.27265			43387.38302		69.19600		324.00000 
 43692.65567		 742.05839			42950.59728		215.88400		875.00000 
 43692.65567		 305.27265			43387.38302		69.19600		324.00000 
 43692.65567		 742.05839			42950.59728		215.88400		875.00000 
 43692.65567		 305.27265			43387.38302		69.19600		324.00000 
 43692.65567		 742.05839			42950.59728		215.88400		875.00000 
 43692.65567		 305.27265			43387.38302		69.19600		324.00000 
 43692.65567		 742.05839			42950.59728		215.88400		875.00000 
 43692.65567		 305.27265			43387.38302		69.19600		324.00000 
 43692.65567		 742.05839			42950.59728		215.88400		875.00000 
 43692.65567		 305.27265			43387.38302		69.19600		324.00000 
 43692.65567		 742.05839			42950.59728		215.88400		875.00000 
 43692.65567		 305.27265			43387.38302		69.19600		324.00000 
 43692.65567		 742.05839			42950.59728		215.88400		875.00000 
 43692.65567		 305.27265			43387.38302		69.19600		324.00000 
 43692.65567		 742.05839			42950.59728		215.88400		875.00000 
 43692.65567		 305.27265			43387.38302		69.19600		324.00000 
 43692.65567		 742.05839			42950.59728		215.88400		875.00000 
 43692.65567		 305.27265			43387.38302		69.19600		324.00000 
 43692.65567		 742.05839			42950.59728		215.88400		875.00000 
 43692.65567		 305.27265			43387.38302		69.19600		324.00000 
 43692.65567		 742.05839			42950.59728		215.88400		875.00000 
 43692.65567		 305.27265			43387.38302		69.19600		324.00000 
 43692.65567		 742.05839			42950.59728		215.88400		875.00000 
 43692.65567		 305.27265			43387.38302		69.19600		324.00000 
 43692.65567		 742.05839			42950.59728		215.88400		875.00000 
 43692.65567		 305.27265			43387.38302		69.19600		324.00000 
 43692.65567		 742.05839			42950.59728		215.88400		875.00000 
 43692.65567		 305.27265			43387.38302		69.19600		324.00000 
 43692.65567		 742.05839			42950.59728		215.88400		875.00000 
 43692.65567		 305.27265			43387.38302		69.19600		324.00000 
 43692.65567		 742.05839			42950.59728		215.88400		875.00000 
 43692.65567		 305.27265			43387.38302		69.19600		324.00000 
 43692.65567		 742.05839			42950.59728		215.88400		875.00000 
 43692.65567		 305.27265			43387.38302		69.19600		324.00000 
 43692.65567		 742.05839			42950.59728		215.88400		875.00000 
 43692.65567		 305.27265			43387.38302		69.19600		324.00000 
 43692.65567		 742.05839			42950.59728		215.88400		875.00000 
 43692.65567		 305.27265			43387.38302		69.19600		324.00000 
 43692.65567		 742.05839			42950.59728		215.88400		875.00000 
 43692.65567		 305.27265			43387.38302		69.19600		324.00000 
 43692.65567		 742.05839			42950.59728		215.88400		875.00000 
 43692.65567		 305.27265			43387.38302		69.19600		324.00000 
 43692.65567		 742.05839			42950.59728		215.88400		875.00000 
 43692.65567		 305.27265			43387.38302		69.19600		324.00000 
 43692.65567		 742.05839			42950.59728		215.88400		875.00000 
 43692.65567		 305.27265			43387.38302		69.19600		324.00000 
 43692.65567		 742.05839			42950.59728		215.88400		875.00000 
 43692.65567		 305.27265			43387.38302		69.19600		324.00000 
 43692.65567		 742.05839			42950.59728		215.88400		875.00000 
 43692.65567		 305.27265			43387.38302		69.19600		324.00000 
 43692.65567		 742.05839			42950.59728		215.88400		875.00000 
 43692.65567		 305.27265			43387.38302		69.19600		324.00000 
 43692.65567		 742.05839			42950.59728		215.88400		875.00000 
 43692.65567		 305.27265			43387.38302		69.19600		324.00000 
 43692.65567		 742.05839			42950.59728		215.88400		875.00000 
 43692.65567		 305.27265			43387.38302		69.19600		324.00000 
 43692.65567		 742.05839			42950.59728		215.88400		875.00000 
 43692.65567		 305.27265			43387.38302		69.19600		324.00000 
 43692.65567		 742.05839			42950.59728		215.88400		875.00000 
 43692.65567		 305.27265			43387.38302		69.19600		324.00000 
 43692.65567		 742.05839			42950.59728		215.88400		875.00000 
 43692.65567		 305.27265			43387.38302		69.19600		324.00000 
 43692.65567		 742.05839			42950.59728		219.93000		875.00000 
 43692.65567		 305.27265			43387.38302		69.19600		324.00000 
 43692.65567		 742.05839			42950.59728		219.93000		875.00000 
 43692.65567		 305.27265			43387.38302		69.19600		324.00000 
 43692.65567		 742.05839			42950.59728		219.93000		875.00000 
 43692.65567		 305.27265			43387.38302		69.19600		324.00000 
 43692.65567		 742.05839			42950.59728		219.93000		875.00000 
 43692.65567		 305.27265			43387.38302		69.19600		324.00000 
 43692.65567		 742.05839			42950.59728		219.93000		875.00000 
 43692.65567		 305.27265			43387.38302		69.19600		324.00000 
 43692.65567		 742.05839			42950.59728		219.93000		875.00000 
 43692.65567		 305.27265			43387.38302		69.19600		324.00000 
 43692.65567		 742.05839			42950.59728		219.93000		875.00000 
 43692.65567		 305.27265			43387.38302		69.19600		324.00000 
 43692.65567		 742.05839			42950.59728		219.93000		875.00000 
 43692.65567		 305.27265			43387.38302		69.19600		324.00000 
 43692.65567		 742.05839			42950.59728		219.93000		875.00000 
 43692.65567		 305.27265			43387.38302		69.19600		324.00000 
 43692.65567		 742.05839			42950.59728		219.93000		875.00000 
 43692.65567		 305.27265			43387.38302		69.19600		324.00000 
 43692.65567		 742.05839			42950.59728		219.93000		875.00000 
 43692.65567		 305.27265			43387.38302		69.19600		324.00000 
 43692.65567		 742.05839			42950.59728		219.93000		875.00000 
 43692.65567		 305.27265			43387.38302		69.19600		324.00000 
 43692.65567		 742.05839			42950.59728		219.93000		875.00000 
 43692.65567		 305.27265			43387.38302		69.19600		324.00000 
 43692.65567		 742.05839			42950.59728		219.93000		875.00000 
 43692.65567		 305.27265			43387.38302		69.19600		324.00000 
 43692.65567		 742.05839			42950.59728		219.93000		875.00000 
 43692.65567		 305.27265			43387.38302		69.19600		324.00000 
 43692.65567		 742.05839			42950.59728		219.93000		875.00000 
 43692.65567		 305.27265			43387.38302		69.19600		324.00000 
 43692.65567		 742.05839			42950.59728		219.93000		875.00000 
 43692.65567		 305.27265			43387.38302		69.19600		324.00000 
 43692.65567		 742.05839			42950.59728		219.93000		875.00000 
 43692.65567		 305.27265			43387.38302		69.19600		324.00000 
 43692.65567		 742.05839			42950.59728		219.93000		875.00000 
 43692.65567		 305.27265			43387.38302		69.19600		324.00000 
 43692.65567		 742.05839			42950.59728		219.93000		875.00000 
 43692.65567		 305.27265			43387.38302		69.19600		324.00000 
 43692.65567		 742.05839			42950.59728		219.93000		875.00000 
 43692.65567		 305.27265			43387.38302		69.19600		324.00000 
 43692.65567		 742.05839			42950.59728		219.93000		875.00000 
 43692.65567		 305.27265			43387.38302		69.19600		324.00000 
 43692.65567		 742.05839			42950.59728		219.93000		875.00000 
 43692.65567		 305.27265			43387.38302		69.19600		324.00000 
 43692.65567		 742.05839			42950.59728		219.93000		875.00000 
 43692.65567		 305.27265			43387.38302		69.19600		324.00000 
 43692.65567		 742.05839			42950.59728		219.93000		875.00000 
 43692.65567		 305.27265			43387.38302		69.19600		324.00000 
 43692.65567		 742.05839			42950.59728		219.93000		875.00000 
 43692.65567		 305.27265			43387.38302		69.19600		324.00000 
 43692.65567		 742.05839			42950.59728		219.93000		875.00000 
 43692.65567		 305.27265			43387.38302		69.19600		324.00000 
 43692.65567		 742.05839			42950.59728		219.93000		875.00000 
 43692.65567		 305.27265			43387.38302		69.19600		324.00000 
 43692.65567		 742.05839			42950.59728		219.93000		875.00000 
 43692.65567		 305.27265			43387.38302		69.19600		324.00000 
 43692.65567		 742.05839			42950.59728		219.93000		875.00000 
 43692.65567		 305.27265			43387.38302		69.19600		324.00000 
 43692.65567		 742.05839			42950.59728		219.93000		875.00000 
 43692.65567		 305.27265			43387.38302		69.19600		324.00000 
 43692.65567		 742.05839			42950.59728		219.93000		875.00000 
 43692.65567		 305.27265			43387.38302		69.19600		324.00000 
 43692.65567		 742.05839			42950.59728		219.93000		875.00000 
 43692.65567		 305.27265			43387.38302		69.19600		324.00000 
 43692.65567		 742.05839			42950.59728		219.93000		875.00000 
 43692.65567		 305.27265			43387.38302		69.19600		324.00000 
 43692.65567		 742.05839			42950.59728		219.93000		875.00000 
 43692.65567		 305.27265			43387.38302		69.19600		324.00000 
 43692.65567		 742.05839			42950.59728		219.93000		875.00000 
 43692.65567		 305.27265			43387.38302		69.19600		324.00000 
 43692.65567		 742.05839			42950.59728		219.93000		875.00000 
 43692.65567		 305.27265			43387.38302		69.19600		324.00000 
 43692.65567		 742.05839			42950.59728		219.93000		875.00000 
 43692.65567		 305.27265			43387.38302		69.19600		324.00000 
 43692.65567		 742.05839			42950.59728		219.93000		875.00000 
 43692.65567		 305.27265			43387.38302		69.19600		324.00000 
 43692.65567		 742.05839			42950.59728		219.93000		875.00000 
 43692.65567		 305.27265			43387.38302		69.19600		324.00000 
 43692.65567		 742.05839			42950.59728		219.93000		875.00000 
 43692.65567		 305.27265			43387.38302		69.19600		324.00000 
 43692.65567		 742.05839			42950.59728		219.93000		875.00000 
 43692.65567		 305.27265			43387.38302		69.19600		324.00000 
 43692.65567		 742.05839			42950.59728		219.93000		875.00000 
 43692.65567		 305.27265			43387.38302		69.19600		324.00000 
 43692.65567		 742.05839			42950.59728		219.93000		875.00000 
 43692.65567		 305.27265			43387.38302		69.19600		324.00000 
 43692.65567		 742.05839			42950.59728		219.93000		875.00000 
 43692.65567		 305.27265			43387.38302		69.19600		324.00000 
 43692.65567		 742.05839			42950.59728		219.93000		875.00000 
 43692.65567		 305.27265			43387.38302		69.19600		324.00000 
 43692.65567		 742.05839			42950.59728		219.93000		875.00000 
 43692.65567		 305.27265			43387.38302		69.19600		324.00000 
 43692.65567		 742.05839			42950.59728		219.93000		875.00000 
 43692.65567		 305.27265			43387.38302		69.19600		324.00000 
 43692.65567		 742.05839			42950.59728		219.93000		875.00000 
 43692.65567		 305.27265			43387.38302		69.19600		324.00000 
 43692.65567		 742.05839			42950.59728		219.93000		875.00000 
 43692.65567		 305.27265			43387.38302		69.19600		324.00000 
 43692.65567		 742.05839			42950.59728		219.93000		875.00000 
 43692.65567		 305.27265			43387.38302		69.19600		324.00000 
 43692.65567		 742.05839			42950.59728		219.93000		875.00000 
 43692.65567		 305.27265			43387.38302		69.19600		324.00000 
 43692.65567		 742.05839			42950.59728		219.93000		875.00000 
 43692.65567		 305.27265			43387.38302		69.19600		324.00000 
 43692.65567		 742.05839			42950.59728		219.93000		875.00000 
 43692.65567		 305.27265			43387.38302		69.19600		324.00000 
 43692.65567		 742.05839			42950.59728		219.93000		875.00000 
 43692.65567		 305.27265			43387.38302		69.19600		324.00000 
 43692.65567		 742.05839			42950.59728		219.93000		875.00000 
 43692.65567		 305.27265			43387.38302		69.19600		324.00000 
 43692.65567		 742.05839			42950.59728		219.93000		875.00000 
 43692.65567		 305.27265			43387.38302		69.19600		324.00000 
 43692.65567		 742.05839			42950.59728		219.93000		875.00000 
 43692.65567		 305.27265			43387.38302		69.19600		324.00000 
 43692.65567		 742.05839			42950.59728		219.93000		875.00000 
 43692.65567		 305.27265			43387.38302		69.19600		324.00000 
 43692.65567		 742.05839			42950.59728		219.93000		875.00000 
 43692.65567		 305.27265			43387.38302		69.19600		324.00000 
 43692.65567		 742.05839			42950.59728		219.93000		875.00000 
 43692.65567		 305.27265			43387.38302		69.19600		324.00000 
 43692.65567		 742.05839			42950.59728		219.93000		875.00000 
 43692.65567		 305.27265			43387.38302		69.19600		324.00000 
 43692.65567		 742.05839			42950.59728		219.93000		875.00000 
 43692.65567		 305.27265			43387.38302		69.19600		324.00000 
 43692.65567		 742.05839			42950.59728		219.93000		875.00000 
 43692.65567		 305.27265			43387.38302		69.19600		324.00000 
 43692.65567		 742.05839			42950.59728		222.18600		875.00000 
 43692.65567		 305.27265			43387.38302		69.19600		324.00000 
 43692.65567		 742.05839			42950.59728		222.18600		875.00000 
 43692.65567		 305.27265			43387.38302		69.19600		324.00000 
 43692.65567		 742.05839			42950.59728		222.18600		875.00000 
 43692.65567		 305.27265			43387.38302		69.19600		324.00000 
 43692.65567		 742.05839			42950.59728		222.18600		875.00000 
 43692.65567		 305.27265			43387.38302		69.19600		324.00000 
 43692.65567		 742.05839			42950.59728		222.18600		875.00000 
 43692.65567		 305.27265			43387.38302		69.19600		324.00000 
 43692.65567		 742.05839			42950.59728		222.18600		875.00000 
 43692.65567		 305.27265			43387.38302		69.19600		324.00000 
 43692.65567		 742.05839			42950.59728		222.18600		875.00000 
 43692.65567		 305.27265			43387.38302		69.19600		324.00000 
 43692.65567		 742.05839			42950.59728		222.18600		875.00000 
 43692.65567		 305.27265			43387.38302		69.19600		324.00000 
 43692.65567		 742.05839			42950.59728		222.18600		875.00000 
 43692.65567		 305.27265			43387.38302		69.19600		324.00000 
 43692.65567		 742.05839			42950.59728		222.18600		875.00000 
 43692.65567		 305.27265			43387.38302		69.19600		324.00000 
 43692.65567		 742.05839			42950.59728		222.18600		875.00000 
 43692.65567		 305.27265			43387.38302		69.19600		324.00000 
 43692.65567		 742.05839			42950.59728		222.18600		875.00000 
 43692.65567		 305.27265			43387.38302		69.19600		324.00000 
 43692.65567		 742.05839			42950.59728		222.18600		875.00000 
 43692.65567		 305.27265			43387.38302		69.19600		324.00000 
 43692.65567		 742.05839			42950.59728		222.18600		875.00000 
 43692.65567		 305.27265			43387.38302		69.19600		324.00000 
 43692.65567		 742.05839			42950.59728		222.18600		875.00000 
 43692.65567		 305.27265			43387.38302		69.19600		324.00000 
 43692.65567		 742.05839			42950.59728		222.18600		875.00000 
 43692.65567		 305.27265			43387.38302		69.19600		324.00000 
 43692.65567		 742.05839			42950.59728		222.18600		875.00000 
 43692.65567		 305.27265			43387.38302		69.19600		324.00000 
 43692.65567		 742.05839			42950.59728		222.18600		875.00000 
 43692.65567		 305.27265			43387.38302		69.19600		324.00000 
 43692.65567		 742.05839			42950.59728		222.18600		875.00000 
 43692.65567		 305.27265			43387.38302		69.19600		324.00000 
 43692.65567		 742.05839			42950.59728		222.18600		875.00000 
 43692.65567		 305.27265			43387.38302		69.19600		324.00000 
 43692.65567		 742.05839			42950.59728		222.18600		875.00000 
 43692.65567		 305.27265			43387.38302		69.19600		324.00000 
 43692.65567		 742.05839			42950.59728		222.18600		875.00000 
 43692.65567		 305.27265			43387.38302		69.19600		324.00000 
 43692.65567		 742.05839			42950.59728		222.18600		875.00000 
 43692.65567		 305.27265			43387.38302		69.19600		324.00000 
 43692.65567		 742.05839			42950.59728		222.18600		875.00000 
 43692.65567		 305.27265			43387.38302		69.19600		324.00000 
 43692.65567		 742.05839			42950.59728		222.18600		875.00000 
 43692.65567		 305.27265			43387.38302		69.19600		324.00000 
 43692.65567		 742.05839			42950.59728		222.18600		875.00000 
 43692.65567		 305.27265			43387.38302		69.19600		324.00000 
 43692.65567		 742.05839			42950.59728		222.18600		875.00000 
 43692.65567		 305.27265			43387.38302		69.19600		324.00000 
 43692.65567		 742.05839			42950.59728		222.18600		875.00000 
 43692.65567		 305.27265			43387.38302		69.19600		324.00000 
 43692.65567		 742.05839			42950.59728		222.18600		875.00000 
 43692.65567		 305.27265			43387.38302		69.19600		324.00000 
 43692.65567		 742.05839			42950.59728		222.18600		875.00000 
 43692.65567		 305.27265			43387.38302		69.19600		324.00000 
 43692.65567		 742.05839			42950.59728		222.18600		875.00000 
 43692.65567		 305.27265			43387.38302		69.19600		324.00000 
 43692.65567		 742.05839			42950.59728		222.18600		875.00000 
 43692.65567		 305.27265			43387.38302		69.19600		324.00000 
 43692.65567		 742.05839			42950.59728		222.18600		875.00000 
 43692.65567		 305.27265			43387.38302		69.19600		324.00000 
 43692.65567		 742.05839			42950.59728		222.18600		875.00000 
 43692.65567		 305.27265			43387.38302		69.19600		324.00000 
 43692.65567		 742.05839			42950.59728		222.18600		875.00000 
 43692.65567		 305.27265			43387.38302		69.19600		324.00000 
 43692.65567		 742.05839			42950.59728		222.18600		875.00000 
 43692.65567		 305.27265			43387.38302		69.19600		324.00000 
 43692.65567		 742.05839			42950.59728		222.18600		875.00000 
 43692.65567		 305.27265			43387.38302		69.19600		324.00000 
 43692.65567		 742.05839			42950.59728		222.18600		875.00000 
 43692.65567		 305.27265			43387.38302		69.19600		324.00000 
 43692.65567		 742.05839			42950.59728		222.18600		875.00000 
 43692.65567		 305.27265			43387.38302		69.19600		324.00000 
 43692.65567		 742.05839			42950.59728		222.18600		875.00000 
 43692.65567		 305.27265			43387.38302		69.19600		324.00000 
 43692.65567		 742.05839			42950.59728		222.18600		875.00000 
 43692.65567		 305.27265			43387.38302		69.19600		324.00000 
 43692.65567		 742.05839			42950.59728		222.18600		875.00000 
 43692.65567		 305.27265			43387.38302		69.19600		324.00000 
 43692.65567		 742.05839			42950.59728		222.18600		875.00000 
 43692.65567		 305.27265			43387.38302		69.19600		324.00000 
 43692.65567		 742.05839			42950.59728		222.18600		875.00000 
 43692.65567		 305.27265			43387.38302		69.19600		324.00000 
 43692.65567		 742.05839			42950.59728		222.18600		875.00000 
 43692.65567		 305.27265			43387.38302		69.19600		324.00000 
 43692.65567		 742.05839			42950.59728		222.18600		875.00000 
 43692.65567		 305.27265			43387.38302		69.19600		324.00000 
 43692.65567		 742.05839			42950.59728		222.18600		875.00000 
 43692.65567		 305.27265			43387.38302		69.19600		324.00000 
 43692.65567		 742.05839			42950.59728		222.18600		875.00000 
 43692.65567		 305.27265			43387.38302		69.19600		324.00000 
 43692.65567		 742.05839			42950.59728		222.18600		875.00000 
 43692.65567		 305.27265			43387.38302		69.19600		324.00000 
 43692.65567		 742.05839			42950.59728		222.18600		875.00000 
 43692.65567		 305.27265			43387.38302		69.19600		324.00000 
 43692.65567		 742.05839			42950.59728		222.18600		875.00000 
 43692.65567		 305.27265			43387.38302		69.19600		324.00000 
 43692.65567		 742.05839			42950.59728		222.18600		875.00000 
 43692.65567		 305.27265			43387.38302		69.19600		324.00000 
 43692.65567		 742.05839			42950.59728		222.18600		875.00000 
 43692.65567		 305.27265			43387.38302		69.19600		324.00000 
 43692.65567		 742.05839			42950.59728		222.18600		875.00000 
 43692.65567		 305.27265			43387.38302		69.19600		324.00000 
 43692.65567		 742.05839			42950.59728		222.18600		875.00000 
 43692.65567		 305.27265			43387.38302		69.19600		324.00000 
 43692.65567		 742.05839			42950.59728		222.18600		875.00000 
 43692.65567		 305.27265			43387.38302		69.19600		324.00000 
 43692.65567		 742.05839			42950.59728		222.18600		875.00000 
 43692.65567		 305.27265			43387.38302		69.19600		324.00000 
 43692.65567		 742.05839			42950.59728		222.18600		875.00000 
 43692.65567		 305.27265			43387.38302		69.19600		324.00000 
 43692.65567		 742.05839			42950.59728		222.18600		875.00000 
 43692.65567		 305.27265			43387.38302		69.19600		324.00000 
 43692.65567		 742.05839			42950.59728		222.18600		875.00000 
 43692.65567		 305.27265			43387.38302		69.19600		324.00000 
 43692.65567		 742.05839			42950.59728		222.18600		875.00000 
 43692.65567		 305.27265			43387.38302		69.19600		324.00000 
 43692.65567		 742.05839			42950.59728		222.18600		875.00000 
 43692.65567		 305.27265			43387.38302		69.19600		324.00000 
 43692.65567		 742.05839			42950.59728		222.18600		875.00000 
 43692.65567		 305.27265			43387.38302		69.19600		324.00000 
 43692.65567		 742.05839			42950.59728		222.18600		875.00000 
 43692.65567		 305.27265			43387.38302		69.19600		324.00000 
 43692.65567		 742.05839			42950.59728		221.86800		875.00000 
 43692.65567		 305.27265			43387.38302		69.19600		324.00000 
 43692.65567		 742.05839			42950.59728		221.86800		875.00000 
 43692.65567		 305.27265			43387.38302		69.19600		324.00000 
 43692.65567		 742.05839			42950.59728		221.86800		875.00000 
 43692.65567		 305.27265			43387.38302		69.19600		324.00000 
 43692.65567		 742.05839			42950.59728		221.86800		875.00000 
 43692.65567		 305.27265			43387.38302		69.19600		324.00000 
 43692.65567		 742.05839			42950.59728		221.86800		875.00000 
 43692.65567		 305.27265			43387.38302		69.19600		324.00000 
 43692.65567		 742.05839			42950.59728		221.86800		875.00000 
 43692.65567		 305.27265			43387.38302		69.19600		324.00000 
 43692.65567		 742.05839			42950.59728		221.86800		875.00000 
 43692.65567		 305.27265			43387.38302		69.19600		324.00000 
 43692.65567		 742.05839			42950.59728		221.86800		875.00000 
 43692.65567		 305.27265			43387.38302		69.19600		324.00000 
 43692.65567		 742.05839			42950.59728		221.86800		875.00000 
 43692.65567		 305.27265			43387.38302		69.19600		324.00000 
 43692.65567		 742.05839			42950.59728		221.86800		875.00000 
 43692.65567		 305.27265			43387.38302		69.19600		324.00000 
 43692.65567		 742.05839			42950.59728		221.86800		875.00000 
 43692.65567		 305.27265			43387.38302		69.19600		324.00000 
 43692.65567		 742.05839			42950.59728		221.86800		875.00000 
 43692.65567		 305.27265			43387.38302		69.19600		324.00000 
 43692.65567		 742.05839			42950.59728		221.86800		875.00000 
 43692.65567		 305.27265			43387.38302		69.19600		324.00000 
 43692.65567		 742.05839			42950.59728		221.86800		875.00000 
 43692.65567		 305.27265			43387.38302		69.19600		324.00000 
 43692.65567		 742.05839			42950.59728		221.86800		875.00000 
 43692.65567		 305.27265			43387.38302		69.19600		324.00000 
 43692.65567		 742.05839			42950.59728		221.86800		875.00000 
 43692.65567		 305.27265			43387.38302		69.19600		324.00000 
 43692.65567		 742.05839			42950.59728		221.86800		875.00000 
 43692.65567		 305.27265			43387.38302		69.19600		324.00000 
 43692.65567		 742.05839			42950.59728		221.86800		875.00000 
 43692.65567		 305.27265			43387.38302		69.19600		324.00000 
 43692.65567		 742.05839			42950.59728		221.86800		875.00000 
 43692.65567		 305.27265			43387.38302		69.19600		324.00000 
 43692.65567		 742.05839			42950.59728		221.86800		875.00000 
 43692.65567		 305.27265			43387.38302		69.19600		324.00000 
 43692.65567		 742.05839			42950.59728		221.86800		875.00000 
 43692.65567		 305.27265			43387.38302		69.19600		324.00000 
 43692.65567		 742.05839			42950.59728		221.86800		875.00000 
 43692.65567		 305.27265			43387.38302		69.19600		324.00000 
 43692.65567		 742.05839			42950.59728		221.86800		875.00000 
 43692.65567		 305.27265			43387.38302		69.19600		324.00000 
 43692.65567		 742.05839			42950.59728		221.86800		875.00000 
 43692.65567		 305.27265			43387.38302		69.19600		324.00000 
 43692.65567		 742.05839			42950.59728		221.86800		875.00000 
 43692.65567		 305.27265			43387.38302		69.19600		324.00000 
 43692.65567		 742.05839			42950.59728		221.86800		875.00000 
 43692.65567		 305.27265			43387.38302		69.19600		324.00000 
 43692.65567		 742.05839			42950.59728		221.86800		875.00000 
 43692.65567		 305.27265			43387.38302		69.19600		324.00000 
 43692.65567		 742.05839			42950.59728		221.86800		875.00000 
 43692.65567		 305.27265			43387.38302		69.19600		324.00000 
 43692.65567		 742.05839			42950.59728		221.86800		875.00000 
 43692.65567		 305.27265			43387.38302		69.19600		324.00000 
 43692.65567		 742.05839			42950.59728		221.86800		875.00000 
 43692.65567		 305.27265			43387.38302		69.19600		324.00000 
 43692.65567		 742.05839			42950.59728		221.86800		875.00000 
 43692.65567		 305.27265			43387.38302		69.19600		324.00000 
 43692.65567		 742.05839			42950.59728		221.86800		875.00000 
 43692.65567		 305.27265			43387.38302		69.19600		324.00000 
 43692.65567		 742.05839			42950.59728		221.86800		875.00000 
 43692.65567		 305.27265			43387.38302		69.19600		324.00000 
 43692.65567		 742.05839			42950.59728		221.86800		875.00000 
 43692.65567		 305.27265			43387.38302		69.19600		324.00000 
 43692.65567		 742.05839			42950.59728		221.86800		875.00000 
 43692.65567		 305.27265			43387.38302		69.19600		324.00000 
 43692.65567		 742.05839			42950.59728		221.86800		875.00000 
 43692.65567		 305.27265			43387.38302		69.19600		324.00000 
 43692.65567		 742.05839			42950.59728		221.86800		875.00000 
 43692.65567		 305.27265			43387.38302		69.19600		324.00000 
 43692.65567		 742.05839			42950.59728		221.86800		875.00000 
 43692.65567		 305.27265			43387.38302		69.19600		324.00000 
 43692.65567		 742.05839			42950.59728		221.86800		875.00000 
 43692.65567		 305.27265			43387.38302		69.19600		324.00000 
 43692.65567		 742.05839			42950.59728		221.86800		875.00000 
 43692.65567		 305.27265			43387.38302		69.19600		324.00000 
 43692.65567		 742.05839			42950.59728		221.86800		875.00000 
 43692.65567		 305.27265			43387.38302		69.19600		324.00000 
 43692.65567		 742.05839			42950.59728		221.86800		875.00000 
 43692.65567		 305.27265			43387.38302		69.19600		324.00000 
 43692.65567		 742.05839			42950.59728		221.86800		875.00000 
 43692.65567		 305.27265			43387.38302		69.19600		324.00000 
 43692.65567		 742.05839			42950.59728		221.86800		875.00000 
 43692.65567		 305.27265			43387.38302		69.19600		324.00000 
 43692.65567		 742.05839			42950.59728		221.86800		875.00000 
 43692.65567		 305.27265			43387.38302		69.19600		324.00000 
 43692.65567		 742.05839			42950.59728		221.86800		875.00000 
 43692.65567		 305.27265			43387.38302		69.19600		324.00000 
 43692.65567		 742.05839			42950.59728		221.86800		875.00000 
 43692.65567		 305.27265			43387.38302		69.19600		324.00000 
 43692.65567		 742.05839			42950.59728		221.86800		875.00000 
 43692.65567		 305.27265			43387.38302		69.19600		324.00000 
 43692.65567		 742.05839			42950.59728		221.86800		875.00000 
 43692.65567		 305.27265			43387.38302		69.19600		324.00000 
 43692.65567		 742.05839			42950.59728		221.86800		875.00000 
 43692.65567		 305.27265			43387.38302		69.19600		324.00000 
 43692.65567		 742.05839			42950.59728		221.86800		875.00000 
 43692.65567		 305.27265			43387.38302		69.19600		324.00000 
 43692.65567		 742.05839			42950.59728		221.86800		875.00000 
 43692.65567		 305.27265			43387.38302		69.19600		324.00000 
 43692.65567		 742.05839			42950.59728		221.86800		875.00000 
 43692.65567		 305.27265			43387.38302		69.19600		324.00000 
 43692.65567		 742.05839			42950.59728		221.86800		875.00000 
 43692.65567		 305.27265			43387.38302		69.19600		324.00000 
 43692.65567		 742.05839			42950.59728		221.86800		875.00000 
 43692.65567		 305.27265			43387.38302		69.19600		324.00000 
 43692.65567		 742.05839			42950.59728		221.86800		875.00000 
 43692.65567		 305.27265			43387.38302		69.19600		324.00000 
 43692.65567		 742.05839			42950.59728		221.86800		875.00000 
 43692.65567		 305.27265			43387.38302		69.19600		324.00000 
 43692.65567		 742.05839			42950.59728		221.86800		875.00000 
 43692.65567		 305.27265			43387.38302		69.19600		324.00000 
 43692.65567		 742.05839			42950.59728		221.86800		875.00000 
 43692.65567		 305.27265			43387.38302		69.19600		324.00000 
 43692.65567		 742.05839			42950.59728		221.86800		875.00000 
 43692.65567		 305.27265			43387.38302		69.19600		324.00000 
 43692.65567		 742.05839			42950.59728		221.86800		875.00000 
 43692.65567		 305.27265			43387.38302		69.19600		324.00000 
 43692.65567		 742.05839			42950.59728		221.86800		875.00000 
 43692.65567		 305.27265			43387.38302		69.19600		324.00000 
 43692.65567		 742.05839			42950.59728		221.86800		875.00000 
 43692.65567		 305.27265			43387.38302		69.19600		324.00000 
 43692.65567		 742.05839			42950.59728		221.86800		875.00000 
 43692.65567		 305.27265			43387.38302		69.19600		324.00000 
 43692.65567		 742.05839			42950.59728		221.46000		875.00000 
 43692.65567		 305.27265			43387.38302		69.19600		324.00000 
 43692.65567		 742.05839			42950.59728		221.46000		875.00000 
 43692.65567		 305.27265			43387.38302		69.19600		324.00000 
 43692.65567		 742.05839			42950.59728		221.46000		875.00000 
 43692.65567		 305.27265			43387.38302		69.19600		324.00000 
 43692.65567		 742.05839			42950.59728		221.46000		875.00000 
 43692.65567		 305.27265			43387.38302		69.19600		324.00000 
 43692.65567		 742.05839			42950.59728		221.46000		875.00000 
 43692.65567		 305.27265			43387.38302		69.19600		324.00000 
 43692.65567		 742.05839			42950.59728		221.46000		875.00000 
 43692.65567		 305.27265			43387.38302		69.19600		324.00000 
 43692.65567		 742.05839			42950.59728		221.46000		875.00000 
 43692.65567		 305.27265			43387.38302		69.19600		324.00000 
 43692.65567		 742.05839			42950.59728		221.46000		875.00000 
 43692.65567		 305.27265			43387.38302		69.19600		324.00000 
 43692.65567		 742.05839			42950.59728		221.46000		875.00000 
 43692.65567		 305.27265			43387.38302		69.19600		324.00000 
 43692.65567		 742.05839			42950.59728		221.46000		875.00000 
 43692.65567		 305.27265			43387.38302		69.19600		324.00000 
 43692.65567		 742.05839			42950.59728		221.46000		875.00000 
 43692.65567		 305.27265			43387.38302		69.19600		324.00000 
 43692.65567		 742.05839			42950.59728		221.46000		875.00000 
 43692.65567		 305.27265			43387.38302		69.19600		324.00000 
 43692.65567		 742.05839			42950.59728		221.46000		875.00000 
 43692.65567		 305.27265			43387.38302		69.19600		324.00000 
 43692.65567		 742.05839			42950.59728		221.46000		875.00000 
 43692.65567		 305.27265			43387.38302		69.19600		324.00000 
 43692.65567		 742.05839			42950.59728		221.46000		875.00000 
 43692.65567		 305.27265			43387.38302		69.19600		324.00000 
 43692.65567		 742.05839			42950.59728		221.46000		875.00000 
 43692.65567		 305.27265			43387.38302		69.19600		324.00000 
 43692.65567		 742.05839			42950.59728		221.46000		875.00000 
 43692.65567		 305.27265			43387.38302		69.19600		324.00000 
 43692.65567		 742.05839			42950.59728		221.46000		875.00000 
 43692.65567		 305.27265			43387.38302		69.19600		324.00000 
 43692.65567		 742.05839			42950.59728		221.46000		875.00000 
 43692.65567		 305.27265			43387.38302		69.19600		324.00000 
 43692.65567		 742.05839			42950.59728		221.46000		875.00000 
 43692.65567		 305.27265			43387.38302		69.19600		324.00000 
 43692.65567		 742.05839			42950.59728		221.46000		875.00000 
 43692.65567		 305.27265			43387.38302		69.19600		324.00000 
 43692.65567		 742.05839			42950.59728		221.46000		875.00000 
 43692.65567		 305.27265			43387.38302		69.19600		324.00000 
 43692.65567		 742.05839			42950.59728		221.46000		875.00000 
 43692.65567		 305.27265			43387.38302		69.19600		324.00000 
 43692.65567		 742.05839			42950.59728		221.46000		875.00000 
 43692.65567		 305.27265			43387.38302		69.19600		324.00000 
 43692.65567		 742.05839			42950.59728		221.46000		875.00000 
 43692.65567		 305.27265			43387.38302		69.19600		324.00000 
 43692.65567		 742.05839			42950.59728		221.46000		875.00000 
 43692.65567		 305.27265			43387.38302		69.19600		324.00000 
 43692.65567		 742.05839			42950.59728		221.46000		875.00000 
 43692.65567		 305.27265			43387.38302		69.19600		324.00000 
 43692.65567		 742.05839			42950.59728		221.46000		875.00000 
 43692.65567		 305.27265			43387.38302		69.19600		324.00000 
 43692.65567		 742.05839			42950.59728		221.46000		875.00000 
 43692.65567		 305.27265			43387.38302		69.19600		324.00000 
 43692.65567		 742.05839			42950.59728		221.46000		875.00000 
 43692.65567		 305.27265			43387.38302		69.19600		324.00000 
 43692.65567		 742.05839			42950.59728		221.46000		875.00000 
 43692.65567		 305.27265			43387.38302		69.19600		324.00000 
 43692.65567		 742.05839			42950.59728		221.46000		875.00000 
 43692.65567		 305.27265			43387.38302		69.19600		324.00000 
 43692.65567		 742.05839			42950.59728		221.46000		875.00000 
 43692.65567		 305.27265			43387.38302		69.19600		324.00000 
 43692.65567		 742.05839			42950.59728		221.46000		875.00000 
 43692.65567		 305.27265			43387.38302		70.72800		324.00000 
 43692.65567		 742.05839			42950.59728		221.46000		875.00000 
 43692.65567		 305.27265			43387.38302		70.72800		324.00000 
 43692.65567		 742.05839			42950.59728		221.46000		875.00000 
 43692.65567		 305.27265			43387.38302		70.72800		324.00000 
 43692.65567		 742.05839			42950.59728		221.46000		875.00000 
 43692.65567		 305.27265			43387.38302		70.72800		324.00000 
 43692.65567		 742.05839			42950.59728		221.46000		875.00000 
 43692.65567		 305.27265			43387.38302		70.72800		324.00000 
 43692.65567		 742.05839			42950.59728		221.46000		875.00000 
 43692.65567		 305.27265			43387.38302		70.72800		324.00000 
 43692.65567		 742.05839			42950.59728		221.46000		875.00000 
 43692.65567		 305.27265			43387.38302		70.72800		324.00000 
 43692.65567		 742.05839			42950.59728		221.46000		875.00000 
 43692.65567		 305.27265			43387.38302		70.72800		324.00000 
 43692.65567		 742.05839			42950.59728		221.46000		875.00000 
 43692.65567		 305.27265			43387.38302		70.72800		324.00000 
 43692.65567		 742.05839			42950.59728		221.46000		875.00000 
 43692.65567		 305.27265			43387.38302		70.72800		324.00000 
 43692.65567		 742.05839			42950.59728		221.46000		875.00000 
 43692.65567		 305.27265			43387.38302		70.72800		324.00000 
 43692.65567		 742.05839			42950.59728		221.46000		875.00000 
 43692.65567		 305.27265			43387.38302		70.72800		324.00000 
 43692.65567		 742.05839			42950.59728		221.46000		875.00000 
 43692.65567		 305.27265			43387.38302		70.72800		324.00000 
 43692.65567		 742.05839			42950.59728		221.46000		875.00000 
 43692.65567		 305.27265			43387.38302		70.72800		324.00000 
 43692.65567		 742.05839			42950.59728		221.46000		875.00000 
 43692.65567		 305.27265			43387.38302		70.72800		324.00000 
 43692.65567		 742.05839			42950.59728		221.46000		875.00000 
 43692.65567		 305.27265			43387.38302		70.72800		324.00000 
 43692.65567		 742.05839			42950.59728		221.46000		875.00000 
 43692.65567		 305.27265			43387.38302		70.72800		324.00000 
 43692.65567		 742.05839			42950.59728		221.46000		875.00000 
 43692.65567		 305.27265			43387.38302		70.72800		324.00000 
 43692.65567		 742.05839			42950.59728		221.46000		875.00000 
 43692.65567		 305.27265			43387.38302		70.72800		324.00000 
 43692.65567		 742.05839			42950.59728		221.46000		875.00000 
 43692.65567		 305.27265			43387.38302		70.72800		324.00000 
 43692.65567		 742.05839			42950.59728		221.46000		875.00000 
 43692.65567		 305.27265			43387.38302		70.72800		324.00000 
 43692.65567		 742.05839			42950.59728		221.46000		875.00000 
 43692.65567		 305.27265			43387.38302		70.72800		324.00000 
 43692.65567		 742.05839			42950.59728		221.46000		875.00000 
 43692.65567		 305.27265			43387.38302		70.72800		324.00000 
 43692.65567		 742.05839			42950.59728		221.46000		875.00000 
 43692.65567		 305.27265			43387.38302		70.72800		324.00000 
 43692.65567		 742.05839			42950.59728		221.46000		875.00000 
 43692.65567		 305.27265			43387.38302		70.72800		324.00000 
 43692.65567		 742.05839			42950.59728		221.46000		875.00000 
 43692.65567		 305.27265			43387.38302		70.72800		324.00000 
 43692.65567		 742.05839			42950.59728		221.46000		875.00000 
 43692.65567		 305.27265			43387.38302		70.72800		324.00000 
 43692.65567		 742.05839			42950.59728		221.46000		875.00000 
 43692.65567		 305.27265			43387.38302		70.72800		324.00000 
 43692.65567		 742.05839			42950.59728		221.46000		875.00000 
 43692.65567		 305.27265			43387.38302		70.72800		324.00000 
 43692.65567		 742.05839			42950.59728		222.06000		875.00000 
 43692.65567		 305.27265			43387.38302		70.72800		324.00000 
 43692.65567		 742.05839			42950.59728		222.06000		875.00000 
 43692.65567		 305.27265			43387.38302		70.72800		324.00000 
 43692.65567		 742.05839			42950.59728		222.06000		875.00000 
 43692.65567		 305.27265			43387.38302		70.72800		324.00000 
 43692.65567		 742.05839			42950.59728		222.06000		875.00000 
 43692.65567		 305.27265			43387.38302		70.72800		324.00000 
 43692.65567		 742.05839			42950.59728		222.06000		875.00000 
 43692.65567		 305.27265			43387.38302		70.72800		324.00000 
 43692.65567		 742.05839			42950.59728		222.06000		875.00000 
 43692.65567		 305.27265			43387.38302		70.72800		324.00000 
 43692.65567		 742.05839			42950.59728		222.06000		875.00000 
 43692.65567		 305.27265			43387.38302		70.72800		324.00000 
 43692.65567		 742.05839			42950.59728		222.06000		875.00000 
 43692.65567		 305.27265			43387.38302		70.72800		324.00000 
 43692.65567		 742.05839			42950.59728		222.06000		875.00000 
 43692.65567		 305.27265			43387.38302		70.72800		324.00000 
 43692.65567		 742.05839			42950.59728		222.06000		875.00000 
 43692.65567		 305.27265			43387.38302		70.72800		324.00000 
 43692.65567		 742.05839			42950.59728		222.06000		875.00000 
 43692.65567		 305.27265			43387.38302		70.72800		324.00000 
 43692.65567		 742.05839			42950.59728		222.06000		875.00000 
 43692.65567		 305.27265			43387.38302		70.72800		324.00000 
 43692.65567		 742.05839			42950.59728		222.06000		875.00000 
 43692.65567		 305.27265			43387.38302		70.72800		324.00000 
 43692.65567		 742.05839			42950.59728		222.06000		875.00000 
 43692.65567		 305.27265			43387.38302		70.72800		324.00000 
 43692.65567		 742.05839			42950.59728		222.06000		875.00000 
 43692.65567		 305.27265			43387.38302		70.72800		324.00000 
 43692.65567		 742.05839			42950.59728		222.06000		875.00000 
 43692.65567		 305.27265			43387.38302		70.72800		324.00000 
 43692.65567		 742.05839			42950.59728		222.06000		875.00000 
 43692.65567		 305.27265			43387.38302		70.72800		324.00000 
 43692.65567		 742.05839			42950.59728		222.06000		875.00000 
 43692.65567		 305.27265			43387.38302		70.72800		324.00000 
 43692.65567		 742.05839			42950.59728		222.06000		875.00000 
 43692.65567		 305.27265			43387.38302		70.72800		324.00000 
 43692.65567		 742.05839			42950.59728		222.06000		875.00000 
 43692.65567		 305.27265			43387.38302		70.72800		324.00000 
 43692.65567		 742.05839			42950.59728		222.06000		875.00000 
 43692.65567		 305.27265			43387.38302		70.72800		324.00000 
 43692.65567		 742.05839			42950.59728		222.06000		875.00000 
 43692.65567		 305.27265			43387.38302		70.72800		324.00000 
 43692.65567		 742.05839			42950.59728		222.06000		875.00000 
 43692.65567		 305.27265			43387.38302		70.72800		324.00000 
 43692.65567		 742.05839			42950.59728		222.06000		875.00000 
 43692.65567		 305.27265			43387.38302		70.72800		324.00000 
 43692.65567		 742.05839			42950.59728		222.06000		875.00000 
 43692.65567		 305.27265			43387.38302		70.72800		324.00000 
 43692.65567		 742.05839			42950.59728		222.06000		875.00000 
 43692.65567		 305.27265			43387.38302		70.72800		324.00000 
 43692.65567		 742.05839			42950.59728		222.06000		875.00000 
 43692.65567		 305.27265			43387.38302		70.72800		324.00000 
 43692.65567		 742.05839			42950.59728		222.06000		875.00000 
 43692.65567		 305.27265			43387.38302		70.72800		324.00000 
 43692.65567		 742.05839			42950.59728		222.06000		875.00000 
 43692.65567		 305.27265			43387.38302		70.72800		324.00000 
 43692.65567		 742.05839			42950.59728		222.06000		875.00000 
 43692.65567		 305.27265			43387.38302		70.72800		324.00000 
 43692.65567		 742.05839			42950.59728		222.06000		875.00000 
 43692.65567		 305.27265			43387.38302		70.72800		324.00000 
 43692.65567		 742.05839			42950.59728		222.06000		875.00000 
 43692.65567		 305.27265			43387.38302		70.72800		324.00000 
 43692.65567		 742.05839			42950.59728		222.06000		875.00000 
 43692.65567		 305.27265			43387.38302		70.72800		324.00000 
 43692.65567		 742.05839			42950.59728		222.06000		875.00000 
 43692.65567		 305.27265			43387.38302		70.72800		324.00000 
 43692.65567		 742.05839			42950.59728		222.06000		875.00000 
 43692.65567		 305.27265			43387.38302		70.72800		324.00000 
 43692.65567		 742.05839			42950.59728		222.06000		875.00000 
 43692.65567		 305.27265			43387.38302		70.72800		324.00000 
 43692.65567		 742.05839			42950.59728		222.06000		875.00000 
 43692.65567		 305.27265			43387.38302		70.72800		324.00000 
 43692.65567		 742.05839			42950.59728		222.06000		875.00000 
 43692.65567		 305.27265			43387.38302		70.72800		324.00000 
 43692.65567		 742.05839			42950.59728		222.06000		875.00000 
 43692.65567		 305.27265			43387.38302		70.72800		324.00000 
 43692.65567		 742.05839			42950.59728		222.06000		875.00000 
 43692.65567		 305.27265			43387.38302		70.72800		324.00000 
 43692.65567		 742.05839			42950.59728		222.06000		875.00000 
 43692.65567		 305.27265			43387.38302		70.72800		324.00000 
 43692.65567		 742.05839			42950.59728		222.06000		875.00000 
 43692.65567		 305.27265			43387.38302		70.72800		324.00000 
 43692.65567		 742.05839			42950.59728		222.06000		875.00000 
 43692.65567		 305.27265			43387.38302		70.72800		324.00000 
 43692.65567		 742.05839			42950.59728		222.06000		875.00000 
 43692.65567		 305.27265			43387.38302		70.72800		324.00000 
 43692.65567		 742.05839			42950.59728		222.06000		875.00000 
 43692.65567		 305.27265			43387.38302		70.72800		324.00000 
 43692.65567		 742.05839			42950.59728		222.06000		875.00000 
 43692.65567		 305.27265			43387.38302		70.72800		324.00000 
 43692.65567		 742.05839			42950.59728		222.06000		875.00000 
 43692.65567		 305.27265			43387.38302		70.72800		324.00000 
 43692.65567		 742.05839			42950.59728		222.06000		875.00000 
 43692.65567		 305.27265			43387.38302		70.72800		324.00000 
 43692.65567		 742.05839			42950.59728		222.06000		875.00000 
 43692.65567		 305.27265			43387.38302		70.72800		324.00000 
 43692.65567		 742.05839			42950.59728		222.06000		875.00000 
 43692.65567		 305.27265			43387.38302		70.72800		324.00000 
 43692.65567		 742.05839			42950.59728		222.06000		875.00000 
 43692.65567		 305.27265			43387.38302		70.72800		324.00000 
 43692.65567		 742.05839			42950.59728		222.06000		875.00000 
 43692.65567		 305.27265			43387.38302		70.72800		324.00000 
 43692.65567		 742.05839			42950.59728		222.06000		875.00000 
 43692.65567		 305.27265			43387.38302		70.72800		324.00000 
 43692.65567		 742.05839			42950.59728		222.06000		875.00000 
 43692.65567		 305.27265			43387.38302		70.72800		324.00000 
 43692.65567		 742.05839			42950.59728		222.06000		875.00000 
 43692.65567		 305.27265			43387.38302		70.72800		324.00000 
 43692.65567		 742.05839			42950.59728		222.06000		875.00000 
 43692.65567		 305.27265			43387.38302		70.72800		324.00000 
 43692.65567		 742.05839			42950.59728		222.06000		875.00000 
 43692.65567		 305.27265			43387.38302		70.72800		324.00000 
 43692.65567		 742.05839			42950.59728		222.06000		875.00000 
 43692.65567		 305.27265			43387.38302		70.72800		324.00000 
 43692.65567		 742.05839			42950.59728		222.06000		875.00000 
 43692.65567		 305.27265			43387.38302		70.72800		324.00000 
 43692.65567		 742.05839			42950.59728		222.06000		875.00000 
 43692.65567		 305.27265			43387.38302		70.72800		324.00000 
 43692.65567		 742.05839			42950.59728		222.06000		875.00000 
 43692.65567		 305.27265			43387.38302		70.72800		324.00000 
 43692.65567		 742.05839			42950.59728		222.06000		875.00000 
 43692.65567		 305.27265			43387.38302		70.72800		324.00000 
 43692.65567		 742.05839			42950.59728		222.06000		875.00000 
 43692.65567		 305.27265			43387.38302		70.72800		324.00000 
 43692.65567		 742.05839			42950.59728		221.46000		875.00000 
 43692.65567		 305.27265			43387.38302		70.72800		324.00000 
 43692.65567		 742.05839			42950.59728		221.46000		875.00000 
 43692.65567		 305.27265			43387.38302		70.72800		324.00000 
 43692.65567		 742.05839			42950.59728		221.46000		875.00000 
 43692.65567		 305.27265			43387.38302		70.72800		324.00000 
 43692.65567		 742.05839			42950.59728		221.46000		875.00000 
 43692.65567		 305.27265			43387.38302		70.72800		324.00000 
 43692.65567		 742.05839			42950.59728		221.46000		875.00000 
 43692.65567		 305.27265			43387.38302		70.72800		324.00000 
 43692.65567		 742.05839			42950.59728		221.46000		875.00000 
 43692.65567		 305.27265			43387.38302		70.72800		324.00000 
 43692.65567		 742.05839			42950.59728		221.46000		875.00000 
 43692.65567		 305.27265			43387.38302		70.72800		324.00000 
 43692.65567		 742.05839			42950.59728		221.46000		875.00000 
 43692.65567		 305.27265			43387.38302		70.72800		324.00000 
 43692.65567		 742.05839			42950.59728		221.46000		875.00000 
 43692.65567		 305.27265			43387.38302		70.72800		324.00000 
 43692.65567		 742.05839			42950.59728		221.46000		875.00000 
 43692.65567		 305.27265			43387.38302		70.72800		324.00000 
 43692.65567		 742.05839			42950.59728		221.46000		875.00000 
 43692.65567		 305.27265			43387.38302		70.72800		324.00000 
 43692.65567		 742.05839			42950.59728		221.46000		875.00000 
 43692.65567		 305.27265			43387.38302		70.72800		324.00000 
 43692.65567		 742.05839			42950.59728		221.46000		875.00000 
 43692.65567		 305.27265			43387.38302		70.72800		324.00000 
 43692.65567		 742.05839			42950.59728		221.46000		875.00000 
 43692.65567		 305.27265			43387.38302		70.72800		324.00000 
 43692.65567		 742.05839			42950.59728		221.46000		875.00000 
 43692.65567		 305.27265			43387.38302		70.72800		324.00000 
 43692.65567		 742.05839			42950.59728		221.46000		875.00000 
 43692.65567		 305.27265			43387.38302		70.72800		324.00000 
 43692.65567		 742.05839			42950.59728		221.46000		875.00000 
 43692.65567		 305.27265			43387.38302		70.72800		324.00000 
 43692.65567		 742.05839			42950.59728		221.46000		875.00000 
 43692.65567		 305.27265			43387.38302		70.72800		324.00000 
 43692.65567		 742.05839			42950.59728		221.46000		875.00000 
 43692.65567		 305.27265			43387.38302		70.72800		324.00000 
 43692.65567		 742.05839			42950.59728		221.46000		875.00000 
 43692.65567		 305.27265			43387.38302		70.72800		324.00000 
 43692.65567		 742.05839			42950.59728		221.46000		875.00000 
 43692.65567		 305.27265			43387.38302		70.72800		324.00000 
 43692.65567		 742.05839			42950.59728		221.46000		875.00000 
 43692.65567		 305.27265			43387.38302		70.72800		324.00000 
 43692.65567		 742.05839			42950.59728		221.46000		875.00000 
 43692.65567		 305.27265			43387.38302		70.72800		324.00000 
 43692.65567		 742.05839			42950.59728		221.46000		875.00000 
 43692.65567		 305.27265			43387.38302		70.72800		324.00000 
 43692.65567		 742.05839			42950.59728		221.46000		875.00000 
 43692.65567		 305.27265			43387.38302		70.72800		324.00000 
 43692.65567		 742.05839			42950.59728		221.46000		875.00000 
 43692.65567		 305.27265			43387.38302		70.72800		324.00000 
 43692.65567		 742.05839			42950.59728		221.46000		875.00000 
 43692.65567		 305.27265			43387.38302		70.72800		324.00000 
 43692.65567		 742.05839			42950.59728		221.46000		875.00000 
 43692.65567		 305.27265			43387.38302		70.72800		324.00000 
 43692.65567		 742.05839			42950.59728		221.46000		875.00000 
 43692.65567		 305.27265			43387.38302		70.72800		324.00000 
 43692.65567		 742.05839			42950.59728		221.46000		875.00000 
 43692.65567		 305.27265			43387.38302		70.72800		324.00000 
 43692.65567		 742.05839			42950.59728		221.46000		875.00000 
 43692.65567		 305.27265			43387.38302		70.72800		324.00000 
 43692.65567		 742.05839			42950.59728		221.46000		875.00000 
 43692.65567		 305.27265			43387.38302		70.72800		324.00000 
 43692.65567		 742.05839			42950.59728		221.46000		875.00000 
 43692.65567		 305.27265			43387.38302		70.72800		324.00000 
 43692.65567		 742.05839			42950.59728		221.46000		875.00000 
 43692.65567		 305.27265			43387.38302		70.72800		324.00000 
 43692.65567		 742.05839			42950.59728		221.46000		875.00000 
 43692.65567		 305.27265			43387.38302		70.72800		324.00000 
 43692.65567		 742.05839			42950.59728		221.46000		875.00000 
 43692.65567		 305.27265			43387.38302		70.72800		324.00000 
 43692.65567		 742.05839			42950.59728		221.46000		875.00000 
 43692.65567		 305.27265			43387.38302		70.72800		324.00000 
 43692.65567		 742.05839			42950.59728		221.46000		875.00000 
 43692.65567		 305.27265			43387.38302		70.72800		324.00000 
 43692.65567		 742.05839			42950.59728		221.46000		875.00000 
 43692.65567		 305.27265			43387.38302		70.72800		324.00000 
 43692.65567		 742.05839			42950.59728		221.46000		875.00000 
 43692.65567		 305.27265			43387.38302		70.72800		324.00000 
 43692.65567		 742.05839			42950.59728		221.46000		875.00000 
 43692.65567		 305.27265			43387.38302		70.72800		324.00000 
 43692.65567		 742.05839			42950.59728		221.46000		875.00000 
 43692.65567		 305.27265			43387.38302		70.72800		324.00000 
 43692.65567		 742.05839			42950.59728		221.46000		875.00000 
 43692.65567		 305.27265			43387.38302		70.72800		324.00000 
 43692.65567		 742.05839			42950.59728		221.46000		875.00000 
 43692.65567		 305.27265			43387.38302		70.72800		324.00000 
 43692.65567		 742.05839			42950.59728		221.46000		875.00000 
 43692.65567		 305.27265			43387.38302		70.72800		324.00000 
 43692.65567		 742.05839			42950.59728		221.46000		875.00000 
 43692.65567		 305.27265			43387.38302		70.72800		324.00000 
 43692.65567		 742.05839			42950.59728		221.46000		875.00000 
 43692.65567		 305.27265			43387.38302		70.72800		324.00000 
 43692.65567		 742.05839			42950.59728		221.46000		875.00000 
 43692.65567		 305.27265			43387.38302		70.72800		324.00000 
 43692.65567		 742.05839			42950.59728		221.46000		875.00000 
 43692.65567		 305.27265			43387.38302		70.72800		324.00000 
 43692.65567		 742.05839			42950.59728		221.46000		875.00000 
 43692.65567		 305.27265			43387.38302		70.72800		324.00000 
 43692.65567		 742.05839			42950.59728		221.46000		875.00000 
 43692.65567		 305.27265			43387.38302		70.72800		324.00000 
 43692.65567		 742.05839			42950.59728		221.46000		875.00000 
 43692.65567		 305.27265			43387.38302		70.72800		324.00000 
 43692.65567		 742.05839			42950.59728		221.46000		875.00000 
 43692.65567		 305.27265			43387.38302		70.72800		324.00000 
 43692.65567		 742.05839			42950.59728		221.46000		875.00000 
 43692.65567		 305.27265			43387.38302		70.72800		324.00000 
 43692.65567		 742.05839			42950.59728		221.46000		875.00000 
 43692.65567		 305.27265			43387.38302		70.72800		324.00000 
 43692.65567		 742.05839			42950.59728		221.46000		875.00000 
 43692.65567		 305.27265			43387.38302		70.72800		324.00000 
 43692.65567		 742.05839			42950.59728		221.46000		875.00000 
 43692.65567		 305.27265			43387.38302		70.72800		324.00000 
 43692.65567		 742.05839			42950.59728		221.46000		875.00000 
 43692.65567		 305.27265			43387.38302		70.72800		324.00000 
 43692.65567		 742.05839			42950.59728		221.46000		875.00000 
 43692.65567		 305.27265			43387.38302		70.72800		324.00000 
 43692.65567		 742.05839			42950.59728		221.46000		875.00000 
 43692.65567		 305.27265			43387.38302		70.72800		324.00000 
 43692.65567		 742.05839			42950.59728		221.46000		875.00000 
 43692.65567		 305.27265			43387.38302		70.72800		324.00000 
 43692.65567		 742.05839			42950.59728		221.46000		875.00000 
 43692.65567		 305.27265			43387.38302		70.72800		324.00000 
 43692.65567		 742.05839			42950.59728		221.46000		875.00000 
 43692.65567		 305.27265			43387.38302		70.72800		324.00000 
 43692.65567		 742.05839			42950.59728		221.46000		875.00000 
 43692.65567		 305.27265			43387.38302		70.72800		324.00000 
 43692.65567		 742.05839			42950.59728		221.46000		875.00000 
 43692.65567		 305.27265			43387.38302		70.72800		324.00000 
 43692.65567		 742.05839			42950.59728		221.46000		875.00000 
 43692.65567		 305.27265			43387.38302		70.72800		324.00000 
 43692.65567		 742.05839			42950.59728		221.46000		875.00000 
 43692.65567		 305.27265			43387.38302		70.72800		324.00000 
 43692.65567		 742.05839			42950.59728		221.46000		875.00000 
 43692.65567		 305.27265			43387.38302		70.72800		324.00000 
 43692.65567		 742.05839			42950.59728		221.46000		875.00000 
 43692.65567		 305.27265			43387.38302		70.72800		324.00000 
 43692.65567		 742.05839			42950.59728		221.46000		875.00000 
 43692.65567		 305.27265			43387.38302		70.72800		324.00000 
 43692.65567		 742.05839			42950.59728		221.46000		875.00000 
 43692.65567		 305.27265			43387.38302		70.72800		324.00000 
 43692.65567		 742.05839			42950.59728		221.46000		875.00000 
 43692.65567		 305.27265			43387.38302		70.72800		324.00000 
 43692.65567		 742.05839			42950.59728		221.46000		875.00000 
 43692.65567		 305.27265			43387.38302		70.72800		324.00000 
 43692.65567		 742.05839			42950.59728		221.46000		875.00000 
 43692.65567		 305.27265			43387.38302		70.72800		324.00000 
 43692.65567		 742.05839			42950.59728		221.46000		875.00000 
 43692.65567		 305.27265			43387.38302		70.72800		324.00000 
 43692.65567		 742.05839			42950.59728		221.46000		875.00000 
 43692.65567		 305.27265			43387.38302		70.72800		324.00000 
 43692.65567		 742.05839			42950.59728		221.46000		875.00000 
 43692.65567		 305.27265			43387.38302		70.72800		324.00000 
 43692.65567		 742.05839			42950.59728		221.46000		875.00000 
 43692.65567		 305.27265			43387.38302		70.72800		324.00000 
 43692.65567		 742.05839			42950.59728		221.46000		875.00000 
 43692.65567		 305.27265			43387.38302		70.72800		324.00000 
 43692.65567		 742.05839			42950.59728		221.46000		875.00000 
 43692.65567		 305.27265			43387.38302		70.72800		324.00000 
 43692.65567		 742.05839			42950.59728		221.46000		875.00000 
 43692.65567		 305.27265			43387.38302		70.72800		324.00000 
 43692.65567		 742.05839			42950.59728		221.46000		875.00000 
 43692.65567		 305.27265			43387.38302		70.72800		324.00000 
 43692.65567		 742.05839			42950.59728		221.46000		875.00000 
 43692.65567		 305.27265			43387.38302		70.72800		324.00000 
 43692.65567		 742.05839			42950.59728		221.46000		875.00000 
 43692.65567		 305.27265			43387.38302		70.72800		324.00000 
 43692.65567		 742.05839			42950.59728		221.46000		875.00000 
 43692.65567		 305.27265			43387.38302		70.72800		324.00000 
 43692.65567		 742.05839			42950.59728		221.46000		875.00000 
 43692.65567		 305.27265			43387.38302		70.72800		324.00000 
 43692.65567		 742.05839			42950.59728		221.46000		875.00000 
 43692.65567		 305.27265			43387.38302		70.72800		324.00000 
 43692.65567		 742.05839			42950.59728		221.46000		875.00000 
 43692.65567		 305.27265			43387.38302		70.72800		324.00000 
 43692.65567		 742.05839			42950.59728		221.46000		875.00000 
 43692.65567		 305.27265			43387.38302		70.72800		324.00000 
 43692.65567		 742.05839			42950.59728		221.46000		875.00000 
 43692.65567		 305.27265			43387.38302		70.72800		324.00000 
 43692.65567		 742.05839			42950.59728		221.46000		875.00000 
 43692.65567		 305.27265			43387.38302		70.72800		324.00000 
 43692.65567		 742.05839			42950.59728		221.46000		875.00000 
 43692.65567		 305.27265			43387.38302		70.72800		324.00000 
 43692.65567		 742.05839			42950.59728		221.46000		875.00000 
 43692.65567		 305.27265			43387.38302		70.72800		324.00000 
 43692.65567		 742.05839			42950.59728		221.46000		875.00000 
 43692.65567		 305.27265			43387.38302		70.72800		324.00000 
 43692.65567		 742.05839			42950.59728		221.46000		875.00000 
 43692.65567		 305.27265			43387.38302		70.72800		324.00000 
 43692.65567		 742.05839			42950.59728		221.46000		875.00000 
 43692.65567		 305.27265			43387.38302		70.72800		324.00000 
 43692.65567		 742.05839			42950.59728		221.46000		875.00000 
 43692.65567		 305.27265			43387.38302		70.72800		324.00000 
 43692.65567		 742.05839			42950.59728		221.46000		875.00000 
 43692.65567		 305.27265			43387.38302		70.72800		324.00000 
 43692.65567		 742.05839			42950.59728		221.46000		875.00000 
 43692.65567		 305.27265			43387.38302		70.72800		324.00000 
 43692.65567		 742.05839			42950.59728		221.46000		875.00000 
 43692.65567		 305.27265			43387.38302		70.72800		324.00000 
 43692.65567		 742.05839			42950.59728		221.46000		875.00000 
 43692.65567		 305.27265			43387.38302		70.72800		324.00000 
 43692.65567		 742.05839			42950.59728		221.46000		875.00000 
 43692.65567		 305.27265			43387.38302		70.72800		324.00000 
 43692.65567		 742.05839			42950.59728		221.46000		875.00000 
 43692.65567		 305.27265			43387.38302		70.72800		324.00000 
 43692.65567		 742.05839			42950.59728		221.46000		875.00000 
 43692.65567		 305.27265			43387.38302		70.72800		324.00000 
 43692.65567		 742.05839			42950.59728		221.46000		875.00000 
 43692.65567		 305.27265			43387.38302		70.72800		324.00000 
 43692.65567		 742.05839			42950.59728		221.46000		875.00000 
 43692.65567		 305.27265			43387.38302		70.72800		324.00000 
 43692.65567		 742.05839			42950.59728		221.46000		875.00000 
 43692.65567		 305.27265			43387.38302		70.72800		324.00000 
 43692.65567		 742.05839			42950.59728		221.46000		875.00000 
 43692.65567		 305.27265			43387.38302		70.72800		324.00000 
 43692.65567		 742.05839			42950.59728		221.46000		875.00000 
 43692.65567		 305.27265			43387.38302		70.72800		324.00000 
 43692.65567		 742.05839			42950.59728		221.46000		875.00000 
 43692.65567		 305.27265			43387.38302		70.72800		324.00000 
 43692.65567		 742.05839			42950.59728		221.46000		875.00000 
 43692.65567		 305.27265			43387.38302		70.72800		324.00000 
 43692.65567		 742.05839			42950.59728		221.46000		875.00000 
 43692.65567		 305.27265			43387.38302		70.72800		324.00000 
 43692.65567		 742.05839			42950.59728		221.46000		875.00000 
 43692.65567		 305.27265			43387.38302		70.72800		324.00000 
 43692.65567		 742.05839			42950.59728		221.46000		875.00000 
 43692.65567		 305.27265			43387.38302		70.72800		324.00000 
 43692.65567		 742.05839			42950.59728		221.46000		875.00000 
 43692.65567		 305.27265			43387.38302		70.72800		324.00000 
 43692.65567		 742.05839			42950.59728		221.46000		875.00000 
 43692.65567		 305.27265			43387.38302		70.72800		324.00000 
 43692.65567		 742.05839			42950.59728		221.46000		875.00000 
 43692.65567		 305.27265			43387.38302		70.72800		324.00000 
 43692.65567		 742.05839			42950.59728		221.46000		875.00000 
 43692.65567		 305.27265			43387.38302		70.72800		324.00000 
 43692.65567		 742.05839			42950.59728		221.46000		875.00000 
 43692.65567		 305.27265			43387.38302		70.72800		324.00000 
 43692.65567		 742.05839			42950.59728		221.46000		875.00000 
 43692.65567		 305.27265			43387.38302		70.72800		324.00000 
 43692.65567		 742.05839			42950.59728		221.46000		875.00000 
 43692.65567		 305.27265			43387.38302		70.72800		324.00000 
 43692.65567		 742.05839			42950.59728		221.46000		875.00000 
 43692.65567		 305.27265			43387.38302		70.72800		324.00000 
 43692.65567		 742.05839			42950.59728		221.46000		875.00000 
 43692.65567		 305.27265			43387.38302		70.72800		324.00000 
 43692.65567		 742.05839			42950.59728		221.46000		875.00000 
 43692.65567		 305.27265			43387.38302		70.72800		324.00000 
 43692.65567		 742.05839			42950.59728		221.46000		875.00000 
 43692.65567		 305.27265			43387.38302		70.72800		324.00000 
 43692.65567		 742.05839			42950.59728		221.46000		875.00000 
 43692.65567		 305.27265			43387.38302		70.72800		324.00000 
 43692.65567		 742.05839			42950.59728		221.46000		875.00000 
 43692.65567		 305.27265			43387.38302		70.72800		324.00000 
 43692.65567		 742.05839			42950.59728		221.46000		875.00000 
 43692.65567		 305.27265			43387.38302		70.72800		324.00000 
 43692.65567		 742.05839			42950.59728		221.46000		875.00000 
 43692.65567		 305.27265			43387.38302		70.72800		324.00000 
 43692.65567		 742.05839			42950.59728		221.46000		875.00000 
 43692.65567		 305.27265			43387.38302		70.72800		324.00000 
 43692.65567		 742.05839			42950.59728		221.46000		875.00000 
 43692.65567		 305.27265			43387.38302		70.72800		324.00000 
 43692.65567		 742.05839			42950.59728		221.46000		875.00000 
 43692.65567		 305.27265			43387.38302		70.72800		324.00000 
 43692.65567		 742.05839			42950.59728		221.46000		875.00000 
 43692.65567		 305.27265			43387.38302		70.72800		324.00000 
 43692.65567		 742.05839			42950.59728		221.46000		875.00000 
 43692.65567		 305.27265			43387.38302		70.72800		324.00000 
 43692.65567		 742.05839			42950.59728		221.46000		875.00000 
 43692.65567		 305.27265			43387.38302		70.72800		324.00000 
 43692.65567		 742.05839			42950.59728		221.46000		875.00000 
 43692.65567		 305.27265			43387.38302		70.72800		324.00000 
 43692.65567		 742.05839			42950.59728		221.46000		875.00000 
 43692.65567		 305.27265			43387.38302		70.72800		324.00000 
 43692.65567		 742.05839			42950.59728		221.46000		875.00000 
 43692.65567		 305.27265			43387.38302		70.72800		324.00000 
 43692.65567		 742.05839			42950.59728		221.46000		875.00000 
 43692.65567		 305.27265			43387.38302		70.72800		324.00000 
 43692.65567		 742.05839			42950.59728		221.46000		875.00000 
 43692.65567		 305.27265			43387.38302		70.72800		324.00000 
 43692.65567		 742.05839			42950.59728		221.46000		875.00000 
 43692.65567		 305.27265			43387.38302		70.72800		324.00000 
 43692.65567		 742.05839			42950.59728		221.46000		875.00000 
 43692.65567		 305.27265			43387.38302		70.72800		324.00000 
 43692.65567		 742.05839			42950.59728		221.46000		875.00000 
 43692.65567		 305.27265			43387.38302		70.72800		324.00000 
 43692.65567		 742.05839			42950.59728		221.46000		875.00000 
 43692.65567		 305.27265			43387.38302		70.72800		324.00000 
 43692.65567		 742.05839			42950.59728		221.46000		875.00000 
 43692.65567		 305.27265			43387.38302		70.72800		324.00000 
 43692.65567		 742.05839			42950.59728		221.46000		875.00000 
 43692.65567		 305.27265			43387.38302		70.72800		324.00000 
 43692.65567		 742.05839			42950.59728		221.46000		875.00000 
 43692.65567		 305.27265			43387.38302		70.72800		324.00000 
 43692.65567		 742.05839			42950.59728		221.46000		875.00000 
 43692.65567		 305.27265			43387.38302		70.72800		324.00000 
 43692.65567		 742.05839			42950.59728		221.46000		875.00000 
 43692.65567		 305.27265			43387.38302		70.72800		324.00000 
 43692.65567		 742.05839			42950.59728		221.46000		875.00000 
 43692.65567		 305.27265			43387.38302		70.72800		324.00000 
 43692.65567		 742.05839			42950.59728		221.46000		875.00000 
 43692.65567		 305.27265			43387.38302		70.72800		324.00000 
 43692.65567		 742.05839			42950.59728		221.46000		875.00000 
 43692.65567		 305.27265			43387.38302		70.72800		324.00000 
 43692.65567		 742.05839			42950.59728		221.46000		875.00000 
 43692.65567		 305.27265			43387.38302		70.72800		324.00000 
 43692.65567		 742.05839			42950.59728		221.46000		875.00000 
 43692.65567		 305.27265			43387.38302		70.72800		324.00000 
 43692.65567		 742.05839			42950.59728		221.46000		875.00000 
 43692.65567		 305.27265			43387.38302		70.72800		324.00000 
 43692.65567		 742.05839			42950.59728		221.46000		875.00000 
 43692.65567		 305.27265			43387.38302		70.72800		324.00000 
 43692.65567		 742.05839			42950.59728		221.46000		875.00000 
 43692.65567		 305.27265			43387.38302		70.72800		324.00000 
 43692.65567		 742.05839			42950.59728		221.46000		875.00000 
 43692.65567		 305.27265			43387.38302		70.72800		324.00000 
 43692.65567		 742.05839			42950.59728		221.46000		875.00000 
 43692.65567		 305.27265			43387.38302		70.72800		324.00000 
 43692.65567		 742.05839			42950.59728		221.46000		875.00000 
 43692.65567		 305.27265			43387.38302		70.72800		324.00000 
 43692.65567		 742.05839			42950.59728		221.46000		875.00000 
 43692.65567		 305.27265			43387.38302		70.72800		324.00000 
 43692.65567		 742.05839			42950.59728		221.46000		875.00000 
 43692.65567		 305.27265			43387.38302		70.72800		324.00000 
 43692.65567		 742.05839			42950.59728		221.46000		875.00000 
 43692.65567		 305.27265			43387.38302		70.72800		324.00000 
 43692.65567		 742.05839			42950.59728		221.46000		875.00000 
 43692.65567		 305.27265			43387.38302		70.72800		324.00000 
 43692.65567		 742.05839			42950.59728		221.46000		875.00000 
 43692.65567		 305.27265			43387.38302		70.72800		324.00000 
 43692.65567		 742.05839			42950.59728		221.46000		875.00000 
 43692.65567		 305.27265			43387.38302		70.72800		324.00000 
 43692.65567		 742.05839			42950.59728		221.46000		875.00000 
 43692.65567		 305.27265			43387.38302		70.72800		324.00000 
 43692.65567		 742.05839			42950.59728		221.46000		875.00000 
 43692.65567		 305.27265			43387.38302		70.72800		324.00000 
 43692.65567		 742.05839			42950.59728		221.46000		875.00000 
 43692.65567		 305.27265			43387.38302		70.72800		324.00000 
 43692.65567		 742.05839			42950.59728		221.46000		875.00000 
 43692.65567		 305.27265			43387.38302		70.72800		324.00000 
 43692.65567		 742.05839			42950.59728		221.46000		875.00000 
 43692.65567		 305.27265			43387.38302		70.72800		324.00000 
 43692.65567		 742.05839			42950.59728		221.46000		875.00000 
 43692.65567		 305.27265			43387.38302		70.72800		324.00000 
 43692.65567		 742.05839			42950.59728		221.46000		875.00000 
 43692.65567		 305.27265			43387.38302		70.72800		324.00000 
 43692.65567		 742.05839			42950.59728		221.46000		875.00000 
 43692.65567		 305.27265			43387.38302		70.72800		324.00000 
 43692.65567		 742.05839			42950.59728		221.46000		875.00000 
 43692.65567		 305.27265			43387.38302		70.72800		324.00000 
 43692.65567		 742.05839			42950.59728		221.46000		875.00000 
 43692.65567		 305.27265			43387.38302		70.72800		324.00000 
 43692.65567		 742.05839			42950.59728		221.46000		875.00000 
 43692.65567		 305.27265			43387.38302		70.72800		324.00000 
 43692.65567		 742.05839			42950.59728		221.46000		875.00000 
 43692.65567		 305.27265			43387.38302		70.72800		324.00000 
 43692.65567		 742.05839			42950.59728		221.46000		875.00000 
 43692.65567		 305.27265			43387.38302		70.72800		324.00000 
 43692.65567		 742.05839			42950.59728		221.46000		875.00000 
 43692.65567		 305.27265			43387.38302		70.72800		324.00000 
 43692.65567		 742.05839			42950.59728		221.46000		875.00000 
 43692.65567		 305.27265			43387.38302		70.72800		324.00000 
 43692.65567		 742.05839			42950.59728		221.46000		875.00000 
 43692.65567		 305.27265			43387.38302		70.72800		324.00000 
 43692.65567		 742.05839			42950.59728		221.46000		875.00000 
 43692.65567		 305.27265			43387.38302		70.72800		324.00000 
 43692.65567		 742.05839			42950.59728		221.46000		875.00000 
 43692.65567		 305.27265			43387.38302		70.72800		324.00000 
 43692.65567		 742.05839			42950.59728		221.46000		875.00000 
 43692.65567		 305.27265			43387.38302		70.72800		324.00000 
 43692.65567		 742.05839			42950.59728		221.46000		875.00000 
 43692.65567		 305.27265			43387.38302		70.72800		324.00000 
 43692.65567		 742.05839			42950.59728		221.46000		875.00000 
 43692.65567		 305.27265			43387.38302		70.72800		324.00000 
 43692.65567		 742.05839			42950.59728		221.46000		875.00000 
 43692.65567		 305.27265			43387.38302		70.72800		324.00000 
 43692.65567		 742.05839			42950.59728		221.46000		875.00000 
 43692.65567		 305.27265			43387.38302		70.72800		324.00000 
 43692.65567		 742.05839			42950.59728		221.46000		875.00000 
 43692.65567		 305.27265			43387.38302		70.72800		324.00000 
 43692.65567		 742.05839			42950.59728		221.46000		875.00000 
 43692.65567		 305.27265			43387.38302		70.72800		324.00000 
 43692.65567		 742.05839			42950.59728		221.46000		875.00000 
 43692.65567		 305.27265			43387.38302		70.72800		324.00000 
 43692.65567		 742.05839			42950.59728		221.46000		875.00000 
 43692.65567		 305.27265			43387.38302		70.72800		324.00000 
 43692.65567		 742.05839			42950.59728		221.46000		875.00000 
 43692.65567		 305.27265			43387.38302		70.72800		324.00000 
 43692.65567		 742.05839			42950.59728		221.46000		875.00000 
 43692.65567		 305.27265			43387.38302		70.72800		324.00000 
 43692.65567		 742.05839			42950.59728		221.46000		875.00000 
 43692.65567		 305.27265			43387.38302		70.72800		324.00000 
 43692.65567		 742.05839			42950.59728		221.46000		875.00000 
 43692.65567		 305.27265			43387.38302		70.72800		324.00000 
 43692.65567		 742.05839			42950.59728		221.46000		875.00000 
 43692.65567		 305.27265			43387.38302		70.72800		324.00000 
 43692.65567		 673.79570			43018.85997		221.46000		875.00000 
 43692.65567		 305.27265			43387.38302		70.72800		324.00000 
 43692.65567		 605.53301			43087.12266		221.46000		875.00000 
 43692.65567		 305.27265			43387.38302		70.72800		324.00000 
 43692.65567		 537.27032			43155.38535		221.46000		875.00000 
 43692.65567		 305.27265			43387.38302		70.72800		324.00000 
 43692.65567		 537.27032			43155.38535		221.46000		875.00000 
 43692.65567		 305.27265			43387.38302		70.72800		324.00000 
 43692.65567		 537.27032			43155.38535		221.46000		875.00000 
 43692.65567		 305.27265			43387.38302		70.72800		324.00000 
 43692.65567		 537.27032			43155.38535		221.46000		875.00000 
 43692.65567		 305.27265			43387.38302		70.72800		324.00000 
 43692.65567		 537.27032			43155.38535		221.46000		875.00000 
 43692.65567		 305.27265			43387.38302		70.72800		324.00000 
 43692.65567		 537.27032			43155.38535		221.46000		875.00000 
 43692.65567		 305.27265			43387.38302		70.72800		324.00000 
 43692.65567		 537.27032			43155.38535		221.46000		875.00000 
 43692.65567		 305.27265			43387.38302		70.72800		324.00000 
 43692.65567		 537.27032			43155.38535		221.46000		875.00000 
 43692.65567		 305.27265			43387.38302		70.72800		324.00000 
 43692.65567		 537.27032			43155.38535		221.46000		875.00000 
 43692.65567		 305.27265			43387.38302		70.72800		324.00000 
 43692.65567		 537.27032			43155.38535		221.46000		875.00000 
 43692.65567		 305.27265			43387.38302		70.72800		324.00000 
 43692.65567		 537.27032			43155.38535		221.46000		875.00000 
 43692.65567		 305.27265			43387.38302		70.72800		324.00000 
 43692.65567		 537.27032			43155.38535		221.46000		875.00000 
 43692.65567		 305.27265			43387.38302		70.72800		324.00000 
 43692.65567		 537.27032			43155.38535		221.46000		875.00000 
 43692.65567		 305.27265			43387.38302		70.72800		324.00000 
 43692.65567		 537.27032			43155.38535		221.46000		875.00000 
 43692.65567		 305.27265			43387.38302		70.72800		324.00000 
 43692.65567		 537.27032			43155.38535		221.46000		875.00000 
 43692.65567		 305.27265			43387.38302		70.72800		324.00000 
 43692.65567		 537.27032			43155.38535		221.46000		875.00000 
 43692.65567		 305.27265			43387.38302		70.72800		324.00000 
 43692.65567		 537.27032			43155.38535		221.46000		875.00000 
 43692.65567		 305.27265			43387.38302		70.72800		324.00000 
 43692.65567		 537.27032			43155.38535		221.46000		875.00000 
 43692.65567		 305.27265			43387.38302		70.72800		324.00000 
 43692.65567		 537.27032			43155.38535		221.46000		875.00000 
 43692.65567		 305.27265			43387.38302		70.72800		324.00000 
 43692.65567		 537.27032			43155.38535		221.46000		875.00000 
 43692.65567		 305.27265			43387.38302		70.72800		324.00000 
 43692.65567		 525.81365			43166.84203		221.46000		875.00000 
 43692.65567		 305.27265			43387.38302		70.72800		324.00000 
 43692.65567		 525.81365			43166.84203		221.46000		875.00000 
 43692.65567		 261.35540			43431.30027		70.72800		324.00000 
 43692.65567		 261.35540			43431.30027		221.46000		875.00000 
 43692.65567		 261.35540			43431.30027		70.72800		324.00000 
