Memory Total (MiB) 	 Memory Used (MiB) 	    Memory Free (MiB) 	 Power Drawed (W) 	 Clocks (Mhz) 	 
 43692.65567		 261.35540			43431.30027		186.40600		875.00000 
 43692.65567		 261.35540			43431.30027		68.70800		324.00000 
 43692.65567		 261.35540			43431.30027		186.40600		875.00000 
 43692.65567		 261.35540			43431.30027		68.70800		324.00000 
 43692.65567		 261.35540			43431.30027		186.40600		875.00000 
 43692.65567		 261.35540			43431.30027		68.70800		324.00000 
 43692.65567		 261.35540			43431.30027		186.40600		875.00000 
 43692.65567		 261.35540			43431.30027		68.70800		324.00000 
 43692.65567		 261.35540			43431.30027		186.40600		875.00000 
 43692.65567		 261.35540			43431.30027		68.70800		324.00000 
 43692.65567		 261.35540			43431.30027		186.40600		875.00000 
 43692.65567		 261.35540			43431.30027		68.70800		324.00000 
 43692.65567		 261.35540			43431.30027		186.40600		875.00000 
 43692.65567		 261.35540			43431.30027		68.70800		324.00000 
 43692.65567		 261.35540			43431.30027		186.40600		875.00000 
 43692.65567		 261.35540			43431.30027		68.70800		324.00000 
 43692.65567		 261.35540			43431.30027		186.40600		875.00000 
 43692.65567		 261.35540			43431.30027		68.70800		324.00000 
 43692.65567		 261.35540			43431.30027		186.40600		875.00000 
 43692.65567		 261.35540			43431.30027		68.70800		324.00000 
 43692.65567		 261.35540			43431.30027		186.40600		875.00000 
 43692.65567		 261.35540			43431.30027		68.70800		324.00000 
 43692.65567		 261.35540			43431.30027		186.40600		875.00000 
 43692.65567		 261.35540			43431.30027		68.70800		324.00000 
 43692.65567		 261.35540			43431.30027		186.40600		875.00000 
 43692.65567		 261.35540			43431.30027		68.70800		324.00000 
 43692.65567		 261.35540			43431.30027		186.40600		875.00000 
 43692.65567		 261.35540			43431.30027		68.70800		324.00000 
 43692.65567		 261.35540			43431.30027		186.40600		875.00000 
 43692.65567		 261.35540			43431.30027		68.70800		324.00000 
 43692.65567		 261.35540			43431.30027		186.40600		875.00000 
 43692.65567		 261.35540			43431.30027		68.70800		324.00000 
 43692.65567		 261.35540			43431.30027		186.40600		875.00000 
 43692.65567		 261.35540			43431.30027		68.70800		324.00000 
 43692.65567		 261.35540			43431.30027		186.40600		875.00000 
 43692.65567		 261.35540			43431.30027		68.70800		324.00000 
 43692.65567		 265.17429			43427.48138		186.40600		875.00000 
 43692.65567		 261.35540			43431.30027		68.70800		324.00000 
 43692.65567		 265.17429			43427.48138		186.40600		875.00000 
 43692.65567		 261.35540			43431.30027		68.70800		324.00000 
 43692.65567		 272.81207			43419.84360		186.40600		875.00000 
 43692.65567		 261.35540			43431.30027		68.70800		324.00000 
 43692.65567		 272.81207			43419.84360		186.40600		875.00000 
 43692.65567		 261.35540			43431.30027		68.70800		324.00000 
 43692.65567		 272.81207			43419.84360		186.40600		875.00000 
 43692.65567		 265.17429			43427.48138		68.70800		324.00000 
 43692.65567		 272.81207			43419.84360		152.38600		875.00000 
 43692.65567		 265.17429			43427.48138		68.70800		324.00000 
 43692.65567		 272.81207			43419.84360		152.38600		875.00000 
 43692.65567		 272.81207			43419.84360		68.70800		324.00000 
 43692.65567		 272.81207			43419.84360		152.38600		875.00000 
 43692.65567		 272.81207			43419.84360		68.70800		324.00000 
 43692.65567		 272.81207			43419.84360		152.38600		875.00000 
 43692.65567		 272.81207			43419.84360		68.70800		324.00000 
 43692.65567		 272.81207			43419.84360		152.38600		875.00000 
 43692.65567		 272.81207			43419.84360		68.70800		324.00000 
 43692.65567		 305.27265			43387.38302		152.38600		875.00000 
 43692.65567		 305.27265			43387.38302		68.70800		324.00000 
 43692.65567		 305.27265			43387.38302		152.38600		875.00000 
 43692.65567		 305.27265			43387.38302		68.70800		324.00000 
 43692.65567		 305.27265			43387.38302		152.38600		875.00000 
 43692.65567		 305.27265			43387.38302		68.70800		324.00000 
 43692.65567		 305.27265			43387.38302		152.38600		875.00000 
 43692.65567		 305.27265			43387.38302		68.70800		324.00000 
 43692.65567		 305.27265			43387.38302		152.38600		875.00000 
 43692.65567		 305.27265			43387.38302		68.70800		324.00000 
 43692.65567		 310.04627			43382.60941		152.38600		875.00000 
 43692.65567		 305.27265			43387.38302		68.70800		324.00000 
 43692.65567		 311.00099			43381.65468		152.38600		875.00000 
 43692.65567		 305.27265			43387.38302		68.70800		324.00000 
 43692.65567		 311.00099			43381.65468		152.38600		875.00000 
 43692.65567		 305.27265			43387.38302		68.70800		324.00000 
 43692.65567		 311.00099			43381.65468		152.38600		875.00000 
 43692.65567		 305.27265			43387.38302		68.70800		324.00000 
 43692.65567		 311.00099			43381.65468		152.38600		875.00000 
 43692.65567		 305.27265			43387.38302		68.70800		324.00000 
 43692.65567		 311.00099			43381.65468		152.38600		875.00000 
 43692.65567		 305.27265			43387.38302		68.70800		324.00000 
 43692.65567		 311.00099			43381.65468		152.38600		875.00000 
 43692.65567		 305.27265			43387.38302		68.70800		324.00000 
 43692.65567		 311.00099			43381.65468		152.38600		875.00000 
 43692.65567		 305.27265			43387.38302		68.70800		324.00000 
 43692.65567		 311.00099			43381.65468		152.38600		875.00000 
 43692.65567		 305.27265			43387.38302		68.70800		324.00000 
 43692.65567		 311.00099			43381.65468		152.38600		875.00000 
 43692.65567		 305.27265			43387.38302		68.70800		324.00000 
 43692.65567		 311.00099			43381.65468		152.38600		875.00000 
 43692.65567		 305.27265			43387.38302		68.70800		324.00000 
 43692.65567		 311.00099			43381.65468		152.38600		875.00000 
 43692.65567		 305.27265			43387.38302		68.70800		324.00000 
 43692.65567		 311.00099			43381.65468		152.38600		875.00000 
 43692.65567		 305.27265			43387.38302		68.70800		324.00000 
 43692.65567		 311.00099			43381.65468		152.38600		875.00000 
 43692.65567		 305.27265			43387.38302		68.70800		324.00000 
 43692.65567		 311.00099			43381.65468		152.38600		875.00000 
 43692.65567		 305.27265			43387.38302		68.70800		324.00000 
 43692.65567		 311.00099			43381.65468		152.38600		875.00000 
 43692.65567		 305.27265			43387.38302		68.70800		324.00000 
 43692.65567		 311.00099			43381.65468		152.38600		875.00000 
 43692.65567		 305.27265			43387.38302		68.70800		324.00000 
 43692.65567		 311.00099			43381.65468		152.38600		875.00000 
 43692.65567		 305.27265			43387.38302		68.70800		324.00000 
 43692.65567		 311.00099			43381.65468		152.38600		875.00000 
 43692.65567		 305.27265			43387.38302		68.70800		324.00000 
 43692.65567		 311.00099			43381.65468		152.38600		875.00000 
 43692.65567		 305.27265			43387.38302		68.70800		324.00000 
 43692.65567		 311.00099			43381.65468		152.38600		875.00000 
 43692.65567		 305.27265			43387.38302		68.70800		324.00000 
 43692.65567		 311.00099			43381.65468		152.38600		875.00000 
 43692.65567		 305.27265			43387.38302		68.70800		324.00000 
 43692.65567		 311.00099			43381.65468		152.38600		875.00000 
 43692.65567		 305.27265			43387.38302		68.70800		324.00000 
 43692.65567		 311.00099			43381.65468		138.68600		875.00000 
 43692.65567		 305.27265			43387.38302		68.70800		324.00000 
 43692.65567		 311.00099			43381.65468		138.68600		875.00000 
 43692.65567		 305.27265			43387.38302		68.70800		324.00000 
 43692.65567		 311.00099			43381.65468		138.68600		875.00000 
 43692.65567		 305.27265			43387.38302		68.70800		324.00000 
 43692.65567		 311.00099			43381.65468		138.68600		875.00000 
 43692.65567		 305.27265			43387.38302		68.70800		324.00000 
 43692.65567		 311.00099			43381.65468		138.68600		875.00000 
 43692.65567		 305.27265			43387.38302		68.70800		324.00000 
 43692.65567		 311.00099			43381.65468		138.68600		875.00000 
 43692.65567		 305.27265			43387.38302		68.70800		324.00000 
 43692.65567		 311.00099			43381.65468		138.68600		875.00000 
 43692.65567		 305.27265			43387.38302		68.70800		324.00000 
 43692.65567		 311.00099			43381.65468		138.68600		875.00000 
 43692.65567		 305.27265			43387.38302		68.70800		324.00000 
 43692.65567		 311.00099			43381.65468		138.68600		875.00000 
 43692.65567		 305.27265			43387.38302		68.70800		324.00000 
 43692.65567		 311.00099			43381.65468		138.68600		875.00000 
 43692.65567		 305.27265			43387.38302		68.70800		324.00000 
 43692.65567		 311.00099			43381.65468		138.68600		875.00000 
 43692.65567		 305.27265			43387.38302		68.70800		324.00000 
 43692.65567		 311.00099			43381.65468		138.68600		875.00000 
 43692.65567		 305.27265			43387.38302		68.70800		324.00000 
 43692.65567		 311.00099			43381.65468		138.68600		875.00000 
 43692.65567		 305.27265			43387.38302		68.70800		324.00000 
 43692.65567		 311.00099			43381.65468		138.68600		875.00000 
 43692.65567		 305.27265			43387.38302		68.70800		324.00000 
 43692.65567		 311.00099			43381.65468		138.68600		875.00000 
 43692.65567		 305.27265			43387.38302		68.70800		324.00000 
 43692.65567		 311.00099			43381.65468		138.68600		875.00000 
 43692.65567		 305.27265			43387.38302		68.70800		324.00000 
 43692.65567		 311.00099			43381.65468		138.68600		875.00000 
 43692.65567		 305.27265			43387.38302		68.70800		324.00000 
 43692.65567		 311.00099			43381.65468		138.68600		875.00000 
 43692.65567		 305.27265			43387.38302		68.70800		324.00000 
 43692.65567		 311.00099			43381.65468		138.68600		875.00000 
 43692.65567		 305.27265			43387.38302		68.70800		324.00000 
 43692.65567		 311.00099			43381.65468		138.68600		875.00000 
 43692.65567		 305.27265			43387.38302		68.70800		324.00000 
 43692.65567		 311.00099			43381.65468		138.68600		875.00000 
 43692.65567		 305.27265			43387.38302		68.70800		324.00000 
 43692.65567		 311.00099			43381.65468		138.68600		875.00000 
 43692.65567		 305.27265			43387.38302		68.70800		324.00000 
 43692.65567		 311.00099			43381.65468		138.68600		875.00000 
 43692.65567		 305.27265			43387.38302		68.70800		324.00000 
 43692.65567		 311.00099			43381.65468		138.68600		875.00000 
 43692.65567		 305.27265			43387.38302		68.70800		324.00000 
 43692.65567		 311.00099			43381.65468		138.68600		875.00000 
 43692.65567		 305.27265			43387.38302		68.70800		324.00000 
 43692.65567		 311.00099			43381.65468		138.68600		875.00000 
 43692.65567		 305.27265			43387.38302		68.70800		324.00000 
 43692.65567		 311.00099			43381.65468		138.68600		875.00000 
 43692.65567		 305.27265			43387.38302		68.70800		324.00000 
 43692.65567		 311.00099			43381.65468		138.68600		875.00000 
 43692.65567		 305.27265			43387.38302		68.70800		324.00000 
 43692.65567		 314.81988			43377.83579		138.68600		875.00000 
 43692.65567		 305.27265			43387.38302		68.70800		324.00000 
 43692.65567		 314.81988			43377.83579		138.68600		875.00000 
 43692.65567		 305.27265			43387.38302		68.70800		324.00000 
 43692.65567		 314.81988			43377.83579		138.68600		875.00000 
 43692.65567		 305.27265			43387.38302		68.70800		324.00000 
 43692.65567		 318.63877			43374.01690		138.68600		875.00000 
 43692.65567		 305.27265			43387.38302		68.70800		324.00000 
 43692.65567		 322.45767			43370.19801		134.44800		875.00000 
 43692.65567		 305.27265			43387.38302		68.70800		324.00000 
 43692.65567		 326.27656			43366.37912		134.44800		875.00000 
 43692.65567		 305.27265			43387.38302		68.70800		324.00000 
 43692.65567		 326.27656			43366.37912		134.44800		875.00000 
 43692.65567		 305.27265			43387.38302		68.70800		324.00000 
 43692.65567		 326.27656			43366.37912		134.44800		875.00000 
 43692.65567		 305.27265			43387.38302		68.70800		324.00000 
 43692.65567		 537.27032			43155.38535		134.44800		875.00000 
 43692.65567		 305.27265			43387.38302		68.70800		324.00000 
 43692.65567		 565.43465			43127.22102		134.44800		875.00000 
 43692.65567		 305.27265			43387.38302		68.70800		324.00000 
 43692.65567		 621.76330			43070.89237		134.44800		875.00000 
 43692.65567		 305.27265			43387.38302		68.70800		324.00000 
 43692.65567		 621.76330			43070.89237		134.44800		875.00000 
 43692.65567		 305.27265			43387.38302		68.70800		324.00000 
 43692.65567		 621.76330			43070.89237		134.44800		875.00000 
 43692.65567		 305.27265			43387.38302		68.70800		324.00000 
 43692.65567		 621.76330			43070.89237		134.44800		875.00000 
 43692.65567		 305.27265			43387.38302		68.70800		324.00000 
 43692.65567		 621.76330			43070.89237		134.44800		875.00000 
 43692.65567		 305.27265			43387.38302		68.70800		324.00000 
 43692.65567		 621.76330			43070.89237		134.44800		875.00000 
 43692.65567		 305.27265			43387.38302		68.70800		324.00000 
 43692.65567		 621.76330			43070.89237		134.44800		875.00000 
 43692.65567		 305.27265			43387.38302		68.70800		324.00000 
 43692.65567		 621.76330			43070.89237		134.44800		875.00000 
 43692.65567		 305.27265			43387.38302		68.70800		324.00000 
 43692.65567		 621.76330			43070.89237		134.44800		875.00000 
 43692.65567		 305.27265			43387.38302		68.70800		324.00000 
 43692.65567		 621.76330			43070.89237		134.44800		875.00000 
 43692.65567		 305.27265			43387.38302		68.70800		324.00000 
 43692.65567		 621.76330			43070.89237		134.44800		875.00000 
 43692.65567		 305.27265			43387.38302		68.70800		324.00000 
 43692.65567		 621.76330			43070.89237		134.44800		875.00000 
 43692.65567		 305.27265			43387.38302		68.70800		324.00000 
 43692.65567		 621.76330			43070.89237		134.44800		875.00000 
 43692.65567		 305.27265			43387.38302		68.70800		324.00000 
 43692.65567		 621.76330			43070.89237		134.44800		875.00000 
 43692.65567		 305.27265			43387.38302		68.70800		324.00000 
 43692.65567		 621.76330			43070.89237		134.44800		875.00000 
 43692.65567		 305.27265			43387.38302		68.70800		324.00000 
 43692.65567		 621.76330			43070.89237		134.44800		875.00000 
 43692.65567		 305.27265			43387.38302		68.70800		324.00000 
 43692.65567		 621.76330			43070.89237		134.44800		875.00000 
 43692.65567		 305.27265			43387.38302		68.70800		324.00000 
 43692.65567		 621.76330			43070.89237		134.44800		875.00000 
 43692.65567		 305.27265			43387.38302		68.70800		324.00000 
 43692.65567		 621.76330			43070.89237		134.44800		875.00000 
 43692.65567		 305.27265			43387.38302		68.70800		324.00000 
 43692.65567		 621.76330			43070.89237		134.44800		875.00000 
 43692.65567		 305.27265			43387.38302		68.70800		324.00000 
 43692.65567		 621.76330			43070.89237		134.44800		875.00000 
 43692.65567		 305.27265			43387.38302		68.70800		324.00000 
 43692.65567		 621.76330			43070.89237		134.44800		875.00000 
 43692.65567		 305.27265			43387.38302		68.70800		324.00000 
 43692.65567		 621.76330			43070.89237		134.44800		875.00000 
 43692.65567		 305.27265			43387.38302		68.70800		324.00000 
 43692.65567		 621.76330			43070.89237		134.44800		875.00000 
 43692.65567		 305.27265			43387.38302		68.70800		324.00000 
 43692.65567		 621.76330			43070.89237		134.44800		875.00000 
 43692.65567		 305.27265			43387.38302		68.70800		324.00000 
 43692.65567		 621.76330			43070.89237		134.44800		875.00000 
 43692.65567		 305.27265			43387.38302		68.70800		324.00000 
 43692.65567		 621.76330			43070.89237		134.44800		875.00000 
 43692.65567		 305.27265			43387.38302		68.70800		324.00000 
 43692.65567		 621.76330			43070.89237		134.44800		875.00000 
 43692.65567		 305.27265			43387.38302		68.70800		324.00000 
 43692.65567		 621.76330			43070.89237		134.44800		875.00000 
 43692.65567		 305.27265			43387.38302		68.70800		324.00000 
 43692.65567		 621.76330			43070.89237		134.44800		875.00000 
 43692.65567		 305.27265			43387.38302		68.70800		324.00000 
 43692.65567		 621.76330			43070.89237		134.44800		875.00000 
 43692.65567		 305.27265			43387.38302		68.70800		324.00000 
 43692.65567		 621.76330			43070.89237		134.44800		875.00000 
 43692.65567		 305.27265			43387.38302		68.70800		324.00000 
 43692.65567		 621.76330			43070.89237		134.44800		875.00000 
 43692.65567		 305.27265			43387.38302		68.70800		324.00000 
 43692.65567		 621.76330			43070.89237		134.44800		875.00000 
 43692.65567		 305.27265			43387.38302		68.70800		324.00000 
 43692.65567		 621.76330			43070.89237		134.44800		875.00000 
 43692.65567		 305.27265			43387.38302		68.70800		324.00000 
 43692.65567		 621.76330			43070.89237		134.44800		875.00000 
 43692.65567		 305.27265			43387.38302		68.70800		324.00000 
 43692.65567		 621.76330			43070.89237		134.44800		875.00000 
 43692.65567		 305.27265			43387.38302		68.70800		324.00000 
 43692.65567		 621.76330			43070.89237		134.44800		875.00000 
 43692.65567		 305.27265			43387.38302		68.70800		324.00000 
 43692.65567		 621.76330			43070.89237		134.44800		875.00000 
 43692.65567		 305.27265			43387.38302		68.70800		324.00000 
 43692.65567		 621.76330			43070.89237		134.44800		875.00000 
 43692.65567		 305.27265			43387.38302		68.70800		324.00000 
 43692.65567		 621.76330			43070.89237		134.44800		875.00000 
 43692.65567		 305.27265			43387.38302		68.70800		324.00000 
 43692.65567		 621.76330			43070.89237		134.44800		875.00000 
 43692.65567		 305.27265			43387.38302		68.70800		324.00000 
 43692.65567		 621.76330			43070.89237		134.44800		875.00000 
 43692.65567		 305.27265			43387.38302		68.70800		324.00000 
 43692.65567		 621.76330			43070.89237		134.44800		875.00000 
 43692.65567		 305.27265			43387.38302		68.70800		324.00000 
 43692.65567		 621.76330			43070.89237		134.44800		875.00000 
 43692.65567		 305.27265			43387.38302		68.70800		324.00000 
 43692.65567		 621.76330			43070.89237		134.44800		875.00000 
 43692.65567		 305.27265			43387.38302		68.70800		324.00000 
 43692.65567		 621.76330			43070.89237		134.44800		875.00000 
 43692.65567		 305.27265			43387.38302		68.70800		324.00000 
 43692.65567		 621.76330			43070.89237		134.44800		875.00000 
 43692.65567		 305.27265			43387.38302		68.70800		324.00000 
 43692.65567		 621.76330			43070.89237		134.44800		875.00000 
 43692.65567		 305.27265			43387.38302		68.70800		324.00000 
 43692.65567		 621.76330			43070.89237		134.44800		875.00000 
 43692.65567		 305.27265			43387.38302		68.70800		324.00000 
 43692.65567		 621.76330			43070.89237		134.44800		875.00000 
 43692.65567		 305.27265			43387.38302		68.70800		324.00000 
 43692.65567		 621.76330			43070.89237		134.44800		875.00000 
 43692.65567		 305.27265			43387.38302		68.70800		324.00000 
 43692.65567		 621.76330			43070.89237		134.44800		875.00000 
 43692.65567		 305.27265			43387.38302		68.70800		324.00000 
 43692.65567		 621.76330			43070.89237		134.44800		875.00000 
 43692.65567		 305.27265			43387.38302		68.70800		324.00000 
 43692.65567		 621.76330			43070.89237		134.44800		875.00000 
 43692.65567		 305.27265			43387.38302		68.70800		324.00000 
 43692.65567		 621.76330			43070.89237		134.44800		875.00000 
 43692.65567		 305.27265			43387.38302		68.70800		324.00000 
 43692.65567		 621.76330			43070.89237		134.44800		875.00000 
 43692.65567		 305.27265			43387.38302		68.70800		324.00000 
 43692.65567		 621.76330			43070.89237		180.25000		875.00000 
 43692.65567		 305.27265			43387.38302		68.70800		324.00000 
 43692.65567		 621.76330			43070.89237		180.25000		875.00000 
 43692.65567		 305.27265			43387.38302		68.70800		324.00000 
 43692.65567		 621.76330			43070.89237		180.25000		875.00000 
 43692.65567		 305.27265			43387.38302		68.70800		324.00000 
 43692.65567		 621.76330			43070.89237		180.25000		875.00000 
 43692.65567		 305.27265			43387.38302		68.70800		324.00000 
 43692.65567		 621.76330			43070.89237		180.25000		875.00000 
 43692.65567		 305.27265			43387.38302		68.70800		324.00000 
 43692.65567		 621.76330			43070.89237		180.25000		875.00000 
 43692.65567		 305.27265			43387.38302		68.70800		324.00000 
 43692.65567		 621.76330			43070.89237		180.25000		875.00000 
 43692.65567		 305.27265			43387.38302		68.70800		324.00000 
 43692.65567		 621.76330			43070.89237		180.25000		875.00000 
 43692.65567		 305.27265			43387.38302		68.70800		324.00000 
 43692.65567		 621.76330			43070.89237		180.25000		875.00000 
 43692.65567		 305.27265			43387.38302		68.70800		324.00000 
 43692.65567		 621.76330			43070.89237		180.25000		875.00000 
 43692.65567		 305.27265			43387.38302		68.70800		324.00000 
 43692.65567		 621.76330			43070.89237		180.25000		875.00000 
 43692.65567		 305.27265			43387.38302		68.70800		324.00000 
 43692.65567		 621.76330			43070.89237		180.25000		875.00000 
 43692.65567		 305.27265			43387.38302		68.70800		324.00000 
 43692.65567		 621.76330			43070.89237		180.25000		875.00000 
 43692.65567		 305.27265			43387.38302		68.70800		324.00000 
 43692.65567		 621.76330			43070.89237		180.25000		875.00000 
 43692.65567		 305.27265			43387.38302		68.70800		324.00000 
 43692.65567		 621.76330			43070.89237		180.25000		875.00000 
 43692.65567		 305.27265			43387.38302		68.70800		324.00000 
 43692.65567		 621.76330			43070.89237		180.25000		875.00000 
 43692.65567		 305.27265			43387.38302		68.70800		324.00000 
 43692.65567		 621.76330			43070.89237		180.25000		875.00000 
 43692.65567		 305.27265			43387.38302		68.70800		324.00000 
 43692.65567		 621.76330			43070.89237		180.25000		875.00000 
 43692.65567		 305.27265			43387.38302		68.70800		324.00000 
 43692.65567		 621.76330			43070.89237		180.25000		875.00000 
 43692.65567		 305.27265			43387.38302		68.70800		324.00000 
 43692.65567		 621.76330			43070.89237		180.25000		875.00000 
 43692.65567		 305.27265			43387.38302		68.70800		324.00000 
 43692.65567		 621.76330			43070.89237		180.25000		875.00000 
 43692.65567		 305.27265			43387.38302		68.70800		324.00000 
 43692.65567		 621.76330			43070.89237		180.25000		875.00000 
 43692.65567		 305.27265			43387.38302		68.70800		324.00000 
 43692.65567		 621.76330			43070.89237		180.25000		875.00000 
 43692.65567		 305.27265			43387.38302		68.70800		324.00000 
 43692.65567		 621.76330			43070.89237		180.25000		875.00000 
 43692.65567		 305.27265			43387.38302		68.70800		324.00000 
 43692.65567		 621.76330			43070.89237		180.25000		875.00000 
 43692.65567		 305.27265			43387.38302		68.70800		324.00000 
 43692.65567		 621.76330			43070.89237		180.25000		875.00000 
 43692.65567		 305.27265			43387.38302		68.70800		324.00000 
 43692.65567		 621.76330			43070.89237		180.25000		875.00000 
 43692.65567		 305.27265			43387.38302		68.70800		324.00000 
 43692.65567		 621.76330			43070.89237		180.25000		875.00000 
 43692.65567		 305.27265			43387.38302		68.70800		324.00000 
 43692.65567		 621.76330			43070.89237		180.25000		875.00000 
 43692.65567		 305.27265			43387.38302		68.70800		324.00000 
 43692.65567		 621.76330			43070.89237		180.25000		875.00000 
 43692.65567		 305.27265			43387.38302		68.70800		324.00000 
 43692.65567		 621.76330			43070.89237		180.25000		875.00000 
 43692.65567		 305.27265			43387.38302		68.70800		324.00000 
 43692.65567		 621.76330			43070.89237		180.25000		875.00000 
 43692.65567		 305.27265			43387.38302		68.70800		324.00000 
 43692.65567		 621.76330			43070.89237		180.25000		875.00000 
 43692.65567		 305.27265			43387.38302		68.70800		324.00000 
 43692.65567		 621.76330			43070.89237		180.25000		875.00000 
 43692.65567		 305.27265			43387.38302		68.70800		324.00000 
 43692.65567		 621.76330			43070.89237		180.25000		875.00000 
 43692.65567		 305.27265			43387.38302		68.70800		324.00000 
 43692.65567		 621.76330			43070.89237		180.25000		875.00000 
 43692.65567		 305.27265			43387.38302		68.70800		324.00000 
 43692.65567		 621.76330			43070.89237		180.25000		875.00000 
 43692.65567		 305.27265			43387.38302		68.70800		324.00000 
 43692.65567		 621.76330			43070.89237		180.25000		875.00000 
 43692.65567		 305.27265			43387.38302		68.70800		324.00000 
 43692.65567		 621.76330			43070.89237		180.25000		875.00000 
 43692.65567		 305.27265			43387.38302		68.70800		324.00000 
 43692.65567		 621.76330			43070.89237		180.25000		875.00000 
 43692.65567		 305.27265			43387.38302		68.70800		324.00000 
 43692.65567		 621.76330			43070.89237		180.25000		875.00000 
 43692.65567		 305.27265			43387.38302		68.70800		324.00000 
 43692.65567		 621.76330			43070.89237		180.25000		875.00000 
 43692.65567		 305.27265			43387.38302		68.70800		324.00000 
 43692.65567		 621.76330			43070.89237		180.25000		875.00000 
 43692.65567		 305.27265			43387.38302		68.70800		324.00000 
 43692.65567		 621.76330			43070.89237		180.25000		875.00000 
 43692.65567		 305.27265			43387.38302		68.70800		324.00000 
 43692.65567		 621.76330			43070.89237		180.25000		875.00000 
 43692.65567		 305.27265			43387.38302		68.70800		324.00000 
 43692.65567		 621.76330			43070.89237		180.25000		875.00000 
 43692.65567		 305.27265			43387.38302		68.70800		324.00000 
 43692.65567		 621.76330			43070.89237		180.25000		875.00000 
 43692.65567		 305.27265			43387.38302		68.70800		324.00000 
 43692.65567		 621.76330			43070.89237		180.25000		875.00000 
 43692.65567		 305.27265			43387.38302		68.70800		324.00000 
 43692.65567		 621.76330			43070.89237		180.25000		875.00000 
 43692.65567		 305.27265			43387.38302		68.70800		324.00000 
 43692.65567		 621.76330			43070.89237		180.25000		875.00000 
 43692.65567		 305.27265			43387.38302		68.70800		324.00000 
 43692.65567		 621.76330			43070.89237		180.25000		875.00000 
 43692.65567		 305.27265			43387.38302		68.70800		324.00000 
 43692.65567		 621.76330			43070.89237		180.25000		875.00000 
 43692.65567		 305.27265			43387.38302		68.70800		324.00000 
 43692.65567		 621.76330			43070.89237		180.25000		875.00000 
 43692.65567		 305.27265			43387.38302		68.70800		324.00000 
 43692.65567		 621.76330			43070.89237		180.25000		875.00000 
 43692.65567		 305.27265			43387.38302		68.70800		324.00000 
 43692.65567		 621.76330			43070.89237		180.25000		875.00000 
 43692.65567		 305.27265			43387.38302		68.70800		324.00000 
 43692.65567		 621.76330			43070.89237		180.25000		875.00000 
 43692.65567		 305.27265			43387.38302		68.70800		324.00000 
 43692.65567		 621.76330			43070.89237		180.25000		875.00000 
 43692.65567		 305.27265			43387.38302		68.70800		324.00000 
 43692.65567		 621.76330			43070.89237		180.25000		875.00000 
 43692.65567		 305.27265			43387.38302		68.70800		324.00000 
 43692.65567		 621.76330			43070.89237		180.25000		875.00000 
 43692.65567		 305.27265			43387.38302		68.70800		324.00000 
 43692.65567		 621.76330			43070.89237		180.25000		875.00000 
 43692.65567		 305.27265			43387.38302		68.70800		324.00000 
 43692.65567		 621.76330			43070.89237		180.25000		875.00000 
 43692.65567		 305.27265			43387.38302		68.70800		324.00000 
 43692.65567		 621.76330			43070.89237		180.25000		875.00000 
 43692.65567		 305.27265			43387.38302		68.70800		324.00000 
 43692.65567		 621.76330			43070.89237		180.25000		875.00000 
 43692.65567		 305.27265			43387.38302		68.70800		324.00000 
 43692.65567		 621.76330			43070.89237		180.25000		875.00000 
 43692.65567		 305.27265			43387.38302		68.70800		324.00000 
 43692.65567		 621.76330			43070.89237		180.25000		875.00000 
 43692.65567		 305.27265			43387.38302		68.70800		324.00000 
 43692.65567		 621.76330			43070.89237		201.43800		875.00000 
 43692.65567		 305.27265			43387.38302		68.70800		324.00000 
 43692.65567		 621.76330			43070.89237		201.43800		875.00000 
 43692.65567		 305.27265			43387.38302		68.70800		324.00000 
 43692.65567		 621.76330			43070.89237		201.43800		875.00000 
 43692.65567		 305.27265			43387.38302		68.70800		324.00000 
 43692.65567		 621.76330			43070.89237		201.43800		875.00000 
 43692.65567		 305.27265			43387.38302		68.70800		324.00000 
 43692.65567		 621.76330			43070.89237		201.43800		875.00000 
 43692.65567		 305.27265			43387.38302		68.70800		324.00000 
 43692.65567		 621.76330			43070.89237		201.43800		875.00000 
 43692.65567		 305.27265			43387.38302		68.70800		324.00000 
 43692.65567		 621.76330			43070.89237		201.43800		875.00000 
 43692.65567		 305.27265			43387.38302		68.70800		324.00000 
 43692.65567		 621.76330			43070.89237		201.43800		875.00000 
 43692.65567		 305.27265			43387.38302		68.70800		324.00000 
 43692.65567		 621.76330			43070.89237		201.43800		875.00000 
 43692.65567		 305.27265			43387.38302		68.70800		324.00000 
 43692.65567		 621.76330			43070.89237		201.43800		875.00000 
 43692.65567		 305.27265			43387.38302		68.70800		324.00000 
 43692.65567		 621.76330			43070.89237		201.43800		875.00000 
 43692.65567		 305.27265			43387.38302		68.70800		324.00000 
 43692.65567		 621.76330			43070.89237		201.43800		875.00000 
 43692.65567		 305.27265			43387.38302		68.70800		324.00000 
 43692.65567		 621.76330			43070.89237		201.43800		875.00000 
 43692.65567		 305.27265			43387.38302		68.70800		324.00000 
 43692.65567		 621.76330			43070.89237		201.43800		875.00000 
 43692.65567		 305.27265			43387.38302		68.70800		324.00000 
 43692.65567		 621.76330			43070.89237		201.43800		875.00000 
 43692.65567		 305.27265			43387.38302		68.70800		324.00000 
 43692.65567		 621.76330			43070.89237		201.43800		875.00000 
 43692.65567		 305.27265			43387.38302		68.70800		324.00000 
 43692.65567		 621.76330			43070.89237		201.43800		875.00000 
 43692.65567		 305.27265			43387.38302		68.70800		324.00000 
 43692.65567		 621.76330			43070.89237		201.43800		875.00000 
 43692.65567		 305.27265			43387.38302		68.70800		324.00000 
 43692.65567		 621.76330			43070.89237		201.43800		875.00000 
 43692.65567		 305.27265			43387.38302		68.70800		324.00000 
 43692.65567		 621.76330			43070.89237		201.43800		875.00000 
 43692.65567		 305.27265			43387.38302		68.70800		324.00000 
 43692.65567		 621.76330			43070.89237		201.43800		875.00000 
 43692.65567		 305.27265			43387.38302		68.70800		324.00000 
 43692.65567		 621.76330			43070.89237		201.43800		875.00000 
 43692.65567		 305.27265			43387.38302		68.70800		324.00000 
 43692.65567		 621.76330			43070.89237		201.43800		875.00000 
 43692.65567		 305.27265			43387.38302		68.70800		324.00000 
 43692.65567		 621.76330			43070.89237		201.43800		875.00000 
 43692.65567		 305.27265			43387.38302		68.70800		324.00000 
 43692.65567		 621.76330			43070.89237		201.43800		875.00000 
 43692.65567		 305.27265			43387.38302		68.70800		324.00000 
 43692.65567		 621.76330			43070.89237		201.43800		875.00000 
 43692.65567		 305.27265			43387.38302		68.70800		324.00000 
 43692.65567		 621.76330			43070.89237		201.43800		875.00000 
 43692.65567		 305.27265			43387.38302		68.70800		324.00000 
 43692.65567		 621.76330			43070.89237		201.43800		875.00000 
 43692.65567		 305.27265			43387.38302		68.70800		324.00000 
 43692.65567		 621.76330			43070.89237		201.43800		875.00000 
 43692.65567		 305.27265			43387.38302		68.70800		324.00000 
 43692.65567		 621.76330			43070.89237		201.43800		875.00000 
 43692.65567		 305.27265			43387.38302		68.70800		324.00000 
 43692.65567		 621.76330			43070.89237		201.43800		875.00000 
 43692.65567		 305.27265			43387.38302		68.70800		324.00000 
 43692.65567		 621.76330			43070.89237		201.43800		875.00000 
 43692.65567		 305.27265			43387.38302		68.70800		324.00000 
 43692.65567		 621.76330			43070.89237		201.43800		875.00000 
 43692.65567		 305.27265			43387.38302		68.70800		324.00000 
 43692.65567		 621.76330			43070.89237		201.43800		875.00000 
 43692.65567		 305.27265			43387.38302		68.70800		324.00000 
 43692.65567		 621.76330			43070.89237		201.43800		875.00000 
 43692.65567		 305.27265			43387.38302		68.70800		324.00000 
 43692.65567		 621.76330			43070.89237		201.43800		875.00000 
 43692.65567		 305.27265			43387.38302		68.70800		324.00000 
 43692.65567		 621.76330			43070.89237		201.43800		875.00000 
 43692.65567		 305.27265			43387.38302		68.70800		324.00000 
 43692.65567		 621.76330			43070.89237		201.43800		875.00000 
 43692.65567		 305.27265			43387.38302		68.70800		324.00000 
 43692.65567		 621.76330			43070.89237		201.43800		875.00000 
 43692.65567		 305.27265			43387.38302		68.70800		324.00000 
 43692.65567		 621.76330			43070.89237		201.43800		875.00000 
 43692.65567		 305.27265			43387.38302		68.70800		324.00000 
 43692.65567		 621.76330			43070.89237		201.43800		875.00000 
 43692.65567		 305.27265			43387.38302		68.70800		324.00000 
 43692.65567		 621.76330			43070.89237		201.43800		875.00000 
 43692.65567		 305.27265			43387.38302		68.70800		324.00000 
 43692.65567		 621.76330			43070.89237		201.43800		875.00000 
 43692.65567		 305.27265			43387.38302		68.70800		324.00000 
 43692.65567		 621.76330			43070.89237		201.43800		875.00000 
 43692.65567		 305.27265			43387.38302		68.70800		324.00000 
 43692.65567		 621.76330			43070.89237		201.43800		875.00000 
 43692.65567		 305.27265			43387.38302		68.70800		324.00000 
 43692.65567		 621.76330			43070.89237		201.43800		875.00000 
 43692.65567		 305.27265			43387.38302		68.70800		324.00000 
 43692.65567		 621.76330			43070.89237		201.43800		875.00000 
 43692.65567		 305.27265			43387.38302		68.70800		324.00000 
 43692.65567		 621.76330			43070.89237		201.43800		875.00000 
 43692.65567		 305.27265			43387.38302		68.70800		324.00000 
 43692.65567		 621.76330			43070.89237		201.43800		875.00000 
 43692.65567		 305.27265			43387.38302		68.70800		324.00000 
 43692.65567		 621.76330			43070.89237		201.43800		875.00000 
 43692.65567		 305.27265			43387.38302		68.70800		324.00000 
 43692.65567		 621.76330			43070.89237		201.43800		875.00000 
 43692.65567		 305.27265			43387.38302		68.70800		324.00000 
 43692.65567		 621.76330			43070.89237		201.43800		875.00000 
 43692.65567		 305.27265			43387.38302		68.70800		324.00000 
 43692.65567		 621.76330			43070.89237		201.43800		875.00000 
 43692.65567		 305.27265			43387.38302		68.70800		324.00000 
 43692.65567		 621.76330			43070.89237		201.43800		875.00000 
 43692.65567		 305.27265			43387.38302		68.70800		324.00000 
 43692.65567		 621.76330			43070.89237		201.43800		875.00000 
 43692.65567		 305.27265			43387.38302		68.70800		324.00000 
 43692.65567		 621.76330			43070.89237		201.43800		875.00000 
 43692.65567		 305.27265			43387.38302		70.13800		324.00000 
 43692.65567		 621.76330			43070.89237		201.43800		875.00000 
 43692.65567		 305.27265			43387.38302		70.13800		324.00000 
 43692.65567		 621.76330			43070.89237		201.43800		875.00000 
 43692.65567		 305.27265			43387.38302		70.13800		324.00000 
 43692.65567		 621.76330			43070.89237		201.43800		875.00000 
 43692.65567		 305.27265			43387.38302		70.13800		324.00000 
 43692.65567		 621.76330			43070.89237		201.43800		875.00000 
 43692.65567		 305.27265			43387.38302		70.13800		324.00000 
 43692.65567		 621.76330			43070.89237		201.43800		875.00000 
 43692.65567		 305.27265			43387.38302		70.13800		324.00000 
 43692.65567		 621.76330			43070.89237		209.68000		875.00000 
 43692.65567		 305.27265			43387.38302		70.13800		324.00000 
 43692.65567		 621.76330			43070.89237		209.68000		875.00000 
 43692.65567		 305.27265			43387.38302		70.13800		324.00000 
 43692.65567		 621.76330			43070.89237		209.68000		875.00000 
 43692.65567		 305.27265			43387.38302		70.13800		324.00000 
 43692.65567		 621.76330			43070.89237		209.68000		875.00000 
 43692.65567		 305.27265			43387.38302		70.13800		324.00000 
 43692.65567		 621.76330			43070.89237		209.68000		875.00000 
 43692.65567		 305.27265			43387.38302		70.13800		324.00000 
 43692.65567		 621.76330			43070.89237		209.68000		875.00000 
 43692.65567		 305.27265			43387.38302		70.13800		324.00000 
 43692.65567		 621.76330			43070.89237		209.68000		875.00000 
 43692.65567		 305.27265			43387.38302		70.13800		324.00000 
 43692.65567		 621.76330			43070.89237		209.68000		875.00000 
 43692.65567		 305.27265			43387.38302		70.13800		324.00000 
 43692.65567		 621.76330			43070.89237		209.68000		875.00000 
 43692.65567		 305.27265			43387.38302		70.13800		324.00000 
 43692.65567		 621.76330			43070.89237		209.68000		875.00000 
 43692.65567		 305.27265			43387.38302		70.13800		324.00000 
 43692.65567		 621.76330			43070.89237		209.68000		875.00000 
 43692.65567		 305.27265			43387.38302		70.13800		324.00000 
 43692.65567		 621.76330			43070.89237		209.68000		875.00000 
 43692.65567		 305.27265			43387.38302		70.13800		324.00000 
 43692.65567		 621.76330			43070.89237		209.68000		875.00000 
 43692.65567		 305.27265			43387.38302		70.13800		324.00000 
 43692.65567		 621.76330			43070.89237		209.68000		875.00000 
 43692.65567		 305.27265			43387.38302		70.13800		324.00000 
 43692.65567		 621.76330			43070.89237		209.68000		875.00000 
 43692.65567		 305.27265			43387.38302		70.13800		324.00000 
 43692.65567		 621.76330			43070.89237		209.68000		875.00000 
 43692.65567		 305.27265			43387.38302		70.13800		324.00000 
 43692.65567		 621.76330			43070.89237		209.68000		875.00000 
 43692.65567		 305.27265			43387.38302		70.13800		324.00000 
 43692.65567		 621.76330			43070.89237		209.68000		875.00000 
 43692.65567		 305.27265			43387.38302		70.13800		324.00000 
 43692.65567		 621.76330			43070.89237		209.68000		875.00000 
 43692.65567		 305.27265			43387.38302		70.13800		324.00000 
 43692.65567		 621.76330			43070.89237		209.68000		875.00000 
 43692.65567		 305.27265			43387.38302		70.13800		324.00000 
 43692.65567		 621.76330			43070.89237		209.68000		875.00000 
 43692.65567		 305.27265			43387.38302		70.13800		324.00000 
 43692.65567		 621.76330			43070.89237		209.68000		875.00000 
 43692.65567		 305.27265			43387.38302		70.13800		324.00000 
 43692.65567		 621.76330			43070.89237		209.68000		875.00000 
 43692.65567		 305.27265			43387.38302		70.13800		324.00000 
 43692.65567		 621.76330			43070.89237		209.68000		875.00000 
 43692.65567		 305.27265			43387.38302		70.13800		324.00000 
 43692.65567		 621.76330			43070.89237		209.68000		875.00000 
 43692.65567		 305.27265			43387.38302		70.13800		324.00000 
 43692.65567		 621.76330			43070.89237		209.68000		875.00000 
 43692.65567		 305.27265			43387.38302		70.13800		324.00000 
 43692.65567		 621.76330			43070.89237		209.68000		875.00000 
 43692.65567		 305.27265			43387.38302		70.13800		324.00000 
 43692.65567		 621.76330			43070.89237		209.68000		875.00000 
 43692.65567		 305.27265			43387.38302		70.13800		324.00000 
 43692.65567		 621.76330			43070.89237		209.68000		875.00000 
 43692.65567		 305.27265			43387.38302		70.13800		324.00000 
 43692.65567		 621.76330			43070.89237		209.68000		875.00000 
 43692.65567		 305.27265			43387.38302		70.13800		324.00000 
 43692.65567		 621.76330			43070.89237		209.68000		875.00000 
 43692.65567		 305.27265			43387.38302		70.13800		324.00000 
 43692.65567		 621.76330			43070.89237		209.68000		875.00000 
 43692.65567		 305.27265			43387.38302		70.13800		324.00000 
 43692.65567		 621.76330			43070.89237		209.68000		875.00000 
 43692.65567		 305.27265			43387.38302		70.13800		324.00000 
 43692.65567		 621.76330			43070.89237		209.68000		875.00000 
 43692.65567		 305.27265			43387.38302		70.13800		324.00000 
 43692.65567		 621.76330			43070.89237		209.68000		875.00000 
 43692.65567		 305.27265			43387.38302		70.13800		324.00000 
 43692.65567		 621.76330			43070.89237		209.68000		875.00000 
 43692.65567		 305.27265			43387.38302		70.13800		324.00000 
 43692.65567		 621.76330			43070.89237		209.68000		875.00000 
 43692.65567		 305.27265			43387.38302		70.13800		324.00000 
 43692.65567		 621.76330			43070.89237		209.68000		875.00000 
 43692.65567		 305.27265			43387.38302		70.13800		324.00000 
 43692.65567		 621.76330			43070.89237		209.68000		875.00000 
 43692.65567		 305.27265			43387.38302		70.13800		324.00000 
 43692.65567		 621.76330			43070.89237		209.68000		875.00000 
 43692.65567		 305.27265			43387.38302		70.13800		324.00000 
 43692.65567		 621.76330			43070.89237		209.68000		875.00000 
 43692.65567		 305.27265			43387.38302		70.13800		324.00000 
 43692.65567		 621.76330			43070.89237		209.68000		875.00000 
 43692.65567		 305.27265			43387.38302		70.13800		324.00000 
 43692.65567		 621.76330			43070.89237		209.68000		875.00000 
 43692.65567		 305.27265			43387.38302		70.13800		324.00000 
 43692.65567		 621.76330			43070.89237		209.68000		875.00000 
 43692.65567		 305.27265			43387.38302		70.13800		324.00000 
 43692.65567		 621.76330			43070.89237		209.68000		875.00000 
 43692.65567		 305.27265			43387.38302		70.13800		324.00000 
 43692.65567		 621.76330			43070.89237		209.68000		875.00000 
 43692.65567		 305.27265			43387.38302		70.13800		324.00000 
 43692.65567		 621.76330			43070.89237		209.68000		875.00000 
 43692.65567		 305.27265			43387.38302		70.13800		324.00000 
 43692.65567		 621.76330			43070.89237		209.68000		875.00000 
 43692.65567		 305.27265			43387.38302		70.13800		324.00000 
 43692.65567		 621.76330			43070.89237		209.68000		875.00000 
 43692.65567		 305.27265			43387.38302		70.13800		324.00000 
 43692.65567		 621.76330			43070.89237		209.68000		875.00000 
 43692.65567		 305.27265			43387.38302		70.13800		324.00000 
 43692.65567		 621.76330			43070.89237		209.68000		875.00000 
 43692.65567		 305.27265			43387.38302		70.13800		324.00000 
 43692.65567		 621.76330			43070.89237		209.68000		875.00000 
 43692.65567		 305.27265			43387.38302		70.13800		324.00000 
 43692.65567		 621.76330			43070.89237		209.68000		875.00000 
 43692.65567		 305.27265			43387.38302		70.13800		324.00000 
 43692.65567		 621.76330			43070.89237		209.68000		875.00000 
 43692.65567		 305.27265			43387.38302		70.13800		324.00000 
 43692.65567		 621.76330			43070.89237		209.68000		875.00000 
 43692.65567		 305.27265			43387.38302		70.13800		324.00000 
 43692.65567		 621.76330			43070.89237		209.68000		875.00000 
 43692.65567		 305.27265			43387.38302		70.13800		324.00000 
 43692.65567		 621.76330			43070.89237		209.68000		875.00000 
 43692.65567		 305.27265			43387.38302		70.13800		324.00000 
 43692.65567		 621.76330			43070.89237		209.68000		875.00000 
 43692.65567		 305.27265			43387.38302		70.13800		324.00000 
 43692.65567		 621.76330			43070.89237		209.68000		875.00000 
 43692.65567		 305.27265			43387.38302		70.13800		324.00000 
 43692.65567		 621.76330			43070.89237		209.68000		875.00000 
 43692.65567		 305.27265			43387.38302		70.13800		324.00000 
 43692.65567		 621.76330			43070.89237		209.68000		875.00000 
 43692.65567		 305.27265			43387.38302		70.13800		324.00000 
 43692.65567		 621.76330			43070.89237		209.68000		875.00000 
 43692.65567		 305.27265			43387.38302		70.13800		324.00000 
 43692.65567		 621.76330			43070.89237		209.68000		875.00000 
 43692.65567		 305.27265			43387.38302		70.13800		324.00000 
 43692.65567		 621.76330			43070.89237		209.68000		875.00000 
 43692.65567		 305.27265			43387.38302		70.13800		324.00000 
 43692.65567		 621.76330			43070.89237		213.10200		875.00000 
 43692.65567		 305.27265			43387.38302		70.13800		324.00000 
 43692.65567		 621.76330			43070.89237		213.10200		875.00000 
 43692.65567		 305.27265			43387.38302		70.13800		324.00000 
 43692.65567		 621.76330			43070.89237		213.10200		875.00000 
 43692.65567		 305.27265			43387.38302		70.13800		324.00000 
 43692.65567		 621.76330			43070.89237		213.10200		875.00000 
 43692.65567		 305.27265			43387.38302		70.13800		324.00000 
 43692.65567		 621.76330			43070.89237		213.10200		875.00000 
 43692.65567		 305.27265			43387.38302		70.13800		324.00000 
 43692.65567		 621.76330			43070.89237		213.10200		875.00000 
 43692.65567		 305.27265			43387.38302		70.13800		324.00000 
 43692.65567		 621.76330			43070.89237		213.10200		875.00000 
 43692.65567		 305.27265			43387.38302		70.13800		324.00000 
 43692.65567		 621.76330			43070.89237		213.10200		875.00000 
 43692.65567		 305.27265			43387.38302		70.13800		324.00000 
 43692.65567		 621.76330			43070.89237		213.10200		875.00000 
 43692.65567		 305.27265			43387.38302		70.13800		324.00000 
 43692.65567		 621.76330			43070.89237		213.10200		875.00000 
 43692.65567		 305.27265			43387.38302		70.13800		324.00000 
 43692.65567		 621.76330			43070.89237		213.10200		875.00000 
 43692.65567		 305.27265			43387.38302		70.13800		324.00000 
 43692.65567		 621.76330			43070.89237		213.10200		875.00000 
 43692.65567		 305.27265			43387.38302		70.13800		324.00000 
 43692.65567		 621.76330			43070.89237		213.10200		875.00000 
 43692.65567		 305.27265			43387.38302		70.13800		324.00000 
 43692.65567		 621.76330			43070.89237		213.10200		875.00000 
 43692.65567		 305.27265			43387.38302		70.13800		324.00000 
 43692.65567		 621.76330			43070.89237		213.10200		875.00000 
 43692.65567		 305.27265			43387.38302		70.13800		324.00000 
 43692.65567		 621.76330			43070.89237		213.10200		875.00000 
 43692.65567		 305.27265			43387.38302		70.13800		324.00000 
 43692.65567		 621.76330			43070.89237		213.10200		875.00000 
 43692.65567		 305.27265			43387.38302		70.13800		324.00000 
 43692.65567		 621.76330			43070.89237		213.10200		875.00000 
 43692.65567		 305.27265			43387.38302		70.13800		324.00000 
 43692.65567		 621.76330			43070.89237		213.10200		875.00000 
 43692.65567		 305.27265			43387.38302		70.13800		324.00000 
 43692.65567		 621.76330			43070.89237		213.10200		875.00000 
 43692.65567		 305.27265			43387.38302		70.13800		324.00000 
 43692.65567		 621.76330			43070.89237		213.10200		875.00000 
 43692.65567		 305.27265			43387.38302		70.13800		324.00000 
 43692.65567		 621.76330			43070.89237		213.10200		875.00000 
 43692.65567		 305.27265			43387.38302		70.13800		324.00000 
 43692.65567		 621.76330			43070.89237		213.10200		875.00000 
 43692.65567		 305.27265			43387.38302		70.13800		324.00000 
 43692.65567		 621.76330			43070.89237		213.10200		875.00000 
 43692.65567		 305.27265			43387.38302		70.13800		324.00000 
 43692.65567		 621.76330			43070.89237		213.10200		875.00000 
 43692.65567		 305.27265			43387.38302		70.13800		324.00000 
 43692.65567		 621.76330			43070.89237		213.10200		875.00000 
 43692.65567		 305.27265			43387.38302		70.13800		324.00000 
 43692.65567		 621.76330			43070.89237		213.10200		875.00000 
 43692.65567		 305.27265			43387.38302		70.13800		324.00000 
 43692.65567		 621.76330			43070.89237		213.10200		875.00000 
 43692.65567		 305.27265			43387.38302		70.13800		324.00000 
 43692.65567		 621.76330			43070.89237		213.10200		875.00000 
 43692.65567		 305.27265			43387.38302		70.13800		324.00000 
 43692.65567		 621.76330			43070.89237		213.10200		875.00000 
 43692.65567		 305.27265			43387.38302		70.13800		324.00000 
 43692.65567		 621.76330			43070.89237		213.10200		875.00000 
 43692.65567		 305.27265			43387.38302		70.13800		324.00000 
 43692.65567		 621.76330			43070.89237		213.10200		875.00000 
 43692.65567		 305.27265			43387.38302		70.13800		324.00000 
 43692.65567		 621.76330			43070.89237		213.10200		875.00000 
 43692.65567		 305.27265			43387.38302		70.13800		324.00000 
 43692.65567		 621.76330			43070.89237		213.10200		875.00000 
 43692.65567		 305.27265			43387.38302		70.13800		324.00000 
 43692.65567		 621.76330			43070.89237		213.10200		875.00000 
 43692.65567		 305.27265			43387.38302		70.13800		324.00000 
 43692.65567		 621.76330			43070.89237		213.10200		875.00000 
 43692.65567		 305.27265			43387.38302		70.13800		324.00000 
 43692.65567		 621.76330			43070.89237		213.10200		875.00000 
 43692.65567		 305.27265			43387.38302		70.13800		324.00000 
 43692.65567		 621.76330			43070.89237		213.10200		875.00000 
 43692.65567		 305.27265			43387.38302		70.13800		324.00000 
 43692.65567		 621.76330			43070.89237		213.10200		875.00000 
 43692.65567		 305.27265			43387.38302		70.13800		324.00000 
 43692.65567		 621.76330			43070.89237		213.10200		875.00000 
 43692.65567		 305.27265			43387.38302		70.13800		324.00000 
 43692.65567		 621.76330			43070.89237		213.10200		875.00000 
 43692.65567		 305.27265			43387.38302		70.13800		324.00000 
 43692.65567		 621.76330			43070.89237		213.10200		875.00000 
 43692.65567		 305.27265			43387.38302		70.13800		324.00000 
 43692.65567		 621.76330			43070.89237		213.10200		875.00000 
 43692.65567		 305.27265			43387.38302		70.13800		324.00000 
 43692.65567		 621.76330			43070.89237		213.10200		875.00000 
 43692.65567		 305.27265			43387.38302		70.13800		324.00000 
 43692.65567		 621.76330			43070.89237		213.10200		875.00000 
 43692.65567		 305.27265			43387.38302		70.13800		324.00000 
 43692.65567		 621.76330			43070.89237		213.10200		875.00000 
 43692.65567		 305.27265			43387.38302		70.13800		324.00000 
 43692.65567		 621.76330			43070.89237		213.10200		875.00000 
 43692.65567		 305.27265			43387.38302		70.13800		324.00000 
 43692.65567		 621.76330			43070.89237		213.10200		875.00000 
 43692.65567		 305.27265			43387.38302		70.13800		324.00000 
 43692.65567		 621.76330			43070.89237		213.10200		875.00000 
 43692.65567		 305.27265			43387.38302		70.13800		324.00000 
 43692.65567		 621.76330			43070.89237		213.10200		875.00000 
 43692.65567		 305.27265			43387.38302		70.13800		324.00000 
 43692.65567		 621.76330			43070.89237		213.10200		875.00000 
 43692.65567		 305.27265			43387.38302		70.13800		324.00000 
 43692.65567		 621.76330			43070.89237		213.10200		875.00000 
 43692.65567		 305.27265			43387.38302		70.13800		324.00000 
 43692.65567		 621.76330			43070.89237		213.10200		875.00000 
 43692.65567		 305.27265			43387.38302		70.13800		324.00000 
 43692.65567		 621.76330			43070.89237		213.10200		875.00000 
 43692.65567		 305.27265			43387.38302		70.13800		324.00000 
 43692.65567		 621.76330			43070.89237		213.10200		875.00000 
 43692.65567		 305.27265			43387.38302		70.13800		324.00000 
 43692.65567		 621.76330			43070.89237		213.10200		875.00000 
 43692.65567		 305.27265			43387.38302		70.13800		324.00000 
 43692.65567		 621.76330			43070.89237		213.10200		875.00000 
 43692.65567		 305.27265			43387.38302		70.13800		324.00000 
 43692.65567		 621.76330			43070.89237		213.10200		875.00000 
 43692.65567		 305.27265			43387.38302		70.13800		324.00000 
 43692.65567		 621.76330			43070.89237		213.10200		875.00000 
 43692.65567		 305.27265			43387.38302		70.13800		324.00000 
 43692.65567		 621.76330			43070.89237		213.10200		875.00000 
 43692.65567		 305.27265			43387.38302		70.13800		324.00000 
 43692.65567		 621.76330			43070.89237		213.10200		875.00000 
 43692.65567		 305.27265			43387.38302		70.13800		324.00000 
 43692.65567		 621.76330			43070.89237		213.10200		875.00000 
 43692.65567		 305.27265			43387.38302		70.13800		324.00000 
 43692.65567		 621.76330			43070.89237		213.10200		875.00000 
 43692.65567		 305.27265			43387.38302		70.13800		324.00000 
 43692.65567		 621.76330			43070.89237		213.10200		875.00000 
 43692.65567		 305.27265			43387.38302		70.13800		324.00000 
 43692.65567		 621.76330			43070.89237		213.10200		875.00000 
 43692.65567		 305.27265			43387.38302		70.13800		324.00000 
 43692.65567		 621.76330			43070.89237		213.83400		875.00000 
 43692.65567		 305.27265			43387.38302		70.13800		324.00000 
 43692.65567		 621.76330			43070.89237		213.83400		875.00000 
 43692.65567		 305.27265			43387.38302		70.13800		324.00000 
 43692.65567		 621.76330			43070.89237		213.83400		875.00000 
 43692.65567		 305.27265			43387.38302		70.13800		324.00000 
 43692.65567		 621.76330			43070.89237		213.83400		875.00000 
 43692.65567		 305.27265			43387.38302		70.13800		324.00000 
 43692.65567		 621.76330			43070.89237		213.83400		875.00000 
 43692.65567		 305.27265			43387.38302		70.13800		324.00000 
 43692.65567		 621.76330			43070.89237		213.83400		875.00000 
 43692.65567		 305.27265			43387.38302		70.13800		324.00000 
 43692.65567		 621.76330			43070.89237		213.83400		875.00000 
 43692.65567		 305.27265			43387.38302		70.13800		324.00000 
 43692.65567		 621.76330			43070.89237		213.83400		875.00000 
 43692.65567		 305.27265			43387.38302		70.13800		324.00000 
 43692.65567		 621.76330			43070.89237		213.83400		875.00000 
 43692.65567		 305.27265			43387.38302		70.13800		324.00000 
 43692.65567		 621.76330			43070.89237		213.83400		875.00000 
 43692.65567		 305.27265			43387.38302		70.13800		324.00000 
 43692.65567		 621.76330			43070.89237		213.83400		875.00000 
 43692.65567		 305.27265			43387.38302		70.13800		324.00000 
 43692.65567		 621.76330			43070.89237		213.83400		875.00000 
 43692.65567		 305.27265			43387.38302		70.13800		324.00000 
 43692.65567		 621.76330			43070.89237		213.83400		875.00000 
 43692.65567		 305.27265			43387.38302		70.13800		324.00000 
 43692.65567		 621.76330			43070.89237		213.83400		875.00000 
 43692.65567		 305.27265			43387.38302		70.13800		324.00000 
 43692.65567		 565.43465			43127.22102		213.83400		875.00000 
 43692.65567		 305.27265			43387.38302		70.13800		324.00000 
 43692.65567		 537.27032			43155.38535		213.83400		875.00000 
 43692.65567		 305.27265			43387.38302		70.13800		324.00000 
 43692.65567		 537.27032			43155.38535		213.83400		875.00000 
 43692.65567		 305.27265			43387.38302		70.13800		324.00000 
 43692.65567		 537.27032			43155.38535		213.83400		875.00000 
 43692.65567		 305.27265			43387.38302		70.13800		324.00000 
 43692.65567		 537.27032			43155.38535		213.83400		875.00000 
 43692.65567		 305.27265			43387.38302		70.13800		324.00000 
 43692.65567		 537.27032			43155.38535		213.83400		875.00000 
 43692.65567		 305.27265			43387.38302		70.13800		324.00000 
 43692.65567		 537.27032			43155.38535		213.83400		875.00000 
 43692.65567		 305.27265			43387.38302		70.13800		324.00000 
 43692.65567		 537.27032			43155.38535		213.83400		875.00000 
 43692.65567		 305.27265			43387.38302		70.13800		324.00000 
 43692.65567		 537.27032			43155.38535		213.83400		875.00000 
 43692.65567		 305.27265			43387.38302		70.13800		324.00000 
 43692.65567		 537.27032			43155.38535		213.83400		875.00000 
 43692.65567		 305.27265			43387.38302		70.13800		324.00000 
 43692.65567		 537.27032			43155.38535		213.83400		875.00000 
 43692.65567		 305.27265			43387.38302		70.13800		324.00000 
 43692.65567		 537.27032			43155.38535		213.83400		875.00000 
 43692.65567		 305.27265			43387.38302		70.13800		324.00000 
 43692.65567		 537.27032			43155.38535		213.83400		875.00000 
 43692.65567		 305.27265			43387.38302		70.13800		324.00000 
 43692.65567		 537.27032			43155.38535		213.83400		875.00000 
 43692.65567		 305.27265			43387.38302		70.13800		324.00000 
 43692.65567		 537.27032			43155.38535		213.83400		875.00000 
 43692.65567		 305.27265			43387.38302		70.13800		324.00000 
 43692.65567		 537.27032			43155.38535		213.83400		875.00000 
 43692.65567		 305.27265			43387.38302		70.13800		324.00000 
 43692.65567		 537.27032			43155.38535		213.83400		875.00000 
 43692.65567		 305.27265			43387.38302		70.13800		324.00000 
 43692.65567		 537.27032			43155.38535		213.83400		875.00000 
 43692.65567		 305.27265			43387.38302		70.13800		324.00000 
 43692.65567		 537.27032			43155.38535		213.83400		875.00000 
 43692.65567		 305.27265			43387.38302		70.13800		324.00000 
 43692.65567		 537.27032			43155.38535		213.83400		875.00000 
 43692.65567		 305.27265			43387.38302		70.13800		324.00000 
 43692.65567		 537.27032			43155.38535		213.83400		875.00000 
 43692.65567		 305.27265			43387.38302		70.13800		324.00000 
 43692.65567		 529.63254			43163.02313		213.83400		875.00000 
 43692.65567		 305.27265			43387.38302		70.13800		324.00000 
 43692.65567		 525.81365			43166.84203		213.83400		875.00000 
 43692.65567		 305.27265			43387.38302		70.13800		324.00000 
 43692.65567		 525.81365			43166.84203		213.83400		875.00000 
 43692.65567		 261.35540			43431.30027		70.13800		324.00000 
 43692.65567		 261.35540			43431.30027		171.36400		875.00000 
 43692.65567		 261.35540			43431.30027		70.13800		324.00000 
