Memory Total (MiB) 	 Memory Used (MiB) 	    Memory Free (MiB) 	 Power Drawed (W) 	 Clocks (Mhz) 	 
 43692.65567		 261.35540			43431.30027		216.30200		875.00000 
 43692.65567		 261.35540			43431.30027		67.63800		324.00000 
 43692.65567		 261.35540			43431.30027		216.30200		875.00000 
 43692.65567		 261.35540			43431.30027		67.63800		324.00000 
 43692.65567		 261.35540			43431.30027		216.30200		875.00000 
 43692.65567		 261.35540			43431.30027		67.63800		324.00000 
 43692.65567		 261.35540			43431.30027		216.30200		875.00000 
 43692.65567		 261.35540			43431.30027		67.63800		324.00000 
 43692.65567		 261.35540			43431.30027		216.30200		875.00000 
 43692.65567		 261.35540			43431.30027		67.63800		324.00000 
 43692.65567		 261.35540			43431.30027		216.30200		875.00000 
 43692.65567		 261.35540			43431.30027		67.63800		324.00000 
 43692.65567		 261.35540			43431.30027		163.98000		875.00000 
 43692.65567		 261.35540			43431.30027		67.63800		324.00000 
 43692.65567		 261.35540			43431.30027		163.98000		875.00000 
 43692.65567		 261.35540			43431.30027		67.63800		324.00000 
 43692.65567		 261.35540			43431.30027		163.98000		875.00000 
 43692.65567		 261.35540			43431.30027		67.63800		324.00000 
 43692.65567		 261.35540			43431.30027		163.98000		875.00000 
 43692.65567		 261.35540			43431.30027		67.63800		324.00000 
 43692.65567		 261.35540			43431.30027		163.98000		875.00000 
 43692.65567		 261.35540			43431.30027		67.63800		324.00000 
 43692.65567		 261.35540			43431.30027		163.98000		875.00000 
 43692.65567		 261.35540			43431.30027		67.63800		324.00000 
 43692.65567		 261.35540			43431.30027		163.98000		875.00000 
 43692.65567		 261.35540			43431.30027		67.63800		324.00000 
 43692.65567		 261.35540			43431.30027		163.98000		875.00000 
 43692.65567		 261.35540			43431.30027		67.63800		324.00000 
 43692.65567		 261.35540			43431.30027		163.98000		875.00000 
 43692.65567		 261.35540			43431.30027		67.63800		324.00000 
 43692.65567		 261.35540			43431.30027		163.98000		875.00000 
 43692.65567		 261.35540			43431.30027		67.63800		324.00000 
 43692.65567		 261.35540			43431.30027		163.98000		875.00000 
 43692.65567		 261.35540			43431.30027		67.63800		324.00000 
 43692.65567		 265.17429			43427.48138		163.98000		875.00000 
 43692.65567		 261.35540			43431.30027		67.63800		324.00000 
 43692.65567		 265.17429			43427.48138		163.98000		875.00000 
 43692.65567		 261.35540			43431.30027		67.63800		324.00000 
 43692.65567		 272.81207			43419.84360		163.98000		875.00000 
 43692.65567		 261.35540			43431.30027		67.63800		324.00000 
 43692.65567		 272.81207			43419.84360		163.98000		875.00000 
 43692.65567		 261.35540			43431.30027		67.63800		324.00000 
 43692.65567		 272.81207			43419.84360		163.98000		875.00000 
 43692.65567		 265.17429			43427.48138		67.63800		324.00000 
 43692.65567		 272.81207			43419.84360		163.98000		875.00000 
 43692.65567		 265.17429			43427.48138		67.63800		324.00000 
 43692.65567		 272.81207			43419.84360		163.98000		875.00000 
 43692.65567		 265.17429			43427.48138		67.63800		324.00000 
 43692.65567		 272.81207			43419.84360		163.98000		875.00000 
 43692.65567		 272.81207			43419.84360		67.63800		324.00000 
 43692.65567		 272.81207			43419.84360		163.98000		875.00000 
 43692.65567		 272.81207			43419.84360		67.63800		324.00000 
 43692.65567		 272.81207			43419.84360		163.98000		875.00000 
 43692.65567		 272.81207			43419.84360		67.63800		324.00000 
 43692.65567		 305.27265			43387.38302		163.98000		875.00000 
 43692.65567		 305.27265			43387.38302		67.63800		324.00000 
 43692.65567		 305.27265			43387.38302		163.98000		875.00000 
 43692.65567		 305.27265			43387.38302		67.63800		324.00000 
 43692.65567		 305.27265			43387.38302		163.98000		875.00000 
 43692.65567		 305.27265			43387.38302		67.63800		324.00000 
 43692.65567		 305.27265			43387.38302		163.98000		875.00000 
 43692.65567		 305.27265			43387.38302		67.63800		324.00000 
 43692.65567		 305.27265			43387.38302		163.98000		875.00000 
 43692.65567		 305.27265			43387.38302		67.63800		324.00000 
 43692.65567		 309.09154			43383.56413		163.98000		875.00000 
 43692.65567		 305.27265			43387.38302		67.63800		324.00000 
 43692.65567		 310.52363			43382.13204		163.98000		875.00000 
 43692.65567		 305.27265			43387.38302		67.63800		324.00000 
 43692.65567		 311.00099			43381.65468		163.98000		875.00000 
 43692.65567		 305.27265			43387.38302		67.63800		324.00000 
 43692.65567		 311.00099			43381.65468		163.98000		875.00000 
 43692.65567		 305.27265			43387.38302		67.63800		324.00000 
 43692.65567		 311.00099			43381.65468		163.98000		875.00000 
 43692.65567		 305.27265			43387.38302		67.63800		324.00000 
 43692.65567		 311.00099			43381.65468		163.98000		875.00000 
 43692.65567		 305.27265			43387.38302		67.63800		324.00000 
 43692.65567		 311.00099			43381.65468		142.94800		875.00000 
 43692.65567		 305.27265			43387.38302		67.63800		324.00000 
 43692.65567		 311.00099			43381.65468		142.94800		875.00000 
 43692.65567		 305.27265			43387.38302		67.63800		324.00000 
 43692.65567		 311.00099			43381.65468		142.94800		875.00000 
 43692.65567		 305.27265			43387.38302		67.63800		324.00000 
 43692.65567		 311.00099			43381.65468		142.94800		875.00000 
 43692.65567		 305.27265			43387.38302		67.63800		324.00000 
 43692.65567		 311.00099			43381.65468		142.94800		875.00000 
 43692.65567		 305.27265			43387.38302		67.63800		324.00000 
 43692.65567		 311.00099			43381.65468		142.94800		875.00000 
 43692.65567		 305.27265			43387.38302		67.63800		324.00000 
 43692.65567		 311.00099			43381.65468		142.94800		875.00000 
 43692.65567		 305.27265			43387.38302		67.63800		324.00000 
 43692.65567		 311.00099			43381.65468		142.94800		875.00000 
 43692.65567		 305.27265			43387.38302		67.63800		324.00000 
 43692.65567		 311.00099			43381.65468		142.94800		875.00000 
 43692.65567		 305.27265			43387.38302		67.63800		324.00000 
 43692.65567		 311.00099			43381.65468		142.94800		875.00000 
 43692.65567		 305.27265			43387.38302		67.63800		324.00000 
 43692.65567		 311.00099			43381.65468		142.94800		875.00000 
 43692.65567		 305.27265			43387.38302		67.63800		324.00000 
 43692.65567		 311.00099			43381.65468		142.94800		875.00000 
 43692.65567		 305.27265			43387.38302		67.63800		324.00000 
 43692.65567		 311.00099			43381.65468		142.94800		875.00000 
 43692.65567		 305.27265			43387.38302		67.63800		324.00000 
 43692.65567		 311.00099			43381.65468		142.94800		875.00000 
 43692.65567		 305.27265			43387.38302		67.63800		324.00000 
 43692.65567		 311.00099			43381.65468		142.94800		875.00000 
 43692.65567		 305.27265			43387.38302		67.63800		324.00000 
 43692.65567		 311.00099			43381.65468		142.94800		875.00000 
 43692.65567		 305.27265			43387.38302		65.60600		324.00000 
 43692.65567		 311.00099			43381.65468		142.94800		875.00000 
 43692.65567		 305.27265			43387.38302		65.60600		324.00000 
 43692.65567		 311.00099			43381.65468		142.94800		875.00000 
 43692.65567		 305.27265			43387.38302		65.60600		324.00000 
 43692.65567		 311.00099			43381.65468		142.94800		875.00000 
 43692.65567		 305.27265			43387.38302		65.60600		324.00000 
 43692.65567		 311.00099			43381.65468		142.94800		875.00000 
 43692.65567		 305.27265			43387.38302		65.60600		324.00000 
 43692.65567		 311.00099			43381.65468		142.94800		875.00000 
 43692.65567		 305.27265			43387.38302		65.60600		324.00000 
 43692.65567		 311.00099			43381.65468		142.94800		875.00000 
 43692.65567		 305.27265			43387.38302		65.60600		324.00000 
 43692.65567		 311.00099			43381.65468		142.94800		875.00000 
 43692.65567		 305.27265			43387.38302		65.60600		324.00000 
 43692.65567		 311.00099			43381.65468		142.94800		875.00000 
 43692.65567		 305.27265			43387.38302		65.60600		324.00000 
 43692.65567		 311.00099			43381.65468		142.94800		875.00000 
 43692.65567		 305.27265			43387.38302		65.60600		324.00000 
 43692.65567		 311.00099			43381.65468		142.94800		875.00000 
 43692.65567		 305.27265			43387.38302		65.60600		324.00000 
 43692.65567		 311.00099			43381.65468		142.94800		875.00000 
 43692.65567		 305.27265			43387.38302		65.60600		324.00000 
 43692.65567		 311.00099			43381.65468		142.94800		875.00000 
 43692.65567		 305.27265			43387.38302		65.60600		324.00000 
 43692.65567		 311.00099			43381.65468		135.34600		875.00000 
 43692.65567		 305.27265			43387.38302		65.60600		324.00000 
 43692.65567		 311.00099			43381.65468		135.34600		875.00000 
 43692.65567		 305.27265			43387.38302		65.60600		324.00000 
 43692.65567		 311.00099			43381.65468		135.34600		875.00000 
 43692.65567		 305.27265			43387.38302		65.60600		324.00000 
 43692.65567		 311.00099			43381.65468		135.34600		875.00000 
 43692.65567		 305.27265			43387.38302		65.60600		324.00000 
 43692.65567		 311.00099			43381.65468		135.34600		875.00000 
 43692.65567		 305.27265			43387.38302		65.60600		324.00000 
 43692.65567		 311.00099			43381.65468		135.34600		875.00000 
 43692.65567		 305.27265			43387.38302		65.60600		324.00000 
 43692.65567		 311.00099			43381.65468		135.34600		875.00000 
 43692.65567		 305.27265			43387.38302		65.60600		324.00000 
 43692.65567		 311.00099			43381.65468		135.34600		875.00000 
 43692.65567		 305.27265			43387.38302		65.60600		324.00000 
 43692.65567		 311.00099			43381.65468		135.34600		875.00000 
 43692.65567		 305.27265			43387.38302		65.60600		324.00000 
 43692.65567		 311.00099			43381.65468		135.34600		875.00000 
 43692.65567		 305.27265			43387.38302		65.60600		324.00000 
 43692.65567		 311.00099			43381.65468		135.34600		875.00000 
 43692.65567		 305.27265			43387.38302		65.60600		324.00000 
 43692.65567		 311.00099			43381.65468		135.34600		875.00000 
 43692.65567		 305.27265			43387.38302		65.60600		324.00000 
 43692.65567		 311.00099			43381.65468		135.34600		875.00000 
 43692.65567		 305.27265			43387.38302		65.60600		324.00000 
 43692.65567		 311.00099			43381.65468		135.34600		875.00000 
 43692.65567		 305.27265			43387.38302		65.60600		324.00000 
 43692.65567		 311.00099			43381.65468		135.34600		875.00000 
 43692.65567		 305.27265			43387.38302		65.60600		324.00000 
 43692.65567		 311.00099			43381.65468		135.34600		875.00000 
 43692.65567		 305.27265			43387.38302		65.60600		324.00000 
 43692.65567		 311.00099			43381.65468		135.34600		875.00000 
 43692.65567		 305.27265			43387.38302		65.60600		324.00000 
 43692.65567		 311.00099			43381.65468		135.34600		875.00000 
 43692.65567		 305.27265			43387.38302		65.60600		324.00000 
 43692.65567		 314.81988			43377.83579		135.34600		875.00000 
 43692.65567		 305.27265			43387.38302		65.60600		324.00000 
 43692.65567		 314.81988			43377.83579		135.34600		875.00000 
 43692.65567		 305.27265			43387.38302		65.60600		324.00000 
 43692.65567		 314.81988			43377.83579		135.34600		875.00000 
 43692.65567		 305.27265			43387.38302		65.60600		324.00000 
 43692.65567		 318.63877			43374.01690		135.34600		875.00000 
 43692.65567		 305.27265			43387.38302		65.60600		324.00000 
 43692.65567		 322.45767			43370.19801		135.34600		875.00000 
 43692.65567		 305.27265			43387.38302		65.60600		324.00000 
 43692.65567		 326.27656			43366.37912		135.34600		875.00000 
 43692.65567		 305.27265			43387.38302		65.60600		324.00000 
 43692.65567		 326.27656			43366.37912		135.34600		875.00000 
 43692.65567		 305.27265			43387.38302		65.60600		324.00000 
 43692.65567		 326.27656			43366.37912		135.34600		875.00000 
 43692.65567		 305.27265			43387.38302		65.60600		324.00000 
 43692.65567		 537.27032			43155.38535		135.34600		875.00000 
 43692.65567		 305.27265			43387.38302		65.60600		324.00000 
 43692.65567		 593.59897			43099.05670		135.34600		875.00000 
 43692.65567		 305.27265			43387.38302		65.60600		324.00000 
 43692.65567		 621.76330			43070.89237		135.34600		875.00000 
 43692.65567		 305.27265			43387.38302		65.60600		324.00000 
 43692.65567		 621.76330			43070.89237		135.34600		875.00000 
 43692.65567		 305.27265			43387.38302		65.60600		324.00000 
 43692.65567		 621.76330			43070.89237		135.34600		875.00000 
 43692.65567		 305.27265			43387.38302		65.60600		324.00000 
 43692.65567		 621.76330			43070.89237		135.34600		875.00000 
 43692.65567		 305.27265			43387.38302		65.60600		324.00000 
 43692.65567		 621.76330			43070.89237		135.34600		875.00000 
 43692.65567		 305.27265			43387.38302		65.60600		324.00000 
 43692.65567		 621.76330			43070.89237		135.34600		875.00000 
 43692.65567		 305.27265			43387.38302		65.60600		324.00000 
 43692.65567		 621.76330			43070.89237		135.34600		875.00000 
 43692.65567		 305.27265			43387.38302		65.60600		324.00000 
 43692.65567		 621.76330			43070.89237		141.65400		875.00000 
 43692.65567		 305.27265			43387.38302		65.60600		324.00000 
 43692.65567		 621.76330			43070.89237		141.65400		875.00000 
 43692.65567		 305.27265			43387.38302		65.60600		324.00000 
 43692.65567		 621.76330			43070.89237		141.65400		875.00000 
 43692.65567		 305.27265			43387.38302		65.60600		324.00000 
 43692.65567		 621.76330			43070.89237		141.65400		875.00000 
 43692.65567		 305.27265			43387.38302		65.60600		324.00000 
 43692.65567		 621.76330			43070.89237		141.65400		875.00000 
 43692.65567		 305.27265			43387.38302		65.60600		324.00000 
 43692.65567		 621.76330			43070.89237		141.65400		875.00000 
 43692.65567		 305.27265			43387.38302		65.60600		324.00000 
 43692.65567		 621.76330			43070.89237		141.65400		875.00000 
 43692.65567		 305.27265			43387.38302		65.60600		324.00000 
 43692.65567		 621.76330			43070.89237		141.65400		875.00000 
 43692.65567		 305.27265			43387.38302		65.60600		324.00000 
 43692.65567		 621.76330			43070.89237		141.65400		875.00000 
 43692.65567		 305.27265			43387.38302		65.60600		324.00000 
 43692.65567		 621.76330			43070.89237		141.65400		875.00000 
 43692.65567		 305.27265			43387.38302		65.60600		324.00000 
 43692.65567		 621.76330			43070.89237		141.65400		875.00000 
 43692.65567		 305.27265			43387.38302		65.60600		324.00000 
 43692.65567		 621.76330			43070.89237		141.65400		875.00000 
 43692.65567		 305.27265			43387.38302		65.60600		324.00000 
 43692.65567		 621.76330			43070.89237		141.65400		875.00000 
 43692.65567		 305.27265			43387.38302		65.60600		324.00000 
 43692.65567		 621.76330			43070.89237		141.65400		875.00000 
 43692.65567		 305.27265			43387.38302		65.60600		324.00000 
 43692.65567		 621.76330			43070.89237		141.65400		875.00000 
 43692.65567		 305.27265			43387.38302		65.60600		324.00000 
 43692.65567		 621.76330			43070.89237		141.65400		875.00000 
 43692.65567		 305.27265			43387.38302		65.60600		324.00000 
 43692.65567		 621.76330			43070.89237		141.65400		875.00000 
 43692.65567		 305.27265			43387.38302		65.60600		324.00000 
 43692.65567		 621.76330			43070.89237		141.65400		875.00000 
 43692.65567		 305.27265			43387.38302		65.60600		324.00000 
 43692.65567		 621.76330			43070.89237		141.65400		875.00000 
 43692.65567		 305.27265			43387.38302		65.60600		324.00000 
 43692.65567		 621.76330			43070.89237		141.65400		875.00000 
 43692.65567		 305.27265			43387.38302		65.60600		324.00000 
 43692.65567		 621.76330			43070.89237		141.65400		875.00000 
 43692.65567		 305.27265			43387.38302		65.60600		324.00000 
 43692.65567		 621.76330			43070.89237		141.65400		875.00000 
 43692.65567		 305.27265			43387.38302		65.60600		324.00000 
 43692.65567		 621.76330			43070.89237		141.65400		875.00000 
 43692.65567		 305.27265			43387.38302		65.60600		324.00000 
 43692.65567		 621.76330			43070.89237		141.65400		875.00000 
 43692.65567		 305.27265			43387.38302		65.60600		324.00000 
 43692.65567		 621.76330			43070.89237		141.65400		875.00000 
 43692.65567		 305.27265			43387.38302		65.60600		324.00000 
 43692.65567		 621.76330			43070.89237		141.65400		875.00000 
 43692.65567		 305.27265			43387.38302		65.60600		324.00000 
 43692.65567		 621.76330			43070.89237		141.65400		875.00000 
 43692.65567		 305.27265			43387.38302		65.60600		324.00000 
 43692.65567		 621.76330			43070.89237		141.65400		875.00000 
 43692.65567		 305.27265			43387.38302		65.60600		324.00000 
 43692.65567		 621.76330			43070.89237		141.65400		875.00000 
 43692.65567		 305.27265			43387.38302		65.60600		324.00000 
 43692.65567		 621.76330			43070.89237		141.65400		875.00000 
 43692.65567		 305.27265			43387.38302		65.60600		324.00000 
 43692.65567		 621.76330			43070.89237		141.65400		875.00000 
 43692.65567		 305.27265			43387.38302		65.60600		324.00000 
 43692.65567		 621.76330			43070.89237		141.65400		875.00000 
 43692.65567		 305.27265			43387.38302		65.60600		324.00000 
 43692.65567		 621.76330			43070.89237		141.65400		875.00000 
 43692.65567		 305.27265			43387.38302		65.60600		324.00000 
 43692.65567		 621.76330			43070.89237		141.65400		875.00000 
 43692.65567		 305.27265			43387.38302		65.60600		324.00000 
 43692.65567		 621.76330			43070.89237		141.65400		875.00000 
 43692.65567		 305.27265			43387.38302		65.60600		324.00000 
 43692.65567		 621.76330			43070.89237		141.65400		875.00000 
 43692.65567		 305.27265			43387.38302		65.60600		324.00000 
 43692.65567		 621.76330			43070.89237		141.65400		875.00000 
 43692.65567		 305.27265			43387.38302		65.60600		324.00000 
 43692.65567		 621.76330			43070.89237		141.65400		875.00000 
 43692.65567		 305.27265			43387.38302		65.60600		324.00000 
 43692.65567		 621.76330			43070.89237		141.65400		875.00000 
 43692.65567		 305.27265			43387.38302		65.60600		324.00000 
 43692.65567		 621.76330			43070.89237		141.65400		875.00000 
 43692.65567		 305.27265			43387.38302		65.60600		324.00000 
 43692.65567		 621.76330			43070.89237		141.65400		875.00000 
 43692.65567		 305.27265			43387.38302		65.60600		324.00000 
 43692.65567		 621.76330			43070.89237		141.65400		875.00000 
 43692.65567		 305.27265			43387.38302		65.60600		324.00000 
 43692.65567		 621.76330			43070.89237		141.65400		875.00000 
 43692.65567		 305.27265			43387.38302		65.60600		324.00000 
 43692.65567		 621.76330			43070.89237		141.65400		875.00000 
 43692.65567		 305.27265			43387.38302		65.60600		324.00000 
 43692.65567		 621.76330			43070.89237		141.65400		875.00000 
 43692.65567		 305.27265			43387.38302		65.60600		324.00000 
 43692.65567		 621.76330			43070.89237		141.65400		875.00000 
 43692.65567		 305.27265			43387.38302		65.60600		324.00000 
 43692.65567		 621.76330			43070.89237		141.65400		875.00000 
 43692.65567		 305.27265			43387.38302		65.60600		324.00000 
 43692.65567		 621.76330			43070.89237		141.65400		875.00000 
 43692.65567		 305.27265			43387.38302		65.60600		324.00000 
 43692.65567		 621.76330			43070.89237		141.65400		875.00000 
 43692.65567		 305.27265			43387.38302		65.60600		324.00000 
 43692.65567		 621.76330			43070.89237		141.65400		875.00000 
 43692.65567		 305.27265			43387.38302		65.60600		324.00000 
 43692.65567		 621.76330			43070.89237		141.65400		875.00000 
 43692.65567		 305.27265			43387.38302		65.60600		324.00000 
 43692.65567		 621.76330			43070.89237		141.65400		875.00000 
 43692.65567		 305.27265			43387.38302		65.60600		324.00000 
 43692.65567		 621.76330			43070.89237		141.65400		875.00000 
 43692.65567		 305.27265			43387.38302		65.60600		324.00000 
 43692.65567		 621.76330			43070.89237		141.65400		875.00000 
 43692.65567		 305.27265			43387.38302		65.60600		324.00000 
 43692.65567		 621.76330			43070.89237		141.65400		875.00000 
 43692.65567		 305.27265			43387.38302		65.60600		324.00000 
 43692.65567		 621.76330			43070.89237		141.65400		875.00000 
 43692.65567		 305.27265			43387.38302		65.60600		324.00000 
 43692.65567		 621.76330			43070.89237		141.65400		875.00000 
 43692.65567		 305.27265			43387.38302		65.60600		324.00000 
 43692.65567		 621.76330			43070.89237		141.65400		875.00000 
 43692.65567		 305.27265			43387.38302		65.60600		324.00000 
 43692.65567		 621.76330			43070.89237		141.65400		875.00000 
 43692.65567		 305.27265			43387.38302		65.60600		324.00000 
 43692.65567		 621.76330			43070.89237		141.65400		875.00000 
 43692.65567		 305.27265			43387.38302		65.60600		324.00000 
 43692.65567		 621.76330			43070.89237		141.65400		875.00000 
 43692.65567		 305.27265			43387.38302		65.60600		324.00000 
 43692.65567		 621.76330			43070.89237		141.65400		875.00000 
 43692.65567		 305.27265			43387.38302		65.60600		324.00000 
 43692.65567		 621.76330			43070.89237		187.28000		875.00000 
 43692.65567		 305.27265			43387.38302		65.60600		324.00000 
 43692.65567		 621.76330			43070.89237		187.28000		875.00000 
 43692.65567		 305.27265			43387.38302		65.60600		324.00000 
 43692.65567		 621.76330			43070.89237		187.28000		875.00000 
 43692.65567		 305.27265			43387.38302		65.60600		324.00000 
 43692.65567		 621.76330			43070.89237		187.28000		875.00000 
 43692.65567		 305.27265			43387.38302		65.60600		324.00000 
 43692.65567		 621.76330			43070.89237		187.28000		875.00000 
 43692.65567		 305.27265			43387.38302		65.60600		324.00000 
 43692.65567		 621.76330			43070.89237		187.28000		875.00000 
 43692.65567		 305.27265			43387.38302		65.60600		324.00000 
 43692.65567		 621.76330			43070.89237		187.28000		875.00000 
 43692.65567		 305.27265			43387.38302		65.60600		324.00000 
 43692.65567		 621.76330			43070.89237		187.28000		875.00000 
 43692.65567		 305.27265			43387.38302		65.60600		324.00000 
 43692.65567		 621.76330			43070.89237		187.28000		875.00000 
 43692.65567		 305.27265			43387.38302		65.60600		324.00000 
 43692.65567		 621.76330			43070.89237		187.28000		875.00000 
 43692.65567		 305.27265			43387.38302		65.60600		324.00000 
 43692.65567		 621.76330			43070.89237		187.28000		875.00000 
 43692.65567		 305.27265			43387.38302		65.60600		324.00000 
 43692.65567		 621.76330			43070.89237		187.28000		875.00000 
 43692.65567		 305.27265			43387.38302		65.60600		324.00000 
 43692.65567		 621.76330			43070.89237		187.28000		875.00000 
 43692.65567		 305.27265			43387.38302		65.60600		324.00000 
 43692.65567		 621.76330			43070.89237		187.28000		875.00000 
 43692.65567		 305.27265			43387.38302		65.60600		324.00000 
 43692.65567		 621.76330			43070.89237		187.28000		875.00000 
 43692.65567		 305.27265			43387.38302		65.60600		324.00000 
 43692.65567		 621.76330			43070.89237		187.28000		875.00000 
 43692.65567		 305.27265			43387.38302		65.60600		324.00000 
 43692.65567		 621.76330			43070.89237		187.28000		875.00000 
 43692.65567		 305.27265			43387.38302		65.60600		324.00000 
 43692.65567		 621.76330			43070.89237		187.28000		875.00000 
 43692.65567		 305.27265			43387.38302		65.60600		324.00000 
 43692.65567		 621.76330			43070.89237		187.28000		875.00000 
 43692.65567		 305.27265			43387.38302		65.60600		324.00000 
 43692.65567		 621.76330			43070.89237		187.28000		875.00000 
 43692.65567		 305.27265			43387.38302		65.60600		324.00000 
 43692.65567		 621.76330			43070.89237		187.28000		875.00000 
 43692.65567		 305.27265			43387.38302		65.60600		324.00000 
 43692.65567		 621.76330			43070.89237		187.28000		875.00000 
 43692.65567		 305.27265			43387.38302		65.60600		324.00000 
 43692.65567		 621.76330			43070.89237		187.28000		875.00000 
 43692.65567		 305.27265			43387.38302		65.60600		324.00000 
 43692.65567		 621.76330			43070.89237		187.28000		875.00000 
 43692.65567		 305.27265			43387.38302		65.60600		324.00000 
 43692.65567		 621.76330			43070.89237		187.28000		875.00000 
 43692.65567		 305.27265			43387.38302		65.60600		324.00000 
 43692.65567		 621.76330			43070.89237		187.28000		875.00000 
 43692.65567		 305.27265			43387.38302		65.60600		324.00000 
 43692.65567		 621.76330			43070.89237		187.28000		875.00000 
 43692.65567		 305.27265			43387.38302		65.60600		324.00000 
 43692.65567		 621.76330			43070.89237		187.28000		875.00000 
 43692.65567		 305.27265			43387.38302		65.60600		324.00000 
 43692.65567		 621.76330			43070.89237		187.28000		875.00000 
 43692.65567		 305.27265			43387.38302		65.60600		324.00000 
 43692.65567		 621.76330			43070.89237		187.28000		875.00000 
 43692.65567		 305.27265			43387.38302		65.60600		324.00000 
 43692.65567		 621.76330			43070.89237		187.28000		875.00000 
 43692.65567		 305.27265			43387.38302		65.60600		324.00000 
 43692.65567		 621.76330			43070.89237		187.28000		875.00000 
 43692.65567		 305.27265			43387.38302		65.60600		324.00000 
 43692.65567		 621.76330			43070.89237		187.28000		875.00000 
 43692.65567		 305.27265			43387.38302		65.60600		324.00000 
 43692.65567		 621.76330			43070.89237		187.28000		875.00000 
 43692.65567		 305.27265			43387.38302		65.60600		324.00000 
 43692.65567		 621.76330			43070.89237		187.28000		875.00000 
 43692.65567		 305.27265			43387.38302		65.60600		324.00000 
 43692.65567		 621.76330			43070.89237		187.28000		875.00000 
 43692.65567		 305.27265			43387.38302		65.60600		324.00000 
 43692.65567		 621.76330			43070.89237		187.28000		875.00000 
 43692.65567		 305.27265			43387.38302		65.60600		324.00000 
 43692.65567		 621.76330			43070.89237		187.28000		875.00000 
 43692.65567		 305.27265			43387.38302		65.60600		324.00000 
 43692.65567		 621.76330			43070.89237		187.28000		875.00000 
 43692.65567		 305.27265			43387.38302		65.60600		324.00000 
 43692.65567		 621.76330			43070.89237		187.28000		875.00000 
 43692.65567		 305.27265			43387.38302		65.60600		324.00000 
 43692.65567		 621.76330			43070.89237		187.28000		875.00000 
 43692.65567		 305.27265			43387.38302		65.60600		324.00000 
 43692.65567		 621.76330			43070.89237		187.28000		875.00000 
 43692.65567		 305.27265			43387.38302		65.60600		324.00000 
 43692.65567		 621.76330			43070.89237		187.28000		875.00000 
 43692.65567		 305.27265			43387.38302		65.60600		324.00000 
 43692.65567		 621.76330			43070.89237		187.28000		875.00000 
 43692.65567		 305.27265			43387.38302		65.60600		324.00000 
 43692.65567		 621.76330			43070.89237		187.28000		875.00000 
 43692.65567		 305.27265			43387.38302		65.60600		324.00000 
 43692.65567		 621.76330			43070.89237		187.28000		875.00000 
 43692.65567		 305.27265			43387.38302		65.60600		324.00000 
 43692.65567		 621.76330			43070.89237		187.28000		875.00000 
 43692.65567		 305.27265			43387.38302		65.60600		324.00000 
 43692.65567		 621.76330			43070.89237		187.28000		875.00000 
 43692.65567		 305.27265			43387.38302		65.60600		324.00000 
 43692.65567		 621.76330			43070.89237		187.28000		875.00000 
 43692.65567		 305.27265			43387.38302		65.60600		324.00000 
 43692.65567		 621.76330			43070.89237		187.28000		875.00000 
 43692.65567		 305.27265			43387.38302		65.60600		324.00000 
 43692.65567		 621.76330			43070.89237		187.28000		875.00000 
 43692.65567		 305.27265			43387.38302		65.60600		324.00000 
 43692.65567		 621.76330			43070.89237		187.28000		875.00000 
 43692.65567		 305.27265			43387.38302		65.60600		324.00000 
 43692.65567		 621.76330			43070.89237		187.28000		875.00000 
 43692.65567		 305.27265			43387.38302		65.60600		324.00000 
 43692.65567		 621.76330			43070.89237		187.28000		875.00000 
 43692.65567		 305.27265			43387.38302		65.60600		324.00000 
 43692.65567		 621.76330			43070.89237		187.28000		875.00000 
 43692.65567		 305.27265			43387.38302		65.60600		324.00000 
 43692.65567		 621.76330			43070.89237		187.28000		875.00000 
 43692.65567		 305.27265			43387.38302		65.60600		324.00000 
 43692.65567		 621.76330			43070.89237		187.28000		875.00000 
 43692.65567		 305.27265			43387.38302		65.60600		324.00000 
 43692.65567		 621.76330			43070.89237		187.28000		875.00000 
 43692.65567		 305.27265			43387.38302		65.60600		324.00000 
 43692.65567		 621.76330			43070.89237		187.28000		875.00000 
 43692.65567		 305.27265			43387.38302		65.60600		324.00000 
 43692.65567		 621.76330			43070.89237		187.28000		875.00000 
 43692.65567		 305.27265			43387.38302		65.60600		324.00000 
 43692.65567		 621.76330			43070.89237		187.28000		875.00000 
 43692.65567		 305.27265			43387.38302		65.60600		324.00000 
 43692.65567		 621.76330			43070.89237		204.89200		875.00000 
 43692.65567		 305.27265			43387.38302		65.60600		324.00000 
 43692.65567		 621.76330			43070.89237		204.89200		875.00000 
 43692.65567		 305.27265			43387.38302		65.60600		324.00000 
 43692.65567		 621.76330			43070.89237		204.89200		875.00000 
 43692.65567		 305.27265			43387.38302		65.60600		324.00000 
 43692.65567		 621.76330			43070.89237		204.89200		875.00000 
 43692.65567		 305.27265			43387.38302		65.60600		324.00000 
 43692.65567		 621.76330			43070.89237		204.89200		875.00000 
 43692.65567		 305.27265			43387.38302		65.60600		324.00000 
 43692.65567		 621.76330			43070.89237		204.89200		875.00000 
 43692.65567		 305.27265			43387.38302		65.60600		324.00000 
 43692.65567		 621.76330			43070.89237		204.89200		875.00000 
 43692.65567		 305.27265			43387.38302		65.60600		324.00000 
 43692.65567		 621.76330			43070.89237		204.89200		875.00000 
 43692.65567		 305.27265			43387.38302		65.60600		324.00000 
 43692.65567		 621.76330			43070.89237		204.89200		875.00000 
 43692.65567		 305.27265			43387.38302		65.60600		324.00000 
 43692.65567		 621.76330			43070.89237		204.89200		875.00000 
 43692.65567		 305.27265			43387.38302		65.60600		324.00000 
 43692.65567		 621.76330			43070.89237		204.89200		875.00000 
 43692.65567		 305.27265			43387.38302		65.60600		324.00000 
 43692.65567		 621.76330			43070.89237		204.89200		875.00000 
 43692.65567		 305.27265			43387.38302		65.60600		324.00000 
 43692.65567		 621.76330			43070.89237		204.89200		875.00000 
 43692.65567		 305.27265			43387.38302		65.60600		324.00000 
 43692.65567		 621.76330			43070.89237		204.89200		875.00000 
 43692.65567		 305.27265			43387.38302		65.60600		324.00000 
 43692.65567		 621.76330			43070.89237		204.89200		875.00000 
 43692.65567		 305.27265			43387.38302		65.60600		324.00000 
 43692.65567		 621.76330			43070.89237		204.89200		875.00000 
 43692.65567		 305.27265			43387.38302		65.60600		324.00000 
 43692.65567		 621.76330			43070.89237		204.89200		875.00000 
 43692.65567		 305.27265			43387.38302		65.60600		324.00000 
 43692.65567		 621.76330			43070.89237		204.89200		875.00000 
 43692.65567		 305.27265			43387.38302		65.60600		324.00000 
 43692.65567		 621.76330			43070.89237		204.89200		875.00000 
 43692.65567		 305.27265			43387.38302		65.60600		324.00000 
 43692.65567		 621.76330			43070.89237		204.89200		875.00000 
 43692.65567		 305.27265			43387.38302		65.60600		324.00000 
 43692.65567		 621.76330			43070.89237		204.89200		875.00000 
 43692.65567		 305.27265			43387.38302		65.60600		324.00000 
 43692.65567		 621.76330			43070.89237		204.89200		875.00000 
 43692.65567		 305.27265			43387.38302		65.60600		324.00000 
 43692.65567		 621.76330			43070.89237		204.89200		875.00000 
 43692.65567		 305.27265			43387.38302		65.60600		324.00000 
 43692.65567		 621.76330			43070.89237		204.89200		875.00000 
 43692.65567		 305.27265			43387.38302		65.60600		324.00000 
 43692.65567		 621.76330			43070.89237		204.89200		875.00000 
 43692.65567		 305.27265			43387.38302		65.60600		324.00000 
 43692.65567		 621.76330			43070.89237		204.89200		875.00000 
 43692.65567		 305.27265			43387.38302		65.60600		324.00000 
 43692.65567		 621.76330			43070.89237		204.89200		875.00000 
 43692.65567		 305.27265			43387.38302		65.60600		324.00000 
 43692.65567		 621.76330			43070.89237		204.89200		875.00000 
 43692.65567		 305.27265			43387.38302		65.60600		324.00000 
 43692.65567		 621.76330			43070.89237		204.89200		875.00000 
 43692.65567		 305.27265			43387.38302		65.60600		324.00000 
 43692.65567		 621.76330			43070.89237		204.89200		875.00000 
 43692.65567		 305.27265			43387.38302		65.60600		324.00000 
 43692.65567		 621.76330			43070.89237		204.89200		875.00000 
 43692.65567		 305.27265			43387.38302		65.60600		324.00000 
 43692.65567		 621.76330			43070.89237		204.89200		875.00000 
 43692.65567		 305.27265			43387.38302		65.60600		324.00000 
 43692.65567		 621.76330			43070.89237		204.89200		875.00000 
 43692.65567		 305.27265			43387.38302		65.60600		324.00000 
 43692.65567		 621.76330			43070.89237		204.89200		875.00000 
 43692.65567		 305.27265			43387.38302		65.60600		324.00000 
 43692.65567		 621.76330			43070.89237		204.89200		875.00000 
 43692.65567		 305.27265			43387.38302		65.60600		324.00000 
 43692.65567		 621.76330			43070.89237		204.89200		875.00000 
 43692.65567		 305.27265			43387.38302		65.60600		324.00000 
 43692.65567		 621.76330			43070.89237		204.89200		875.00000 
 43692.65567		 305.27265			43387.38302		65.60600		324.00000 
 43692.65567		 621.76330			43070.89237		204.89200		875.00000 
 43692.65567		 305.27265			43387.38302		65.60600		324.00000 
 43692.65567		 621.76330			43070.89237		204.89200		875.00000 
 43692.65567		 305.27265			43387.38302		65.60600		324.00000 
 43692.65567		 621.76330			43070.89237		204.89200		875.00000 
 43692.65567		 305.27265			43387.38302		65.60600		324.00000 
 43692.65567		 621.76330			43070.89237		204.89200		875.00000 
 43692.65567		 305.27265			43387.38302		65.60600		324.00000 
 43692.65567		 621.76330			43070.89237		204.89200		875.00000 
 43692.65567		 305.27265			43387.38302		65.60600		324.00000 
 43692.65567		 621.76330			43070.89237		204.89200		875.00000 
 43692.65567		 305.27265			43387.38302		65.60600		324.00000 
 43692.65567		 621.76330			43070.89237		204.89200		875.00000 
 43692.65567		 305.27265			43387.38302		65.60600		324.00000 
 43692.65567		 621.76330			43070.89237		204.89200		875.00000 
 43692.65567		 305.27265			43387.38302		65.60600		324.00000 
 43692.65567		 621.76330			43070.89237		204.89200		875.00000 
 43692.65567		 305.27265			43387.38302		65.60600		324.00000 
 43692.65567		 621.76330			43070.89237		204.89200		875.00000 
 43692.65567		 305.27265			43387.38302		65.60600		324.00000 
 43692.65567		 621.76330			43070.89237		204.89200		875.00000 
 43692.65567		 305.27265			43387.38302		65.60600		324.00000 
 43692.65567		 621.76330			43070.89237		204.89200		875.00000 
 43692.65567		 305.27265			43387.38302		65.60600		324.00000 
 43692.65567		 621.76330			43070.89237		204.89200		875.00000 
 43692.65567		 305.27265			43387.38302		65.60600		324.00000 
 43692.65567		 621.76330			43070.89237		204.89200		875.00000 
 43692.65567		 305.27265			43387.38302		65.60600		324.00000 
 43692.65567		 621.76330			43070.89237		204.89200		875.00000 
 43692.65567		 305.27265			43387.38302		65.60600		324.00000 
 43692.65567		 621.76330			43070.89237		204.89200		875.00000 
 43692.65567		 305.27265			43387.38302		65.60600		324.00000 
 43692.65567		 621.76330			43070.89237		204.89200		875.00000 
 43692.65567		 305.27265			43387.38302		65.60600		324.00000 
 43692.65567		 621.76330			43070.89237		204.89200		875.00000 
 43692.65567		 305.27265			43387.38302		65.60600		324.00000 
 43692.65567		 621.76330			43070.89237		204.89200		875.00000 
 43692.65567		 305.27265			43387.38302		65.60600		324.00000 
 43692.65567		 621.76330			43070.89237		204.89200		875.00000 
 43692.65567		 305.27265			43387.38302		65.60600		324.00000 
 43692.65567		 621.76330			43070.89237		204.89200		875.00000 
 43692.65567		 305.27265			43387.38302		65.60600		324.00000 
 43692.65567		 621.76330			43070.89237		204.89200		875.00000 
 43692.65567		 305.27265			43387.38302		65.60600		324.00000 
 43692.65567		 621.76330			43070.89237		204.89200		875.00000 
 43692.65567		 305.27265			43387.38302		65.60600		324.00000 
 43692.65567		 621.76330			43070.89237		204.89200		875.00000 
 43692.65567		 305.27265			43387.38302		65.60600		324.00000 
 43692.65567		 621.76330			43070.89237		210.57400		875.00000 
 43692.65567		 305.27265			43387.38302		65.60600		324.00000 
 43692.65567		 621.76330			43070.89237		210.57400		875.00000 
 43692.65567		 305.27265			43387.38302		65.60600		324.00000 
 43692.65567		 621.76330			43070.89237		210.57400		875.00000 
 43692.65567		 305.27265			43387.38302		65.60600		324.00000 
 43692.65567		 621.76330			43070.89237		210.57400		875.00000 
 43692.65567		 305.27265			43387.38302		65.60600		324.00000 
 43692.65567		 621.76330			43070.89237		210.57400		875.00000 
 43692.65567		 305.27265			43387.38302		65.60600		324.00000 
 43692.65567		 621.76330			43070.89237		210.57400		875.00000 
 43692.65567		 305.27265			43387.38302		65.60600		324.00000 
 43692.65567		 621.76330			43070.89237		210.57400		875.00000 
 43692.65567		 305.27265			43387.38302		65.60600		324.00000 
 43692.65567		 621.76330			43070.89237		210.57400		875.00000 
 43692.65567		 305.27265			43387.38302		65.60600		324.00000 
 43692.65567		 621.76330			43070.89237		210.57400		875.00000 
 43692.65567		 305.27265			43387.38302		65.60600		324.00000 
 43692.65567		 621.76330			43070.89237		210.57400		875.00000 
 43692.65567		 305.27265			43387.38302		65.60600		324.00000 
 43692.65567		 621.76330			43070.89237		210.57400		875.00000 
 43692.65567		 305.27265			43387.38302		65.60600		324.00000 
 43692.65567		 621.76330			43070.89237		210.57400		875.00000 
 43692.65567		 305.27265			43387.38302		65.60600		324.00000 
 43692.65567		 621.76330			43070.89237		210.57400		875.00000 
 43692.65567		 305.27265			43387.38302		65.60600		324.00000 
 43692.65567		 621.76330			43070.89237		210.57400		875.00000 
 43692.65567		 305.27265			43387.38302		65.60600		324.00000 
 43692.65567		 621.76330			43070.89237		210.57400		875.00000 
 43692.65567		 305.27265			43387.38302		65.60600		324.00000 
 43692.65567		 621.76330			43070.89237		210.57400		875.00000 
 43692.65567		 305.27265			43387.38302		65.60600		324.00000 
 43692.65567		 621.76330			43070.89237		210.57400		875.00000 
 43692.65567		 305.27265			43387.38302		65.60600		324.00000 
 43692.65567		 621.76330			43070.89237		210.57400		875.00000 
 43692.65567		 305.27265			43387.38302		65.60600		324.00000 
 43692.65567		 621.76330			43070.89237		210.57400		875.00000 
 43692.65567		 305.27265			43387.38302		65.60600		324.00000 
 43692.65567		 621.76330			43070.89237		210.57400		875.00000 
 43692.65567		 305.27265			43387.38302		65.60600		324.00000 
 43692.65567		 621.76330			43070.89237		210.57400		875.00000 
 43692.65567		 305.27265			43387.38302		65.60600		324.00000 
 43692.65567		 621.76330			43070.89237		210.57400		875.00000 
 43692.65567		 305.27265			43387.38302		65.60600		324.00000 
 43692.65567		 621.76330			43070.89237		210.57400		875.00000 
 43692.65567		 305.27265			43387.38302		65.60600		324.00000 
 43692.65567		 621.76330			43070.89237		210.57400		875.00000 
 43692.65567		 305.27265			43387.38302		65.60600		324.00000 
 43692.65567		 621.76330			43070.89237		210.57400		875.00000 
 43692.65567		 305.27265			43387.38302		65.60600		324.00000 
 43692.65567		 621.76330			43070.89237		210.57400		875.00000 
 43692.65567		 305.27265			43387.38302		65.60600		324.00000 
 43692.65567		 621.76330			43070.89237		210.57400		875.00000 
 43692.65567		 305.27265			43387.38302		65.60600		324.00000 
 43692.65567		 621.76330			43070.89237		210.57400		875.00000 
 43692.65567		 305.27265			43387.38302		65.60600		324.00000 
 43692.65567		 621.76330			43070.89237		210.57400		875.00000 
 43692.65567		 305.27265			43387.38302		65.60600		324.00000 
 43692.65567		 621.76330			43070.89237		210.57400		875.00000 
 43692.65567		 305.27265			43387.38302		65.60600		324.00000 
 43692.65567		 621.76330			43070.89237		210.57400		875.00000 
 43692.65567		 305.27265			43387.38302		65.60600		324.00000 
 43692.65567		 621.76330			43070.89237		210.57400		875.00000 
 43692.65567		 305.27265			43387.38302		65.60600		324.00000 
 43692.65567		 621.76330			43070.89237		210.57400		875.00000 
 43692.65567		 305.27265			43387.38302		65.60600		324.00000 
 43692.65567		 621.76330			43070.89237		210.57400		875.00000 
 43692.65567		 305.27265			43387.38302		65.60600		324.00000 
 43692.65567		 621.76330			43070.89237		210.57400		875.00000 
 43692.65567		 305.27265			43387.38302		65.60600		324.00000 
 43692.65567		 621.76330			43070.89237		210.57400		875.00000 
 43692.65567		 305.27265			43387.38302		65.60600		324.00000 
 43692.65567		 621.76330			43070.89237		210.57400		875.00000 
 43692.65567		 305.27265			43387.38302		65.60600		324.00000 
 43692.65567		 621.76330			43070.89237		210.57400		875.00000 
 43692.65567		 305.27265			43387.38302		65.60600		324.00000 
 43692.65567		 621.76330			43070.89237		210.57400		875.00000 
 43692.65567		 305.27265			43387.38302		65.60600		324.00000 
 43692.65567		 621.76330			43070.89237		210.57400		875.00000 
 43692.65567		 305.27265			43387.38302		65.60600		324.00000 
 43692.65567		 621.76330			43070.89237		210.57400		875.00000 
 43692.65567		 305.27265			43387.38302		65.60600		324.00000 
 43692.65567		 621.76330			43070.89237		210.57400		875.00000 
 43692.65567		 305.27265			43387.38302		65.60600		324.00000 
 43692.65567		 621.76330			43070.89237		210.57400		875.00000 
 43692.65567		 305.27265			43387.38302		65.60600		324.00000 
 43692.65567		 621.76330			43070.89237		210.57400		875.00000 
 43692.65567		 305.27265			43387.38302		65.60600		324.00000 
 43692.65567		 621.76330			43070.89237		210.57400		875.00000 
 43692.65567		 305.27265			43387.38302		65.60600		324.00000 
 43692.65567		 621.76330			43070.89237		210.57400		875.00000 
 43692.65567		 305.27265			43387.38302		65.60600		324.00000 
 43692.65567		 621.76330			43070.89237		210.57400		875.00000 
 43692.65567		 305.27265			43387.38302		65.60600		324.00000 
 43692.65567		 621.76330			43070.89237		210.57400		875.00000 
 43692.65567		 305.27265			43387.38302		65.60600		324.00000 
 43692.65567		 621.76330			43070.89237		210.57400		875.00000 
 43692.65567		 305.27265			43387.38302		65.60600		324.00000 
 43692.65567		 621.76330			43070.89237		210.57400		875.00000 
 43692.65567		 305.27265			43387.38302		65.60600		324.00000 
 43692.65567		 621.76330			43070.89237		210.57400		875.00000 
 43692.65567		 305.27265			43387.38302		65.60600		324.00000 
 43692.65567		 621.76330			43070.89237		210.57400		875.00000 
 43692.65567		 305.27265			43387.38302		65.60600		324.00000 
 43692.65567		 621.76330			43070.89237		210.57400		875.00000 
 43692.65567		 305.27265			43387.38302		65.60600		324.00000 
 43692.65567		 621.76330			43070.89237		210.57400		875.00000 
 43692.65567		 305.27265			43387.38302		65.60600		324.00000 
 43692.65567		 621.76330			43070.89237		210.57400		875.00000 
 43692.65567		 305.27265			43387.38302		65.60600		324.00000 
 43692.65567		 621.76330			43070.89237		210.57400		875.00000 
 43692.65567		 305.27265			43387.38302		65.60600		324.00000 
 43692.65567		 621.76330			43070.89237		210.57400		875.00000 
 43692.65567		 305.27265			43387.38302		65.60600		324.00000 
 43692.65567		 621.76330			43070.89237		210.57400		875.00000 
 43692.65567		 305.27265			43387.38302		65.60600		324.00000 
 43692.65567		 621.76330			43070.89237		210.57400		875.00000 
 43692.65567		 305.27265			43387.38302		65.60600		324.00000 
 43692.65567		 621.76330			43070.89237		210.57400		875.00000 
 43692.65567		 305.27265			43387.38302		65.60600		324.00000 
 43692.65567		 621.76330			43070.89237		210.57400		875.00000 
 43692.65567		 305.27265			43387.38302		65.60600		324.00000 
 43692.65567		 621.76330			43070.89237		210.57400		875.00000 
 43692.65567		 305.27265			43387.38302		65.60600		324.00000 
 43692.65567		 621.76330			43070.89237		211.67800		875.00000 
 43692.65567		 305.27265			43387.38302		65.60600		324.00000 
 43692.65567		 621.76330			43070.89237		211.67800		875.00000 
 43692.65567		 305.27265			43387.38302		65.60600		324.00000 
 43692.65567		 621.76330			43070.89237		211.67800		875.00000 
 43692.65567		 305.27265			43387.38302		65.60600		324.00000 
 43692.65567		 621.76330			43070.89237		211.67800		875.00000 
 43692.65567		 305.27265			43387.38302		65.60600		324.00000 
 43692.65567		 621.76330			43070.89237		211.67800		875.00000 
 43692.65567		 305.27265			43387.38302		65.60600		324.00000 
 43692.65567		 621.76330			43070.89237		211.67800		875.00000 
 43692.65567		 305.27265			43387.38302		65.60600		324.00000 
 43692.65567		 621.76330			43070.89237		211.67800		875.00000 
 43692.65567		 305.27265			43387.38302		65.60600		324.00000 
 43692.65567		 621.76330			43070.89237		211.67800		875.00000 
 43692.65567		 305.27265			43387.38302		65.60600		324.00000 
 43692.65567		 621.76330			43070.89237		211.67800		875.00000 
 43692.65567		 305.27265			43387.38302		65.60600		324.00000 
 43692.65567		 621.76330			43070.89237		211.67800		875.00000 
 43692.65567		 305.27265			43387.38302		65.60600		324.00000 
 43692.65567		 621.76330			43070.89237		211.67800		875.00000 
 43692.65567		 305.27265			43387.38302		65.60600		324.00000 
 43692.65567		 621.76330			43070.89237		211.67800		875.00000 
 43692.65567		 305.27265			43387.38302		65.60600		324.00000 
 43692.65567		 621.76330			43070.89237		211.67800		875.00000 
 43692.65567		 305.27265			43387.38302		65.60600		324.00000 
 43692.65567		 621.76330			43070.89237		211.67800		875.00000 
 43692.65567		 305.27265			43387.38302		65.60600		324.00000 
 43692.65567		 621.76330			43070.89237		211.67800		875.00000 
 43692.65567		 305.27265			43387.38302		65.60600		324.00000 
 43692.65567		 621.76330			43070.89237		211.67800		875.00000 
 43692.65567		 305.27265			43387.38302		65.60600		324.00000 
 43692.65567		 621.76330			43070.89237		211.67800		875.00000 
 43692.65567		 305.27265			43387.38302		65.60600		324.00000 
 43692.65567		 621.76330			43070.89237		211.67800		875.00000 
 43692.65567		 305.27265			43387.38302		65.60600		324.00000 
 43692.65567		 621.76330			43070.89237		211.67800		875.00000 
 43692.65567		 305.27265			43387.38302		65.60600		324.00000 
 43692.65567		 621.76330			43070.89237		211.67800		875.00000 
 43692.65567		 305.27265			43387.38302		65.60600		324.00000 
 43692.65567		 621.76330			43070.89237		211.67800		875.00000 
 43692.65567		 305.27265			43387.38302		65.60600		324.00000 
 43692.65567		 621.76330			43070.89237		211.67800		875.00000 
 43692.65567		 305.27265			43387.38302		65.60600		324.00000 
 43692.65567		 621.76330			43070.89237		211.67800		875.00000 
 43692.65567		 305.27265			43387.38302		65.60600		324.00000 
 43692.65567		 621.76330			43070.89237		211.67800		875.00000 
 43692.65567		 305.27265			43387.38302		65.60600		324.00000 
 43692.65567		 621.76330			43070.89237		211.67800		875.00000 
 43692.65567		 305.27265			43387.38302		65.60600		324.00000 
 43692.65567		 621.76330			43070.89237		211.67800		875.00000 
 43692.65567		 305.27265			43387.38302		65.60600		324.00000 
 43692.65567		 621.76330			43070.89237		211.67800		875.00000 
 43692.65567		 305.27265			43387.38302		65.60600		324.00000 
 43692.65567		 621.76330			43070.89237		211.67800		875.00000 
 43692.65567		 305.27265			43387.38302		65.60600		324.00000 
 43692.65567		 621.76330			43070.89237		211.67800		875.00000 
 43692.65567		 305.27265			43387.38302		65.60600		324.00000 
 43692.65567		 621.76330			43070.89237		211.67800		875.00000 
 43692.65567		 305.27265			43387.38302		65.60600		324.00000 
 43692.65567		 621.76330			43070.89237		211.67800		875.00000 
 43692.65567		 305.27265			43387.38302		65.60600		324.00000 
 43692.65567		 621.76330			43070.89237		211.67800		875.00000 
 43692.65567		 305.27265			43387.38302		65.60600		324.00000 
 43692.65567		 621.76330			43070.89237		211.67800		875.00000 
 43692.65567		 305.27265			43387.38302		65.60600		324.00000 
 43692.65567		 621.76330			43070.89237		211.67800		875.00000 
 43692.65567		 305.27265			43387.38302		65.60600		324.00000 
 43692.65567		 621.76330			43070.89237		211.67800		875.00000 
 43692.65567		 305.27265			43387.38302		65.60600		324.00000 
 43692.65567		 621.76330			43070.89237		211.67800		875.00000 
 43692.65567		 305.27265			43387.38302		65.60600		324.00000 
 43692.65567		 621.76330			43070.89237		211.67800		875.00000 
 43692.65567		 305.27265			43387.38302		65.60600		324.00000 
 43692.65567		 621.76330			43070.89237		211.67800		875.00000 
 43692.65567		 305.27265			43387.38302		65.60600		324.00000 
 43692.65567		 621.76330			43070.89237		211.67800		875.00000 
 43692.65567		 305.27265			43387.38302		65.60600		324.00000 
 43692.65567		 621.76330			43070.89237		211.67800		875.00000 
 43692.65567		 305.27265			43387.38302		65.60600		324.00000 
 43692.65567		 621.76330			43070.89237		211.67800		875.00000 
 43692.65567		 305.27265			43387.38302		65.60600		324.00000 
 43692.65567		 621.76330			43070.89237		211.67800		875.00000 
 43692.65567		 305.27265			43387.38302		65.60600		324.00000 
 43692.65567		 621.76330			43070.89237		211.67800		875.00000 
 43692.65567		 305.27265			43387.38302		65.60600		324.00000 
 43692.65567		 621.76330			43070.89237		211.67800		875.00000 
 43692.65567		 305.27265			43387.38302		65.60600		324.00000 
 43692.65567		 621.76330			43070.89237		211.67800		875.00000 
 43692.65567		 305.27265			43387.38302		65.60600		324.00000 
 43692.65567		 621.76330			43070.89237		211.67800		875.00000 
 43692.65567		 305.27265			43387.38302		65.60600		324.00000 
 43692.65567		 621.76330			43070.89237		211.67800		875.00000 
 43692.65567		 305.27265			43387.38302		65.60600		324.00000 
 43692.65567		 621.76330			43070.89237		211.67800		875.00000 
 43692.65567		 305.27265			43387.38302		65.60600		324.00000 
 43692.65567		 621.76330			43070.89237		211.67800		875.00000 
 43692.65567		 305.27265			43387.38302		65.60600		324.00000 
 43692.65567		 621.76330			43070.89237		211.67800		875.00000 
 43692.65567		 305.27265			43387.38302		65.60600		324.00000 
 43692.65567		 621.76330			43070.89237		211.67800		875.00000 
 43692.65567		 305.27265			43387.38302		65.60600		324.00000 
 43692.65567		 621.76330			43070.89237		211.67800		875.00000 
 43692.65567		 305.27265			43387.38302		65.60600		324.00000 
 43692.65567		 621.76330			43070.89237		211.67800		875.00000 
 43692.65567		 305.27265			43387.38302		65.60600		324.00000 
 43692.65567		 621.76330			43070.89237		211.67800		875.00000 
 43692.65567		 305.27265			43387.38302		65.60600		324.00000 
 43692.65567		 621.76330			43070.89237		211.67800		875.00000 
 43692.65567		 305.27265			43387.38302		65.60600		324.00000 
 43692.65567		 621.76330			43070.89237		211.67800		875.00000 
 43692.65567		 305.27265			43387.38302		65.60600		324.00000 
 43692.65567		 621.76330			43070.89237		211.67800		875.00000 
 43692.65567		 305.27265			43387.38302		65.60600		324.00000 
 43692.65567		 621.76330			43070.89237		211.67800		875.00000 
 43692.65567		 305.27265			43387.38302		65.60600		324.00000 
 43692.65567		 621.76330			43070.89237		211.67800		875.00000 
 43692.65567		 305.27265			43387.38302		65.60600		324.00000 
 43692.65567		 621.76330			43070.89237		211.67800		875.00000 
 43692.65567		 305.27265			43387.38302		65.60600		324.00000 
 43692.65567		 621.76330			43070.89237		211.67800		875.00000 
 43692.65567		 305.27265			43387.38302		65.60600		324.00000 
 43692.65567		 621.76330			43070.89237		211.67800		875.00000 
 43692.65567		 305.27265			43387.38302		65.60600		324.00000 
 43692.65567		 621.76330			43070.89237		211.67800		875.00000 
 43692.65567		 305.27265			43387.38302		65.60600		324.00000 
 43692.65567		 621.76330			43070.89237		212.40800		875.00000 
 43692.65567		 305.27265			43387.38302		65.60600		324.00000 
 43692.65567		 565.43465			43127.22102		212.40800		875.00000 
 43692.65567		 305.27265			43387.38302		65.60600		324.00000 
 43692.65567		 537.27032			43155.38535		212.40800		875.00000 
 43692.65567		 305.27265			43387.38302		65.60600		324.00000 
 43692.65567		 537.27032			43155.38535		212.40800		875.00000 
 43692.65567		 305.27265			43387.38302		65.60600		324.00000 
 43692.65567		 537.27032			43155.38535		212.40800		875.00000 
 43692.65567		 305.27265			43387.38302		65.60600		324.00000 
 43692.65567		 537.27032			43155.38535		212.40800		875.00000 
 43692.65567		 305.27265			43387.38302		65.60600		324.00000 
 43692.65567		 537.27032			43155.38535		212.40800		875.00000 
 43692.65567		 305.27265			43387.38302		65.60600		324.00000 
 43692.65567		 537.27032			43155.38535		212.40800		875.00000 
 43692.65567		 305.27265			43387.38302		65.60600		324.00000 
 43692.65567		 537.27032			43155.38535		212.40800		875.00000 
 43692.65567		 305.27265			43387.38302		65.60600		324.00000 
 43692.65567		 537.27032			43155.38535		212.40800		875.00000 
 43692.65567		 305.27265			43387.38302		65.60600		324.00000 
 43692.65567		 537.27032			43155.38535		212.40800		875.00000 
 43692.65567		 305.27265			43387.38302		65.60600		324.00000 
 43692.65567		 537.27032			43155.38535		212.40800		875.00000 
 43692.65567		 305.27265			43387.38302		65.60600		324.00000 
 43692.65567		 537.27032			43155.38535		212.40800		875.00000 
 43692.65567		 305.27265			43387.38302		65.60600		324.00000 
 43692.65567		 537.27032			43155.38535		212.40800		875.00000 
 43692.65567		 305.27265			43387.38302		65.60600		324.00000 
 43692.65567		 537.27032			43155.38535		212.40800		875.00000 
 43692.65567		 305.27265			43387.38302		65.60600		324.00000 
 43692.65567		 537.27032			43155.38535		212.40800		875.00000 
 43692.65567		 305.27265			43387.38302		65.60600		324.00000 
 43692.65567		 537.27032			43155.38535		212.40800		875.00000 
 43692.65567		 305.27265			43387.38302		65.60600		324.00000 
 43692.65567		 537.27032			43155.38535		212.40800		875.00000 
 43692.65567		 305.27265			43387.38302		65.60600		324.00000 
 43692.65567		 537.27032			43155.38535		212.40800		875.00000 
 43692.65567		 305.27265			43387.38302		65.60600		324.00000 
 43692.65567		 537.27032			43155.38535		212.40800		875.00000 
 43692.65567		 305.27265			43387.38302		65.60600		324.00000 
 43692.65567		 537.27032			43155.38535		212.40800		875.00000 
 43692.65567		 305.27265			43387.38302		65.60600		324.00000 
 43692.65567		 529.63254			43163.02313		212.40800		875.00000 
 43692.65567		 305.27265			43387.38302		65.60600		324.00000 
 43692.65567		 525.81365			43166.84203		212.40800		875.00000 
 43692.65567		 293.81598			43398.83969		65.60600		324.00000 
 43692.65567		 261.35540			43431.30027		212.40800		875.00000 
 43692.65567		 261.35540			43431.30027		65.60600		324.00000 
