Memory Total (MiB) 	 Memory Used (MiB) 	    Memory Free (MiB) 	 Power Drawed (W) 	 Clocks (Mhz) 	 
 43692.65567		 261.35540			43431.30027		156.84400		875.00000 
 43692.65567		 261.35540			43431.30027		69.65600		324.00000 
 43692.65567		 261.35540			43431.30027		156.84400		875.00000 
 43692.65567		 261.35540			43431.30027		69.65600		324.00000 
 43692.65567		 261.35540			43431.30027		156.84400		875.00000 
 43692.65567		 261.35540			43431.30027		69.65600		324.00000 
 43692.65567		 261.35540			43431.30027		156.84400		875.00000 
 43692.65567		 261.35540			43431.30027		69.65600		324.00000 
 43692.65567		 261.35540			43431.30027		156.84400		875.00000 
 43692.65567		 261.35540			43431.30027		69.65600		324.00000 
 43692.65567		 261.35540			43431.30027		156.84400		875.00000 
 43692.65567		 261.35540			43431.30027		69.65600		324.00000 
 43692.65567		 261.35540			43431.30027		156.84400		875.00000 
 43692.65567		 261.35540			43431.30027		69.65600		324.00000 
 43692.65567		 261.35540			43431.30027		156.84400		875.00000 
 43692.65567		 261.35540			43431.30027		69.65600		324.00000 
 43692.65567		 261.35540			43431.30027		156.84400		875.00000 
 43692.65567		 261.35540			43431.30027		69.65600		324.00000 
 43692.65567		 261.35540			43431.30027		156.84400		875.00000 
 43692.65567		 261.35540			43431.30027		69.65600		324.00000 
 43692.65567		 261.35540			43431.30027		156.84400		875.00000 
 43692.65567		 261.35540			43431.30027		69.65600		324.00000 
 43692.65567		 261.35540			43431.30027		156.84400		875.00000 
 43692.65567		 261.35540			43431.30027		69.65600		324.00000 
 43692.65567		 261.35540			43431.30027		156.84400		875.00000 
 43692.65567		 261.35540			43431.30027		69.65600		324.00000 
 43692.65567		 261.35540			43431.30027		156.84400		875.00000 
 43692.65567		 261.35540			43431.30027		69.65600		324.00000 
 43692.65567		 261.35540			43431.30027		156.84400		875.00000 
 43692.65567		 261.35540			43431.30027		69.65600		324.00000 
 43692.65567		 261.35540			43431.30027		156.84400		875.00000 
 43692.65567		 261.35540			43431.30027		69.65600		324.00000 
 43692.65567		 261.35540			43431.30027		156.84400		875.00000 
 43692.65567		 261.35540			43431.30027		69.65600		324.00000 
 43692.65567		 265.17429			43427.48138		156.84400		875.00000 
 43692.65567		 261.35540			43431.30027		69.65600		324.00000 
 43692.65567		 265.17429			43427.48138		156.84400		875.00000 
 43692.65567		 261.35540			43431.30027		69.65600		324.00000 
 43692.65567		 272.81207			43419.84360		156.84400		875.00000 
 43692.65567		 261.35540			43431.30027		69.65600		324.00000 
 43692.65567		 272.81207			43419.84360		156.84400		875.00000 
 43692.65567		 261.35540			43431.30027		69.65600		324.00000 
 43692.65567		 272.81207			43419.84360		156.84400		875.00000 
 43692.65567		 265.17429			43427.48138		69.65600		324.00000 
 43692.65567		 272.81207			43419.84360		156.84400		875.00000 
 43692.65567		 265.17429			43427.48138		69.65600		324.00000 
 43692.65567		 272.81207			43419.84360		156.84400		875.00000 
 43692.65567		 272.81207			43419.84360		65.72800		324.00000 
 43692.65567		 305.27265			43387.38302		156.84400		875.00000 
 43692.65567		 305.27265			43387.38302		65.72800		324.00000 
 43692.65567		 305.27265			43387.38302		141.40400		875.00000 
 43692.65567		 305.27265			43387.38302		65.72800		324.00000 
 43692.65567		 305.27265			43387.38302		141.40400		875.00000 
 43692.65567		 305.27265			43387.38302		65.72800		324.00000 
 43692.65567		 305.27265			43387.38302		141.40400		875.00000 
 43692.65567		 305.27265			43387.38302		65.72800		324.00000 
 43692.65567		 305.27265			43387.38302		141.40400		875.00000 
 43692.65567		 305.27265			43387.38302		65.72800		324.00000 
 43692.65567		 310.04627			43382.60941		141.40400		875.00000 
 43692.65567		 305.27265			43387.38302		65.72800		324.00000 
 43692.65567		 311.00099			43381.65468		141.40400		875.00000 
 43692.65567		 305.27265			43387.38302		65.72800		324.00000 
 43692.65567		 311.00099			43381.65468		141.40400		875.00000 
 43692.65567		 305.27265			43387.38302		65.72800		324.00000 
 43692.65567		 311.00099			43381.65468		141.40400		875.00000 
 43692.65567		 305.27265			43387.38302		65.72800		324.00000 
 43692.65567		 311.00099			43381.65468		141.40400		875.00000 
 43692.65567		 305.27265			43387.38302		65.72800		324.00000 
 43692.65567		 311.00099			43381.65468		141.40400		875.00000 
 43692.65567		 305.27265			43387.38302		65.72800		324.00000 
 43692.65567		 311.00099			43381.65468		141.40400		875.00000 
 43692.65567		 305.27265			43387.38302		65.72800		324.00000 
 43692.65567		 311.00099			43381.65468		141.40400		875.00000 
 43692.65567		 305.27265			43387.38302		65.72800		324.00000 
 43692.65567		 311.00099			43381.65468		141.40400		875.00000 
 43692.65567		 305.27265			43387.38302		65.72800		324.00000 
 43692.65567		 311.00099			43381.65468		141.40400		875.00000 
 43692.65567		 305.27265			43387.38302		65.72800		324.00000 
 43692.65567		 311.00099			43381.65468		141.40400		875.00000 
 43692.65567		 305.27265			43387.38302		65.72800		324.00000 
 43692.65567		 311.00099			43381.65468		141.40400		875.00000 
 43692.65567		 305.27265			43387.38302		65.72800		324.00000 
 43692.65567		 311.00099			43381.65468		141.40400		875.00000 
 43692.65567		 305.27265			43387.38302		65.72800		324.00000 
 43692.65567		 311.00099			43381.65468		141.40400		875.00000 
 43692.65567		 305.27265			43387.38302		65.72800		324.00000 
 43692.65567		 311.00099			43381.65468		141.40400		875.00000 
 43692.65567		 305.27265			43387.38302		65.72800		324.00000 
 43692.65567		 311.00099			43381.65468		141.40400		875.00000 
 43692.65567		 305.27265			43387.38302		65.72800		324.00000 
 43692.65567		 311.00099			43381.65468		141.40400		875.00000 
 43692.65567		 305.27265			43387.38302		65.72800		324.00000 
 43692.65567		 311.00099			43381.65468		141.40400		875.00000 
 43692.65567		 305.27265			43387.38302		65.72800		324.00000 
 43692.65567		 311.00099			43381.65468		141.40400		875.00000 
 43692.65567		 305.27265			43387.38302		65.72800		324.00000 
 43692.65567		 311.00099			43381.65468		141.40400		875.00000 
 43692.65567		 305.27265			43387.38302		65.72800		324.00000 
 43692.65567		 311.00099			43381.65468		141.40400		875.00000 
 43692.65567		 305.27265			43387.38302		65.72800		324.00000 
 43692.65567		 311.00099			43381.65468		141.40400		875.00000 
 43692.65567		 305.27265			43387.38302		65.72800		324.00000 
 43692.65567		 311.00099			43381.65468		141.40400		875.00000 
 43692.65567		 305.27265			43387.38302		65.72800		324.00000 
 43692.65567		 311.00099			43381.65468		141.40400		875.00000 
 43692.65567		 305.27265			43387.38302		65.72800		324.00000 
 43692.65567		 311.00099			43381.65468		141.40400		875.00000 
 43692.65567		 305.27265			43387.38302		65.72800		324.00000 
 43692.65567		 311.00099			43381.65468		141.40400		875.00000 
 43692.65567		 305.27265			43387.38302		65.72800		324.00000 
 43692.65567		 311.00099			43381.65468		141.40400		875.00000 
 43692.65567		 305.27265			43387.38302		65.72800		324.00000 
 43692.65567		 311.00099			43381.65468		141.40400		875.00000 
 43692.65567		 305.27265			43387.38302		65.72800		324.00000 
 43692.65567		 311.00099			43381.65468		141.40400		875.00000 
 43692.65567		 305.27265			43387.38302		65.72800		324.00000 
 43692.65567		 311.00099			43381.65468		135.62600		875.00000 
 43692.65567		 305.27265			43387.38302		65.72800		324.00000 
 43692.65567		 311.00099			43381.65468		135.62600		875.00000 
 43692.65567		 305.27265			43387.38302		65.72800		324.00000 
 43692.65567		 311.00099			43381.65468		135.62600		875.00000 
 43692.65567		 305.27265			43387.38302		65.72800		324.00000 
 43692.65567		 311.00099			43381.65468		135.62600		875.00000 
 43692.65567		 305.27265			43387.38302		65.72800		324.00000 
 43692.65567		 311.00099			43381.65468		135.62600		875.00000 
 43692.65567		 305.27265			43387.38302		65.72800		324.00000 
 43692.65567		 311.00099			43381.65468		135.62600		875.00000 
 43692.65567		 305.27265			43387.38302		65.72800		324.00000 
 43692.65567		 311.00099			43381.65468		135.62600		875.00000 
 43692.65567		 305.27265			43387.38302		65.72800		324.00000 
 43692.65567		 311.00099			43381.65468		135.62600		875.00000 
 43692.65567		 305.27265			43387.38302		65.72800		324.00000 
 43692.65567		 311.00099			43381.65468		135.62600		875.00000 
 43692.65567		 305.27265			43387.38302		65.72800		324.00000 
 43692.65567		 311.00099			43381.65468		135.62600		875.00000 
 43692.65567		 305.27265			43387.38302		65.72800		324.00000 
 43692.65567		 311.00099			43381.65468		135.62600		875.00000 
 43692.65567		 305.27265			43387.38302		65.72800		324.00000 
 43692.65567		 311.00099			43381.65468		135.62600		875.00000 
 43692.65567		 305.27265			43387.38302		65.72800		324.00000 
 43692.65567		 311.00099			43381.65468		135.62600		875.00000 
 43692.65567		 305.27265			43387.38302		65.72800		324.00000 
 43692.65567		 311.00099			43381.65468		135.62600		875.00000 
 43692.65567		 305.27265			43387.38302		65.72800		324.00000 
 43692.65567		 311.00099			43381.65468		135.62600		875.00000 
 43692.65567		 305.27265			43387.38302		65.72800		324.00000 
 43692.65567		 311.00099			43381.65468		135.62600		875.00000 
 43692.65567		 305.27265			43387.38302		65.72800		324.00000 
 43692.65567		 311.00099			43381.65468		135.62600		875.00000 
 43692.65567		 305.27265			43387.38302		65.72800		324.00000 
 43692.65567		 311.00099			43381.65468		135.62600		875.00000 
 43692.65567		 305.27265			43387.38302		65.72800		324.00000 
 43692.65567		 311.00099			43381.65468		135.62600		875.00000 
 43692.65567		 305.27265			43387.38302		65.72800		324.00000 
 43692.65567		 311.00099			43381.65468		135.62600		875.00000 
 43692.65567		 305.27265			43387.38302		65.72800		324.00000 
 43692.65567		 311.00099			43381.65468		135.62600		875.00000 
 43692.65567		 305.27265			43387.38302		65.72800		324.00000 
 43692.65567		 311.00099			43381.65468		135.62600		875.00000 
 43692.65567		 305.27265			43387.38302		65.72800		324.00000 
 43692.65567		 311.00099			43381.65468		135.62600		875.00000 
 43692.65567		 305.27265			43387.38302		65.72800		324.00000 
 43692.65567		 311.00099			43381.65468		135.62600		875.00000 
 43692.65567		 305.27265			43387.38302		65.72800		324.00000 
 43692.65567		 314.81988			43377.83579		135.62600		875.00000 
 43692.65567		 305.27265			43387.38302		65.72800		324.00000 
 43692.65567		 314.81988			43377.83579		135.62600		875.00000 
 43692.65567		 305.27265			43387.38302		65.72800		324.00000 
 43692.65567		 318.63877			43374.01690		135.62600		875.00000 
 43692.65567		 305.27265			43387.38302		65.72800		324.00000 
 43692.65567		 322.45767			43370.19801		135.62600		875.00000 
 43692.65567		 305.27265			43387.38302		65.72800		324.00000 
 43692.65567		 326.27656			43366.37912		135.62600		875.00000 
 43692.65567		 305.27265			43387.38302		65.72800		324.00000 
 43692.65567		 326.27656			43366.37912		135.62600		875.00000 
 43692.65567		 305.27265			43387.38302		65.72800		324.00000 
 43692.65567		 326.27656			43366.37912		135.62600		875.00000 
 43692.65567		 305.27265			43387.38302		65.72800		324.00000 
 43692.65567		 537.27032			43155.38535		135.62600		875.00000 
 43692.65567		 305.27265			43387.38302		65.72800		324.00000 
 43692.65567		 675.70515			43016.95053		135.62600		875.00000 
 43692.65567		 305.27265			43387.38302		65.72800		324.00000 
 43692.65567		 952.57479			42740.08088		133.18800		875.00000 
 43692.65567		 305.27265			43387.38302		65.72800		324.00000 
 43692.65567		 952.57479			42740.08088		133.18800		875.00000 
 43692.65567		 305.27265			43387.38302		65.72800		324.00000 
 43692.65567		 952.57479			42740.08088		133.18800		875.00000 
 43692.65567		 305.27265			43387.38302		65.72800		324.00000 
 43692.65567		 952.57479			42740.08088		133.18800		875.00000 
 43692.65567		 305.27265			43387.38302		65.72800		324.00000 
 43692.65567		 952.57479			42740.08088		133.18800		875.00000 
 43692.65567		 305.27265			43387.38302		65.72800		324.00000 
 43692.65567		 952.57479			42740.08088		133.18800		875.00000 
 43692.65567		 305.27265			43387.38302		65.72800		324.00000 
 43692.65567		 952.57479			42740.08088		133.18800		875.00000 
 43692.65567		 305.27265			43387.38302		65.72800		324.00000 
 43692.65567		 952.57479			42740.08088		133.18800		875.00000 
 43692.65567		 305.27265			43387.38302		65.72800		324.00000 
 43692.65567		 952.57479			42740.08088		133.18800		875.00000 
 43692.65567		 305.27265			43387.38302		65.72800		324.00000 
 43692.65567		 952.57479			42740.08088		133.18800		875.00000 
 43692.65567		 305.27265			43387.38302		65.72800		324.00000 
 43692.65567		 952.57479			42740.08088		133.18800		875.00000 
 43692.65567		 305.27265			43387.38302		65.72800		324.00000 
 43692.65567		 952.57479			42740.08088		133.18800		875.00000 
 43692.65567		 305.27265			43387.38302		65.72800		324.00000 
 43692.65567		 952.57479			42740.08088		133.18800		875.00000 
 43692.65567		 305.27265			43387.38302		65.72800		324.00000 
 43692.65567		 952.57479			42740.08088		133.18800		875.00000 
 43692.65567		 305.27265			43387.38302		65.72800		324.00000 
 43692.65567		 952.57479			42740.08088		133.18800		875.00000 
 43692.65567		 305.27265			43387.38302		65.72800		324.00000 
 43692.65567		 952.57479			42740.08088		133.18800		875.00000 
 43692.65567		 305.27265			43387.38302		65.72800		324.00000 
 43692.65567		 952.57479			42740.08088		133.18800		875.00000 
 43692.65567		 305.27265			43387.38302		65.72800		324.00000 
 43692.65567		 952.57479			42740.08088		133.18800		875.00000 
 43692.65567		 305.27265			43387.38302		65.72800		324.00000 
 43692.65567		 952.57479			42740.08088		133.18800		875.00000 
 43692.65567		 305.27265			43387.38302		65.72800		324.00000 
 43692.65567		 952.57479			42740.08088		133.18800		875.00000 
 43692.65567		 305.27265			43387.38302		65.72800		324.00000 
 43692.65567		 952.57479			42740.08088		133.18800		875.00000 
 43692.65567		 305.27265			43387.38302		65.72800		324.00000 
 43692.65567		 952.57479			42740.08088		133.18800		875.00000 
 43692.65567		 305.27265			43387.38302		65.72800		324.00000 
 43692.65567		 952.57479			42740.08088		133.18800		875.00000 
 43692.65567		 305.27265			43387.38302		65.72800		324.00000 
 43692.65567		 952.57479			42740.08088		133.18800		875.00000 
 43692.65567		 305.27265			43387.38302		65.72800		324.00000 
 43692.65567		 952.57479			42740.08088		133.18800		875.00000 
 43692.65567		 305.27265			43387.38302		65.72800		324.00000 
 43692.65567		 952.57479			42740.08088		133.18800		875.00000 
 43692.65567		 305.27265			43387.38302		65.72800		324.00000 
 43692.65567		 952.57479			42740.08088		133.18800		875.00000 
 43692.65567		 305.27265			43387.38302		65.72800		324.00000 
 43692.65567		 952.57479			42740.08088		133.18800		875.00000 
 43692.65567		 305.27265			43387.38302		65.72800		324.00000 
 43692.65567		 952.57479			42740.08088		133.18800		875.00000 
 43692.65567		 305.27265			43387.38302		65.72800		324.00000 
 43692.65567		 952.57479			42740.08088		133.18800		875.00000 
 43692.65567		 305.27265			43387.38302		65.72800		324.00000 
 43692.65567		 952.57479			42740.08088		133.18800		875.00000 
 43692.65567		 305.27265			43387.38302		65.72800		324.00000 
 43692.65567		 952.57479			42740.08088		133.18800		875.00000 
 43692.65567		 305.27265			43387.38302		65.72800		324.00000 
 43692.65567		 952.57479			42740.08088		133.18800		875.00000 
 43692.65567		 305.27265			43387.38302		65.72800		324.00000 
 43692.65567		 952.57479			42740.08088		133.18800		875.00000 
 43692.65567		 305.27265			43387.38302		65.72800		324.00000 
 43692.65567		 952.57479			42740.08088		133.18800		875.00000 
 43692.65567		 305.27265			43387.38302		65.72800		324.00000 
 43692.65567		 952.57479			42740.08088		133.18800		875.00000 
 43692.65567		 305.27265			43387.38302		65.72800		324.00000 
 43692.65567		 952.57479			42740.08088		133.18800		875.00000 
 43692.65567		 305.27265			43387.38302		65.72800		324.00000 
 43692.65567		 952.57479			42740.08088		133.18800		875.00000 
 43692.65567		 305.27265			43387.38302		65.72800		324.00000 
 43692.65567		 952.57479			42740.08088		133.18800		875.00000 
 43692.65567		 305.27265			43387.38302		65.72800		324.00000 
 43692.65567		 952.57479			42740.08088		133.18800		875.00000 
 43692.65567		 305.27265			43387.38302		65.72800		324.00000 
 43692.65567		 952.57479			42740.08088		133.18800		875.00000 
 43692.65567		 305.27265			43387.38302		65.72800		324.00000 
 43692.65567		 952.57479			42740.08088		133.18800		875.00000 
 43692.65567		 305.27265			43387.38302		65.72800		324.00000 
 43692.65567		 952.57479			42740.08088		133.18800		875.00000 
 43692.65567		 305.27265			43387.38302		65.72800		324.00000 
 43692.65567		 952.57479			42740.08088		133.18800		875.00000 
 43692.65567		 305.27265			43387.38302		65.72800		324.00000 
 43692.65567		 952.57479			42740.08088		133.18800		875.00000 
 43692.65567		 305.27265			43387.38302		65.72800		324.00000 
 43692.65567		 952.57479			42740.08088		133.18800		875.00000 
 43692.65567		 305.27265			43387.38302		65.72800		324.00000 
 43692.65567		 952.57479			42740.08088		133.18800		875.00000 
 43692.65567		 305.27265			43387.38302		65.72800		324.00000 
 43692.65567		 952.57479			42740.08088		133.18800		875.00000 
 43692.65567		 305.27265			43387.38302		65.72800		324.00000 
 43692.65567		 952.57479			42740.08088		133.18800		875.00000 
 43692.65567		 305.27265			43387.38302		65.72800		324.00000 
 43692.65567		 952.57479			42740.08088		133.18800		875.00000 
 43692.65567		 305.27265			43387.38302		65.72800		324.00000 
 43692.65567		 952.57479			42740.08088		133.18800		875.00000 
 43692.65567		 305.27265			43387.38302		65.72800		324.00000 
 43692.65567		 952.57479			42740.08088		133.18800		875.00000 
 43692.65567		 305.27265			43387.38302		65.72800		324.00000 
 43692.65567		 952.57479			42740.08088		133.18800		875.00000 
 43692.65567		 305.27265			43387.38302		65.72800		324.00000 
 43692.65567		 952.57479			42740.08088		133.18800		875.00000 
 43692.65567		 305.27265			43387.38302		65.72800		324.00000 
 43692.65567		 952.57479			42740.08088		133.18800		875.00000 
 43692.65567		 305.27265			43387.38302		65.72800		324.00000 
 43692.65567		 952.57479			42740.08088		133.18800		875.00000 
 43692.65567		 305.27265			43387.38302		65.72800		324.00000 
 43692.65567		 952.57479			42740.08088		133.18800		875.00000 
 43692.65567		 305.27265			43387.38302		65.72800		324.00000 
 43692.65567		 952.57479			42740.08088		133.18800		875.00000 
 43692.65567		 305.27265			43387.38302		65.72800		324.00000 
 43692.65567		 952.57479			42740.08088		133.18800		875.00000 
 43692.65567		 305.27265			43387.38302		65.72800		324.00000 
 43692.65567		 952.57479			42740.08088		133.18800		875.00000 
 43692.65567		 305.27265			43387.38302		65.72800		324.00000 
 43692.65567		 952.57479			42740.08088		133.18800		875.00000 
 43692.65567		 305.27265			43387.38302		65.72800		324.00000 
 43692.65567		 952.57479			42740.08088		133.18800		875.00000 
 43692.65567		 305.27265			43387.38302		65.72800		324.00000 
 43692.65567		 952.57479			42740.08088		133.18800		875.00000 
 43692.65567		 305.27265			43387.38302		65.72800		324.00000 
 43692.65567		 952.57479			42740.08088		133.18800		875.00000 
 43692.65567		 305.27265			43387.38302		65.72800		324.00000 
 43692.65567		 952.57479			42740.08088		133.18800		875.00000 
 43692.65567		 305.27265			43387.38302		65.72800		324.00000 
 43692.65567		 952.57479			42740.08088		193.01400		875.00000 
 43692.65567		 305.27265			43387.38302		65.72800		324.00000 
 43692.65567		 952.57479			42740.08088		193.01400		875.00000 
 43692.65567		 305.27265			43387.38302		65.72800		324.00000 
 43692.65567		 952.57479			42740.08088		193.01400		875.00000 
 43692.65567		 305.27265			43387.38302		65.72800		324.00000 
 43692.65567		 952.57479			42740.08088		193.01400		875.00000 
 43692.65567		 305.27265			43387.38302		65.72800		324.00000 
 43692.65567		 952.57479			42740.08088		193.01400		875.00000 
 43692.65567		 305.27265			43387.38302		65.72800		324.00000 
 43692.65567		 952.57479			42740.08088		193.01400		875.00000 
 43692.65567		 305.27265			43387.38302		65.72800		324.00000 
 43692.65567		 952.57479			42740.08088		193.01400		875.00000 
 43692.65567		 305.27265			43387.38302		65.72800		324.00000 
 43692.65567		 952.57479			42740.08088		193.01400		875.00000 
 43692.65567		 305.27265			43387.38302		65.72800		324.00000 
 43692.65567		 952.57479			42740.08088		193.01400		875.00000 
 43692.65567		 305.27265			43387.38302		65.72800		324.00000 
 43692.65567		 952.57479			42740.08088		193.01400		875.00000 
 43692.65567		 305.27265			43387.38302		65.72800		324.00000 
 43692.65567		 952.57479			42740.08088		193.01400		875.00000 
 43692.65567		 305.27265			43387.38302		65.72800		324.00000 
 43692.65567		 952.57479			42740.08088		193.01400		875.00000 
 43692.65567		 305.27265			43387.38302		65.72800		324.00000 
 43692.65567		 952.57479			42740.08088		193.01400		875.00000 
 43692.65567		 305.27265			43387.38302		65.72800		324.00000 
 43692.65567		 952.57479			42740.08088		193.01400		875.00000 
 43692.65567		 305.27265			43387.38302		65.72800		324.00000 
 43692.65567		 952.57479			42740.08088		193.01400		875.00000 
 43692.65567		 305.27265			43387.38302		65.72800		324.00000 
 43692.65567		 952.57479			42740.08088		193.01400		875.00000 
 43692.65567		 305.27265			43387.38302		65.72800		324.00000 
 43692.65567		 952.57479			42740.08088		193.01400		875.00000 
 43692.65567		 305.27265			43387.38302		65.72800		324.00000 
 43692.65567		 952.57479			42740.08088		193.01400		875.00000 
 43692.65567		 305.27265			43387.38302		65.72800		324.00000 
 43692.65567		 952.57479			42740.08088		193.01400		875.00000 
 43692.65567		 305.27265			43387.38302		65.72800		324.00000 
 43692.65567		 952.57479			42740.08088		193.01400		875.00000 
 43692.65567		 305.27265			43387.38302		65.72800		324.00000 
 43692.65567		 952.57479			42740.08088		193.01400		875.00000 
 43692.65567		 305.27265			43387.38302		65.72800		324.00000 
 43692.65567		 952.57479			42740.08088		193.01400		875.00000 
 43692.65567		 305.27265			43387.38302		65.72800		324.00000 
 43692.65567		 952.57479			42740.08088		193.01400		875.00000 
 43692.65567		 305.27265			43387.38302		65.72800		324.00000 
 43692.65567		 952.57479			42740.08088		193.01400		875.00000 
 43692.65567		 305.27265			43387.38302		65.72800		324.00000 
 43692.65567		 952.57479			42740.08088		193.01400		875.00000 
 43692.65567		 305.27265			43387.38302		65.72800		324.00000 
 43692.65567		 952.57479			42740.08088		193.01400		875.00000 
 43692.65567		 305.27265			43387.38302		65.72800		324.00000 
 43692.65567		 952.57479			42740.08088		193.01400		875.00000 
 43692.65567		 305.27265			43387.38302		65.72800		324.00000 
 43692.65567		 952.57479			42740.08088		193.01400		875.00000 
 43692.65567		 305.27265			43387.38302		65.72800		324.00000 
 43692.65567		 952.57479			42740.08088		193.01400		875.00000 
 43692.65567		 305.27265			43387.38302		65.72800		324.00000 
 43692.65567		 952.57479			42740.08088		193.01400		875.00000 
 43692.65567		 305.27265			43387.38302		65.72800		324.00000 
 43692.65567		 952.57479			42740.08088		193.01400		875.00000 
 43692.65567		 305.27265			43387.38302		65.72800		324.00000 
 43692.65567		 952.57479			42740.08088		193.01400		875.00000 
 43692.65567		 305.27265			43387.38302		65.72800		324.00000 
 43692.65567		 952.57479			42740.08088		193.01400		875.00000 
 43692.65567		 305.27265			43387.38302		65.72800		324.00000 
 43692.65567		 952.57479			42740.08088		193.01400		875.00000 
 43692.65567		 305.27265			43387.38302		65.72800		324.00000 
 43692.65567		 952.57479			42740.08088		193.01400		875.00000 
 43692.65567		 305.27265			43387.38302		65.72800		324.00000 
 43692.65567		 952.57479			42740.08088		193.01400		875.00000 
 43692.65567		 305.27265			43387.38302		65.72800		324.00000 
 43692.65567		 952.57479			42740.08088		193.01400		875.00000 
 43692.65567		 305.27265			43387.38302		65.72800		324.00000 
 43692.65567		 952.57479			42740.08088		193.01400		875.00000 
 43692.65567		 305.27265			43387.38302		65.72800		324.00000 
 43692.65567		 952.57479			42740.08088		193.01400		875.00000 
 43692.65567		 305.27265			43387.38302		65.72800		324.00000 
 43692.65567		 952.57479			42740.08088		193.01400		875.00000 
 43692.65567		 305.27265			43387.38302		65.72800		324.00000 
 43692.65567		 952.57479			42740.08088		193.01400		875.00000 
 43692.65567		 305.27265			43387.38302		65.72800		324.00000 
 43692.65567		 952.57479			42740.08088		193.01400		875.00000 
 43692.65567		 305.27265			43387.38302		65.72800		324.00000 
 43692.65567		 952.57479			42740.08088		193.01400		875.00000 
 43692.65567		 305.27265			43387.38302		65.72800		324.00000 
 43692.65567		 952.57479			42740.08088		193.01400		875.00000 
 43692.65567		 305.27265			43387.38302		65.72800		324.00000 
 43692.65567		 952.57479			42740.08088		193.01400		875.00000 
 43692.65567		 305.27265			43387.38302		65.72800		324.00000 
 43692.65567		 952.57479			42740.08088		193.01400		875.00000 
 43692.65567		 305.27265			43387.38302		65.72800		324.00000 
 43692.65567		 952.57479			42740.08088		193.01400		875.00000 
 43692.65567		 305.27265			43387.38302		65.72800		324.00000 
 43692.65567		 952.57479			42740.08088		193.01400		875.00000 
 43692.65567		 305.27265			43387.38302		65.72800		324.00000 
 43692.65567		 952.57479			42740.08088		193.01400		875.00000 
 43692.65567		 305.27265			43387.38302		65.72800		324.00000 
 43692.65567		 952.57479			42740.08088		193.01400		875.00000 
 43692.65567		 305.27265			43387.38302		65.72800		324.00000 
 43692.65567		 952.57479			42740.08088		193.01400		875.00000 
 43692.65567		 305.27265			43387.38302		65.72800		324.00000 
 43692.65567		 952.57479			42740.08088		193.01400		875.00000 
 43692.65567		 305.27265			43387.38302		65.72800		324.00000 
 43692.65567		 952.57479			42740.08088		193.01400		875.00000 
 43692.65567		 305.27265			43387.38302		65.72800		324.00000 
 43692.65567		 952.57479			42740.08088		193.01400		875.00000 
 43692.65567		 305.27265			43387.38302		65.72800		324.00000 
 43692.65567		 952.57479			42740.08088		193.01400		875.00000 
 43692.65567		 305.27265			43387.38302		65.72800		324.00000 
 43692.65567		 952.57479			42740.08088		193.01400		875.00000 
 43692.65567		 305.27265			43387.38302		65.72800		324.00000 
 43692.65567		 952.57479			42740.08088		193.01400		875.00000 
 43692.65567		 305.27265			43387.38302		65.72800		324.00000 
 43692.65567		 952.57479			42740.08088		193.01400		875.00000 
 43692.65567		 305.27265			43387.38302		65.72800		324.00000 
 43692.65567		 952.57479			42740.08088		193.01400		875.00000 
 43692.65567		 305.27265			43387.38302		65.72800		324.00000 
 43692.65567		 952.57479			42740.08088		193.01400		875.00000 
 43692.65567		 305.27265			43387.38302		65.72800		324.00000 
 43692.65567		 952.57479			42740.08088		193.01400		875.00000 
 43692.65567		 305.27265			43387.38302		65.72800		324.00000 
 43692.65567		 952.57479			42740.08088		193.01400		875.00000 
 43692.65567		 305.27265			43387.38302		65.72800		324.00000 
 43692.65567		 952.57479			42740.08088		193.01400		875.00000 
 43692.65567		 305.27265			43387.38302		65.72800		324.00000 
 43692.65567		 952.57479			42740.08088		193.01400		875.00000 
 43692.65567		 305.27265			43387.38302		65.72800		324.00000 
 43692.65567		 952.57479			42740.08088		193.01400		875.00000 
 43692.65567		 305.27265			43387.38302		65.72800		324.00000 
 43692.65567		 952.57479			42740.08088		216.66600		875.00000 
 43692.65567		 305.27265			43387.38302		65.72800		324.00000 
 43692.65567		 952.57479			42740.08088		216.66600		875.00000 
 43692.65567		 305.27265			43387.38302		65.72800		324.00000 
 43692.65567		 952.57479			42740.08088		216.66600		875.00000 
 43692.65567		 305.27265			43387.38302		65.72800		324.00000 
 43692.65567		 952.57479			42740.08088		216.66600		875.00000 
 43692.65567		 305.27265			43387.38302		65.72800		324.00000 
 43692.65567		 952.57479			42740.08088		216.66600		875.00000 
 43692.65567		 305.27265			43387.38302		65.72800		324.00000 
 43692.65567		 952.57479			42740.08088		216.66600		875.00000 
 43692.65567		 305.27265			43387.38302		65.72800		324.00000 
 43692.65567		 952.57479			42740.08088		216.66600		875.00000 
 43692.65567		 305.27265			43387.38302		65.72800		324.00000 
 43692.65567		 952.57479			42740.08088		216.66600		875.00000 
 43692.65567		 305.27265			43387.38302		65.72800		324.00000 
 43692.65567		 952.57479			42740.08088		216.66600		875.00000 
 43692.65567		 305.27265			43387.38302		65.72800		324.00000 
 43692.65567		 952.57479			42740.08088		216.66600		875.00000 
 43692.65567		 305.27265			43387.38302		65.72800		324.00000 
 43692.65567		 952.57479			42740.08088		216.66600		875.00000 
 43692.65567		 305.27265			43387.38302		65.72800		324.00000 
 43692.65567		 952.57479			42740.08088		216.66600		875.00000 
 43692.65567		 305.27265			43387.38302		65.72800		324.00000 
 43692.65567		 952.57479			42740.08088		216.66600		875.00000 
 43692.65567		 305.27265			43387.38302		65.72800		324.00000 
 43692.65567		 952.57479			42740.08088		216.66600		875.00000 
 43692.65567		 305.27265			43387.38302		65.72800		324.00000 
 43692.65567		 952.57479			42740.08088		216.66600		875.00000 
 43692.65567		 305.27265			43387.38302		65.72800		324.00000 
 43692.65567		 952.57479			42740.08088		216.66600		875.00000 
 43692.65567		 305.27265			43387.38302		65.72800		324.00000 
 43692.65567		 952.57479			42740.08088		216.66600		875.00000 
 43692.65567		 305.27265			43387.38302		65.72800		324.00000 
 43692.65567		 952.57479			42740.08088		216.66600		875.00000 
 43692.65567		 305.27265			43387.38302		65.72800		324.00000 
 43692.65567		 952.57479			42740.08088		216.66600		875.00000 
 43692.65567		 305.27265			43387.38302		65.72800		324.00000 
 43692.65567		 952.57479			42740.08088		216.66600		875.00000 
 43692.65567		 305.27265			43387.38302		65.72800		324.00000 
 43692.65567		 952.57479			42740.08088		216.66600		875.00000 
 43692.65567		 305.27265			43387.38302		65.72800		324.00000 
 43692.65567		 952.57479			42740.08088		216.66600		875.00000 
 43692.65567		 305.27265			43387.38302		65.72800		324.00000 
 43692.65567		 952.57479			42740.08088		216.66600		875.00000 
 43692.65567		 305.27265			43387.38302		65.72800		324.00000 
 43692.65567		 952.57479			42740.08088		216.66600		875.00000 
 43692.65567		 305.27265			43387.38302		65.72800		324.00000 
 43692.65567		 952.57479			42740.08088		216.66600		875.00000 
 43692.65567		 305.27265			43387.38302		65.72800		324.00000 
 43692.65567		 952.57479			42740.08088		216.66600		875.00000 
 43692.65567		 305.27265			43387.38302		65.72800		324.00000 
 43692.65567		 952.57479			42740.08088		216.66600		875.00000 
 43692.65567		 305.27265			43387.38302		65.72800		324.00000 
 43692.65567		 952.57479			42740.08088		216.66600		875.00000 
 43692.65567		 305.27265			43387.38302		65.72800		324.00000 
 43692.65567		 952.57479			42740.08088		216.66600		875.00000 
 43692.65567		 305.27265			43387.38302		65.72800		324.00000 
 43692.65567		 952.57479			42740.08088		216.66600		875.00000 
 43692.65567		 305.27265			43387.38302		65.72800		324.00000 
 43692.65567		 952.57479			42740.08088		216.66600		875.00000 
 43692.65567		 305.27265			43387.38302		65.72800		324.00000 
 43692.65567		 952.57479			42740.08088		216.66600		875.00000 
 43692.65567		 305.27265			43387.38302		65.72800		324.00000 
 43692.65567		 952.57479			42740.08088		216.66600		875.00000 
 43692.65567		 305.27265			43387.38302		65.72800		324.00000 
 43692.65567		 952.57479			42740.08088		216.66600		875.00000 
 43692.65567		 305.27265			43387.38302		65.72800		324.00000 
 43692.65567		 952.57479			42740.08088		216.66600		875.00000 
 43692.65567		 305.27265			43387.38302		65.72800		324.00000 
 43692.65567		 952.57479			42740.08088		216.66600		875.00000 
 43692.65567		 305.27265			43387.38302		65.72800		324.00000 
 43692.65567		 952.57479			42740.08088		216.66600		875.00000 
 43692.65567		 305.27265			43387.38302		65.72800		324.00000 
 43692.65567		 952.57479			42740.08088		216.66600		875.00000 
 43692.65567		 305.27265			43387.38302		65.72800		324.00000 
 43692.65567		 952.57479			42740.08088		216.66600		875.00000 
 43692.65567		 305.27265			43387.38302		65.72800		324.00000 
 43692.65567		 952.57479			42740.08088		216.66600		875.00000 
 43692.65567		 305.27265			43387.38302		65.72800		324.00000 
 43692.65567		 952.57479			42740.08088		216.66600		875.00000 
 43692.65567		 305.27265			43387.38302		65.72800		324.00000 
 43692.65567		 952.57479			42740.08088		216.66600		875.00000 
 43692.65567		 305.27265			43387.38302		65.72800		324.00000 
 43692.65567		 952.57479			42740.08088		216.66600		875.00000 
 43692.65567		 305.27265			43387.38302		65.72800		324.00000 
 43692.65567		 952.57479			42740.08088		216.66600		875.00000 
 43692.65567		 305.27265			43387.38302		65.72800		324.00000 
 43692.65567		 952.57479			42740.08088		216.66600		875.00000 
 43692.65567		 305.27265			43387.38302		65.72800		324.00000 
 43692.65567		 952.57479			42740.08088		216.66600		875.00000 
 43692.65567		 305.27265			43387.38302		65.72800		324.00000 
 43692.65567		 952.57479			42740.08088		216.66600		875.00000 
 43692.65567		 305.27265			43387.38302		65.72800		324.00000 
 43692.65567		 952.57479			42740.08088		216.66600		875.00000 
 43692.65567		 305.27265			43387.38302		65.72800		324.00000 
 43692.65567		 952.57479			42740.08088		216.66600		875.00000 
 43692.65567		 305.27265			43387.38302		65.72800		324.00000 
 43692.65567		 952.57479			42740.08088		216.66600		875.00000 
 43692.65567		 305.27265			43387.38302		65.72800		324.00000 
 43692.65567		 952.57479			42740.08088		216.66600		875.00000 
 43692.65567		 305.27265			43387.38302		65.72800		324.00000 
 43692.65567		 952.57479			42740.08088		216.66600		875.00000 
 43692.65567		 305.27265			43387.38302		65.72800		324.00000 
 43692.65567		 952.57479			42740.08088		216.66600		875.00000 
 43692.65567		 305.27265			43387.38302		65.72800		324.00000 
 43692.65567		 952.57479			42740.08088		216.66600		875.00000 
 43692.65567		 305.27265			43387.38302		65.72800		324.00000 
 43692.65567		 952.57479			42740.08088		216.66600		875.00000 
 43692.65567		 305.27265			43387.38302		65.72800		324.00000 
 43692.65567		 952.57479			42740.08088		216.66600		875.00000 
 43692.65567		 305.27265			43387.38302		65.72800		324.00000 
 43692.65567		 952.57479			42740.08088		216.66600		875.00000 
 43692.65567		 305.27265			43387.38302		65.72800		324.00000 
 43692.65567		 952.57479			42740.08088		216.66600		875.00000 
 43692.65567		 305.27265			43387.38302		65.72800		324.00000 
 43692.65567		 952.57479			42740.08088		216.66600		875.00000 
 43692.65567		 305.27265			43387.38302		65.72800		324.00000 
 43692.65567		 952.57479			42740.08088		216.66600		875.00000 
 43692.65567		 305.27265			43387.38302		65.72800		324.00000 
 43692.65567		 952.57479			42740.08088		216.66600		875.00000 
 43692.65567		 305.27265			43387.38302		65.72800		324.00000 
 43692.65567		 952.57479			42740.08088		216.66600		875.00000 
 43692.65567		 305.27265			43387.38302		65.72800		324.00000 
 43692.65567		 952.57479			42740.08088		216.66600		875.00000 
 43692.65567		 305.27265			43387.38302		65.72800		324.00000 
 43692.65567		 952.57479			42740.08088		216.66600		875.00000 
 43692.65567		 305.27265			43387.38302		65.72800		324.00000 
 43692.65567		 952.57479			42740.08088		224.55000		875.00000 
 43692.65567		 305.27265			43387.38302		65.72800		324.00000 
 43692.65567		 952.57479			42740.08088		224.55000		875.00000 
 43692.65567		 305.27265			43387.38302		65.72800		324.00000 
 43692.65567		 952.57479			42740.08088		224.55000		875.00000 
 43692.65567		 305.27265			43387.38302		65.72800		324.00000 
 43692.65567		 952.57479			42740.08088		224.55000		875.00000 
 43692.65567		 305.27265			43387.38302		65.72800		324.00000 
 43692.65567		 952.57479			42740.08088		224.55000		875.00000 
 43692.65567		 305.27265			43387.38302		65.72800		324.00000 
 43692.65567		 952.57479			42740.08088		224.55000		875.00000 
 43692.65567		 305.27265			43387.38302		65.72800		324.00000 
 43692.65567		 952.57479			42740.08088		224.55000		875.00000 
 43692.65567		 305.27265			43387.38302		65.72800		324.00000 
 43692.65567		 952.57479			42740.08088		224.55000		875.00000 
 43692.65567		 305.27265			43387.38302		65.72800		324.00000 
 43692.65567		 952.57479			42740.08088		224.55000		875.00000 
 43692.65567		 305.27265			43387.38302		65.72800		324.00000 
 43692.65567		 952.57479			42740.08088		224.55000		875.00000 
 43692.65567		 305.27265			43387.38302		65.72800		324.00000 
 43692.65567		 952.57479			42740.08088		224.55000		875.00000 
 43692.65567		 305.27265			43387.38302		65.72800		324.00000 
 43692.65567		 952.57479			42740.08088		224.55000		875.00000 
 43692.65567		 305.27265			43387.38302		65.72800		324.00000 
 43692.65567		 952.57479			42740.08088		224.55000		875.00000 
 43692.65567		 305.27265			43387.38302		65.72800		324.00000 
 43692.65567		 952.57479			42740.08088		224.55000		875.00000 
 43692.65567		 305.27265			43387.38302		65.72800		324.00000 
 43692.65567		 952.57479			42740.08088		224.55000		875.00000 
 43692.65567		 305.27265			43387.38302		65.72800		324.00000 
 43692.65567		 952.57479			42740.08088		224.55000		875.00000 
 43692.65567		 305.27265			43387.38302		65.72800		324.00000 
 43692.65567		 952.57479			42740.08088		224.55000		875.00000 
 43692.65567		 305.27265			43387.38302		65.72800		324.00000 
 43692.65567		 952.57479			42740.08088		224.55000		875.00000 
 43692.65567		 305.27265			43387.38302		65.72800		324.00000 
 43692.65567		 952.57479			42740.08088		224.55000		875.00000 
 43692.65567		 305.27265			43387.38302		65.72800		324.00000 
 43692.65567		 952.57479			42740.08088		224.55000		875.00000 
 43692.65567		 305.27265			43387.38302		65.72800		324.00000 
 43692.65567		 952.57479			42740.08088		224.55000		875.00000 
 43692.65567		 305.27265			43387.38302		65.72800		324.00000 
 43692.65567		 952.57479			42740.08088		224.55000		875.00000 
 43692.65567		 305.27265			43387.38302		65.72800		324.00000 
 43692.65567		 952.57479			42740.08088		224.55000		875.00000 
 43692.65567		 305.27265			43387.38302		65.72800		324.00000 
 43692.65567		 952.57479			42740.08088		224.55000		875.00000 
 43692.65567		 305.27265			43387.38302		65.72800		324.00000 
 43692.65567		 952.57479			42740.08088		224.55000		875.00000 
 43692.65567		 305.27265			43387.38302		65.72800		324.00000 
 43692.65567		 952.57479			42740.08088		224.55000		875.00000 
 43692.65567		 305.27265			43387.38302		65.72800		324.00000 
 43692.65567		 952.57479			42740.08088		224.55000		875.00000 
 43692.65567		 305.27265			43387.38302		65.72800		324.00000 
 43692.65567		 952.57479			42740.08088		224.55000		875.00000 
 43692.65567		 305.27265			43387.38302		65.72800		324.00000 
 43692.65567		 952.57479			42740.08088		224.55000		875.00000 
 43692.65567		 305.27265			43387.38302		65.72800		324.00000 
 43692.65567		 952.57479			42740.08088		224.55000		875.00000 
 43692.65567		 305.27265			43387.38302		65.72800		324.00000 
 43692.65567		 952.57479			42740.08088		224.55000		875.00000 
 43692.65567		 305.27265			43387.38302		65.72800		324.00000 
 43692.65567		 952.57479			42740.08088		224.55000		875.00000 
 43692.65567		 305.27265			43387.38302		65.72800		324.00000 
 43692.65567		 952.57479			42740.08088		224.55000		875.00000 
 43692.65567		 305.27265			43387.38302		65.72800		324.00000 
 43692.65567		 952.57479			42740.08088		224.55000		875.00000 
 43692.65567		 305.27265			43387.38302		65.72800		324.00000 
 43692.65567		 952.57479			42740.08088		224.55000		875.00000 
 43692.65567		 305.27265			43387.38302		65.72800		324.00000 
 43692.65567		 952.57479			42740.08088		224.55000		875.00000 
 43692.65567		 305.27265			43387.38302		65.72800		324.00000 
 43692.65567		 952.57479			42740.08088		224.55000		875.00000 
 43692.65567		 305.27265			43387.38302		65.72800		324.00000 
 43692.65567		 952.57479			42740.08088		224.55000		875.00000 
 43692.65567		 305.27265			43387.38302		65.72800		324.00000 
 43692.65567		 952.57479			42740.08088		224.55000		875.00000 
 43692.65567		 305.27265			43387.38302		65.72800		324.00000 
 43692.65567		 952.57479			42740.08088		224.55000		875.00000 
 43692.65567		 305.27265			43387.38302		65.72800		324.00000 
 43692.65567		 952.57479			42740.08088		224.55000		875.00000 
 43692.65567		 305.27265			43387.38302		65.72800		324.00000 
 43692.65567		 952.57479			42740.08088		224.55000		875.00000 
 43692.65567		 305.27265			43387.38302		65.72800		324.00000 
 43692.65567		 952.57479			42740.08088		224.55000		875.00000 
 43692.65567		 305.27265			43387.38302		65.72800		324.00000 
 43692.65567		 952.57479			42740.08088		224.55000		875.00000 
 43692.65567		 305.27265			43387.38302		65.72800		324.00000 
 43692.65567		 952.57479			42740.08088		224.55000		875.00000 
 43692.65567		 305.27265			43387.38302		65.72800		324.00000 
 43692.65567		 952.57479			42740.08088		224.55000		875.00000 
 43692.65567		 305.27265			43387.38302		65.72800		324.00000 
 43692.65567		 952.57479			42740.08088		224.55000		875.00000 
 43692.65567		 305.27265			43387.38302		65.72800		324.00000 
 43692.65567		 952.57479			42740.08088		224.55000		875.00000 
 43692.65567		 305.27265			43387.38302		65.72800		324.00000 
 43692.65567		 952.57479			42740.08088		224.55000		875.00000 
 43692.65567		 305.27265			43387.38302		65.72800		324.00000 
 43692.65567		 952.57479			42740.08088		224.55000		875.00000 
 43692.65567		 305.27265			43387.38302		65.72800		324.00000 
 43692.65567		 952.57479			42740.08088		224.55000		875.00000 
 43692.65567		 305.27265			43387.38302		65.72800		324.00000 
 43692.65567		 952.57479			42740.08088		224.55000		875.00000 
 43692.65567		 305.27265			43387.38302		65.72800		324.00000 
 43692.65567		 952.57479			42740.08088		224.55000		875.00000 
 43692.65567		 305.27265			43387.38302		65.72800		324.00000 
 43692.65567		 952.57479			42740.08088		224.55000		875.00000 
 43692.65567		 305.27265			43387.38302		65.72800		324.00000 
 43692.65567		 952.57479			42740.08088		224.55000		875.00000 
 43692.65567		 305.27265			43387.38302		65.72800		324.00000 
 43692.65567		 952.57479			42740.08088		224.55000		875.00000 
 43692.65567		 305.27265			43387.38302		65.72800		324.00000 
 43692.65567		 952.57479			42740.08088		224.55000		875.00000 
 43692.65567		 305.27265			43387.38302		65.72800		324.00000 
 43692.65567		 952.57479			42740.08088		224.55000		875.00000 
 43692.65567		 305.27265			43387.38302		65.72800		324.00000 
 43692.65567		 952.57479			42740.08088		224.55000		875.00000 
 43692.65567		 305.27265			43387.38302		65.72800		324.00000 
 43692.65567		 952.57479			42740.08088		224.55000		875.00000 
 43692.65567		 305.27265			43387.38302		65.72800		324.00000 
 43692.65567		 952.57479			42740.08088		224.55000		875.00000 
 43692.65567		 305.27265			43387.38302		65.72800		324.00000 
 43692.65567		 952.57479			42740.08088		224.55000		875.00000 
 43692.65567		 305.27265			43387.38302		65.72800		324.00000 
 43692.65567		 952.57479			42740.08088		224.55000		875.00000 
 43692.65567		 305.27265			43387.38302		65.72800		324.00000 
 43692.65567		 952.57479			42740.08088		224.55000		875.00000 
 43692.65567		 305.27265			43387.38302		65.72800		324.00000 
 43692.65567		 952.57479			42740.08088		228.09000		875.00000 
 43692.65567		 305.27265			43387.38302		65.72800		324.00000 
 43692.65567		 952.57479			42740.08088		228.09000		875.00000 
 43692.65567		 305.27265			43387.38302		65.72800		324.00000 
 43692.65567		 952.57479			42740.08088		228.09000		875.00000 
 43692.65567		 305.27265			43387.38302		65.72800		324.00000 
 43692.65567		 952.57479			42740.08088		228.09000		875.00000 
 43692.65567		 305.27265			43387.38302		65.72800		324.00000 
 43692.65567		 952.57479			42740.08088		228.09000		875.00000 
 43692.65567		 305.27265			43387.38302		65.72800		324.00000 
 43692.65567		 952.57479			42740.08088		228.09000		875.00000 
 43692.65567		 305.27265			43387.38302		65.72800		324.00000 
 43692.65567		 952.57479			42740.08088		228.09000		875.00000 
 43692.65567		 305.27265			43387.38302		65.72800		324.00000 
 43692.65567		 952.57479			42740.08088		228.09000		875.00000 
 43692.65567		 305.27265			43387.38302		65.72800		324.00000 
 43692.65567		 952.57479			42740.08088		228.09000		875.00000 
 43692.65567		 305.27265			43387.38302		65.72800		324.00000 
 43692.65567		 952.57479			42740.08088		228.09000		875.00000 
 43692.65567		 305.27265			43387.38302		65.72800		324.00000 
 43692.65567		 952.57479			42740.08088		228.09000		875.00000 
 43692.65567		 305.27265			43387.38302		65.72800		324.00000 
 43692.65567		 952.57479			42740.08088		228.09000		875.00000 
 43692.65567		 305.27265			43387.38302		65.72800		324.00000 
 43692.65567		 952.57479			42740.08088		228.09000		875.00000 
 43692.65567		 305.27265			43387.38302		65.72800		324.00000 
 43692.65567		 952.57479			42740.08088		228.09000		875.00000 
 43692.65567		 305.27265			43387.38302		65.72800		324.00000 
 43692.65567		 952.57479			42740.08088		228.09000		875.00000 
 43692.65567		 305.27265			43387.38302		65.72800		324.00000 
 43692.65567		 952.57479			42740.08088		228.09000		875.00000 
 43692.65567		 305.27265			43387.38302		65.72800		324.00000 
 43692.65567		 952.57479			42740.08088		228.09000		875.00000 
 43692.65567		 305.27265			43387.38302		65.72800		324.00000 
 43692.65567		 952.57479			42740.08088		228.09000		875.00000 
 43692.65567		 305.27265			43387.38302		65.72800		324.00000 
 43692.65567		 952.57479			42740.08088		228.09000		875.00000 
 43692.65567		 305.27265			43387.38302		65.72800		324.00000 
 43692.65567		 952.57479			42740.08088		228.09000		875.00000 
 43692.65567		 305.27265			43387.38302		65.72800		324.00000 
 43692.65567		 952.57479			42740.08088		228.09000		875.00000 
 43692.65567		 305.27265			43387.38302		65.72800		324.00000 
 43692.65567		 952.57479			42740.08088		228.09000		875.00000 
 43692.65567		 305.27265			43387.38302		65.72800		324.00000 
 43692.65567		 952.57479			42740.08088		228.09000		875.00000 
 43692.65567		 305.27265			43387.38302		65.72800		324.00000 
 43692.65567		 952.57479			42740.08088		228.09000		875.00000 
 43692.65567		 305.27265			43387.38302		65.72800		324.00000 
 43692.65567		 952.57479			42740.08088		228.09000		875.00000 
 43692.65567		 305.27265			43387.38302		65.72800		324.00000 
 43692.65567		 952.57479			42740.08088		228.09000		875.00000 
 43692.65567		 305.27265			43387.38302		65.72800		324.00000 
 43692.65567		 952.57479			42740.08088		228.09000		875.00000 
 43692.65567		 305.27265			43387.38302		65.72800		324.00000 
 43692.65567		 952.57479			42740.08088		228.09000		875.00000 
 43692.65567		 305.27265			43387.38302		65.72800		324.00000 
 43692.65567		 952.57479			42740.08088		228.09000		875.00000 
 43692.65567		 305.27265			43387.38302		65.72800		324.00000 
 43692.65567		 952.57479			42740.08088		228.09000		875.00000 
 43692.65567		 305.27265			43387.38302		65.72800		324.00000 
 43692.65567		 952.57479			42740.08088		228.09000		875.00000 
 43692.65567		 305.27265			43387.38302		65.72800		324.00000 
 43692.65567		 952.57479			42740.08088		228.09000		875.00000 
 43692.65567		 305.27265			43387.38302		65.72800		324.00000 
 43692.65567		 952.57479			42740.08088		228.09000		875.00000 
 43692.65567		 305.27265			43387.38302		65.72800		324.00000 
 43692.65567		 952.57479			42740.08088		228.09000		875.00000 
 43692.65567		 305.27265			43387.38302		65.72800		324.00000 
 43692.65567		 952.57479			42740.08088		228.09000		875.00000 
 43692.65567		 305.27265			43387.38302		65.72800		324.00000 
 43692.65567		 952.57479			42740.08088		228.09000		875.00000 
 43692.65567		 305.27265			43387.38302		65.72800		324.00000 
 43692.65567		 952.57479			42740.08088		228.09000		875.00000 
 43692.65567		 305.27265			43387.38302		65.72800		324.00000 
 43692.65567		 952.57479			42740.08088		228.09000		875.00000 
 43692.65567		 305.27265			43387.38302		65.72800		324.00000 
 43692.65567		 952.57479			42740.08088		228.09000		875.00000 
 43692.65567		 305.27265			43387.38302		65.72800		324.00000 
 43692.65567		 952.57479			42740.08088		228.09000		875.00000 
 43692.65567		 305.27265			43387.38302		65.72800		324.00000 
 43692.65567		 952.57479			42740.08088		228.09000		875.00000 
 43692.65567		 305.27265			43387.38302		65.72800		324.00000 
 43692.65567		 952.57479			42740.08088		228.09000		875.00000 
 43692.65567		 305.27265			43387.38302		65.72800		324.00000 
 43692.65567		 952.57479			42740.08088		228.09000		875.00000 
 43692.65567		 305.27265			43387.38302		65.72800		324.00000 
 43692.65567		 952.57479			42740.08088		228.09000		875.00000 
 43692.65567		 305.27265			43387.38302		65.72800		324.00000 
 43692.65567		 952.57479			42740.08088		228.09000		875.00000 
 43692.65567		 305.27265			43387.38302		65.72800		324.00000 
 43692.65567		 952.57479			42740.08088		228.09000		875.00000 
 43692.65567		 305.27265			43387.38302		65.72800		324.00000 
 43692.65567		 952.57479			42740.08088		228.09000		875.00000 
 43692.65567		 305.27265			43387.38302		65.72800		324.00000 
 43692.65567		 952.57479			42740.08088		228.09000		875.00000 
 43692.65567		 305.27265			43387.38302		65.72800		324.00000 
 43692.65567		 952.57479			42740.08088		228.09000		875.00000 
 43692.65567		 305.27265			43387.38302		65.72800		324.00000 
 43692.65567		 952.57479			42740.08088		228.09000		875.00000 
 43692.65567		 305.27265			43387.38302		65.72800		324.00000 
 43692.65567		 952.57479			42740.08088		228.09000		875.00000 
 43692.65567		 305.27265			43387.38302		65.72800		324.00000 
 43692.65567		 952.57479			42740.08088		228.09000		875.00000 
 43692.65567		 305.27265			43387.38302		65.72800		324.00000 
 43692.65567		 952.57479			42740.08088		228.09000		875.00000 
 43692.65567		 305.27265			43387.38302		65.72800		324.00000 
 43692.65567		 952.57479			42740.08088		228.09000		875.00000 
 43692.65567		 305.27265			43387.38302		65.72800		324.00000 
 43692.65567		 952.57479			42740.08088		228.09000		875.00000 
 43692.65567		 305.27265			43387.38302		65.72800		324.00000 
 43692.65567		 952.57479			42740.08088		228.09000		875.00000 
 43692.65567		 305.27265			43387.38302		65.72800		324.00000 
 43692.65567		 952.57479			42740.08088		228.09000		875.00000 
 43692.65567		 305.27265			43387.38302		65.72800		324.00000 
 43692.65567		 952.57479			42740.08088		228.09000		875.00000 
 43692.65567		 305.27265			43387.38302		65.72800		324.00000 
 43692.65567		 952.57479			42740.08088		228.09000		875.00000 
 43692.65567		 305.27265			43387.38302		65.72800		324.00000 
 43692.65567		 952.57479			42740.08088		228.09000		875.00000 
 43692.65567		 305.27265			43387.38302		65.72800		324.00000 
 43692.65567		 952.57479			42740.08088		228.09000		875.00000 
 43692.65567		 305.27265			43387.38302		65.72800		324.00000 
 43692.65567		 952.57479			42740.08088		228.09000		875.00000 
 43692.65567		 305.27265			43387.38302		65.72800		324.00000 
 43692.65567		 952.57479			42740.08088		228.09000		875.00000 
 43692.65567		 305.27265			43387.38302		65.72800		324.00000 
 43692.65567		 952.57479			42740.08088		228.09000		875.00000 
 43692.65567		 305.27265			43387.38302		65.72800		324.00000 
 43692.65567		 952.57479			42740.08088		229.89800		875.00000 
 43692.65567		 305.27265			43387.38302		65.72800		324.00000 
 43692.65567		 952.57479			42740.08088		229.89800		875.00000 
 43692.65567		 305.27265			43387.38302		65.72800		324.00000 
 43692.65567		 952.57479			42740.08088		229.89800		875.00000 
 43692.65567		 305.27265			43387.38302		65.72800		324.00000 
 43692.65567		 952.57479			42740.08088		229.89800		875.00000 
 43692.65567		 305.27265			43387.38302		65.72800		324.00000 
 43692.65567		 952.57479			42740.08088		229.89800		875.00000 
 43692.65567		 305.27265			43387.38302		65.72800		324.00000 
 43692.65567		 952.57479			42740.08088		229.89800		875.00000 
 43692.65567		 305.27265			43387.38302		65.72800		324.00000 
 43692.65567		 952.57479			42740.08088		229.89800		875.00000 
 43692.65567		 305.27265			43387.38302		65.72800		324.00000 
 43692.65567		 952.57479			42740.08088		229.89800		875.00000 
 43692.65567		 305.27265			43387.38302		65.72800		324.00000 
 43692.65567		 952.57479			42740.08088		229.89800		875.00000 
 43692.65567		 305.27265			43387.38302		65.72800		324.00000 
 43692.65567		 952.57479			42740.08088		229.89800		875.00000 
 43692.65567		 305.27265			43387.38302		65.72800		324.00000 
 43692.65567		 952.57479			42740.08088		229.89800		875.00000 
 43692.65567		 305.27265			43387.38302		65.72800		324.00000 
 43692.65567		 952.57479			42740.08088		229.89800		875.00000 
 43692.65567		 305.27265			43387.38302		65.72800		324.00000 
 43692.65567		 952.57479			42740.08088		229.89800		875.00000 
 43692.65567		 305.27265			43387.38302		65.72800		324.00000 
 43692.65567		 952.57479			42740.08088		229.89800		875.00000 
 43692.65567		 305.27265			43387.38302		65.72800		324.00000 
 43692.65567		 952.57479			42740.08088		229.89800		875.00000 
 43692.65567		 305.27265			43387.38302		65.72800		324.00000 
 43692.65567		 952.57479			42740.08088		229.89800		875.00000 
 43692.65567		 305.27265			43387.38302		65.72800		324.00000 
 43692.65567		 952.57479			42740.08088		229.89800		875.00000 
 43692.65567		 305.27265			43387.38302		65.72800		324.00000 
 43692.65567		 952.57479			42740.08088		229.89800		875.00000 
 43692.65567		 305.27265			43387.38302		65.72800		324.00000 
 43692.65567		 952.57479			42740.08088		229.89800		875.00000 
 43692.65567		 305.27265			43387.38302		65.72800		324.00000 
 43692.65567		 952.57479			42740.08088		229.89800		875.00000 
 43692.65567		 305.27265			43387.38302		65.72800		324.00000 
 43692.65567		 952.57479			42740.08088		229.89800		875.00000 
 43692.65567		 305.27265			43387.38302		65.72800		324.00000 
 43692.65567		 952.57479			42740.08088		229.89800		875.00000 
 43692.65567		 305.27265			43387.38302		65.72800		324.00000 
 43692.65567		 952.57479			42740.08088		229.89800		875.00000 
 43692.65567		 305.27265			43387.38302		65.72800		324.00000 
 43692.65567		 952.57479			42740.08088		229.89800		875.00000 
 43692.65567		 305.27265			43387.38302		65.72800		324.00000 
 43692.65567		 952.57479			42740.08088		229.89800		875.00000 
 43692.65567		 305.27265			43387.38302		65.72800		324.00000 
 43692.65567		 952.57479			42740.08088		229.89800		875.00000 
 43692.65567		 305.27265			43387.38302		65.72800		324.00000 
 43692.65567		 952.57479			42740.08088		229.89800		875.00000 
 43692.65567		 305.27265			43387.38302		65.72800		324.00000 
 43692.65567		 952.57479			42740.08088		229.89800		875.00000 
 43692.65567		 305.27265			43387.38302		65.72800		324.00000 
 43692.65567		 952.57479			42740.08088		229.89800		875.00000 
 43692.65567		 305.27265			43387.38302		65.72800		324.00000 
 43692.65567		 952.57479			42740.08088		229.89800		875.00000 
 43692.65567		 305.27265			43387.38302		65.72800		324.00000 
 43692.65567		 952.57479			42740.08088		229.89800		875.00000 
 43692.65567		 305.27265			43387.38302		65.72800		324.00000 
 43692.65567		 952.57479			42740.08088		229.89800		875.00000 
 43692.65567		 305.27265			43387.38302		65.72800		324.00000 
 43692.65567		 952.57479			42740.08088		229.89800		875.00000 
 43692.65567		 305.27265			43387.38302		65.72800		324.00000 
 43692.65567		 952.57479			42740.08088		229.89800		875.00000 
 43692.65567		 305.27265			43387.38302		65.72800		324.00000 
 43692.65567		 952.57479			42740.08088		229.89800		875.00000 
 43692.65567		 305.27265			43387.38302		65.72800		324.00000 
 43692.65567		 952.57479			42740.08088		229.89800		875.00000 
 43692.65567		 305.27265			43387.38302		65.72800		324.00000 
 43692.65567		 952.57479			42740.08088		229.89800		875.00000 
 43692.65567		 305.27265			43387.38302		65.72800		324.00000 
 43692.65567		 952.57479			42740.08088		229.89800		875.00000 
 43692.65567		 305.27265			43387.38302		65.72800		324.00000 
 43692.65567		 952.57479			42740.08088		229.89800		875.00000 
 43692.65567		 305.27265			43387.38302		65.72800		324.00000 
 43692.65567		 952.57479			42740.08088		229.89800		875.00000 
 43692.65567		 305.27265			43387.38302		65.72800		324.00000 
 43692.65567		 952.57479			42740.08088		229.89800		875.00000 
 43692.65567		 305.27265			43387.38302		65.72800		324.00000 
 43692.65567		 952.57479			42740.08088		229.89800		875.00000 
 43692.65567		 305.27265			43387.38302		65.72800		324.00000 
 43692.65567		 952.57479			42740.08088		229.89800		875.00000 
 43692.65567		 305.27265			43387.38302		65.72800		324.00000 
 43692.65567		 952.57479			42740.08088		229.89800		875.00000 
 43692.65567		 305.27265			43387.38302		65.72800		324.00000 
 43692.65567		 952.57479			42740.08088		229.89800		875.00000 
 43692.65567		 305.27265			43387.38302		65.72800		324.00000 
 43692.65567		 952.57479			42740.08088		229.89800		875.00000 
 43692.65567		 305.27265			43387.38302		65.72800		324.00000 
 43692.65567		 952.57479			42740.08088		229.89800		875.00000 
 43692.65567		 305.27265			43387.38302		65.72800		324.00000 
 43692.65567		 952.57479			42740.08088		229.89800		875.00000 
 43692.65567		 305.27265			43387.38302		65.72800		324.00000 
 43692.65567		 952.57479			42740.08088		229.89800		875.00000 
 43692.65567		 305.27265			43387.38302		65.72800		324.00000 
 43692.65567		 952.57479			42740.08088		229.89800		875.00000 
 43692.65567		 305.27265			43387.38302		65.72800		324.00000 
 43692.65567		 952.57479			42740.08088		229.89800		875.00000 
 43692.65567		 305.27265			43387.38302		65.72800		324.00000 
 43692.65567		 952.57479			42740.08088		229.89800		875.00000 
 43692.65567		 305.27265			43387.38302		65.72800		324.00000 
 43692.65567		 952.57479			42740.08088		229.89800		875.00000 
 43692.65567		 305.27265			43387.38302		65.72800		324.00000 
 43692.65567		 952.57479			42740.08088		229.89800		875.00000 
 43692.65567		 305.27265			43387.38302		65.72800		324.00000 
 43692.65567		 952.57479			42740.08088		229.89800		875.00000 
 43692.65567		 305.27265			43387.38302		65.72800		324.00000 
 43692.65567		 952.57479			42740.08088		229.89800		875.00000 
 43692.65567		 305.27265			43387.38302		65.72800		324.00000 
 43692.65567		 952.57479			42740.08088		229.89800		875.00000 
 43692.65567		 305.27265			43387.38302		65.72800		324.00000 
 43692.65567		 952.57479			42740.08088		229.89800		875.00000 
 43692.65567		 305.27265			43387.38302		65.72800		324.00000 
 43692.65567		 952.57479			42740.08088		229.89800		875.00000 
 43692.65567		 305.27265			43387.38302		65.72800		324.00000 
 43692.65567		 952.57479			42740.08088		229.89800		875.00000 
 43692.65567		 305.27265			43387.38302		65.72800		324.00000 
 43692.65567		 952.57479			42740.08088		229.89800		875.00000 
 43692.65567		 305.27265			43387.38302		65.72800		324.00000 
 43692.65567		 952.57479			42740.08088		229.89800		875.00000 
 43692.65567		 305.27265			43387.38302		65.72800		324.00000 
 43692.65567		 952.57479			42740.08088		229.89800		875.00000 
 43692.65567		 305.27265			43387.38302		65.72800		324.00000 
 43692.65567		 952.57479			42740.08088		229.89800		875.00000 
 43692.65567		 305.27265			43387.38302		65.72800		324.00000 
 43692.65567		 952.57479			42740.08088		229.54400		875.00000 
 43692.65567		 305.27265			43387.38302		65.72800		324.00000 
 43692.65567		 952.57479			42740.08088		229.54400		875.00000 
 43692.65567		 305.27265			43387.38302		65.72800		324.00000 
 43692.65567		 952.57479			42740.08088		229.54400		875.00000 
 43692.65567		 305.27265			43387.38302		65.72800		324.00000 
 43692.65567		 952.57479			42740.08088		229.54400		875.00000 
 43692.65567		 305.27265			43387.38302		65.72800		324.00000 
 43692.65567		 952.57479			42740.08088		229.54400		875.00000 
 43692.65567		 305.27265			43387.38302		65.72800		324.00000 
 43692.65567		 952.57479			42740.08088		229.54400		875.00000 
 43692.65567		 305.27265			43387.38302		65.72800		324.00000 
 43692.65567		 952.57479			42740.08088		229.54400		875.00000 
 43692.65567		 305.27265			43387.38302		65.72800		324.00000 
 43692.65567		 952.57479			42740.08088		229.54400		875.00000 
 43692.65567		 305.27265			43387.38302		65.72800		324.00000 
 43692.65567		 952.57479			42740.08088		229.54400		875.00000 
 43692.65567		 305.27265			43387.38302		65.72800		324.00000 
 43692.65567		 952.57479			42740.08088		229.54400		875.00000 
 43692.65567		 305.27265			43387.38302		65.72800		324.00000 
 43692.65567		 952.57479			42740.08088		229.54400		875.00000 
 43692.65567		 305.27265			43387.38302		65.72800		324.00000 
 43692.65567		 952.57479			42740.08088		229.54400		875.00000 
 43692.65567		 305.27265			43387.38302		65.72800		324.00000 
 43692.65567		 952.57479			42740.08088		229.54400		875.00000 
 43692.65567		 305.27265			43387.38302		65.72800		324.00000 
 43692.65567		 952.57479			42740.08088		229.54400		875.00000 
 43692.65567		 305.27265			43387.38302		65.72800		324.00000 
 43692.65567		 952.57479			42740.08088		229.54400		875.00000 
 43692.65567		 305.27265			43387.38302		65.72800		324.00000 
 43692.65567		 952.57479			42740.08088		229.54400		875.00000 
 43692.65567		 305.27265			43387.38302		65.72800		324.00000 
 43692.65567		 952.57479			42740.08088		229.54400		875.00000 
 43692.65567		 305.27265			43387.38302		65.72800		324.00000 
 43692.65567		 952.57479			42740.08088		229.54400		875.00000 
 43692.65567		 305.27265			43387.38302		65.72800		324.00000 
 43692.65567		 952.57479			42740.08088		229.54400		875.00000 
 43692.65567		 305.27265			43387.38302		65.72800		324.00000 
 43692.65567		 952.57479			42740.08088		229.54400		875.00000 
 43692.65567		 305.27265			43387.38302		65.72800		324.00000 
 43692.65567		 952.57479			42740.08088		229.54400		875.00000 
 43692.65567		 305.27265			43387.38302		65.72800		324.00000 
 43692.65567		 952.57479			42740.08088		229.54400		875.00000 
 43692.65567		 305.27265			43387.38302		65.72800		324.00000 
 43692.65567		 952.57479			42740.08088		229.54400		875.00000 
 43692.65567		 305.27265			43387.38302		65.72800		324.00000 
 43692.65567		 952.57479			42740.08088		229.54400		875.00000 
 43692.65567		 305.27265			43387.38302		65.72800		324.00000 
 43692.65567		 952.57479			42740.08088		229.54400		875.00000 
 43692.65567		 305.27265			43387.38302		65.72800		324.00000 
 43692.65567		 952.57479			42740.08088		229.54400		875.00000 
 43692.65567		 305.27265			43387.38302		65.72800		324.00000 
 43692.65567		 952.57479			42740.08088		229.54400		875.00000 
 43692.65567		 305.27265			43387.38302		65.72800		324.00000 
 43692.65567		 952.57479			42740.08088		229.54400		875.00000 
 43692.65567		 305.27265			43387.38302		65.72800		324.00000 
 43692.65567		 952.57479			42740.08088		229.54400		875.00000 
 43692.65567		 305.27265			43387.38302		65.72800		324.00000 
 43692.65567		 952.57479			42740.08088		229.54400		875.00000 
 43692.65567		 305.27265			43387.38302		65.72800		324.00000 
 43692.65567		 952.57479			42740.08088		229.54400		875.00000 
 43692.65567		 305.27265			43387.38302		65.72800		324.00000 
 43692.65567		 952.57479			42740.08088		229.54400		875.00000 
 43692.65567		 305.27265			43387.38302		65.72800		324.00000 
 43692.65567		 952.57479			42740.08088		229.54400		875.00000 
 43692.65567		 305.27265			43387.38302		65.72800		324.00000 
 43692.65567		 952.57479			42740.08088		229.54400		875.00000 
 43692.65567		 305.27265			43387.38302		65.72800		324.00000 
 43692.65567		 952.57479			42740.08088		229.54400		875.00000 
 43692.65567		 305.27265			43387.38302		65.72800		324.00000 
 43692.65567		 952.57479			42740.08088		229.54400		875.00000 
 43692.65567		 305.27265			43387.38302		65.72800		324.00000 
 43692.65567		 952.57479			42740.08088		229.54400		875.00000 
 43692.65567		 305.27265			43387.38302		65.72800		324.00000 
 43692.65567		 952.57479			42740.08088		229.54400		875.00000 
 43692.65567		 305.27265			43387.38302		65.72800		324.00000 
 43692.65567		 952.57479			42740.08088		229.54400		875.00000 
 43692.65567		 305.27265			43387.38302		65.72800		324.00000 
 43692.65567		 952.57479			42740.08088		229.54400		875.00000 
 43692.65567		 305.27265			43387.38302		65.72800		324.00000 
 43692.65567		 952.57479			42740.08088		229.54400		875.00000 
 43692.65567		 305.27265			43387.38302		65.72800		324.00000 
 43692.65567		 952.57479			42740.08088		229.54400		875.00000 
 43692.65567		 305.27265			43387.38302		65.72800		324.00000 
 43692.65567		 952.57479			42740.08088		229.54400		875.00000 
 43692.65567		 305.27265			43387.38302		65.72800		324.00000 
 43692.65567		 952.57479			42740.08088		229.54400		875.00000 
 43692.65567		 305.27265			43387.38302		65.72800		324.00000 
 43692.65567		 952.57479			42740.08088		229.54400		875.00000 
 43692.65567		 305.27265			43387.38302		65.72800		324.00000 
 43692.65567		 952.57479			42740.08088		229.54400		875.00000 
 43692.65567		 305.27265			43387.38302		65.72800		324.00000 
 43692.65567		 952.57479			42740.08088		229.54400		875.00000 
 43692.65567		 305.27265			43387.38302		65.72800		324.00000 
 43692.65567		 952.57479			42740.08088		229.54400		875.00000 
 43692.65567		 305.27265			43387.38302		65.72800		324.00000 
 43692.65567		 952.57479			42740.08088		229.54400		875.00000 
 43692.65567		 305.27265			43387.38302		65.72800		324.00000 
 43692.65567		 952.57479			42740.08088		229.54400		875.00000 
 43692.65567		 305.27265			43387.38302		65.72800		324.00000 
 43692.65567		 952.57479			42740.08088		229.54400		875.00000 
 43692.65567		 305.27265			43387.38302		65.72800		324.00000 
 43692.65567		 952.57479			42740.08088		229.54400		875.00000 
 43692.65567		 305.27265			43387.38302		65.72800		324.00000 
 43692.65567		 952.57479			42740.08088		229.54400		875.00000 
 43692.65567		 305.27265			43387.38302		65.72800		324.00000 
 43692.65567		 952.57479			42740.08088		229.54400		875.00000 
 43692.65567		 305.27265			43387.38302		65.72800		324.00000 
 43692.65567		 952.57479			42740.08088		229.54400		875.00000 
 43692.65567		 305.27265			43387.38302		65.72800		324.00000 
 43692.65567		 952.57479			42740.08088		229.54400		875.00000 
 43692.65567		 305.27265			43387.38302		65.72800		324.00000 
 43692.65567		 952.57479			42740.08088		229.54400		875.00000 
 43692.65567		 305.27265			43387.38302		65.72800		324.00000 
 43692.65567		 952.57479			42740.08088		229.54400		875.00000 
 43692.65567		 305.27265			43387.38302		65.72800		324.00000 
 43692.65567		 952.57479			42740.08088		229.54400		875.00000 
 43692.65567		 305.27265			43387.38302		65.72800		324.00000 
 43692.65567		 952.57479			42740.08088		229.54400		875.00000 
 43692.65567		 305.27265			43387.38302		65.72800		324.00000 
 43692.65567		 952.57479			42740.08088		229.54400		875.00000 
 43692.65567		 305.27265			43387.38302		65.72800		324.00000 
 43692.65567		 952.57479			42740.08088		229.54400		875.00000 
 43692.65567		 305.27265			43387.38302		65.72800		324.00000 
 43692.65567		 952.57479			42740.08088		229.54400		875.00000 
 43692.65567		 305.27265			43387.38302		65.72800		324.00000 
 43692.65567		 952.57479			42740.08088		229.54400		875.00000 
 43692.65567		 305.27265			43387.38302		65.72800		324.00000 
 43692.65567		 952.57479			42740.08088		229.54400		875.00000 
 43692.65567		 305.27265			43387.38302		65.72800		324.00000 
 43692.65567		 952.57479			42740.08088		228.94600		875.00000 
 43692.65567		 305.27265			43387.38302		65.72800		324.00000 
 43692.65567		 952.57479			42740.08088		228.94600		875.00000 
 43692.65567		 305.27265			43387.38302		65.72800		324.00000 
 43692.65567		 952.57479			42740.08088		228.94600		875.00000 
 43692.65567		 305.27265			43387.38302		65.72800		324.00000 
 43692.65567		 952.57479			42740.08088		228.94600		875.00000 
 43692.65567		 305.27265			43387.38302		65.72800		324.00000 
 43692.65567		 952.57479			42740.08088		228.94600		875.00000 
 43692.65567		 305.27265			43387.38302		65.72800		324.00000 
 43692.65567		 952.57479			42740.08088		228.94600		875.00000 
 43692.65567		 305.27265			43387.38302		65.72800		324.00000 
 43692.65567		 952.57479			42740.08088		228.94600		875.00000 
 43692.65567		 305.27265			43387.38302		65.72800		324.00000 
 43692.65567		 952.57479			42740.08088		228.94600		875.00000 
 43692.65567		 305.27265			43387.38302		65.72800		324.00000 
 43692.65567		 952.57479			42740.08088		228.94600		875.00000 
 43692.65567		 305.27265			43387.38302		65.72800		324.00000 
 43692.65567		 952.57479			42740.08088		228.94600		875.00000 
 43692.65567		 305.27265			43387.38302		65.72800		324.00000 
 43692.65567		 952.57479			42740.08088		228.94600		875.00000 
 43692.65567		 305.27265			43387.38302		65.72800		324.00000 
 43692.65567		 952.57479			42740.08088		228.94600		875.00000 
 43692.65567		 305.27265			43387.38302		65.72800		324.00000 
 43692.65567		 952.57479			42740.08088		228.94600		875.00000 
 43692.65567		 305.27265			43387.38302		65.72800		324.00000 
 43692.65567		 952.57479			42740.08088		228.94600		875.00000 
 43692.65567		 305.27265			43387.38302		65.72800		324.00000 
 43692.65567		 952.57479			42740.08088		228.94600		875.00000 
 43692.65567		 305.27265			43387.38302		65.72800		324.00000 
 43692.65567		 952.57479			42740.08088		228.94600		875.00000 
 43692.65567		 305.27265			43387.38302		65.72800		324.00000 
 43692.65567		 952.57479			42740.08088		228.94600		875.00000 
 43692.65567		 305.27265			43387.38302		65.72800		324.00000 
 43692.65567		 952.57479			42740.08088		228.94600		875.00000 
 43692.65567		 305.27265			43387.38302		65.72800		324.00000 
 43692.65567		 952.57479			42740.08088		228.94600		875.00000 
 43692.65567		 305.27265			43387.38302		65.72800		324.00000 
 43692.65567		 952.57479			42740.08088		228.94600		875.00000 
 43692.65567		 305.27265			43387.38302		65.72800		324.00000 
 43692.65567		 952.57479			42740.08088		228.94600		875.00000 
 43692.65567		 305.27265			43387.38302		65.72800		324.00000 
 43692.65567		 952.57479			42740.08088		228.94600		875.00000 
 43692.65567		 305.27265			43387.38302		65.72800		324.00000 
 43692.65567		 952.57479			42740.08088		228.94600		875.00000 
 43692.65567		 305.27265			43387.38302		65.72800		324.00000 
 43692.65567		 952.57479			42740.08088		228.94600		875.00000 
 43692.65567		 305.27265			43387.38302		65.72800		324.00000 
 43692.65567		 952.57479			42740.08088		228.94600		875.00000 
 43692.65567		 305.27265			43387.38302		65.72800		324.00000 
 43692.65567		 952.57479			42740.08088		228.94600		875.00000 
 43692.65567		 305.27265			43387.38302		65.72800		324.00000 
 43692.65567		 952.57479			42740.08088		228.94600		875.00000 
 43692.65567		 305.27265			43387.38302		65.72800		324.00000 
 43692.65567		 952.57479			42740.08088		228.94600		875.00000 
 43692.65567		 305.27265			43387.38302		65.72800		324.00000 
 43692.65567		 952.57479			42740.08088		228.94600		875.00000 
 43692.65567		 305.27265			43387.38302		65.72800		324.00000 
 43692.65567		 952.57479			42740.08088		228.94600		875.00000 
 43692.65567		 305.27265			43387.38302		65.72800		324.00000 
 43692.65567		 952.57479			42740.08088		228.94600		875.00000 
 43692.65567		 305.27265			43387.38302		65.72800		324.00000 
 43692.65567		 952.57479			42740.08088		228.94600		875.00000 
 43692.65567		 305.27265			43387.38302		65.72800		324.00000 
 43692.65567		 952.57479			42740.08088		228.94600		875.00000 
 43692.65567		 305.27265			43387.38302		65.72800		324.00000 
 43692.65567		 952.57479			42740.08088		228.94600		875.00000 
 43692.65567		 305.27265			43387.38302		65.72800		324.00000 
 43692.65567		 952.57479			42740.08088		228.94600		875.00000 
 43692.65567		 305.27265			43387.38302		65.72800		324.00000 
 43692.65567		 952.57479			42740.08088		228.94600		875.00000 
 43692.65567		 305.27265			43387.38302		65.72800		324.00000 
 43692.65567		 952.57479			42740.08088		228.94600		875.00000 
 43692.65567		 305.27265			43387.38302		65.72800		324.00000 
 43692.65567		 952.57479			42740.08088		228.94600		875.00000 
 43692.65567		 305.27265			43387.38302		65.72800		324.00000 
 43692.65567		 952.57479			42740.08088		228.94600		875.00000 
 43692.65567		 305.27265			43387.38302		65.72800		324.00000 
 43692.65567		 952.57479			42740.08088		228.94600		875.00000 
 43692.65567		 305.27265			43387.38302		65.72800		324.00000 
 43692.65567		 952.57479			42740.08088		228.94600		875.00000 
 43692.65567		 305.27265			43387.38302		65.72800		324.00000 
 43692.65567		 952.57479			42740.08088		228.94600		875.00000 
 43692.65567		 305.27265			43387.38302		65.72800		324.00000 
 43692.65567		 952.57479			42740.08088		228.94600		875.00000 
 43692.65567		 305.27265			43387.38302		65.72800		324.00000 
 43692.65567		 952.57479			42740.08088		228.94600		875.00000 
 43692.65567		 305.27265			43387.38302		65.72800		324.00000 
 43692.65567		 952.57479			42740.08088		228.94600		875.00000 
 43692.65567		 305.27265			43387.38302		65.72800		324.00000 
 43692.65567		 952.57479			42740.08088		228.94600		875.00000 
 43692.65567		 305.27265			43387.38302		65.72800		324.00000 
 43692.65567		 952.57479			42740.08088		228.94600		875.00000 
 43692.65567		 305.27265			43387.38302		65.72800		324.00000 
 43692.65567		 952.57479			42740.08088		228.94600		875.00000 
 43692.65567		 305.27265			43387.38302		65.72800		324.00000 
 43692.65567		 952.57479			42740.08088		228.94600		875.00000 
 43692.65567		 305.27265			43387.38302		65.72800		324.00000 
 43692.65567		 952.57479			42740.08088		228.94600		875.00000 
 43692.65567		 305.27265			43387.38302		65.72800		324.00000 
 43692.65567		 952.57479			42740.08088		228.94600		875.00000 
 43692.65567		 305.27265			43387.38302		65.72800		324.00000 
 43692.65567		 952.57479			42740.08088		228.94600		875.00000 
 43692.65567		 305.27265			43387.38302		65.72800		324.00000 
 43692.65567		 952.57479			42740.08088		228.94600		875.00000 
 43692.65567		 305.27265			43387.38302		65.72800		324.00000 
 43692.65567		 952.57479			42740.08088		228.94600		875.00000 
 43692.65567		 305.27265			43387.38302		65.72800		324.00000 
 43692.65567		 952.57479			42740.08088		228.94600		875.00000 
 43692.65567		 305.27265			43387.38302		65.72800		324.00000 
 43692.65567		 952.57479			42740.08088		228.94600		875.00000 
 43692.65567		 305.27265			43387.38302		65.72800		324.00000 
 43692.65567		 952.57479			42740.08088		228.94600		875.00000 
 43692.65567		 305.27265			43387.38302		65.72800		324.00000 
 43692.65567		 952.57479			42740.08088		228.94600		875.00000 
 43692.65567		 305.27265			43387.38302		65.72800		324.00000 
 43692.65567		 952.57479			42740.08088		228.94600		875.00000 
 43692.65567		 305.27265			43387.38302		65.72800		324.00000 
 43692.65567		 952.57479			42740.08088		228.94600		875.00000 
 43692.65567		 305.27265			43387.38302		65.72800		324.00000 
 43692.65567		 952.57479			42740.08088		228.94600		875.00000 
 43692.65567		 305.27265			43387.38302		65.72800		324.00000 
 43692.65567		 952.57479			42740.08088		228.94600		875.00000 
 43692.65567		 305.27265			43387.38302		65.72800		324.00000 
 43692.65567		 952.57479			42740.08088		228.94600		875.00000 
 43692.65567		 305.27265			43387.38302		65.72800		324.00000 
 43692.65567		 952.57479			42740.08088		228.94600		875.00000 
 43692.65567		 305.27265			43387.38302		65.72800		324.00000 
 43692.65567		 952.57479			42740.08088		228.94600		875.00000 
 43692.65567		 305.27265			43387.38302		65.72800		324.00000 
 43692.65567		 952.57479			42740.08088		228.94600		875.00000 
 43692.65567		 305.27265			43387.38302		65.72800		324.00000 
 43692.65567		 952.57479			42740.08088		228.94600		875.00000 
 43692.65567		 305.27265			43387.38302		65.72800		324.00000 
 43692.65567		 952.57479			42740.08088		228.94600		875.00000 
 43692.65567		 305.27265			43387.38302		65.72800		324.00000 
 43692.65567		 952.57479			42740.08088		228.94600		875.00000 
 43692.65567		 305.27265			43387.38302		65.72800		324.00000 
 43692.65567		 952.57479			42740.08088		228.94600		875.00000 
 43692.65567		 305.27265			43387.38302		65.72800		324.00000 
 43692.65567		 952.57479			42740.08088		228.94600		875.00000 
 43692.65567		 305.27265			43387.38302		65.72800		324.00000 
 43692.65567		 952.57479			42740.08088		228.94600		875.00000 
 43692.65567		 305.27265			43387.38302		65.72800		324.00000 
 43692.65567		 952.57479			42740.08088		228.94600		875.00000 
 43692.65567		 305.27265			43387.38302		65.72800		324.00000 
 43692.65567		 952.57479			42740.08088		228.94600		875.00000 
 43692.65567		 305.27265			43387.38302		70.24600		324.00000 
 43692.65567		 952.57479			42740.08088		228.94600		875.00000 
 43692.65567		 305.27265			43387.38302		70.24600		324.00000 
 43692.65567		 952.57479			42740.08088		228.94600		875.00000 
 43692.65567		 305.27265			43387.38302		70.24600		324.00000 
 43692.65567		 952.57479			42740.08088		228.94600		875.00000 
 43692.65567		 305.27265			43387.38302		70.24600		324.00000 
 43692.65567		 952.57479			42740.08088		228.94600		875.00000 
 43692.65567		 305.27265			43387.38302		70.24600		324.00000 
 43692.65567		 952.57479			42740.08088		228.94600		875.00000 
 43692.65567		 305.27265			43387.38302		70.24600		324.00000 
 43692.65567		 952.57479			42740.08088		228.94600		875.00000 
 43692.65567		 305.27265			43387.38302		70.24600		324.00000 
 43692.65567		 952.57479			42740.08088		228.94600		875.00000 
 43692.65567		 305.27265			43387.38302		70.24600		324.00000 
 43692.65567		 952.57479			42740.08088		228.94600		875.00000 
 43692.65567		 305.27265			43387.38302		70.24600		324.00000 
 43692.65567		 952.57479			42740.08088		228.94600		875.00000 
 43692.65567		 305.27265			43387.38302		70.24600		324.00000 
 43692.65567		 952.57479			42740.08088		228.94600		875.00000 
 43692.65567		 305.27265			43387.38302		70.24600		324.00000 
 43692.65567		 952.57479			42740.08088		228.94600		875.00000 
 43692.65567		 305.27265			43387.38302		70.24600		324.00000 
 43692.65567		 952.57479			42740.08088		228.94600		875.00000 
 43692.65567		 305.27265			43387.38302		70.24600		324.00000 
 43692.65567		 952.57479			42740.08088		228.94600		875.00000 
 43692.65567		 305.27265			43387.38302		70.24600		324.00000 
 43692.65567		 952.57479			42740.08088		228.94600		875.00000 
 43692.65567		 305.27265			43387.38302		70.24600		324.00000 
 43692.65567		 952.57479			42740.08088		228.94600		875.00000 
 43692.65567		 305.27265			43387.38302		70.24600		324.00000 
 43692.65567		 952.57479			42740.08088		228.94600		875.00000 
 43692.65567		 305.27265			43387.38302		70.24600		324.00000 
 43692.65567		 952.57479			42740.08088		228.94600		875.00000 
 43692.65567		 305.27265			43387.38302		70.24600		324.00000 
 43692.65567		 952.57479			42740.08088		228.94600		875.00000 
 43692.65567		 305.27265			43387.38302		70.24600		324.00000 
 43692.65567		 952.57479			42740.08088		228.94600		875.00000 
 43692.65567		 305.27265			43387.38302		70.24600		324.00000 
 43692.65567		 952.57479			42740.08088		228.94600		875.00000 
 43692.65567		 305.27265			43387.38302		70.24600		324.00000 
 43692.65567		 952.57479			42740.08088		228.94600		875.00000 
 43692.65567		 305.27265			43387.38302		70.24600		324.00000 
 43692.65567		 952.57479			42740.08088		228.94600		875.00000 
 43692.65567		 305.27265			43387.38302		70.24600		324.00000 
 43692.65567		 952.57479			42740.08088		228.94600		875.00000 
 43692.65567		 305.27265			43387.38302		70.24600		324.00000 
 43692.65567		 952.57479			42740.08088		228.94600		875.00000 
 43692.65567		 305.27265			43387.38302		70.24600		324.00000 
 43692.65567		 952.57479			42740.08088		228.94600		875.00000 
 43692.65567		 305.27265			43387.38302		70.24600		324.00000 
 43692.65567		 952.57479			42740.08088		228.94600		875.00000 
 43692.65567		 305.27265			43387.38302		70.24600		324.00000 
 43692.65567		 952.57479			42740.08088		228.94600		875.00000 
 43692.65567		 305.27265			43387.38302		70.24600		324.00000 
 43692.65567		 952.57479			42740.08088		228.94600		875.00000 
 43692.65567		 305.27265			43387.38302		70.24600		324.00000 
 43692.65567		 952.57479			42740.08088		228.94600		875.00000 
 43692.65567		 305.27265			43387.38302		70.24600		324.00000 
 43692.65567		 952.57479			42740.08088		228.94600		875.00000 
 43692.65567		 305.27265			43387.38302		70.24600		324.00000 
 43692.65567		 952.57479			42740.08088		228.94600		875.00000 
 43692.65567		 305.27265			43387.38302		70.24600		324.00000 
 43692.65567		 952.57479			42740.08088		228.94600		875.00000 
 43692.65567		 305.27265			43387.38302		70.24600		324.00000 
 43692.65567		 952.57479			42740.08088		228.94600		875.00000 
 43692.65567		 305.27265			43387.38302		70.24600		324.00000 
 43692.65567		 952.57479			42740.08088		228.94600		875.00000 
 43692.65567		 305.27265			43387.38302		70.24600		324.00000 
 43692.65567		 952.57479			42740.08088		228.94600		875.00000 
 43692.65567		 305.27265			43387.38302		70.24600		324.00000 
 43692.65567		 952.57479			42740.08088		228.94600		875.00000 
 43692.65567		 305.27265			43387.38302		70.24600		324.00000 
 43692.65567		 952.57479			42740.08088		228.94600		875.00000 
 43692.65567		 305.27265			43387.38302		70.24600		324.00000 
 43692.65567		 952.57479			42740.08088		228.94600		875.00000 
 43692.65567		 305.27265			43387.38302		70.24600		324.00000 
 43692.65567		 952.57479			42740.08088		228.94600		875.00000 
 43692.65567		 305.27265			43387.38302		70.24600		324.00000 
 43692.65567		 952.57479			42740.08088		228.94600		875.00000 
 43692.65567		 305.27265			43387.38302		70.24600		324.00000 
 43692.65567		 952.57479			42740.08088		228.94600		875.00000 
 43692.65567		 305.27265			43387.38302		70.24600		324.00000 
 43692.65567		 952.57479			42740.08088		228.94600		875.00000 
 43692.65567		 305.27265			43387.38302		70.24600		324.00000 
 43692.65567		 952.57479			42740.08088		228.94600		875.00000 
 43692.65567		 305.27265			43387.38302		70.24600		324.00000 
 43692.65567		 952.57479			42740.08088		228.94600		875.00000 
 43692.65567		 305.27265			43387.38302		70.24600		324.00000 
 43692.65567		 952.57479			42740.08088		228.94600		875.00000 
 43692.65567		 305.27265			43387.38302		70.24600		324.00000 
 43692.65567		 952.57479			42740.08088		228.94600		875.00000 
 43692.65567		 305.27265			43387.38302		70.24600		324.00000 
 43692.65567		 952.57479			42740.08088		228.94600		875.00000 
 43692.65567		 305.27265			43387.38302		70.24600		324.00000 
 43692.65567		 952.57479			42740.08088		228.94600		875.00000 
 43692.65567		 305.27265			43387.38302		70.24600		324.00000 
 43692.65567		 952.57479			42740.08088		228.94600		875.00000 
 43692.65567		 305.27265			43387.38302		70.24600		324.00000 
 43692.65567		 952.57479			42740.08088		228.94600		875.00000 
 43692.65567		 305.27265			43387.38302		70.24600		324.00000 
 43692.65567		 952.57479			42740.08088		228.94600		875.00000 
 43692.65567		 305.27265			43387.38302		70.24600		324.00000 
 43692.65567		 952.57479			42740.08088		228.94600		875.00000 
 43692.65567		 305.27265			43387.38302		70.24600		324.00000 
 43692.65567		 952.57479			42740.08088		228.94600		875.00000 
 43692.65567		 305.27265			43387.38302		70.24600		324.00000 
 43692.65567		 952.57479			42740.08088		228.94600		875.00000 
 43692.65567		 305.27265			43387.38302		70.24600		324.00000 
 43692.65567		 952.57479			42740.08088		228.94600		875.00000 
 43692.65567		 305.27265			43387.38302		70.24600		324.00000 
 43692.65567		 952.57479			42740.08088		228.94600		875.00000 
 43692.65567		 305.27265			43387.38302		70.24600		324.00000 
 43692.65567		 952.57479			42740.08088		228.94600		875.00000 
 43692.65567		 305.27265			43387.38302		70.24600		324.00000 
 43692.65567		 952.57479			42740.08088		228.94600		875.00000 
 43692.65567		 305.27265			43387.38302		70.24600		324.00000 
 43692.65567		 952.57479			42740.08088		228.94600		875.00000 
 43692.65567		 305.27265			43387.38302		70.24600		324.00000 
 43692.65567		 952.57479			42740.08088		228.94600		875.00000 
 43692.65567		 305.27265			43387.38302		70.24600		324.00000 
 43692.65567		 952.57479			42740.08088		228.94600		875.00000 
 43692.65567		 305.27265			43387.38302		70.24600		324.00000 
 43692.65567		 952.57479			42740.08088		228.94600		875.00000 
 43692.65567		 305.27265			43387.38302		70.24600		324.00000 
 43692.65567		 952.57479			42740.08088		228.94600		875.00000 
 43692.65567		 305.27265			43387.38302		70.24600		324.00000 
 43692.65567		 952.57479			42740.08088		228.94600		875.00000 
 43692.65567		 305.27265			43387.38302		70.24600		324.00000 
 43692.65567		 952.57479			42740.08088		228.94600		875.00000 
 43692.65567		 305.27265			43387.38302		70.24600		324.00000 
 43692.65567		 952.57479			42740.08088		228.94600		875.00000 
 43692.65567		 305.27265			43387.38302		70.24600		324.00000 
 43692.65567		 952.57479			42740.08088		228.94600		875.00000 
 43692.65567		 305.27265			43387.38302		70.24600		324.00000 
 43692.65567		 952.57479			42740.08088		228.94600		875.00000 
 43692.65567		 305.27265			43387.38302		70.24600		324.00000 
 43692.65567		 952.57479			42740.08088		228.94600		875.00000 
 43692.65567		 305.27265			43387.38302		70.24600		324.00000 
 43692.65567		 952.57479			42740.08088		228.94600		875.00000 
 43692.65567		 305.27265			43387.38302		70.24600		324.00000 
 43692.65567		 952.57479			42740.08088		228.94600		875.00000 
 43692.65567		 305.27265			43387.38302		70.24600		324.00000 
 43692.65567		 952.57479			42740.08088		228.94600		875.00000 
 43692.65567		 305.27265			43387.38302		70.24600		324.00000 
 43692.65567		 952.57479			42740.08088		228.94600		875.00000 
 43692.65567		 305.27265			43387.38302		70.24600		324.00000 
 43692.65567		 952.57479			42740.08088		228.94600		875.00000 
 43692.65567		 305.27265			43387.38302		70.24600		324.00000 
 43692.65567		 952.57479			42740.08088		228.94600		875.00000 
 43692.65567		 305.27265			43387.38302		70.24600		324.00000 
 43692.65567		 952.57479			42740.08088		228.94600		875.00000 
 43692.65567		 305.27265			43387.38302		70.24600		324.00000 
 43692.65567		 952.57479			42740.08088		228.94600		875.00000 
 43692.65567		 305.27265			43387.38302		70.24600		324.00000 
 43692.65567		 952.57479			42740.08088		228.94600		875.00000 
 43692.65567		 305.27265			43387.38302		70.24600		324.00000 
 43692.65567		 952.57479			42740.08088		228.94600		875.00000 
 43692.65567		 305.27265			43387.38302		70.24600		324.00000 
 43692.65567		 952.57479			42740.08088		228.94600		875.00000 
 43692.65567		 305.27265			43387.38302		70.24600		324.00000 
 43692.65567		 952.57479			42740.08088		228.94600		875.00000 
 43692.65567		 305.27265			43387.38302		70.24600		324.00000 
 43692.65567		 952.57479			42740.08088		228.94600		875.00000 
 43692.65567		 305.27265			43387.38302		70.24600		324.00000 
 43692.65567		 952.57479			42740.08088		228.94600		875.00000 
 43692.65567		 305.27265			43387.38302		70.24600		324.00000 
 43692.65567		 952.57479			42740.08088		228.94600		875.00000 
 43692.65567		 305.27265			43387.38302		70.24600		324.00000 
 43692.65567		 952.57479			42740.08088		228.94600		875.00000 
 43692.65567		 305.27265			43387.38302		70.24600		324.00000 
 43692.65567		 952.57479			42740.08088		228.94600		875.00000 
 43692.65567		 305.27265			43387.38302		70.24600		324.00000 
 43692.65567		 952.57479			42740.08088		228.94600		875.00000 
 43692.65567		 305.27265			43387.38302		70.24600		324.00000 
 43692.65567		 952.57479			42740.08088		228.94600		875.00000 
 43692.65567		 305.27265			43387.38302		70.24600		324.00000 
 43692.65567		 952.57479			42740.08088		228.94600		875.00000 
 43692.65567		 305.27265			43387.38302		70.24600		324.00000 
 43692.65567		 952.57479			42740.08088		228.94600		875.00000 
 43692.65567		 305.27265			43387.38302		70.24600		324.00000 
 43692.65567		 952.57479			42740.08088		228.94600		875.00000 
 43692.65567		 305.27265			43387.38302		70.24600		324.00000 
 43692.65567		 952.57479			42740.08088		228.94600		875.00000 
 43692.65567		 305.27265			43387.38302		70.24600		324.00000 
 43692.65567		 952.57479			42740.08088		228.94600		875.00000 
 43692.65567		 305.27265			43387.38302		70.24600		324.00000 
 43692.65567		 952.57479			42740.08088		228.94600		875.00000 
 43692.65567		 305.27265			43387.38302		70.24600		324.00000 
 43692.65567		 952.57479			42740.08088		228.94600		875.00000 
 43692.65567		 305.27265			43387.38302		70.24600		324.00000 
 43692.65567		 952.57479			42740.08088		228.94600		875.00000 
 43692.65567		 305.27265			43387.38302		70.24600		324.00000 
 43692.65567		 952.57479			42740.08088		228.94600		875.00000 
 43692.65567		 305.27265			43387.38302		70.24600		324.00000 
 43692.65567		 952.57479			42740.08088		228.94600		875.00000 
 43692.65567		 305.27265			43387.38302		70.24600		324.00000 
 43692.65567		 952.57479			42740.08088		228.94600		875.00000 
 43692.65567		 305.27265			43387.38302		70.24600		324.00000 
 43692.65567		 952.57479			42740.08088		228.94600		875.00000 
 43692.65567		 305.27265			43387.38302		70.24600		324.00000 
 43692.65567		 952.57479			42740.08088		228.94600		875.00000 
 43692.65567		 305.27265			43387.38302		70.24600		324.00000 
 43692.65567		 952.57479			42740.08088		228.94600		875.00000 
 43692.65567		 305.27265			43387.38302		70.24600		324.00000 
 43692.65567		 952.57479			42740.08088		228.94600		875.00000 
 43692.65567		 305.27265			43387.38302		70.24600		324.00000 
 43692.65567		 952.57479			42740.08088		228.94600		875.00000 
 43692.65567		 305.27265			43387.38302		70.24600		324.00000 
 43692.65567		 952.57479			42740.08088		228.94600		875.00000 
 43692.65567		 305.27265			43387.38302		70.24600		324.00000 
 43692.65567		 952.57479			42740.08088		228.94600		875.00000 
 43692.65567		 305.27265			43387.38302		70.24600		324.00000 
 43692.65567		 952.57479			42740.08088		228.94600		875.00000 
 43692.65567		 305.27265			43387.38302		70.24600		324.00000 
 43692.65567		 952.57479			42740.08088		228.94600		875.00000 
 43692.65567		 305.27265			43387.38302		70.24600		324.00000 
 43692.65567		 952.57479			42740.08088		228.94600		875.00000 
 43692.65567		 305.27265			43387.38302		70.24600		324.00000 
 43692.65567		 952.57479			42740.08088		228.94600		875.00000 
 43692.65567		 305.27265			43387.38302		70.24600		324.00000 
 43692.65567		 952.57479			42740.08088		228.94600		875.00000 
 43692.65567		 305.27265			43387.38302		70.24600		324.00000 
 43692.65567		 952.57479			42740.08088		228.94600		875.00000 
 43692.65567		 305.27265			43387.38302		70.24600		324.00000 
 43692.65567		 952.57479			42740.08088		228.94600		875.00000 
 43692.65567		 305.27265			43387.38302		70.24600		324.00000 
 43692.65567		 952.57479			42740.08088		228.94600		875.00000 
 43692.65567		 305.27265			43387.38302		70.24600		324.00000 
 43692.65567		 952.57479			42740.08088		228.94600		875.00000 
 43692.65567		 305.27265			43387.38302		70.24600		324.00000 
 43692.65567		 952.57479			42740.08088		228.94600		875.00000 
 43692.65567		 305.27265			43387.38302		70.24600		324.00000 
 43692.65567		 952.57479			42740.08088		229.54400		875.00000 
 43692.65567		 305.27265			43387.38302		70.24600		324.00000 
 43692.65567		 952.57479			42740.08088		229.54400		875.00000 
 43692.65567		 305.27265			43387.38302		70.24600		324.00000 
 43692.65567		 952.57479			42740.08088		229.54400		875.00000 
 43692.65567		 305.27265			43387.38302		70.24600		324.00000 
 43692.65567		 952.57479			42740.08088		229.54400		875.00000 
 43692.65567		 305.27265			43387.38302		70.24600		324.00000 
 43692.65567		 952.57479			42740.08088		229.54400		875.00000 
 43692.65567		 305.27265			43387.38302		70.24600		324.00000 
 43692.65567		 952.57479			42740.08088		229.54400		875.00000 
 43692.65567		 305.27265			43387.38302		70.24600		324.00000 
 43692.65567		 952.57479			42740.08088		229.54400		875.00000 
 43692.65567		 305.27265			43387.38302		70.24600		324.00000 
 43692.65567		 952.57479			42740.08088		229.54400		875.00000 
 43692.65567		 305.27265			43387.38302		70.24600		324.00000 
 43692.65567		 952.57479			42740.08088		229.54400		875.00000 
 43692.65567		 305.27265			43387.38302		70.24600		324.00000 
 43692.65567		 952.57479			42740.08088		229.54400		875.00000 
 43692.65567		 305.27265			43387.38302		70.24600		324.00000 
 43692.65567		 952.57479			42740.08088		229.54400		875.00000 
 43692.65567		 305.27265			43387.38302		70.24600		324.00000 
 43692.65567		 952.57479			42740.08088		229.54400		875.00000 
 43692.65567		 305.27265			43387.38302		70.24600		324.00000 
 43692.65567		 952.57479			42740.08088		229.54400		875.00000 
 43692.65567		 305.27265			43387.38302		70.24600		324.00000 
 43692.65567		 952.57479			42740.08088		229.54400		875.00000 
 43692.65567		 305.27265			43387.38302		70.24600		324.00000 
 43692.65567		 952.57479			42740.08088		229.54400		875.00000 
 43692.65567		 305.27265			43387.38302		70.24600		324.00000 
 43692.65567		 952.57479			42740.08088		229.54400		875.00000 
 43692.65567		 305.27265			43387.38302		70.24600		324.00000 
 43692.65567		 952.57479			42740.08088		229.54400		875.00000 
 43692.65567		 305.27265			43387.38302		70.24600		324.00000 
 43692.65567		 952.57479			42740.08088		229.54400		875.00000 
 43692.65567		 305.27265			43387.38302		70.24600		324.00000 
 43692.65567		 952.57479			42740.08088		229.54400		875.00000 
 43692.65567		 305.27265			43387.38302		70.24600		324.00000 
 43692.65567		 952.57479			42740.08088		229.54400		875.00000 
 43692.65567		 305.27265			43387.38302		70.24600		324.00000 
 43692.65567		 952.57479			42740.08088		229.54400		875.00000 
 43692.65567		 305.27265			43387.38302		70.24600		324.00000 
 43692.65567		 952.57479			42740.08088		229.54400		875.00000 
 43692.65567		 305.27265			43387.38302		70.24600		324.00000 
 43692.65567		 952.57479			42740.08088		229.54400		875.00000 
 43692.65567		 305.27265			43387.38302		70.24600		324.00000 
 43692.65567		 952.57479			42740.08088		229.54400		875.00000 
 43692.65567		 305.27265			43387.38302		70.24600		324.00000 
 43692.65567		 952.57479			42740.08088		229.54400		875.00000 
 43692.65567		 305.27265			43387.38302		70.24600		324.00000 
 43692.65567		 952.57479			42740.08088		229.54400		875.00000 
 43692.65567		 305.27265			43387.38302		70.24600		324.00000 
 43692.65567		 952.57479			42740.08088		229.54400		875.00000 
 43692.65567		 305.27265			43387.38302		70.24600		324.00000 
 43692.65567		 952.57479			42740.08088		229.54400		875.00000 
 43692.65567		 305.27265			43387.38302		70.24600		324.00000 
 43692.65567		 952.57479			42740.08088		229.54400		875.00000 
 43692.65567		 305.27265			43387.38302		70.24600		324.00000 
 43692.65567		 952.57479			42740.08088		229.54400		875.00000 
 43692.65567		 305.27265			43387.38302		70.24600		324.00000 
 43692.65567		 952.57479			42740.08088		229.54400		875.00000 
 43692.65567		 305.27265			43387.38302		70.24600		324.00000 
 43692.65567		 952.57479			42740.08088		229.54400		875.00000 
 43692.65567		 305.27265			43387.38302		70.24600		324.00000 
 43692.65567		 952.57479			42740.08088		229.54400		875.00000 
 43692.65567		 305.27265			43387.38302		70.24600		324.00000 
 43692.65567		 952.57479			42740.08088		229.54400		875.00000 
 43692.65567		 305.27265			43387.38302		70.24600		324.00000 
 43692.65567		 952.57479			42740.08088		229.54400		875.00000 
 43692.65567		 305.27265			43387.38302		70.24600		324.00000 
 43692.65567		 952.57479			42740.08088		229.54400		875.00000 
 43692.65567		 305.27265			43387.38302		70.24600		324.00000 
 43692.65567		 952.57479			42740.08088		229.54400		875.00000 
 43692.65567		 305.27265			43387.38302		70.24600		324.00000 
 43692.65567		 952.57479			42740.08088		229.54400		875.00000 
 43692.65567		 305.27265			43387.38302		70.24600		324.00000 
 43692.65567		 952.57479			42740.08088		229.54400		875.00000 
 43692.65567		 305.27265			43387.38302		70.24600		324.00000 
 43692.65567		 952.57479			42740.08088		229.54400		875.00000 
 43692.65567		 305.27265			43387.38302		70.24600		324.00000 
 43692.65567		 952.57479			42740.08088		229.54400		875.00000 
 43692.65567		 305.27265			43387.38302		70.24600		324.00000 
 43692.65567		 952.57479			42740.08088		229.54400		875.00000 
 43692.65567		 305.27265			43387.38302		70.24600		324.00000 
 43692.65567		 952.57479			42740.08088		229.54400		875.00000 
 43692.65567		 305.27265			43387.38302		70.24600		324.00000 
 43692.65567		 952.57479			42740.08088		229.54400		875.00000 
 43692.65567		 305.27265			43387.38302		70.24600		324.00000 
 43692.65567		 952.57479			42740.08088		229.54400		875.00000 
 43692.65567		 305.27265			43387.38302		70.24600		324.00000 
 43692.65567		 952.57479			42740.08088		229.54400		875.00000 
 43692.65567		 305.27265			43387.38302		70.24600		324.00000 
 43692.65567		 952.57479			42740.08088		229.54400		875.00000 
 43692.65567		 305.27265			43387.38302		70.24600		324.00000 
 43692.65567		 952.57479			42740.08088		229.54400		875.00000 
 43692.65567		 305.27265			43387.38302		70.24600		324.00000 
 43692.65567		 952.57479			42740.08088		229.54400		875.00000 
 43692.65567		 305.27265			43387.38302		70.24600		324.00000 
 43692.65567		 952.57479			42740.08088		229.54400		875.00000 
 43692.65567		 305.27265			43387.38302		70.24600		324.00000 
 43692.65567		 952.57479			42740.08088		229.54400		875.00000 
 43692.65567		 305.27265			43387.38302		70.24600		324.00000 
 43692.65567		 952.57479			42740.08088		229.54400		875.00000 
 43692.65567		 305.27265			43387.38302		70.24600		324.00000 
 43692.65567		 952.57479			42740.08088		229.54400		875.00000 
 43692.65567		 305.27265			43387.38302		70.24600		324.00000 
 43692.65567		 952.57479			42740.08088		229.54400		875.00000 
 43692.65567		 305.27265			43387.38302		70.24600		324.00000 
 43692.65567		 952.57479			42740.08088		229.54400		875.00000 
 43692.65567		 305.27265			43387.38302		70.24600		324.00000 
 43692.65567		 952.57479			42740.08088		229.54400		875.00000 
 43692.65567		 305.27265			43387.38302		70.24600		324.00000 
 43692.65567		 952.57479			42740.08088		229.54400		875.00000 
 43692.65567		 305.27265			43387.38302		70.24600		324.00000 
 43692.65567		 952.57479			42740.08088		229.54400		875.00000 
 43692.65567		 305.27265			43387.38302		70.24600		324.00000 
 43692.65567		 952.57479			42740.08088		229.54400		875.00000 
 43692.65567		 305.27265			43387.38302		70.24600		324.00000 
 43692.65567		 952.57479			42740.08088		229.54400		875.00000 
 43692.65567		 305.27265			43387.38302		70.24600		324.00000 
 43692.65567		 952.57479			42740.08088		229.54400		875.00000 
 43692.65567		 305.27265			43387.38302		70.24600		324.00000 
 43692.65567		 952.57479			42740.08088		229.54400		875.00000 
 43692.65567		 305.27265			43387.38302		70.24600		324.00000 
 43692.65567		 952.57479			42740.08088		229.54400		875.00000 
 43692.65567		 305.27265			43387.38302		70.24600		324.00000 
 43692.65567		 952.57479			42740.08088		229.54400		875.00000 
 43692.65567		 305.27265			43387.38302		70.24600		324.00000 
 43692.65567		 952.57479			42740.08088		229.54400		875.00000 
 43692.65567		 305.27265			43387.38302		70.24600		324.00000 
 43692.65567		 952.57479			42740.08088		229.54400		875.00000 
 43692.65567		 305.27265			43387.38302		70.24600		324.00000 
 43692.65567		 952.57479			42740.08088		229.54400		875.00000 
 43692.65567		 305.27265			43387.38302		70.24600		324.00000 
 43692.65567		 952.57479			42740.08088		229.54400		875.00000 
 43692.65567		 305.27265			43387.38302		70.24600		324.00000 
 43692.65567		 952.57479			42740.08088		229.54400		875.00000 
 43692.65567		 305.27265			43387.38302		70.24600		324.00000 
 43692.65567		 952.57479			42740.08088		229.54400		875.00000 
 43692.65567		 305.27265			43387.38302		70.24600		324.00000 
 43692.65567		 952.57479			42740.08088		229.54400		875.00000 
 43692.65567		 305.27265			43387.38302		70.24600		324.00000 
 43692.65567		 952.57479			42740.08088		229.54400		875.00000 
 43692.65567		 305.27265			43387.38302		70.24600		324.00000 
 43692.65567		 952.57479			42740.08088		229.54400		875.00000 
 43692.65567		 305.27265			43387.38302		70.24600		324.00000 
 43692.65567		 952.57479			42740.08088		229.54400		875.00000 
 43692.65567		 305.27265			43387.38302		70.24600		324.00000 
 43692.65567		 952.57479			42740.08088		229.54400		875.00000 
 43692.65567		 305.27265			43387.38302		70.24600		324.00000 
 43692.65567		 952.57479			42740.08088		229.54400		875.00000 
 43692.65567		 305.27265			43387.38302		70.24600		324.00000 
 43692.65567		 952.57479			42740.08088		229.54400		875.00000 
 43692.65567		 305.27265			43387.38302		70.24600		324.00000 
 43692.65567		 952.57479			42740.08088		229.54400		875.00000 
 43692.65567		 305.27265			43387.38302		70.24600		324.00000 
 43692.65567		 952.57479			42740.08088		229.54400		875.00000 
 43692.65567		 305.27265			43387.38302		70.24600		324.00000 
 43692.65567		 952.57479			42740.08088		229.54400		875.00000 
 43692.65567		 305.27265			43387.38302		70.24600		324.00000 
 43692.65567		 952.57479			42740.08088		229.54400		875.00000 
 43692.65567		 305.27265			43387.38302		70.24600		324.00000 
 43692.65567		 952.57479			42740.08088		229.54400		875.00000 
 43692.65567		 305.27265			43387.38302		70.24600		324.00000 
 43692.65567		 952.57479			42740.08088		229.54400		875.00000 
 43692.65567		 305.27265			43387.38302		70.24600		324.00000 
 43692.65567		 952.57479			42740.08088		229.54400		875.00000 
 43692.65567		 305.27265			43387.38302		70.24600		324.00000 
 43692.65567		 952.57479			42740.08088		229.54400		875.00000 
 43692.65567		 305.27265			43387.38302		70.24600		324.00000 
 43692.65567		 952.57479			42740.08088		229.54400		875.00000 
 43692.65567		 305.27265			43387.38302		70.24600		324.00000 
 43692.65567		 952.57479			42740.08088		229.54400		875.00000 
 43692.65567		 305.27265			43387.38302		70.24600		324.00000 
 43692.65567		 952.57479			42740.08088		229.54400		875.00000 
 43692.65567		 305.27265			43387.38302		70.24600		324.00000 
 43692.65567		 952.57479			42740.08088		229.54400		875.00000 
 43692.65567		 305.27265			43387.38302		70.24600		324.00000 
 43692.65567		 952.57479			42740.08088		229.54400		875.00000 
 43692.65567		 305.27265			43387.38302		70.24600		324.00000 
 43692.65567		 952.57479			42740.08088		229.54400		875.00000 
 43692.65567		 305.27265			43387.38302		70.24600		324.00000 
 43692.65567		 952.57479			42740.08088		229.54400		875.00000 
 43692.65567		 305.27265			43387.38302		70.24600		324.00000 
 43692.65567		 952.57479			42740.08088		229.54400		875.00000 
 43692.65567		 305.27265			43387.38302		70.24600		324.00000 
 43692.65567		 952.57479			42740.08088		229.54400		875.00000 
 43692.65567		 305.27265			43387.38302		70.24600		324.00000 
 43692.65567		 952.57479			42740.08088		229.54400		875.00000 
 43692.65567		 305.27265			43387.38302		70.24600		324.00000 
 43692.65567		 952.57479			42740.08088		229.54400		875.00000 
 43692.65567		 305.27265			43387.38302		70.24600		324.00000 
 43692.65567		 952.57479			42740.08088		229.54400		875.00000 
 43692.65567		 305.27265			43387.38302		70.24600		324.00000 
 43692.65567		 952.57479			42740.08088		229.54400		875.00000 
 43692.65567		 305.27265			43387.38302		70.24600		324.00000 
 43692.65567		 952.57479			42740.08088		229.54400		875.00000 
 43692.65567		 305.27265			43387.38302		70.24600		324.00000 
 43692.65567		 952.57479			42740.08088		229.54400		875.00000 
 43692.65567		 305.27265			43387.38302		70.24600		324.00000 
 43692.65567		 952.57479			42740.08088		229.54400		875.00000 
 43692.65567		 305.27265			43387.38302		70.24600		324.00000 
 43692.65567		 952.57479			42740.08088		229.54400		875.00000 
 43692.65567		 305.27265			43387.38302		70.24600		324.00000 
 43692.65567		 952.57479			42740.08088		229.54400		875.00000 
 43692.65567		 305.27265			43387.38302		70.24600		324.00000 
 43692.65567		 952.57479			42740.08088		229.54400		875.00000 
 43692.65567		 305.27265			43387.38302		70.24600		324.00000 
 43692.65567		 952.57479			42740.08088		229.54400		875.00000 
 43692.65567		 305.27265			43387.38302		70.24600		324.00000 
 43692.65567		 952.57479			42740.08088		229.54400		875.00000 
 43692.65567		 305.27265			43387.38302		70.24600		324.00000 
 43692.65567		 952.57479			42740.08088		229.54400		875.00000 
 43692.65567		 305.27265			43387.38302		70.24600		324.00000 
 43692.65567		 952.57479			42740.08088		229.54400		875.00000 
 43692.65567		 305.27265			43387.38302		70.24600		324.00000 
 43692.65567		 952.57479			42740.08088		229.54400		875.00000 
 43692.65567		 305.27265			43387.38302		70.24600		324.00000 
 43692.65567		 952.57479			42740.08088		229.54400		875.00000 
 43692.65567		 305.27265			43387.38302		70.24600		324.00000 
 43692.65567		 952.57479			42740.08088		229.54400		875.00000 
 43692.65567		 305.27265			43387.38302		70.24600		324.00000 
 43692.65567		 952.57479			42740.08088		229.54400		875.00000 
 43692.65567		 305.27265			43387.38302		70.24600		324.00000 
 43692.65567		 952.57479			42740.08088		229.54400		875.00000 
 43692.65567		 305.27265			43387.38302		70.24600		324.00000 
 43692.65567		 952.57479			42740.08088		229.54400		875.00000 
 43692.65567		 305.27265			43387.38302		70.24600		324.00000 
 43692.65567		 952.57479			42740.08088		229.54400		875.00000 
 43692.65567		 305.27265			43387.38302		70.24600		324.00000 
 43692.65567		 952.57479			42740.08088		229.54400		875.00000 
 43692.65567		 305.27265			43387.38302		70.24600		324.00000 
 43692.65567		 952.57479			42740.08088		229.54400		875.00000 
 43692.65567		 305.27265			43387.38302		70.24600		324.00000 
 43692.65567		 952.57479			42740.08088		229.54400		875.00000 
 43692.65567		 305.27265			43387.38302		70.24600		324.00000 
 43692.65567		 952.57479			42740.08088		229.54400		875.00000 
 43692.65567		 305.27265			43387.38302		70.24600		324.00000 
 43692.65567		 952.57479			42740.08088		229.54400		875.00000 
 43692.65567		 305.27265			43387.38302		70.24600		324.00000 
 43692.65567		 952.57479			42740.08088		229.54400		875.00000 
 43692.65567		 305.27265			43387.38302		70.24600		324.00000 
 43692.65567		 952.57479			42740.08088		229.54400		875.00000 
 43692.65567		 305.27265			43387.38302		70.24600		324.00000 
 43692.65567		 952.57479			42740.08088		229.54400		875.00000 
 43692.65567		 305.27265			43387.38302		70.24600		324.00000 
 43692.65567		 952.57479			42740.08088		229.54400		875.00000 
 43692.65567		 305.27265			43387.38302		70.24600		324.00000 
 43692.65567		 952.57479			42740.08088		229.54400		875.00000 
 43692.65567		 305.27265			43387.38302		70.24600		324.00000 
 43692.65567		 952.57479			42740.08088		229.54400		875.00000 
 43692.65567		 305.27265			43387.38302		70.24600		324.00000 
 43692.65567		 952.57479			42740.08088		229.54400		875.00000 
 43692.65567		 305.27265			43387.38302		70.24600		324.00000 
 43692.65567		 952.57479			42740.08088		229.54400		875.00000 
 43692.65567		 305.27265			43387.38302		70.24600		324.00000 
 43692.65567		 952.57479			42740.08088		229.54400		875.00000 
 43692.65567		 305.27265			43387.38302		70.24600		324.00000 
 43692.65567		 952.57479			42740.08088		229.54400		875.00000 
 43692.65567		 305.27265			43387.38302		70.24600		324.00000 
 43692.65567		 952.57479			42740.08088		229.54400		875.00000 
 43692.65567		 305.27265			43387.38302		70.24600		324.00000 
 43692.65567		 952.57479			42740.08088		229.54400		875.00000 
 43692.65567		 305.27265			43387.38302		70.24600		324.00000 
 43692.65567		 952.57479			42740.08088		229.54400		875.00000 
 43692.65567		 305.27265			43387.38302		70.24600		324.00000 
 43692.65567		 952.57479			42740.08088		229.54400		875.00000 
 43692.65567		 305.27265			43387.38302		70.24600		324.00000 
 43692.65567		 952.57479			42740.08088		229.54400		875.00000 
 43692.65567		 305.27265			43387.38302		70.24600		324.00000 
 43692.65567		 952.57479			42740.08088		229.54400		875.00000 
 43692.65567		 305.27265			43387.38302		70.24600		324.00000 
 43692.65567		 952.57479			42740.08088		229.54400		875.00000 
 43692.65567		 305.27265			43387.38302		70.24600		324.00000 
 43692.65567		 952.57479			42740.08088		229.54400		875.00000 
 43692.65567		 305.27265			43387.38302		70.24600		324.00000 
 43692.65567		 952.57479			42740.08088		229.54400		875.00000 
 43692.65567		 305.27265			43387.38302		70.24600		324.00000 
 43692.65567		 952.57479			42740.08088		229.54400		875.00000 
 43692.65567		 305.27265			43387.38302		70.24600		324.00000 
 43692.65567		 952.57479			42740.08088		229.54400		875.00000 
 43692.65567		 305.27265			43387.38302		70.24600		324.00000 
 43692.65567		 952.57479			42740.08088		229.54400		875.00000 
 43692.65567		 305.27265			43387.38302		70.24600		324.00000 
 43692.65567		 952.57479			42740.08088		229.54400		875.00000 
 43692.65567		 305.27265			43387.38302		70.24600		324.00000 
 43692.65567		 952.57479			42740.08088		229.54400		875.00000 
 43692.65567		 305.27265			43387.38302		70.24600		324.00000 
 43692.65567		 952.57479			42740.08088		229.54400		875.00000 
 43692.65567		 305.27265			43387.38302		70.24600		324.00000 
 43692.65567		 952.57479			42740.08088		229.54400		875.00000 
 43692.65567		 305.27265			43387.38302		70.24600		324.00000 
 43692.65567		 952.57479			42740.08088		229.54400		875.00000 
 43692.65567		 305.27265			43387.38302		70.24600		324.00000 
 43692.65567		 952.57479			42740.08088		229.54400		875.00000 
 43692.65567		 305.27265			43387.38302		70.24600		324.00000 
 43692.65567		 952.57479			42740.08088		229.54400		875.00000 
 43692.65567		 305.27265			43387.38302		70.24600		324.00000 
 43692.65567		 952.57479			42740.08088		229.54400		875.00000 
 43692.65567		 305.27265			43387.38302		70.24600		324.00000 
 43692.65567		 952.57479			42740.08088		229.54400		875.00000 
 43692.65567		 305.27265			43387.38302		70.24600		324.00000 
 43692.65567		 952.57479			42740.08088		229.54400		875.00000 
 43692.65567		 305.27265			43387.38302		70.24600		324.00000 
 43692.65567		 952.57479			42740.08088		229.54400		875.00000 
 43692.65567		 305.27265			43387.38302		70.24600		324.00000 
 43692.65567		 952.57479			42740.08088		229.54400		875.00000 
 43692.65567		 305.27265			43387.38302		70.24600		324.00000 
 43692.65567		 952.57479			42740.08088		229.54400		875.00000 
 43692.65567		 305.27265			43387.38302		70.24600		324.00000 
 43692.65567		 952.57479			42740.08088		229.54400		875.00000 
 43692.65567		 305.27265			43387.38302		70.24600		324.00000 
 43692.65567		 952.57479			42740.08088		229.54400		875.00000 
 43692.65567		 305.27265			43387.38302		70.24600		324.00000 
 43692.65567		 952.57479			42740.08088		229.54400		875.00000 
 43692.65567		 305.27265			43387.38302		70.24600		324.00000 
 43692.65567		 952.57479			42740.08088		229.54400		875.00000 
 43692.65567		 305.27265			43387.38302		70.24600		324.00000 
 43692.65567		 952.57479			42740.08088		229.54400		875.00000 
 43692.65567		 305.27265			43387.38302		70.24600		324.00000 
 43692.65567		 952.57479			42740.08088		229.54400		875.00000 
 43692.65567		 305.27265			43387.38302		70.24600		324.00000 
 43692.65567		 952.57479			42740.08088		229.54400		875.00000 
 43692.65567		 305.27265			43387.38302		70.24600		324.00000 
 43692.65567		 952.57479			42740.08088		229.54400		875.00000 
 43692.65567		 305.27265			43387.38302		70.24600		324.00000 
 43692.65567		 952.57479			42740.08088		229.54400		875.00000 
 43692.65567		 305.27265			43387.38302		70.24600		324.00000 
 43692.65567		 952.57479			42740.08088		229.54400		875.00000 
 43692.65567		 305.27265			43387.38302		70.24600		324.00000 
 43692.65567		 952.57479			42740.08088		229.54400		875.00000 
 43692.65567		 305.27265			43387.38302		70.24600		324.00000 
 43692.65567		 952.57479			42740.08088		229.54400		875.00000 
 43692.65567		 305.27265			43387.38302		70.24600		324.00000 
 43692.65567		 952.57479			42740.08088		229.54400		875.00000 
 43692.65567		 305.27265			43387.38302		70.24600		324.00000 
 43692.65567		 952.57479			42740.08088		229.54400		875.00000 
 43692.65567		 305.27265			43387.38302		70.24600		324.00000 
 43692.65567		 952.57479			42740.08088		229.54400		875.00000 
 43692.65567		 305.27265			43387.38302		70.24600		324.00000 
 43692.65567		 952.57479			42740.08088		229.54400		875.00000 
 43692.65567		 305.27265			43387.38302		70.24600		324.00000 
 43692.65567		 952.57479			42740.08088		229.54400		875.00000 
 43692.65567		 305.27265			43387.38302		70.24600		324.00000 
 43692.65567		 952.57479			42740.08088		229.54400		875.00000 
 43692.65567		 305.27265			43387.38302		70.24600		324.00000 
 43692.65567		 952.57479			42740.08088		229.54400		875.00000 
 43692.65567		 305.27265			43387.38302		70.24600		324.00000 
 43692.65567		 952.57479			42740.08088		229.54400		875.00000 
 43692.65567		 305.27265			43387.38302		70.24600		324.00000 
 43692.65567		 952.57479			42740.08088		229.54400		875.00000 
 43692.65567		 305.27265			43387.38302		70.24600		324.00000 
 43692.65567		 952.57479			42740.08088		229.54400		875.00000 
 43692.65567		 305.27265			43387.38302		70.24600		324.00000 
 43692.65567		 952.57479			42740.08088		229.54400		875.00000 
 43692.65567		 305.27265			43387.38302		70.24600		324.00000 
 43692.65567		 952.57479			42740.08088		229.54400		875.00000 
 43692.65567		 305.27265			43387.38302		70.24600		324.00000 
 43692.65567		 952.57479			42740.08088		229.54400		875.00000 
 43692.65567		 305.27265			43387.38302		70.24600		324.00000 
 43692.65567		 952.57479			42740.08088		229.54400		875.00000 
 43692.65567		 305.27265			43387.38302		70.24600		324.00000 
 43692.65567		 952.57479			42740.08088		229.54400		875.00000 
 43692.65567		 305.27265			43387.38302		70.24600		324.00000 
 43692.65567		 952.57479			42740.08088		229.54400		875.00000 
 43692.65567		 305.27265			43387.38302		70.24600		324.00000 
 43692.65567		 952.57479			42740.08088		229.54400		875.00000 
 43692.65567		 305.27265			43387.38302		70.24600		324.00000 
 43692.65567		 952.57479			42740.08088		229.54400		875.00000 
 43692.65567		 305.27265			43387.38302		70.24600		324.00000 
 43692.65567		 952.57479			42740.08088		229.54400		875.00000 
 43692.65567		 305.27265			43387.38302		70.24600		324.00000 
 43692.65567		 952.57479			42740.08088		229.54400		875.00000 
 43692.65567		 305.27265			43387.38302		70.24600		324.00000 
 43692.65567		 952.57479			42740.08088		229.54400		875.00000 
 43692.65567		 305.27265			43387.38302		70.24600		324.00000 
 43692.65567		 952.57479			42740.08088		229.54400		875.00000 
 43692.65567		 305.27265			43387.38302		70.24600		324.00000 
 43692.65567		 952.57479			42740.08088		229.54400		875.00000 
 43692.65567		 305.27265			43387.38302		70.24600		324.00000 
 43692.65567		 952.57479			42740.08088		229.54400		875.00000 
 43692.65567		 305.27265			43387.38302		70.24600		324.00000 
 43692.65567		 952.57479			42740.08088		229.54400		875.00000 
 43692.65567		 305.27265			43387.38302		70.24600		324.00000 
 43692.65567		 952.57479			42740.08088		229.54400		875.00000 
 43692.65567		 305.27265			43387.38302		70.24600		324.00000 
 43692.65567		 952.57479			42740.08088		229.54400		875.00000 
 43692.65567		 305.27265			43387.38302		70.24600		324.00000 
 43692.65567		 952.57479			42740.08088		229.54400		875.00000 
 43692.65567		 305.27265			43387.38302		70.24600		324.00000 
 43692.65567		 952.57479			42740.08088		229.54400		875.00000 
 43692.65567		 305.27265			43387.38302		70.24600		324.00000 
 43692.65567		 952.57479			42740.08088		229.54400		875.00000 
 43692.65567		 305.27265			43387.38302		70.24600		324.00000 
 43692.65567		 952.57479			42740.08088		229.54400		875.00000 
 43692.65567		 305.27265			43387.38302		70.24600		324.00000 
 43692.65567		 952.57479			42740.08088		229.54400		875.00000 
 43692.65567		 305.27265			43387.38302		70.24600		324.00000 
 43692.65567		 952.57479			42740.08088		229.54400		875.00000 
 43692.65567		 305.27265			43387.38302		70.24600		324.00000 
 43692.65567		 952.57479			42740.08088		229.54400		875.00000 
 43692.65567		 305.27265			43387.38302		70.24600		324.00000 
 43692.65567		 952.57479			42740.08088		229.54400		875.00000 
 43692.65567		 305.27265			43387.38302		70.24600		324.00000 
 43692.65567		 952.57479			42740.08088		229.54400		875.00000 
 43692.65567		 305.27265			43387.38302		70.24600		324.00000 
 43692.65567		 952.57479			42740.08088		229.54400		875.00000 
 43692.65567		 305.27265			43387.38302		70.24600		324.00000 
 43692.65567		 952.57479			42740.08088		229.54400		875.00000 
 43692.65567		 305.27265			43387.38302		70.24600		324.00000 
 43692.65567		 952.57479			42740.08088		229.54400		875.00000 
 43692.65567		 305.27265			43387.38302		70.24600		324.00000 
 43692.65567		 952.57479			42740.08088		229.54400		875.00000 
 43692.65567		 305.27265			43387.38302		70.24600		324.00000 
 43692.65567		 952.57479			42740.08088		229.54400		875.00000 
 43692.65567		 305.27265			43387.38302		70.24600		324.00000 
 43692.65567		 952.57479			42740.08088		229.54400		875.00000 
 43692.65567		 305.27265			43387.38302		70.24600		324.00000 
 43692.65567		 952.57479			42740.08088		229.54400		875.00000 
 43692.65567		 305.27265			43387.38302		70.24600		324.00000 
 43692.65567		 952.57479			42740.08088		229.54400		875.00000 
 43692.65567		 305.27265			43387.38302		70.24600		324.00000 
 43692.65567		 952.57479			42740.08088		229.54400		875.00000 
 43692.65567		 305.27265			43387.38302		70.24600		324.00000 
 43692.65567		 952.57479			42740.08088		229.54400		875.00000 
 43692.65567		 305.27265			43387.38302		70.24600		324.00000 
 43692.65567		 952.57479			42740.08088		229.54400		875.00000 
 43692.65567		 305.27265			43387.38302		70.24600		324.00000 
 43692.65567		 952.57479			42740.08088		229.54400		875.00000 
 43692.65567		 305.27265			43387.38302		70.24600		324.00000 
 43692.65567		 952.57479			42740.08088		229.54400		875.00000 
 43692.65567		 305.27265			43387.38302		70.24600		324.00000 
 43692.65567		 952.57479			42740.08088		229.54400		875.00000 
 43692.65567		 305.27265			43387.38302		70.24600		324.00000 
 43692.65567		 952.57479			42740.08088		229.54400		875.00000 
 43692.65567		 305.27265			43387.38302		70.24600		324.00000 
 43692.65567		 952.57479			42740.08088		229.54400		875.00000 
 43692.65567		 305.27265			43387.38302		70.24600		324.00000 
 43692.65567		 952.57479			42740.08088		229.54400		875.00000 
 43692.65567		 305.27265			43387.38302		70.24600		324.00000 
 43692.65567		 952.57479			42740.08088		229.54400		875.00000 
 43692.65567		 305.27265			43387.38302		70.24600		324.00000 
 43692.65567		 952.57479			42740.08088		229.54400		875.00000 
 43692.65567		 305.27265			43387.38302		70.24600		324.00000 
 43692.65567		 952.57479			42740.08088		229.54400		875.00000 
 43692.65567		 305.27265			43387.38302		70.24600		324.00000 
 43692.65567		 952.57479			42740.08088		229.54400		875.00000 
 43692.65567		 305.27265			43387.38302		70.24600		324.00000 
 43692.65567		 952.57479			42740.08088		229.54400		875.00000 
 43692.65567		 305.27265			43387.38302		70.24600		324.00000 
 43692.65567		 952.57479			42740.08088		229.54400		875.00000 
 43692.65567		 305.27265			43387.38302		70.24600		324.00000 
 43692.65567		 952.57479			42740.08088		229.54400		875.00000 
 43692.65567		 305.27265			43387.38302		70.24600		324.00000 
 43692.65567		 952.57479			42740.08088		229.54400		875.00000 
 43692.65567		 305.27265			43387.38302		70.24600		324.00000 
 43692.65567		 952.57479			42740.08088		229.54400		875.00000 
 43692.65567		 305.27265			43387.38302		70.24600		324.00000 
 43692.65567		 952.57479			42740.08088		229.54400		875.00000 
 43692.65567		 305.27265			43387.38302		70.24600		324.00000 
 43692.65567		 952.57479			42740.08088		229.54400		875.00000 
 43692.65567		 305.27265			43387.38302		70.24600		324.00000 
 43692.65567		 952.57479			42740.08088		229.54400		875.00000 
 43692.65567		 305.27265			43387.38302		70.24600		324.00000 
 43692.65567		 952.57479			42740.08088		229.54400		875.00000 
 43692.65567		 305.27265			43387.38302		70.24600		324.00000 
 43692.65567		 952.57479			42740.08088		229.54400		875.00000 
 43692.65567		 305.27265			43387.38302		70.24600		324.00000 
 43692.65567		 952.57479			42740.08088		229.54400		875.00000 
 43692.65567		 305.27265			43387.38302		70.24600		324.00000 
 43692.65567		 952.57479			42740.08088		229.54400		875.00000 
 43692.65567		 305.27265			43387.38302		70.24600		324.00000 
 43692.65567		 952.57479			42740.08088		229.54400		875.00000 
 43692.65567		 305.27265			43387.38302		70.24600		324.00000 
 43692.65567		 952.57479			42740.08088		229.54400		875.00000 
 43692.65567		 305.27265			43387.38302		70.24600		324.00000 
 43692.65567		 952.57479			42740.08088		229.54400		875.00000 
 43692.65567		 305.27265			43387.38302		70.24600		324.00000 
 43692.65567		 952.57479			42740.08088		229.54400		875.00000 
 43692.65567		 305.27265			43387.38302		70.24600		324.00000 
 43692.65567		 952.57479			42740.08088		229.54400		875.00000 
 43692.65567		 305.27265			43387.38302		70.24600		324.00000 
 43692.65567		 952.57479			42740.08088		229.54400		875.00000 
 43692.65567		 305.27265			43387.38302		70.24600		324.00000 
 43692.65567		 952.57479			42740.08088		229.54400		875.00000 
 43692.65567		 305.27265			43387.38302		70.24600		324.00000 
 43692.65567		 952.57479			42740.08088		229.54400		875.00000 
 43692.65567		 305.27265			43387.38302		70.24600		324.00000 
 43692.65567		 952.57479			42740.08088		229.54400		875.00000 
 43692.65567		 305.27265			43387.38302		70.24600		324.00000 
 43692.65567		 952.57479			42740.08088		229.54400		875.00000 
 43692.65567		 305.27265			43387.38302		70.24600		324.00000 
 43692.65567		 952.57479			42740.08088		229.54400		875.00000 
 43692.65567		 305.27265			43387.38302		70.24600		324.00000 
 43692.65567		 952.57479			42740.08088		229.54400		875.00000 
 43692.65567		 305.27265			43387.38302		70.24600		324.00000 
 43692.65567		 952.57479			42740.08088		229.54400		875.00000 
 43692.65567		 305.27265			43387.38302		70.24600		324.00000 
 43692.65567		 952.57479			42740.08088		229.54400		875.00000 
 43692.65567		 305.27265			43387.38302		70.24600		324.00000 
 43692.65567		 952.57479			42740.08088		229.54400		875.00000 
 43692.65567		 305.27265			43387.38302		70.24600		324.00000 
 43692.65567		 952.57479			42740.08088		229.54400		875.00000 
 43692.65567		 305.27265			43387.38302		70.24600		324.00000 
 43692.65567		 952.57479			42740.08088		229.54400		875.00000 
 43692.65567		 305.27265			43387.38302		70.24600		324.00000 
 43692.65567		 952.57479			42740.08088		229.54400		875.00000 
 43692.65567		 305.27265			43387.38302		70.24600		324.00000 
 43692.65567		 952.57479			42740.08088		229.54400		875.00000 
 43692.65567		 305.27265			43387.38302		70.24600		324.00000 
 43692.65567		 952.57479			42740.08088		229.54400		875.00000 
 43692.65567		 305.27265			43387.38302		70.24600		324.00000 
 43692.65567		 952.57479			42740.08088		229.54400		875.00000 
 43692.65567		 305.27265			43387.38302		70.24600		324.00000 
 43692.65567		 952.57479			42740.08088		229.54400		875.00000 
 43692.65567		 305.27265			43387.38302		70.24600		324.00000 
 43692.65567		 952.57479			42740.08088		229.54400		875.00000 
 43692.65567		 305.27265			43387.38302		70.24600		324.00000 
 43692.65567		 952.57479			42740.08088		229.54400		875.00000 
 43692.65567		 305.27265			43387.38302		70.24600		324.00000 
 43692.65567		 952.57479			42740.08088		229.54400		875.00000 
 43692.65567		 305.27265			43387.38302		70.24600		324.00000 
 43692.65567		 952.57479			42740.08088		229.54400		875.00000 
 43692.65567		 305.27265			43387.38302		70.24600		324.00000 
 43692.65567		 952.57479			42740.08088		229.54400		875.00000 
 43692.65567		 305.27265			43387.38302		70.24600		324.00000 
 43692.65567		 952.57479			42740.08088		229.54400		875.00000 
 43692.65567		 305.27265			43387.38302		70.24600		324.00000 
 43692.65567		 952.57479			42740.08088		228.94600		875.00000 
 43692.65567		 305.27265			43387.38302		70.24600		324.00000 
 43692.65567		 952.57479			42740.08088		228.94600		875.00000 
 43692.65567		 305.27265			43387.38302		70.24600		324.00000 
 43692.65567		 952.57479			42740.08088		228.94600		875.00000 
 43692.65567		 305.27265			43387.38302		70.24600		324.00000 
 43692.65567		 952.57479			42740.08088		228.94600		875.00000 
 43692.65567		 305.27265			43387.38302		70.24600		324.00000 
 43692.65567		 952.57479			42740.08088		228.94600		875.00000 
 43692.65567		 305.27265			43387.38302		70.24600		324.00000 
 43692.65567		 952.57479			42740.08088		228.94600		875.00000 
 43692.65567		 305.27265			43387.38302		70.24600		324.00000 
 43692.65567		 952.57479			42740.08088		228.94600		875.00000 
 43692.65567		 305.27265			43387.38302		70.24600		324.00000 
 43692.65567		 952.57479			42740.08088		228.94600		875.00000 
 43692.65567		 305.27265			43387.38302		70.24600		324.00000 
 43692.65567		 952.57479			42740.08088		228.94600		875.00000 
 43692.65567		 305.27265			43387.38302		70.24600		324.00000 
 43692.65567		 952.57479			42740.08088		228.94600		875.00000 
 43692.65567		 305.27265			43387.38302		70.24600		324.00000 
 43692.65567		 952.57479			42740.08088		228.94600		875.00000 
 43692.65567		 305.27265			43387.38302		70.24600		324.00000 
 43692.65567		 952.57479			42740.08088		228.94600		875.00000 
 43692.65567		 305.27265			43387.38302		70.24600		324.00000 
 43692.65567		 952.57479			42740.08088		228.94600		875.00000 
 43692.65567		 305.27265			43387.38302		70.24600		324.00000 
 43692.65567		 952.57479			42740.08088		228.94600		875.00000 
 43692.65567		 305.27265			43387.38302		70.24600		324.00000 
 43692.65567		 952.57479			42740.08088		228.94600		875.00000 
 43692.65567		 305.27265			43387.38302		70.24600		324.00000 
 43692.65567		 952.57479			42740.08088		228.94600		875.00000 
 43692.65567		 305.27265			43387.38302		70.24600		324.00000 
 43692.65567		 952.57479			42740.08088		228.94600		875.00000 
 43692.65567		 305.27265			43387.38302		70.24600		324.00000 
 43692.65567		 952.57479			42740.08088		228.94600		875.00000 
 43692.65567		 305.27265			43387.38302		70.24600		324.00000 
 43692.65567		 952.57479			42740.08088		228.94600		875.00000 
 43692.65567		 305.27265			43387.38302		70.24600		324.00000 
 43692.65567		 952.57479			42740.08088		228.94600		875.00000 
 43692.65567		 305.27265			43387.38302		70.24600		324.00000 
 43692.65567		 952.57479			42740.08088		228.94600		875.00000 
 43692.65567		 305.27265			43387.38302		70.24600		324.00000 
 43692.65567		 952.57479			42740.08088		228.94600		875.00000 
 43692.65567		 305.27265			43387.38302		70.24600		324.00000 
 43692.65567		 952.57479			42740.08088		228.94600		875.00000 
 43692.65567		 305.27265			43387.38302		70.24600		324.00000 
 43692.65567		 952.57479			42740.08088		228.94600		875.00000 
 43692.65567		 305.27265			43387.38302		70.24600		324.00000 
 43692.65567		 952.57479			42740.08088		228.94600		875.00000 
 43692.65567		 305.27265			43387.38302		70.24600		324.00000 
 43692.65567		 952.57479			42740.08088		228.94600		875.00000 
 43692.65567		 305.27265			43387.38302		70.24600		324.00000 
 43692.65567		 952.57479			42740.08088		228.94600		875.00000 
 43692.65567		 305.27265			43387.38302		70.24600		324.00000 
 43692.65567		 952.57479			42740.08088		228.94600		875.00000 
 43692.65567		 305.27265			43387.38302		70.24600		324.00000 
 43692.65567		 952.57479			42740.08088		228.94600		875.00000 
 43692.65567		 305.27265			43387.38302		70.24600		324.00000 
 43692.65567		 952.57479			42740.08088		228.94600		875.00000 
 43692.65567		 305.27265			43387.38302		70.24600		324.00000 
 43692.65567		 952.57479			42740.08088		228.94600		875.00000 
 43692.65567		 305.27265			43387.38302		70.24600		324.00000 
 43692.65567		 952.57479			42740.08088		228.94600		875.00000 
 43692.65567		 305.27265			43387.38302		70.24600		324.00000 
 43692.65567		 952.57479			42740.08088		228.94600		875.00000 
 43692.65567		 305.27265			43387.38302		70.24600		324.00000 
 43692.65567		 952.57479			42740.08088		228.94600		875.00000 
 43692.65567		 305.27265			43387.38302		70.24600		324.00000 
 43692.65567		 952.57479			42740.08088		228.94600		875.00000 
 43692.65567		 305.27265			43387.38302		70.24600		324.00000 
 43692.65567		 952.57479			42740.08088		228.94600		875.00000 
 43692.65567		 305.27265			43387.38302		70.24600		324.00000 
 43692.65567		 952.57479			42740.08088		228.94600		875.00000 
 43692.65567		 305.27265			43387.38302		70.24600		324.00000 
 43692.65567		 952.57479			42740.08088		228.94600		875.00000 
 43692.65567		 305.27265			43387.38302		70.24600		324.00000 
 43692.65567		 952.57479			42740.08088		228.94600		875.00000 
 43692.65567		 305.27265			43387.38302		70.24600		324.00000 
 43692.65567		 952.57479			42740.08088		228.94600		875.00000 
 43692.65567		 305.27265			43387.38302		70.24600		324.00000 
 43692.65567		 952.57479			42740.08088		228.94600		875.00000 
 43692.65567		 305.27265			43387.38302		70.24600		324.00000 
 43692.65567		 952.57479			42740.08088		228.94600		875.00000 
 43692.65567		 305.27265			43387.38302		70.24600		324.00000 
 43692.65567		 952.57479			42740.08088		228.94600		875.00000 
 43692.65567		 305.27265			43387.38302		70.24600		324.00000 
 43692.65567		 952.57479			42740.08088		228.94600		875.00000 
 43692.65567		 305.27265			43387.38302		70.24600		324.00000 
 43692.65567		 952.57479			42740.08088		228.94600		875.00000 
 43692.65567		 305.27265			43387.38302		70.24600		324.00000 
 43692.65567		 952.57479			42740.08088		228.94600		875.00000 
 43692.65567		 305.27265			43387.38302		70.24600		324.00000 
 43692.65567		 952.57479			42740.08088		228.94600		875.00000 
 43692.65567		 305.27265			43387.38302		70.24600		324.00000 
 43692.65567		 952.57479			42740.08088		228.94600		875.00000 
 43692.65567		 305.27265			43387.38302		70.24600		324.00000 
 43692.65567		 952.57479			42740.08088		228.94600		875.00000 
 43692.65567		 305.27265			43387.38302		70.24600		324.00000 
 43692.65567		 952.57479			42740.08088		228.94600		875.00000 
 43692.65567		 305.27265			43387.38302		70.24600		324.00000 
 43692.65567		 952.57479			42740.08088		228.94600		875.00000 
 43692.65567		 305.27265			43387.38302		70.24600		324.00000 
 43692.65567		 952.57479			42740.08088		228.94600		875.00000 
 43692.65567		 305.27265			43387.38302		70.24600		324.00000 
 43692.65567		 952.57479			42740.08088		228.94600		875.00000 
 43692.65567		 305.27265			43387.38302		70.24600		324.00000 
 43692.65567		 952.57479			42740.08088		228.94600		875.00000 
 43692.65567		 305.27265			43387.38302		70.24600		324.00000 
 43692.65567		 952.57479			42740.08088		228.94600		875.00000 
 43692.65567		 305.27265			43387.38302		70.24600		324.00000 
 43692.65567		 952.57479			42740.08088		228.94600		875.00000 
 43692.65567		 305.27265			43387.38302		70.24600		324.00000 
 43692.65567		 952.57479			42740.08088		228.94600		875.00000 
 43692.65567		 305.27265			43387.38302		70.24600		324.00000 
 43692.65567		 952.57479			42740.08088		228.94600		875.00000 
 43692.65567		 305.27265			43387.38302		70.24600		324.00000 
 43692.65567		 952.57479			42740.08088		228.94600		875.00000 
 43692.65567		 305.27265			43387.38302		70.24600		324.00000 
 43692.65567		 952.57479			42740.08088		228.94600		875.00000 
 43692.65567		 305.27265			43387.38302		70.24600		324.00000 
 43692.65567		 952.57479			42740.08088		228.94600		875.00000 
 43692.65567		 305.27265			43387.38302		70.24600		324.00000 
 43692.65567		 952.57479			42740.08088		228.94600		875.00000 
 43692.65567		 305.27265			43387.38302		70.24600		324.00000 
 43692.65567		 952.57479			42740.08088		228.94600		875.00000 
 43692.65567		 305.27265			43387.38302		70.24600		324.00000 
 43692.65567		 952.57479			42740.08088		228.94600		875.00000 
 43692.65567		 305.27265			43387.38302		70.24600		324.00000 
 43692.65567		 952.57479			42740.08088		228.94600		875.00000 
 43692.65567		 305.27265			43387.38302		70.24600		324.00000 
 43692.65567		 952.57479			42740.08088		228.94600		875.00000 
 43692.65567		 305.27265			43387.38302		70.24600		324.00000 
 43692.65567		 952.57479			42740.08088		228.94600		875.00000 
 43692.65567		 305.27265			43387.38302		70.24600		324.00000 
 43692.65567		 952.57479			42740.08088		228.94600		875.00000 
 43692.65567		 305.27265			43387.38302		70.24600		324.00000 
 43692.65567		 952.57479			42740.08088		228.94600		875.00000 
 43692.65567		 305.27265			43387.38302		70.24600		324.00000 
 43692.65567		 952.57479			42740.08088		228.94600		875.00000 
 43692.65567		 305.27265			43387.38302		70.24600		324.00000 
 43692.65567		 952.57479			42740.08088		228.94600		875.00000 
 43692.65567		 305.27265			43387.38302		70.24600		324.00000 
 43692.65567		 952.57479			42740.08088		228.94600		875.00000 
 43692.65567		 305.27265			43387.38302		70.24600		324.00000 
 43692.65567		 952.57479			42740.08088		228.94600		875.00000 
 43692.65567		 305.27265			43387.38302		70.24600		324.00000 
 43692.65567		 952.57479			42740.08088		228.94600		875.00000 
 43692.65567		 305.27265			43387.38302		70.24600		324.00000 
 43692.65567		 952.57479			42740.08088		228.94600		875.00000 
 43692.65567		 305.27265			43387.38302		70.24600		324.00000 
 43692.65567		 952.57479			42740.08088		228.94600		875.00000 
 43692.65567		 305.27265			43387.38302		70.24600		324.00000 
 43692.65567		 952.57479			42740.08088		228.94600		875.00000 
 43692.65567		 305.27265			43387.38302		70.24600		324.00000 
 43692.65567		 952.57479			42740.08088		228.94600		875.00000 
 43692.65567		 305.27265			43387.38302		70.24600		324.00000 
 43692.65567		 952.57479			42740.08088		228.94600		875.00000 
 43692.65567		 305.27265			43387.38302		70.24600		324.00000 
 43692.65567		 952.57479			42740.08088		228.94600		875.00000 
 43692.65567		 305.27265			43387.38302		70.24600		324.00000 
 43692.65567		 952.57479			42740.08088		228.94600		875.00000 
 43692.65567		 305.27265			43387.38302		70.24600		324.00000 
 43692.65567		 952.57479			42740.08088		228.94600		875.00000 
 43692.65567		 305.27265			43387.38302		70.24600		324.00000 
 43692.65567		 952.57479			42740.08088		228.94600		875.00000 
 43692.65567		 305.27265			43387.38302		70.24600		324.00000 
 43692.65567		 952.57479			42740.08088		228.94600		875.00000 
 43692.65567		 305.27265			43387.38302		70.24600		324.00000 
 43692.65567		 952.57479			42740.08088		228.94600		875.00000 
 43692.65567		 305.27265			43387.38302		70.24600		324.00000 
 43692.65567		 952.57479			42740.08088		228.94600		875.00000 
 43692.65567		 305.27265			43387.38302		70.24600		324.00000 
 43692.65567		 952.57479			42740.08088		228.94600		875.00000 
 43692.65567		 305.27265			43387.38302		70.24600		324.00000 
 43692.65567		 952.57479			42740.08088		228.94600		875.00000 
 43692.65567		 305.27265			43387.38302		70.24600		324.00000 
 43692.65567		 952.57479			42740.08088		228.94600		875.00000 
 43692.65567		 305.27265			43387.38302		70.24600		324.00000 
 43692.65567		 952.57479			42740.08088		228.94600		875.00000 
 43692.65567		 305.27265			43387.38302		70.24600		324.00000 
 43692.65567		 952.57479			42740.08088		228.94600		875.00000 
 43692.65567		 305.27265			43387.38302		70.24600		324.00000 
 43692.65567		 952.57479			42740.08088		228.94600		875.00000 
 43692.65567		 305.27265			43387.38302		70.24600		324.00000 
 43692.65567		 952.57479			42740.08088		228.94600		875.00000 
 43692.65567		 305.27265			43387.38302		70.24600		324.00000 
 43692.65567		 952.57479			42740.08088		228.94600		875.00000 
 43692.65567		 305.27265			43387.38302		70.24600		324.00000 
 43692.65567		 952.57479			42740.08088		228.94600		875.00000 
 43692.65567		 305.27265			43387.38302		70.24600		324.00000 
 43692.65567		 952.57479			42740.08088		228.94600		875.00000 
 43692.65567		 305.27265			43387.38302		70.24600		324.00000 
 43692.65567		 952.57479			42740.08088		228.94600		875.00000 
 43692.65567		 305.27265			43387.38302		70.24600		324.00000 
 43692.65567		 952.57479			42740.08088		228.94600		875.00000 
 43692.65567		 305.27265			43387.38302		70.24600		324.00000 
 43692.65567		 952.57479			42740.08088		228.94600		875.00000 
 43692.65567		 305.27265			43387.38302		70.24600		324.00000 
 43692.65567		 952.57479			42740.08088		228.94600		875.00000 
 43692.65567		 305.27265			43387.38302		70.24600		324.00000 
 43692.65567		 952.57479			42740.08088		228.94600		875.00000 
 43692.65567		 305.27265			43387.38302		70.24600		324.00000 
 43692.65567		 952.57479			42740.08088		228.94600		875.00000 
 43692.65567		 305.27265			43387.38302		70.24600		324.00000 
 43692.65567		 952.57479			42740.08088		228.94600		875.00000 
 43692.65567		 305.27265			43387.38302		70.24600		324.00000 
 43692.65567		 952.57479			42740.08088		228.94600		875.00000 
 43692.65567		 305.27265			43387.38302		70.24600		324.00000 
 43692.65567		 952.57479			42740.08088		228.94600		875.00000 
 43692.65567		 305.27265			43387.38302		70.24600		324.00000 
 43692.65567		 952.57479			42740.08088		228.94600		875.00000 
 43692.65567		 305.27265			43387.38302		70.24600		324.00000 
 43692.65567		 952.57479			42740.08088		228.94600		875.00000 
 43692.65567		 305.27265			43387.38302		70.24600		324.00000 
 43692.65567		 952.57479			42740.08088		228.94600		875.00000 
 43692.65567		 305.27265			43387.38302		70.24600		324.00000 
 43692.65567		 952.57479			42740.08088		228.94600		875.00000 
 43692.65567		 305.27265			43387.38302		70.24600		324.00000 
 43692.65567		 952.57479			42740.08088		228.94600		875.00000 
 43692.65567		 305.27265			43387.38302		70.24600		324.00000 
 43692.65567		 952.57479			42740.08088		228.94600		875.00000 
 43692.65567		 305.27265			43387.38302		70.24600		324.00000 
 43692.65567		 952.57479			42740.08088		228.94600		875.00000 
 43692.65567		 305.27265			43387.38302		70.24600		324.00000 
 43692.65567		 952.57479			42740.08088		228.94600		875.00000 
 43692.65567		 305.27265			43387.38302		70.24600		324.00000 
 43692.65567		 952.57479			42740.08088		228.94600		875.00000 
 43692.65567		 305.27265			43387.38302		70.24600		324.00000 
 43692.65567		 952.57479			42740.08088		228.94600		875.00000 
 43692.65567		 305.27265			43387.38302		70.24600		324.00000 
 43692.65567		 952.57479			42740.08088		228.94600		875.00000 
 43692.65567		 305.27265			43387.38302		70.24600		324.00000 
 43692.65567		 952.57479			42740.08088		228.94600		875.00000 
 43692.65567		 305.27265			43387.38302		70.24600		324.00000 
 43692.65567		 952.57479			42740.08088		228.94600		875.00000 
 43692.65567		 305.27265			43387.38302		70.24600		324.00000 
 43692.65567		 952.57479			42740.08088		228.94600		875.00000 
 43692.65567		 305.27265			43387.38302		70.24600		324.00000 
 43692.65567		 952.57479			42740.08088		228.94600		875.00000 
 43692.65567		 305.27265			43387.38302		70.24600		324.00000 
 43692.65567		 952.57479			42740.08088		228.94600		875.00000 
 43692.65567		 305.27265			43387.38302		70.24600		324.00000 
 43692.65567		 952.57479			42740.08088		228.94600		875.00000 
 43692.65567		 305.27265			43387.38302		70.24600		324.00000 
 43692.65567		 952.57479			42740.08088		228.94600		875.00000 
 43692.65567		 305.27265			43387.38302		70.24600		324.00000 
 43692.65567		 952.57479			42740.08088		228.94600		875.00000 
 43692.65567		 305.27265			43387.38302		70.24600		324.00000 
 43692.65567		 952.57479			42740.08088		228.94600		875.00000 
 43692.65567		 305.27265			43387.38302		70.24600		324.00000 
 43692.65567		 952.57479			42740.08088		228.94600		875.00000 
 43692.65567		 305.27265			43387.38302		70.24600		324.00000 
 43692.65567		 952.57479			42740.08088		228.94600		875.00000 
 43692.65567		 305.27265			43387.38302		70.24600		324.00000 
 43692.65567		 952.57479			42740.08088		228.94600		875.00000 
 43692.65567		 305.27265			43387.38302		70.24600		324.00000 
 43692.65567		 952.57479			42740.08088		228.94600		875.00000 
 43692.65567		 305.27265			43387.38302		70.24600		324.00000 
 43692.65567		 952.57479			42740.08088		228.94600		875.00000 
 43692.65567		 305.27265			43387.38302		70.24600		324.00000 
 43692.65567		 952.57479			42740.08088		229.54400		875.00000 
 43692.65567		 305.27265			43387.38302		70.24600		324.00000 
 43692.65567		 952.57479			42740.08088		229.54400		875.00000 
 43692.65567		 305.27265			43387.38302		70.24600		324.00000 
 43692.65567		 952.57479			42740.08088		229.54400		875.00000 
 43692.65567		 305.27265			43387.38302		70.24600		324.00000 
 43692.65567		 952.57479			42740.08088		229.54400		875.00000 
 43692.65567		 305.27265			43387.38302		70.24600		324.00000 
 43692.65567		 952.57479			42740.08088		229.54400		875.00000 
 43692.65567		 305.27265			43387.38302		70.24600		324.00000 
 43692.65567		 952.57479			42740.08088		229.54400		875.00000 
 43692.65567		 305.27265			43387.38302		70.24600		324.00000 
 43692.65567		 952.57479			42740.08088		229.54400		875.00000 
 43692.65567		 305.27265			43387.38302		70.24600		324.00000 
 43692.65567		 952.57479			42740.08088		229.54400		875.00000 
 43692.65567		 305.27265			43387.38302		70.24600		324.00000 
 43692.65567		 952.57479			42740.08088		229.54400		875.00000 
 43692.65567		 305.27265			43387.38302		70.24600		324.00000 
 43692.65567		 952.57479			42740.08088		229.54400		875.00000 
 43692.65567		 305.27265			43387.38302		70.24600		324.00000 
 43692.65567		 952.57479			42740.08088		229.54400		875.00000 
 43692.65567		 305.27265			43387.38302		70.24600		324.00000 
 43692.65567		 952.57479			42740.08088		229.54400		875.00000 
 43692.65567		 305.27265			43387.38302		70.24600		324.00000 
 43692.65567		 952.57479			42740.08088		229.54400		875.00000 
 43692.65567		 305.27265			43387.38302		70.24600		324.00000 
 43692.65567		 952.57479			42740.08088		229.54400		875.00000 
 43692.65567		 305.27265			43387.38302		70.24600		324.00000 
 43692.65567		 952.57479			42740.08088		229.54400		875.00000 
 43692.65567		 305.27265			43387.38302		70.24600		324.00000 
 43692.65567		 952.57479			42740.08088		229.54400		875.00000 
 43692.65567		 305.27265			43387.38302		70.24600		324.00000 
 43692.65567		 952.57479			42740.08088		229.54400		875.00000 
 43692.65567		 305.27265			43387.38302		70.24600		324.00000 
 43692.65567		 952.57479			42740.08088		229.54400		875.00000 
 43692.65567		 305.27265			43387.38302		70.24600		324.00000 
 43692.65567		 952.57479			42740.08088		229.54400		875.00000 
 43692.65567		 305.27265			43387.38302		70.24600		324.00000 
 43692.65567		 952.57479			42740.08088		229.54400		875.00000 
 43692.65567		 305.27265			43387.38302		70.24600		324.00000 
 43692.65567		 952.57479			42740.08088		229.54400		875.00000 
 43692.65567		 305.27265			43387.38302		70.24600		324.00000 
 43692.65567		 952.57479			42740.08088		229.54400		875.00000 
 43692.65567		 305.27265			43387.38302		70.24600		324.00000 
 43692.65567		 952.57479			42740.08088		229.54400		875.00000 
 43692.65567		 305.27265			43387.38302		70.24600		324.00000 
 43692.65567		 952.57479			42740.08088		229.54400		875.00000 
 43692.65567		 305.27265			43387.38302		70.24600		324.00000 
 43692.65567		 952.57479			42740.08088		229.54400		875.00000 
 43692.65567		 305.27265			43387.38302		70.24600		324.00000 
 43692.65567		 952.57479			42740.08088		229.54400		875.00000 
 43692.65567		 305.27265			43387.38302		70.24600		324.00000 
 43692.65567		 952.57479			42740.08088		229.54400		875.00000 
 43692.65567		 305.27265			43387.38302		70.24600		324.00000 
 43692.65567		 952.57479			42740.08088		229.54400		875.00000 
 43692.65567		 305.27265			43387.38302		70.24600		324.00000 
 43692.65567		 952.57479			42740.08088		229.54400		875.00000 
 43692.65567		 305.27265			43387.38302		70.24600		324.00000 
 43692.65567		 952.57479			42740.08088		229.54400		875.00000 
 43692.65567		 305.27265			43387.38302		70.24600		324.00000 
 43692.65567		 952.57479			42740.08088		229.54400		875.00000 
 43692.65567		 305.27265			43387.38302		70.24600		324.00000 
 43692.65567		 952.57479			42740.08088		229.54400		875.00000 
 43692.65567		 305.27265			43387.38302		70.24600		324.00000 
 43692.65567		 952.57479			42740.08088		229.54400		875.00000 
 43692.65567		 305.27265			43387.38302		70.24600		324.00000 
 43692.65567		 952.57479			42740.08088		229.54400		875.00000 
 43692.65567		 305.27265			43387.38302		70.24600		324.00000 
 43692.65567		 952.57479			42740.08088		229.54400		875.00000 
 43692.65567		 305.27265			43387.38302		70.24600		324.00000 
 43692.65567		 952.57479			42740.08088		229.54400		875.00000 
 43692.65567		 305.27265			43387.38302		70.24600		324.00000 
 43692.65567		 952.57479			42740.08088		229.54400		875.00000 
 43692.65567		 305.27265			43387.38302		70.24600		324.00000 
 43692.65567		 952.57479			42740.08088		229.54400		875.00000 
 43692.65567		 305.27265			43387.38302		70.24600		324.00000 
 43692.65567		 952.57479			42740.08088		229.54400		875.00000 
 43692.65567		 305.27265			43387.38302		70.24600		324.00000 
 43692.65567		 952.57479			42740.08088		229.54400		875.00000 
 43692.65567		 305.27265			43387.38302		70.24600		324.00000 
 43692.65567		 952.57479			42740.08088		229.54400		875.00000 
 43692.65567		 305.27265			43387.38302		70.24600		324.00000 
 43692.65567		 952.57479			42740.08088		229.54400		875.00000 
 43692.65567		 305.27265			43387.38302		70.24600		324.00000 
 43692.65567		 952.57479			42740.08088		229.54400		875.00000 
 43692.65567		 305.27265			43387.38302		70.24600		324.00000 
 43692.65567		 952.57479			42740.08088		229.54400		875.00000 
 43692.65567		 305.27265			43387.38302		70.24600		324.00000 
 43692.65567		 952.57479			42740.08088		229.54400		875.00000 
 43692.65567		 305.27265			43387.38302		70.24600		324.00000 
 43692.65567		 952.57479			42740.08088		229.54400		875.00000 
 43692.65567		 305.27265			43387.38302		70.24600		324.00000 
 43692.65567		 952.57479			42740.08088		229.54400		875.00000 
 43692.65567		 305.27265			43387.38302		70.24600		324.00000 
 43692.65567		 952.57479			42740.08088		229.54400		875.00000 
 43692.65567		 305.27265			43387.38302		70.24600		324.00000 
 43692.65567		 952.57479			42740.08088		229.54400		875.00000 
 43692.65567		 305.27265			43387.38302		70.24600		324.00000 
 43692.65567		 952.57479			42740.08088		229.54400		875.00000 
 43692.65567		 305.27265			43387.38302		70.24600		324.00000 
 43692.65567		 952.57479			42740.08088		229.54400		875.00000 
 43692.65567		 305.27265			43387.38302		70.24600		324.00000 
 43692.65567		 952.57479			42740.08088		229.54400		875.00000 
 43692.65567		 305.27265			43387.38302		70.24600		324.00000 
 43692.65567		 952.57479			42740.08088		229.54400		875.00000 
 43692.65567		 305.27265			43387.38302		70.24600		324.00000 
 43692.65567		 952.57479			42740.08088		229.54400		875.00000 
 43692.65567		 305.27265			43387.38302		70.24600		324.00000 
 43692.65567		 952.57479			42740.08088		229.54400		875.00000 
 43692.65567		 305.27265			43387.38302		70.24600		324.00000 
 43692.65567		 952.57479			42740.08088		229.54400		875.00000 
 43692.65567		 305.27265			43387.38302		70.24600		324.00000 
 43692.65567		 952.57479			42740.08088		229.54400		875.00000 
 43692.65567		 305.27265			43387.38302		70.24600		324.00000 
 43692.65567		 952.57479			42740.08088		229.54400		875.00000 
 43692.65567		 305.27265			43387.38302		70.24600		324.00000 
 43692.65567		 952.57479			42740.08088		229.54400		875.00000 
 43692.65567		 305.27265			43387.38302		70.24600		324.00000 
 43692.65567		 952.57479			42740.08088		229.54400		875.00000 
 43692.65567		 305.27265			43387.38302		70.24600		324.00000 
 43692.65567		 952.57479			42740.08088		229.54400		875.00000 
 43692.65567		 305.27265			43387.38302		70.24600		324.00000 
 43692.65567		 952.57479			42740.08088		229.54400		875.00000 
 43692.65567		 305.27265			43387.38302		70.24600		324.00000 
 43692.65567		 952.57479			42740.08088		229.54400		875.00000 
 43692.65567		 305.27265			43387.38302		70.24600		324.00000 
 43692.65567		 952.57479			42740.08088		229.54400		875.00000 
 43692.65567		 305.27265			43387.38302		70.24600		324.00000 
 43692.65567		 952.57479			42740.08088		229.54400		875.00000 
 43692.65567		 305.27265			43387.38302		70.24600		324.00000 
 43692.65567		 952.57479			42740.08088		229.54400		875.00000 
 43692.65567		 305.27265			43387.38302		70.24600		324.00000 
 43692.65567		 952.57479			42740.08088		229.54400		875.00000 
 43692.65567		 305.27265			43387.38302		70.24600		324.00000 
 43692.65567		 952.57479			42740.08088		229.54400		875.00000 
 43692.65567		 305.27265			43387.38302		70.24600		324.00000 
 43692.65567		 952.57479			42740.08088		229.54400		875.00000 
 43692.65567		 305.27265			43387.38302		70.24600		324.00000 
 43692.65567		 952.57479			42740.08088		229.54400		875.00000 
 43692.65567		 305.27265			43387.38302		70.24600		324.00000 
 43692.65567		 952.57479			42740.08088		229.54400		875.00000 
 43692.65567		 305.27265			43387.38302		70.24600		324.00000 
 43692.65567		 952.57479			42740.08088		229.54400		875.00000 
 43692.65567		 305.27265			43387.38302		70.24600		324.00000 
 43692.65567		 952.57479			42740.08088		229.54400		875.00000 
 43692.65567		 305.27265			43387.38302		70.24600		324.00000 
 43692.65567		 952.57479			42740.08088		229.54400		875.00000 
 43692.65567		 305.27265			43387.38302		70.24600		324.00000 
 43692.65567		 952.57479			42740.08088		229.54400		875.00000 
 43692.65567		 305.27265			43387.38302		70.24600		324.00000 
 43692.65567		 952.57479			42740.08088		229.54400		875.00000 
 43692.65567		 305.27265			43387.38302		70.24600		324.00000 
 43692.65567		 952.57479			42740.08088		229.54400		875.00000 
 43692.65567		 305.27265			43387.38302		70.24600		324.00000 
 43692.65567		 952.57479			42740.08088		229.54400		875.00000 
 43692.65567		 305.27265			43387.38302		70.24600		324.00000 
 43692.65567		 952.57479			42740.08088		229.54400		875.00000 
 43692.65567		 305.27265			43387.38302		70.24600		324.00000 
 43692.65567		 952.57479			42740.08088		229.54400		875.00000 
 43692.65567		 305.27265			43387.38302		70.24600		324.00000 
 43692.65567		 952.57479			42740.08088		229.54400		875.00000 
 43692.65567		 305.27265			43387.38302		70.24600		324.00000 
 43692.65567		 952.57479			42740.08088		229.54400		875.00000 
 43692.65567		 305.27265			43387.38302		70.24600		324.00000 
 43692.65567		 952.57479			42740.08088		229.54400		875.00000 
 43692.65567		 305.27265			43387.38302		70.24600		324.00000 
 43692.65567		 952.57479			42740.08088		229.54400		875.00000 
 43692.65567		 305.27265			43387.38302		70.24600		324.00000 
 43692.65567		 952.57479			42740.08088		229.54400		875.00000 
 43692.65567		 305.27265			43387.38302		70.24600		324.00000 
 43692.65567		 952.57479			42740.08088		229.54400		875.00000 
 43692.65567		 305.27265			43387.38302		70.24600		324.00000 
 43692.65567		 952.57479			42740.08088		229.54400		875.00000 
 43692.65567		 305.27265			43387.38302		70.24600		324.00000 
 43692.65567		 952.57479			42740.08088		229.54400		875.00000 
 43692.65567		 305.27265			43387.38302		70.24600		324.00000 
 43692.65567		 952.57479			42740.08088		229.54400		875.00000 
 43692.65567		 305.27265			43387.38302		70.24600		324.00000 
 43692.65567		 952.57479			42740.08088		229.54400		875.00000 
 43692.65567		 305.27265			43387.38302		70.24600		324.00000 
 43692.65567		 952.57479			42740.08088		229.54400		875.00000 
 43692.65567		 305.27265			43387.38302		70.24600		324.00000 
 43692.65567		 952.57479			42740.08088		229.54400		875.00000 
 43692.65567		 305.27265			43387.38302		70.24600		324.00000 
 43692.65567		 952.57479			42740.08088		229.54400		875.00000 
 43692.65567		 305.27265			43387.38302		70.24600		324.00000 
 43692.65567		 952.57479			42740.08088		229.54400		875.00000 
 43692.65567		 305.27265			43387.38302		70.24600		324.00000 
 43692.65567		 952.57479			42740.08088		229.54400		875.00000 
 43692.65567		 305.27265			43387.38302		70.24600		324.00000 
 43692.65567		 952.57479			42740.08088		229.54400		875.00000 
 43692.65567		 305.27265			43387.38302		70.24600		324.00000 
 43692.65567		 952.57479			42740.08088		229.54400		875.00000 
 43692.65567		 305.27265			43387.38302		70.24600		324.00000 
 43692.65567		 952.57479			42740.08088		229.54400		875.00000 
 43692.65567		 305.27265			43387.38302		70.24600		324.00000 
 43692.65567		 952.57479			42740.08088		229.54400		875.00000 
 43692.65567		 305.27265			43387.38302		70.24600		324.00000 
 43692.65567		 952.57479			42740.08088		229.54400		875.00000 
 43692.65567		 305.27265			43387.38302		70.24600		324.00000 
 43692.65567		 952.57479			42740.08088		229.54400		875.00000 
 43692.65567		 305.27265			43387.38302		70.24600		324.00000 
 43692.65567		 952.57479			42740.08088		229.54400		875.00000 
 43692.65567		 305.27265			43387.38302		70.24600		324.00000 
 43692.65567		 952.57479			42740.08088		229.54400		875.00000 
 43692.65567		 305.27265			43387.38302		70.24600		324.00000 
 43692.65567		 952.57479			42740.08088		229.54400		875.00000 
 43692.65567		 305.27265			43387.38302		70.24600		324.00000 
 43692.65567		 952.57479			42740.08088		229.54400		875.00000 
 43692.65567		 305.27265			43387.38302		70.24600		324.00000 
 43692.65567		 952.57479			42740.08088		229.54400		875.00000 
 43692.65567		 305.27265			43387.38302		70.24600		324.00000 
 43692.65567		 952.57479			42740.08088		229.54400		875.00000 
 43692.65567		 305.27265			43387.38302		70.24600		324.00000 
 43692.65567		 952.57479			42740.08088		229.54400		875.00000 
 43692.65567		 305.27265			43387.38302		70.24600		324.00000 
 43692.65567		 952.57479			42740.08088		229.54400		875.00000 
 43692.65567		 305.27265			43387.38302		70.24600		324.00000 
 43692.65567		 952.57479			42740.08088		229.54400		875.00000 
 43692.65567		 305.27265			43387.38302		70.24600		324.00000 
 43692.65567		 952.57479			42740.08088		229.54400		875.00000 
 43692.65567		 305.27265			43387.38302		70.24600		324.00000 
 43692.65567		 952.57479			42740.08088		229.54400		875.00000 
 43692.65567		 305.27265			43387.38302		70.24600		324.00000 
 43692.65567		 952.57479			42740.08088		229.54400		875.00000 
 43692.65567		 305.27265			43387.38302		70.24600		324.00000 
 43692.65567		 952.57479			42740.08088		229.54400		875.00000 
 43692.65567		 305.27265			43387.38302		70.24600		324.00000 
 43692.65567		 952.57479			42740.08088		229.54400		875.00000 
 43692.65567		 305.27265			43387.38302		70.24600		324.00000 
 43692.65567		 952.57479			42740.08088		229.54400		875.00000 
 43692.65567		 305.27265			43387.38302		70.24600		324.00000 
 43692.65567		 952.57479			42740.08088		229.54400		875.00000 
 43692.65567		 305.27265			43387.38302		70.24600		324.00000 
 43692.65567		 952.57479			42740.08088		229.54400		875.00000 
 43692.65567		 305.27265			43387.38302		70.24600		324.00000 
 43692.65567		 952.57479			42740.08088		229.54400		875.00000 
 43692.65567		 305.27265			43387.38302		70.24600		324.00000 
 43692.65567		 952.57479			42740.08088		229.54400		875.00000 
 43692.65567		 305.27265			43387.38302		70.24600		324.00000 
 43692.65567		 952.57479			42740.08088		229.54400		875.00000 
 43692.65567		 305.27265			43387.38302		70.24600		324.00000 
 43692.65567		 952.57479			42740.08088		229.54400		875.00000 
 43692.65567		 305.27265			43387.38302		70.24600		324.00000 
 43692.65567		 952.57479			42740.08088		229.54400		875.00000 
 43692.65567		 305.27265			43387.38302		70.24600		324.00000 
 43692.65567		 952.57479			42740.08088		229.54400		875.00000 
 43692.65567		 305.27265			43387.38302		70.24600		324.00000 
 43692.65567		 952.57479			42740.08088		229.54400		875.00000 
 43692.65567		 305.27265			43387.38302		70.24600		324.00000 
 43692.65567		 952.57479			42740.08088		229.54400		875.00000 
 43692.65567		 305.27265			43387.38302		70.24600		324.00000 
 43692.65567		 952.57479			42740.08088		229.54400		875.00000 
 43692.65567		 305.27265			43387.38302		70.24600		324.00000 
 43692.65567		 952.57479			42740.08088		229.54400		875.00000 
 43692.65567		 305.27265			43387.38302		70.24600		324.00000 
 43692.65567		 952.57479			42740.08088		229.54400		875.00000 
 43692.65567		 305.27265			43387.38302		70.24600		324.00000 
 43692.65567		 952.57479			42740.08088		229.54400		875.00000 
 43692.65567		 305.27265			43387.38302		70.24600		324.00000 
 43692.65567		 952.57479			42740.08088		229.54400		875.00000 
 43692.65567		 305.27265			43387.38302		70.24600		324.00000 
 43692.65567		 952.57479			42740.08088		229.54400		875.00000 
 43692.65567		 305.27265			43387.38302		70.24600		324.00000 
 43692.65567		 952.57479			42740.08088		229.54400		875.00000 
 43692.65567		 305.27265			43387.38302		70.24600		324.00000 
 43692.65567		 952.57479			42740.08088		229.54400		875.00000 
 43692.65567		 305.27265			43387.38302		70.24600		324.00000 
 43692.65567		 952.57479			42740.08088		229.54400		875.00000 
 43692.65567		 305.27265			43387.38302		70.24600		324.00000 
 43692.65567		 952.57479			42740.08088		229.54400		875.00000 
 43692.65567		 305.27265			43387.38302		70.24600		324.00000 
 43692.65567		 952.57479			42740.08088		229.54400		875.00000 
 43692.65567		 305.27265			43387.38302		70.24600		324.00000 
 43692.65567		 952.57479			42740.08088		229.54400		875.00000 
 43692.65567		 305.27265			43387.38302		70.24600		324.00000 
 43692.65567		 952.57479			42740.08088		229.54400		875.00000 
 43692.65567		 305.27265			43387.38302		70.24600		324.00000 
 43692.65567		 952.57479			42740.08088		229.54400		875.00000 
 43692.65567		 305.27265			43387.38302		70.24600		324.00000 
 43692.65567		 952.57479			42740.08088		229.54400		875.00000 
 43692.65567		 305.27265			43387.38302		70.24600		324.00000 
 43692.65567		 952.57479			42740.08088		229.54400		875.00000 
 43692.65567		 305.27265			43387.38302		70.24600		324.00000 
 43692.65567		 952.57479			42740.08088		229.54400		875.00000 
 43692.65567		 305.27265			43387.38302		70.24600		324.00000 
 43692.65567		 952.57479			42740.08088		229.54400		875.00000 
 43692.65567		 305.27265			43387.38302		70.24600		324.00000 
 43692.65567		 952.57479			42740.08088		229.54400		875.00000 
 43692.65567		 305.27265			43387.38302		70.24600		324.00000 
 43692.65567		 952.57479			42740.08088		229.54400		875.00000 
 43692.65567		 305.27265			43387.38302		70.24600		324.00000 
 43692.65567		 952.57479			42740.08088		229.54400		875.00000 
 43692.65567		 305.27265			43387.38302		70.24600		324.00000 
 43692.65567		 952.57479			42740.08088		229.54400		875.00000 
 43692.65567		 305.27265			43387.38302		70.24600		324.00000 
 43692.65567		 952.57479			42740.08088		229.54400		875.00000 
 43692.65567		 305.27265			43387.38302		70.24600		324.00000 
 43692.65567		 952.57479			42740.08088		229.54400		875.00000 
 43692.65567		 305.27265			43387.38302		70.24600		324.00000 
 43692.65567		 952.57479			42740.08088		229.54400		875.00000 
 43692.65567		 305.27265			43387.38302		70.24600		324.00000 
 43692.65567		 952.57479			42740.08088		229.54400		875.00000 
 43692.65567		 305.27265			43387.38302		70.24600		324.00000 
 43692.65567		 952.57479			42740.08088		229.54400		875.00000 
 43692.65567		 305.27265			43387.38302		70.24600		324.00000 
 43692.65567		 952.57479			42740.08088		229.54400		875.00000 
 43692.65567		 305.27265			43387.38302		70.24600		324.00000 
 43692.65567		 952.57479			42740.08088		229.54400		875.00000 
 43692.65567		 305.27265			43387.38302		70.24600		324.00000 
 43692.65567		 952.57479			42740.08088		229.54400		875.00000 
 43692.65567		 305.27265			43387.38302		70.24600		324.00000 
 43692.65567		 952.57479			42740.08088		229.54400		875.00000 
 43692.65567		 305.27265			43387.38302		70.24600		324.00000 
 43692.65567		 952.57479			42740.08088		229.54400		875.00000 
 43692.65567		 305.27265			43387.38302		70.24600		324.00000 
 43692.65567		 952.57479			42740.08088		229.54400		875.00000 
 43692.65567		 305.27265			43387.38302		70.72800		324.00000 
 43692.65567		 952.57479			42740.08088		229.54400		875.00000 
 43692.65567		 305.27265			43387.38302		70.72800		324.00000 
 43692.65567		 952.57479			42740.08088		229.54400		875.00000 
 43692.65567		 305.27265			43387.38302		70.72800		324.00000 
 43692.65567		 952.57479			42740.08088		229.54400		875.00000 
 43692.65567		 305.27265			43387.38302		70.72800		324.00000 
 43692.65567		 952.57479			42740.08088		229.54400		875.00000 
 43692.65567		 305.27265			43387.38302		70.72800		324.00000 
 43692.65567		 952.57479			42740.08088		229.54400		875.00000 
 43692.65567		 305.27265			43387.38302		70.72800		324.00000 
 43692.65567		 952.57479			42740.08088		229.54400		875.00000 
 43692.65567		 305.27265			43387.38302		70.72800		324.00000 
 43692.65567		 952.57479			42740.08088		229.54400		875.00000 
 43692.65567		 305.27265			43387.38302		70.72800		324.00000 
 43692.65567		 952.57479			42740.08088		229.54400		875.00000 
 43692.65567		 305.27265			43387.38302		70.72800		324.00000 
 43692.65567		 952.57479			42740.08088		229.54400		875.00000 
 43692.65567		 305.27265			43387.38302		70.72800		324.00000 
 43692.65567		 952.57479			42740.08088		229.54400		875.00000 
 43692.65567		 305.27265			43387.38302		70.72800		324.00000 
 43692.65567		 952.57479			42740.08088		229.54400		875.00000 
 43692.65567		 305.27265			43387.38302		70.72800		324.00000 
 43692.65567		 952.57479			42740.08088		229.54400		875.00000 
 43692.65567		 305.27265			43387.38302		70.72800		324.00000 
 43692.65567		 952.57479			42740.08088		229.54400		875.00000 
 43692.65567		 305.27265			43387.38302		70.72800		324.00000 
 43692.65567		 952.57479			42740.08088		229.54400		875.00000 
 43692.65567		 305.27265			43387.38302		70.72800		324.00000 
 43692.65567		 952.57479			42740.08088		229.54400		875.00000 
 43692.65567		 305.27265			43387.38302		70.72800		324.00000 
 43692.65567		 952.57479			42740.08088		229.54400		875.00000 
 43692.65567		 305.27265			43387.38302		70.72800		324.00000 
 43692.65567		 952.57479			42740.08088		229.54400		875.00000 
 43692.65567		 305.27265			43387.38302		70.72800		324.00000 
 43692.65567		 952.57479			42740.08088		229.54400		875.00000 
 43692.65567		 305.27265			43387.38302		70.72800		324.00000 
 43692.65567		 952.57479			42740.08088		229.54400		875.00000 
 43692.65567		 305.27265			43387.38302		70.72800		324.00000 
 43692.65567		 952.57479			42740.08088		229.54400		875.00000 
 43692.65567		 305.27265			43387.38302		70.72800		324.00000 
 43692.65567		 952.57479			42740.08088		229.54400		875.00000 
 43692.65567		 305.27265			43387.38302		70.72800		324.00000 
 43692.65567		 952.57479			42740.08088		229.54400		875.00000 
 43692.65567		 305.27265			43387.38302		70.72800		324.00000 
 43692.65567		 952.57479			42740.08088		229.54400		875.00000 
 43692.65567		 305.27265			43387.38302		70.72800		324.00000 
 43692.65567		 952.57479			42740.08088		229.54400		875.00000 
 43692.65567		 305.27265			43387.38302		70.72800		324.00000 
 43692.65567		 952.57479			42740.08088		229.54400		875.00000 
 43692.65567		 305.27265			43387.38302		70.72800		324.00000 
 43692.65567		 952.57479			42740.08088		229.54400		875.00000 
 43692.65567		 305.27265			43387.38302		70.72800		324.00000 
 43692.65567		 952.57479			42740.08088		229.54400		875.00000 
 43692.65567		 305.27265			43387.38302		70.72800		324.00000 
 43692.65567		 952.57479			42740.08088		229.54400		875.00000 
 43692.65567		 305.27265			43387.38302		70.72800		324.00000 
 43692.65567		 952.57479			42740.08088		229.54400		875.00000 
 43692.65567		 305.27265			43387.38302		70.72800		324.00000 
 43692.65567		 952.57479			42740.08088		229.54400		875.00000 
 43692.65567		 305.27265			43387.38302		70.72800		324.00000 
 43692.65567		 952.57479			42740.08088		229.54400		875.00000 
 43692.65567		 305.27265			43387.38302		70.72800		324.00000 
 43692.65567		 952.57479			42740.08088		228.94600		875.00000 
 43692.65567		 305.27265			43387.38302		70.72800		324.00000 
 43692.65567		 952.57479			42740.08088		228.94600		875.00000 
 43692.65567		 305.27265			43387.38302		70.72800		324.00000 
 43692.65567		 952.57479			42740.08088		228.94600		875.00000 
 43692.65567		 305.27265			43387.38302		70.72800		324.00000 
 43692.65567		 952.57479			42740.08088		228.94600		875.00000 
 43692.65567		 305.27265			43387.38302		70.72800		324.00000 
 43692.65567		 952.57479			42740.08088		228.94600		875.00000 
 43692.65567		 305.27265			43387.38302		70.72800		324.00000 
 43692.65567		 952.57479			42740.08088		228.94600		875.00000 
 43692.65567		 305.27265			43387.38302		70.72800		324.00000 
 43692.65567		 952.57479			42740.08088		228.94600		875.00000 
 43692.65567		 305.27265			43387.38302		70.72800		324.00000 
 43692.65567		 952.57479			42740.08088		228.94600		875.00000 
 43692.65567		 305.27265			43387.38302		70.72800		324.00000 
 43692.65567		 952.57479			42740.08088		228.94600		875.00000 
 43692.65567		 305.27265			43387.38302		70.72800		324.00000 
 43692.65567		 952.57479			42740.08088		228.94600		875.00000 
 43692.65567		 305.27265			43387.38302		70.72800		324.00000 
 43692.65567		 952.57479			42740.08088		228.94600		875.00000 
 43692.65567		 305.27265			43387.38302		70.72800		324.00000 
 43692.65567		 952.57479			42740.08088		228.94600		875.00000 
 43692.65567		 305.27265			43387.38302		70.72800		324.00000 
 43692.65567		 952.57479			42740.08088		228.94600		875.00000 
 43692.65567		 305.27265			43387.38302		70.72800		324.00000 
 43692.65567		 952.57479			42740.08088		228.94600		875.00000 
 43692.65567		 305.27265			43387.38302		70.72800		324.00000 
 43692.65567		 952.57479			42740.08088		228.94600		875.00000 
 43692.65567		 305.27265			43387.38302		70.72800		324.00000 
 43692.65567		 952.57479			42740.08088		228.94600		875.00000 
 43692.65567		 305.27265			43387.38302		70.72800		324.00000 
 43692.65567		 952.57479			42740.08088		228.94600		875.00000 
 43692.65567		 305.27265			43387.38302		70.72800		324.00000 
 43692.65567		 952.57479			42740.08088		228.94600		875.00000 
 43692.65567		 305.27265			43387.38302		70.72800		324.00000 
 43692.65567		 952.57479			42740.08088		228.94600		875.00000 
 43692.65567		 305.27265			43387.38302		70.72800		324.00000 
 43692.65567		 952.57479			42740.08088		228.94600		875.00000 
 43692.65567		 305.27265			43387.38302		70.72800		324.00000 
 43692.65567		 952.57479			42740.08088		228.94600		875.00000 
 43692.65567		 305.27265			43387.38302		70.72800		324.00000 
 43692.65567		 952.57479			42740.08088		228.94600		875.00000 
 43692.65567		 305.27265			43387.38302		70.72800		324.00000 
 43692.65567		 952.57479			42740.08088		228.94600		875.00000 
 43692.65567		 305.27265			43387.38302		70.72800		324.00000 
 43692.65567		 952.57479			42740.08088		228.94600		875.00000 
 43692.65567		 305.27265			43387.38302		70.72800		324.00000 
 43692.65567		 952.57479			42740.08088		228.94600		875.00000 
 43692.65567		 305.27265			43387.38302		70.72800		324.00000 
 43692.65567		 952.57479			42740.08088		228.94600		875.00000 
 43692.65567		 305.27265			43387.38302		70.72800		324.00000 
 43692.65567		 952.57479			42740.08088		228.94600		875.00000 
 43692.65567		 305.27265			43387.38302		70.72800		324.00000 
 43692.65567		 952.57479			42740.08088		228.94600		875.00000 
 43692.65567		 305.27265			43387.38302		70.72800		324.00000 
 43692.65567		 952.57479			42740.08088		228.94600		875.00000 
 43692.65567		 305.27265			43387.38302		70.72800		324.00000 
 43692.65567		 952.57479			42740.08088		228.94600		875.00000 
 43692.65567		 305.27265			43387.38302		70.72800		324.00000 
 43692.65567		 952.57479			42740.08088		228.94600		875.00000 
 43692.65567		 305.27265			43387.38302		70.72800		324.00000 
 43692.65567		 952.57479			42740.08088		228.94600		875.00000 
 43692.65567		 305.27265			43387.38302		70.72800		324.00000 
 43692.65567		 952.57479			42740.08088		228.94600		875.00000 
 43692.65567		 305.27265			43387.38302		70.72800		324.00000 
 43692.65567		 952.57479			42740.08088		228.94600		875.00000 
 43692.65567		 305.27265			43387.38302		70.72800		324.00000 
 43692.65567		 952.57479			42740.08088		228.94600		875.00000 
 43692.65567		 305.27265			43387.38302		70.72800		324.00000 
 43692.65567		 952.57479			42740.08088		228.94600		875.00000 
 43692.65567		 305.27265			43387.38302		70.72800		324.00000 
 43692.65567		 952.57479			42740.08088		228.94600		875.00000 
 43692.65567		 305.27265			43387.38302		70.72800		324.00000 
 43692.65567		 952.57479			42740.08088		228.94600		875.00000 
 43692.65567		 305.27265			43387.38302		70.72800		324.00000 
 43692.65567		 952.57479			42740.08088		228.94600		875.00000 
 43692.65567		 305.27265			43387.38302		70.72800		324.00000 
 43692.65567		 952.57479			42740.08088		228.94600		875.00000 
 43692.65567		 305.27265			43387.38302		70.72800		324.00000 
 43692.65567		 952.57479			42740.08088		228.94600		875.00000 
 43692.65567		 305.27265			43387.38302		70.72800		324.00000 
 43692.65567		 952.57479			42740.08088		228.94600		875.00000 
 43692.65567		 305.27265			43387.38302		70.72800		324.00000 
 43692.65567		 952.57479			42740.08088		228.94600		875.00000 
 43692.65567		 305.27265			43387.38302		70.72800		324.00000 
 43692.65567		 952.57479			42740.08088		228.94600		875.00000 
 43692.65567		 305.27265			43387.38302		70.72800		324.00000 
 43692.65567		 952.57479			42740.08088		228.94600		875.00000 
 43692.65567		 305.27265			43387.38302		70.72800		324.00000 
 43692.65567		 952.57479			42740.08088		228.94600		875.00000 
 43692.65567		 305.27265			43387.38302		70.72800		324.00000 
 43692.65567		 952.57479			42740.08088		228.94600		875.00000 
 43692.65567		 305.27265			43387.38302		70.72800		324.00000 
 43692.65567		 952.57479			42740.08088		228.94600		875.00000 
 43692.65567		 305.27265			43387.38302		70.72800		324.00000 
 43692.65567		 952.57479			42740.08088		228.94600		875.00000 
 43692.65567		 305.27265			43387.38302		70.72800		324.00000 
 43692.65567		 952.57479			42740.08088		228.94600		875.00000 
 43692.65567		 305.27265			43387.38302		70.72800		324.00000 
 43692.65567		 952.57479			42740.08088		228.94600		875.00000 
 43692.65567		 305.27265			43387.38302		70.72800		324.00000 
 43692.65567		 952.57479			42740.08088		228.94600		875.00000 
 43692.65567		 305.27265			43387.38302		70.72800		324.00000 
 43692.65567		 952.57479			42740.08088		228.94600		875.00000 
 43692.65567		 305.27265			43387.38302		70.72800		324.00000 
 43692.65567		 952.57479			42740.08088		228.94600		875.00000 
 43692.65567		 305.27265			43387.38302		70.72800		324.00000 
 43692.65567		 952.57479			42740.08088		228.94600		875.00000 
 43692.65567		 305.27265			43387.38302		70.72800		324.00000 
 43692.65567		 952.57479			42740.08088		228.94600		875.00000 
 43692.65567		 305.27265			43387.38302		70.72800		324.00000 
 43692.65567		 952.57479			42740.08088		228.94600		875.00000 
 43692.65567		 305.27265			43387.38302		70.72800		324.00000 
 43692.65567		 952.57479			42740.08088		228.94600		875.00000 
 43692.65567		 305.27265			43387.38302		70.72800		324.00000 
 43692.65567		 952.57479			42740.08088		228.94600		875.00000 
 43692.65567		 305.27265			43387.38302		70.72800		324.00000 
 43692.65567		 952.57479			42740.08088		228.94600		875.00000 
 43692.65567		 305.27265			43387.38302		70.72800		324.00000 
 43692.65567		 952.57479			42740.08088		228.94600		875.00000 
 43692.65567		 305.27265			43387.38302		70.72800		324.00000 
 43692.65567		 952.57479			42740.08088		228.94600		875.00000 
 43692.65567		 305.27265			43387.38302		70.72800		324.00000 
 43692.65567		 952.57479			42740.08088		228.94600		875.00000 
 43692.65567		 305.27265			43387.38302		70.72800		324.00000 
 43692.65567		 952.57479			42740.08088		228.94600		875.00000 
 43692.65567		 305.27265			43387.38302		70.72800		324.00000 
 43692.65567		 952.57479			42740.08088		229.54400		875.00000 
 43692.65567		 305.27265			43387.38302		70.72800		324.00000 
 43692.65567		 952.57479			42740.08088		229.54400		875.00000 
 43692.65567		 305.27265			43387.38302		70.72800		324.00000 
 43692.65567		 952.57479			42740.08088		229.54400		875.00000 
 43692.65567		 305.27265			43387.38302		70.72800		324.00000 
 43692.65567		 952.57479			42740.08088		229.54400		875.00000 
 43692.65567		 305.27265			43387.38302		70.72800		324.00000 
 43692.65567		 952.57479			42740.08088		229.54400		875.00000 
 43692.65567		 305.27265			43387.38302		70.72800		324.00000 
 43692.65567		 952.57479			42740.08088		229.54400		875.00000 
 43692.65567		 305.27265			43387.38302		70.72800		324.00000 
 43692.65567		 952.57479			42740.08088		229.54400		875.00000 
 43692.65567		 305.27265			43387.38302		70.72800		324.00000 
 43692.65567		 952.57479			42740.08088		229.54400		875.00000 
 43692.65567		 305.27265			43387.38302		70.72800		324.00000 
 43692.65567		 952.57479			42740.08088		229.54400		875.00000 
 43692.65567		 305.27265			43387.38302		70.72800		324.00000 
 43692.65567		 952.57479			42740.08088		229.54400		875.00000 
 43692.65567		 305.27265			43387.38302		70.72800		324.00000 
 43692.65567		 952.57479			42740.08088		229.54400		875.00000 
 43692.65567		 305.27265			43387.38302		70.72800		324.00000 
 43692.65567		 952.57479			42740.08088		229.54400		875.00000 
 43692.65567		 305.27265			43387.38302		70.72800		324.00000 
 43692.65567		 952.57479			42740.08088		229.54400		875.00000 
 43692.65567		 305.27265			43387.38302		70.72800		324.00000 
 43692.65567		 952.57479			42740.08088		229.54400		875.00000 
 43692.65567		 305.27265			43387.38302		70.72800		324.00000 
 43692.65567		 952.57479			42740.08088		229.54400		875.00000 
 43692.65567		 305.27265			43387.38302		70.72800		324.00000 
 43692.65567		 952.57479			42740.08088		229.54400		875.00000 
 43692.65567		 305.27265			43387.38302		70.72800		324.00000 
 43692.65567		 952.57479			42740.08088		229.54400		875.00000 
 43692.65567		 305.27265			43387.38302		70.72800		324.00000 
 43692.65567		 952.57479			42740.08088		229.54400		875.00000 
 43692.65567		 305.27265			43387.38302		70.72800		324.00000 
 43692.65567		 952.57479			42740.08088		229.54400		875.00000 
 43692.65567		 305.27265			43387.38302		70.72800		324.00000 
 43692.65567		 952.57479			42740.08088		229.54400		875.00000 
 43692.65567		 305.27265			43387.38302		70.72800		324.00000 
 43692.65567		 952.57479			42740.08088		229.54400		875.00000 
 43692.65567		 305.27265			43387.38302		70.72800		324.00000 
 43692.65567		 952.57479			42740.08088		229.54400		875.00000 
 43692.65567		 305.27265			43387.38302		70.72800		324.00000 
 43692.65567		 952.57479			42740.08088		229.54400		875.00000 
 43692.65567		 305.27265			43387.38302		70.72800		324.00000 
 43692.65567		 952.57479			42740.08088		229.54400		875.00000 
 43692.65567		 305.27265			43387.38302		70.72800		324.00000 
 43692.65567		 952.57479			42740.08088		229.54400		875.00000 
 43692.65567		 305.27265			43387.38302		70.72800		324.00000 
 43692.65567		 952.57479			42740.08088		229.54400		875.00000 
 43692.65567		 305.27265			43387.38302		70.72800		324.00000 
 43692.65567		 952.57479			42740.08088		229.54400		875.00000 
 43692.65567		 305.27265			43387.38302		70.72800		324.00000 
 43692.65567		 952.57479			42740.08088		229.54400		875.00000 
 43692.65567		 305.27265			43387.38302		70.72800		324.00000 
 43692.65567		 952.57479			42740.08088		229.54400		875.00000 
 43692.65567		 305.27265			43387.38302		70.72800		324.00000 
 43692.65567		 952.57479			42740.08088		229.54400		875.00000 
 43692.65567		 305.27265			43387.38302		70.72800		324.00000 
 43692.65567		 952.57479			42740.08088		229.54400		875.00000 
 43692.65567		 305.27265			43387.38302		70.72800		324.00000 
 43692.65567		 952.57479			42740.08088		229.54400		875.00000 
 43692.65567		 305.27265			43387.38302		70.72800		324.00000 
 43692.65567		 952.57479			42740.08088		229.54400		875.00000 
 43692.65567		 305.27265			43387.38302		70.72800		324.00000 
 43692.65567		 952.57479			42740.08088		229.54400		875.00000 
 43692.65567		 305.27265			43387.38302		70.72800		324.00000 
 43692.65567		 952.57479			42740.08088		229.54400		875.00000 
 43692.65567		 305.27265			43387.38302		70.72800		324.00000 
 43692.65567		 952.57479			42740.08088		229.54400		875.00000 
 43692.65567		 305.27265			43387.38302		70.72800		324.00000 
 43692.65567		 952.57479			42740.08088		229.54400		875.00000 
 43692.65567		 305.27265			43387.38302		70.72800		324.00000 
 43692.65567		 952.57479			42740.08088		229.54400		875.00000 
 43692.65567		 305.27265			43387.38302		70.72800		324.00000 
 43692.65567		 952.57479			42740.08088		229.54400		875.00000 
 43692.65567		 305.27265			43387.38302		70.72800		324.00000 
 43692.65567		 952.57479			42740.08088		229.54400		875.00000 
 43692.65567		 305.27265			43387.38302		70.72800		324.00000 
 43692.65567		 952.57479			42740.08088		229.54400		875.00000 
 43692.65567		 305.27265			43387.38302		70.72800		324.00000 
 43692.65567		 952.57479			42740.08088		229.54400		875.00000 
 43692.65567		 305.27265			43387.38302		70.72800		324.00000 
 43692.65567		 952.57479			42740.08088		229.54400		875.00000 
 43692.65567		 305.27265			43387.38302		70.72800		324.00000 
 43692.65567		 952.57479			42740.08088		229.54400		875.00000 
 43692.65567		 305.27265			43387.38302		70.72800		324.00000 
 43692.65567		 952.57479			42740.08088		229.54400		875.00000 
 43692.65567		 305.27265			43387.38302		70.72800		324.00000 
 43692.65567		 952.57479			42740.08088		229.54400		875.00000 
 43692.65567		 305.27265			43387.38302		70.72800		324.00000 
 43692.65567		 952.57479			42740.08088		229.54400		875.00000 
 43692.65567		 305.27265			43387.38302		70.72800		324.00000 
 43692.65567		 952.57479			42740.08088		229.54400		875.00000 
 43692.65567		 305.27265			43387.38302		70.72800		324.00000 
 43692.65567		 952.57479			42740.08088		229.54400		875.00000 
 43692.65567		 305.27265			43387.38302		70.72800		324.00000 
 43692.65567		 952.57479			42740.08088		229.54400		875.00000 
 43692.65567		 305.27265			43387.38302		70.72800		324.00000 
 43692.65567		 952.57479			42740.08088		229.54400		875.00000 
 43692.65567		 305.27265			43387.38302		70.72800		324.00000 
 43692.65567		 952.57479			42740.08088		229.54400		875.00000 
 43692.65567		 305.27265			43387.38302		70.72800		324.00000 
 43692.65567		 952.57479			42740.08088		229.54400		875.00000 
 43692.65567		 305.27265			43387.38302		70.72800		324.00000 
 43692.65567		 952.57479			42740.08088		229.54400		875.00000 
 43692.65567		 305.27265			43387.38302		70.72800		324.00000 
 43692.65567		 952.57479			42740.08088		229.54400		875.00000 
 43692.65567		 305.27265			43387.38302		70.72800		324.00000 
 43692.65567		 952.57479			42740.08088		229.54400		875.00000 
 43692.65567		 305.27265			43387.38302		70.72800		324.00000 
 43692.65567		 952.57479			42740.08088		229.54400		875.00000 
 43692.65567		 305.27265			43387.38302		70.72800		324.00000 
 43692.65567		 952.57479			42740.08088		229.54400		875.00000 
 43692.65567		 305.27265			43387.38302		70.72800		324.00000 
 43692.65567		 952.57479			42740.08088		229.54400		875.00000 
 43692.65567		 305.27265			43387.38302		70.72800		324.00000 
 43692.65567		 952.57479			42740.08088		229.54400		875.00000 
 43692.65567		 305.27265			43387.38302		70.72800		324.00000 
 43692.65567		 952.57479			42740.08088		229.54400		875.00000 
 43692.65567		 305.27265			43387.38302		70.72800		324.00000 
 43692.65567		 952.57479			42740.08088		229.54400		875.00000 
 43692.65567		 305.27265			43387.38302		70.72800		324.00000 
 43692.65567		 952.57479			42740.08088		229.54400		875.00000 
 43692.65567		 305.27265			43387.38302		70.72800		324.00000 
 43692.65567		 952.57479			42740.08088		229.54400		875.00000 
 43692.65567		 305.27265			43387.38302		70.72800		324.00000 
 43692.65567		 952.57479			42740.08088		228.94600		875.00000 
 43692.65567		 305.27265			43387.38302		70.72800		324.00000 
 43692.65567		 952.57479			42740.08088		228.94600		875.00000 
 43692.65567		 305.27265			43387.38302		70.72800		324.00000 
 43692.65567		 952.57479			42740.08088		228.94600		875.00000 
 43692.65567		 305.27265			43387.38302		70.72800		324.00000 
 43692.65567		 952.57479			42740.08088		228.94600		875.00000 
 43692.65567		 305.27265			43387.38302		70.72800		324.00000 
 43692.65567		 952.57479			42740.08088		228.94600		875.00000 
 43692.65567		 305.27265			43387.38302		70.72800		324.00000 
 43692.65567		 952.57479			42740.08088		228.94600		875.00000 
 43692.65567		 305.27265			43387.38302		70.72800		324.00000 
 43692.65567		 952.57479			42740.08088		228.94600		875.00000 
 43692.65567		 305.27265			43387.38302		70.72800		324.00000 
 43692.65567		 952.57479			42740.08088		228.94600		875.00000 
 43692.65567		 305.27265			43387.38302		70.72800		324.00000 
 43692.65567		 952.57479			42740.08088		228.94600		875.00000 
 43692.65567		 305.27265			43387.38302		70.72800		324.00000 
 43692.65567		 952.57479			42740.08088		228.94600		875.00000 
 43692.65567		 305.27265			43387.38302		70.72800		324.00000 
 43692.65567		 952.57479			42740.08088		228.94600		875.00000 
 43692.65567		 305.27265			43387.38302		70.72800		324.00000 
 43692.65567		 952.57479			42740.08088		228.94600		875.00000 
 43692.65567		 305.27265			43387.38302		70.72800		324.00000 
 43692.65567		 952.57479			42740.08088		228.94600		875.00000 
 43692.65567		 305.27265			43387.38302		70.72800		324.00000 
 43692.65567		 952.57479			42740.08088		228.94600		875.00000 
 43692.65567		 305.27265			43387.38302		70.72800		324.00000 
 43692.65567		 952.57479			42740.08088		228.94600		875.00000 
 43692.65567		 305.27265			43387.38302		70.72800		324.00000 
 43692.65567		 952.57479			42740.08088		228.94600		875.00000 
 43692.65567		 305.27265			43387.38302		70.72800		324.00000 
 43692.65567		 952.57479			42740.08088		228.94600		875.00000 
 43692.65567		 305.27265			43387.38302		70.72800		324.00000 
 43692.65567		 952.57479			42740.08088		228.94600		875.00000 
 43692.65567		 305.27265			43387.38302		70.72800		324.00000 
 43692.65567		 952.57479			42740.08088		228.94600		875.00000 
 43692.65567		 305.27265			43387.38302		70.72800		324.00000 
 43692.65567		 952.57479			42740.08088		228.94600		875.00000 
 43692.65567		 305.27265			43387.38302		70.72800		324.00000 
 43692.65567		 952.57479			42740.08088		228.94600		875.00000 
 43692.65567		 305.27265			43387.38302		70.72800		324.00000 
 43692.65567		 952.57479			42740.08088		228.94600		875.00000 
 43692.65567		 305.27265			43387.38302		70.72800		324.00000 
 43692.65567		 952.57479			42740.08088		228.94600		875.00000 
 43692.65567		 305.27265			43387.38302		70.72800		324.00000 
 43692.65567		 952.57479			42740.08088		228.94600		875.00000 
 43692.65567		 305.27265			43387.38302		70.72800		324.00000 
 43692.65567		 952.57479			42740.08088		228.94600		875.00000 
 43692.65567		 305.27265			43387.38302		70.72800		324.00000 
 43692.65567		 952.57479			42740.08088		228.94600		875.00000 
 43692.65567		 305.27265			43387.38302		70.72800		324.00000 
 43692.65567		 952.57479			42740.08088		228.94600		875.00000 
 43692.65567		 305.27265			43387.38302		70.72800		324.00000 
 43692.65567		 952.57479			42740.08088		228.94600		875.00000 
 43692.65567		 305.27265			43387.38302		70.72800		324.00000 
 43692.65567		 952.57479			42740.08088		228.94600		875.00000 
 43692.65567		 305.27265			43387.38302		70.72800		324.00000 
 43692.65567		 952.57479			42740.08088		228.94600		875.00000 
 43692.65567		 305.27265			43387.38302		70.72800		324.00000 
 43692.65567		 952.57479			42740.08088		228.94600		875.00000 
 43692.65567		 305.27265			43387.38302		70.72800		324.00000 
 43692.65567		 952.57479			42740.08088		228.94600		875.00000 
 43692.65567		 305.27265			43387.38302		70.72800		324.00000 
 43692.65567		 952.57479			42740.08088		228.94600		875.00000 
 43692.65567		 305.27265			43387.38302		70.72800		324.00000 
 43692.65567		 952.57479			42740.08088		228.94600		875.00000 
 43692.65567		 305.27265			43387.38302		70.72800		324.00000 
 43692.65567		 952.57479			42740.08088		228.94600		875.00000 
 43692.65567		 305.27265			43387.38302		70.72800		324.00000 
 43692.65567		 952.57479			42740.08088		228.94600		875.00000 
 43692.65567		 305.27265			43387.38302		70.72800		324.00000 
 43692.65567		 952.57479			42740.08088		228.94600		875.00000 
 43692.65567		 305.27265			43387.38302		70.72800		324.00000 
 43692.65567		 952.57479			42740.08088		228.94600		875.00000 
 43692.65567		 305.27265			43387.38302		70.72800		324.00000 
 43692.65567		 952.57479			42740.08088		228.94600		875.00000 
 43692.65567		 305.27265			43387.38302		70.72800		324.00000 
 43692.65567		 952.57479			42740.08088		228.94600		875.00000 
 43692.65567		 305.27265			43387.38302		70.72800		324.00000 
 43692.65567		 952.57479			42740.08088		228.94600		875.00000 
 43692.65567		 305.27265			43387.38302		70.72800		324.00000 
 43692.65567		 952.57479			42740.08088		228.94600		875.00000 
 43692.65567		 305.27265			43387.38302		70.72800		324.00000 
 43692.65567		 952.57479			42740.08088		228.94600		875.00000 
 43692.65567		 305.27265			43387.38302		70.72800		324.00000 
 43692.65567		 952.57479			42740.08088		228.94600		875.00000 
 43692.65567		 305.27265			43387.38302		70.72800		324.00000 
 43692.65567		 952.57479			42740.08088		228.94600		875.00000 
 43692.65567		 305.27265			43387.38302		70.72800		324.00000 
 43692.65567		 952.57479			42740.08088		228.94600		875.00000 
 43692.65567		 305.27265			43387.38302		70.72800		324.00000 
 43692.65567		 952.57479			42740.08088		228.94600		875.00000 
 43692.65567		 305.27265			43387.38302		70.72800		324.00000 
 43692.65567		 952.57479			42740.08088		228.94600		875.00000 
 43692.65567		 305.27265			43387.38302		70.72800		324.00000 
 43692.65567		 952.57479			42740.08088		228.94600		875.00000 
 43692.65567		 305.27265			43387.38302		70.72800		324.00000 
 43692.65567		 952.57479			42740.08088		228.94600		875.00000 
 43692.65567		 305.27265			43387.38302		70.72800		324.00000 
 43692.65567		 952.57479			42740.08088		228.94600		875.00000 
 43692.65567		 305.27265			43387.38302		70.72800		324.00000 
 43692.65567		 952.57479			42740.08088		228.94600		875.00000 
 43692.65567		 305.27265			43387.38302		70.72800		324.00000 
 43692.65567		 952.57479			42740.08088		228.94600		875.00000 
 43692.65567		 305.27265			43387.38302		70.72800		324.00000 
 43692.65567		 952.57479			42740.08088		228.94600		875.00000 
 43692.65567		 305.27265			43387.38302		70.72800		324.00000 
 43692.65567		 952.57479			42740.08088		228.94600		875.00000 
 43692.65567		 305.27265			43387.38302		70.72800		324.00000 
 43692.65567		 952.57479			42740.08088		228.94600		875.00000 
 43692.65567		 305.27265			43387.38302		70.72800		324.00000 
 43692.65567		 952.57479			42740.08088		228.94600		875.00000 
 43692.65567		 305.27265			43387.38302		70.72800		324.00000 
 43692.65567		 952.57479			42740.08088		228.94600		875.00000 
 43692.65567		 305.27265			43387.38302		70.72800		324.00000 
 43692.65567		 952.57479			42740.08088		228.94600		875.00000 
 43692.65567		 305.27265			43387.38302		70.72800		324.00000 
 43692.65567		 952.57479			42740.08088		228.94600		875.00000 
 43692.65567		 305.27265			43387.38302		70.72800		324.00000 
 43692.65567		 952.57479			42740.08088		228.94600		875.00000 
 43692.65567		 305.27265			43387.38302		70.72800		324.00000 
 43692.65567		 952.57479			42740.08088		228.94600		875.00000 
 43692.65567		 305.27265			43387.38302		70.72800		324.00000 
 43692.65567		 952.57479			42740.08088		228.94600		875.00000 
 43692.65567		 305.27265			43387.38302		70.72800		324.00000 
 43692.65567		 952.57479			42740.08088		228.94600		875.00000 
 43692.65567		 305.27265			43387.38302		70.72800		324.00000 
 43692.65567		 952.57479			42740.08088		228.94600		875.00000 
 43692.65567		 305.27265			43387.38302		70.72800		324.00000 
 43692.65567		 952.57479			42740.08088		229.54400		875.00000 
 43692.65567		 305.27265			43387.38302		70.72800		324.00000 
 43692.65567		 952.57479			42740.08088		229.54400		875.00000 
 43692.65567		 305.27265			43387.38302		70.72800		324.00000 
 43692.65567		 952.57479			42740.08088		229.54400		875.00000 
 43692.65567		 305.27265			43387.38302		70.72800		324.00000 
 43692.65567		 952.57479			42740.08088		229.54400		875.00000 
 43692.65567		 305.27265			43387.38302		70.72800		324.00000 
 43692.65567		 952.57479			42740.08088		229.54400		875.00000 
 43692.65567		 305.27265			43387.38302		70.72800		324.00000 
 43692.65567		 952.57479			42740.08088		229.54400		875.00000 
 43692.65567		 305.27265			43387.38302		70.72800		324.00000 
 43692.65567		 952.57479			42740.08088		229.54400		875.00000 
 43692.65567		 305.27265			43387.38302		70.72800		324.00000 
 43692.65567		 952.57479			42740.08088		229.54400		875.00000 
 43692.65567		 305.27265			43387.38302		70.72800		324.00000 
 43692.65567		 952.57479			42740.08088		229.54400		875.00000 
 43692.65567		 305.27265			43387.38302		70.72800		324.00000 
 43692.65567		 952.57479			42740.08088		229.54400		875.00000 
 43692.65567		 305.27265			43387.38302		70.72800		324.00000 
 43692.65567		 952.57479			42740.08088		229.54400		875.00000 
 43692.65567		 305.27265			43387.38302		70.72800		324.00000 
 43692.65567		 952.57479			42740.08088		229.54400		875.00000 
 43692.65567		 305.27265			43387.38302		70.72800		324.00000 
 43692.65567		 952.57479			42740.08088		229.54400		875.00000 
 43692.65567		 305.27265			43387.38302		70.72800		324.00000 
 43692.65567		 952.57479			42740.08088		229.54400		875.00000 
 43692.65567		 305.27265			43387.38302		70.72800		324.00000 
 43692.65567		 952.57479			42740.08088		229.54400		875.00000 
 43692.65567		 305.27265			43387.38302		70.72800		324.00000 
 43692.65567		 952.57479			42740.08088		229.54400		875.00000 
 43692.65567		 305.27265			43387.38302		70.72800		324.00000 
 43692.65567		 952.57479			42740.08088		229.54400		875.00000 
 43692.65567		 305.27265			43387.38302		70.72800		324.00000 
 43692.65567		 952.57479			42740.08088		229.54400		875.00000 
 43692.65567		 305.27265			43387.38302		70.72800		324.00000 
 43692.65567		 952.57479			42740.08088		229.54400		875.00000 
 43692.65567		 305.27265			43387.38302		70.72800		324.00000 
 43692.65567		 952.57479			42740.08088		229.54400		875.00000 
 43692.65567		 305.27265			43387.38302		70.72800		324.00000 
 43692.65567		 952.57479			42740.08088		229.54400		875.00000 
 43692.65567		 305.27265			43387.38302		70.72800		324.00000 
 43692.65567		 952.57479			42740.08088		229.54400		875.00000 
 43692.65567		 305.27265			43387.38302		70.72800		324.00000 
 43692.65567		 952.57479			42740.08088		229.54400		875.00000 
 43692.65567		 305.27265			43387.38302		70.72800		324.00000 
 43692.65567		 952.57479			42740.08088		229.54400		875.00000 
 43692.65567		 305.27265			43387.38302		70.72800		324.00000 
 43692.65567		 952.57479			42740.08088		229.54400		875.00000 
 43692.65567		 305.27265			43387.38302		70.72800		324.00000 
 43692.65567		 952.57479			42740.08088		229.54400		875.00000 
 43692.65567		 305.27265			43387.38302		70.72800		324.00000 
 43692.65567		 952.57479			42740.08088		229.54400		875.00000 
 43692.65567		 305.27265			43387.38302		70.72800		324.00000 
 43692.65567		 952.57479			42740.08088		229.54400		875.00000 
 43692.65567		 305.27265			43387.38302		70.72800		324.00000 
 43692.65567		 952.57479			42740.08088		229.54400		875.00000 
 43692.65567		 305.27265			43387.38302		70.72800		324.00000 
 43692.65567		 952.57479			42740.08088		229.54400		875.00000 
 43692.65567		 305.27265			43387.38302		70.72800		324.00000 
 43692.65567		 952.57479			42740.08088		229.54400		875.00000 
 43692.65567		 305.27265			43387.38302		70.72800		324.00000 
 43692.65567		 952.57479			42740.08088		229.54400		875.00000 
 43692.65567		 305.27265			43387.38302		70.72800		324.00000 
 43692.65567		 952.57479			42740.08088		229.54400		875.00000 
 43692.65567		 305.27265			43387.38302		70.72800		324.00000 
 43692.65567		 952.57479			42740.08088		229.54400		875.00000 
 43692.65567		 305.27265			43387.38302		70.72800		324.00000 
 43692.65567		 952.57479			42740.08088		229.54400		875.00000 
 43692.65567		 305.27265			43387.38302		70.72800		324.00000 
 43692.65567		 952.57479			42740.08088		229.54400		875.00000 
 43692.65567		 305.27265			43387.38302		70.72800		324.00000 
 43692.65567		 952.57479			42740.08088		229.54400		875.00000 
 43692.65567		 305.27265			43387.38302		70.72800		324.00000 
 43692.65567		 952.57479			42740.08088		229.54400		875.00000 
 43692.65567		 305.27265			43387.38302		70.72800		324.00000 
 43692.65567		 952.57479			42740.08088		229.54400		875.00000 
 43692.65567		 305.27265			43387.38302		70.72800		324.00000 
 43692.65567		 814.13997			42878.51570		229.54400		875.00000 
 43692.65567		 305.27265			43387.38302		70.72800		324.00000 
 43692.65567		 814.13997			42878.51570		229.54400		875.00000 
 43692.65567		 305.27265			43387.38302		70.72800		324.00000 
 43692.65567		 675.70515			43016.95053		229.54400		875.00000 
 43692.65567		 305.27265			43387.38302		70.72800		324.00000 
 43692.65567		 675.70515			43016.95053		229.54400		875.00000 
 43692.65567		 305.27265			43387.38302		70.72800		324.00000 
 43692.65567		 537.27032			43155.38535		229.54400		875.00000 
 43692.65567		 305.27265			43387.38302		70.72800		324.00000 
 43692.65567		 537.27032			43155.38535		229.54400		875.00000 
 43692.65567		 305.27265			43387.38302		70.72800		324.00000 
 43692.65567		 537.27032			43155.38535		229.54400		875.00000 
 43692.65567		 305.27265			43387.38302		70.72800		324.00000 
 43692.65567		 537.27032			43155.38535		229.54400		875.00000 
 43692.65567		 305.27265			43387.38302		70.72800		324.00000 
 43692.65567		 537.27032			43155.38535		229.54400		875.00000 
 43692.65567		 305.27265			43387.38302		70.72800		324.00000 
 43692.65567		 537.27032			43155.38535		229.54400		875.00000 
 43692.65567		 305.27265			43387.38302		70.72800		324.00000 
 43692.65567		 537.27032			43155.38535		229.54400		875.00000 
 43692.65567		 305.27265			43387.38302		70.72800		324.00000 
 43692.65567		 537.27032			43155.38535		229.54400		875.00000 
 43692.65567		 305.27265			43387.38302		70.72800		324.00000 
 43692.65567		 537.27032			43155.38535		229.54400		875.00000 
 43692.65567		 305.27265			43387.38302		70.72800		324.00000 
 43692.65567		 537.27032			43155.38535		229.54400		875.00000 
 43692.65567		 305.27265			43387.38302		70.72800		324.00000 
 43692.65567		 537.27032			43155.38535		229.54400		875.00000 
 43692.65567		 305.27265			43387.38302		70.72800		324.00000 
 43692.65567		 537.27032			43155.38535		229.54400		875.00000 
 43692.65567		 305.27265			43387.38302		70.72800		324.00000 
 43692.65567		 537.27032			43155.38535		229.54400		875.00000 
 43692.65567		 305.27265			43387.38302		70.72800		324.00000 
 43692.65567		 537.27032			43155.38535		229.54400		875.00000 
 43692.65567		 305.27265			43387.38302		70.72800		324.00000 
 43692.65567		 537.27032			43155.38535		229.54400		875.00000 
 43692.65567		 305.27265			43387.38302		70.72800		324.00000 
 43692.65567		 537.27032			43155.38535		229.54400		875.00000 
 43692.65567		 305.27265			43387.38302		70.72800		324.00000 
 43692.65567		 537.27032			43155.38535		198.75400		875.00000 
 43692.65567		 305.27265			43387.38302		70.72800		324.00000 
 43692.65567		 537.27032			43155.38535		198.75400		875.00000 
 43692.65567		 305.27265			43387.38302		70.72800		324.00000 
 43692.65567		 537.27032			43155.38535		198.75400		875.00000 
 43692.65567		 305.27265			43387.38302		70.72800		324.00000 
 43692.65567		 537.27032			43155.38535		198.75400		875.00000 
 43692.65567		 305.27265			43387.38302		70.72800		324.00000 
 43692.65567		 537.27032			43155.38535		198.75400		875.00000 
 43692.65567		 305.27265			43387.38302		70.72800		324.00000 
 43692.65567		 529.63254			43163.02313		198.75400		875.00000 
 43692.65567		 305.27265			43387.38302		70.72800		324.00000 
 43692.65567		 525.81365			43166.84203		198.75400		875.00000 
 43692.65567		 305.27265			43387.38302		70.72800		324.00000 
 43692.65567		 261.35540			43431.30027		198.75400		875.00000 
 43692.65567		 261.35540			43431.30027		70.72800		324.00000 
