Memory Total (MiB) 	 Memory Used (MiB) 	    Memory Free (MiB) 	 Power Drawed (W) 	 Clocks (Mhz) 	 
 43692.65567		 261.35540			43431.30027		171.36400		875.00000 
 43692.65567		 261.35540			43431.30027		70.13800		324.00000 
 43692.65567		 261.35540			43431.30027		171.36400		875.00000 
 43692.65567		 261.35540			43431.30027		70.13800		324.00000 
 43692.65567		 261.35540			43431.30027		171.36400		875.00000 
 43692.65567		 261.35540			43431.30027		70.13800		324.00000 
 43692.65567		 261.35540			43431.30027		171.36400		875.00000 
 43692.65567		 261.35540			43431.30027		70.13800		324.00000 
 43692.65567		 261.35540			43431.30027		171.36400		875.00000 
 43692.65567		 261.35540			43431.30027		70.13800		324.00000 
 43692.65567		 261.35540			43431.30027		171.36400		875.00000 
 43692.65567		 261.35540			43431.30027		70.13800		324.00000 
 43692.65567		 261.35540			43431.30027		171.36400		875.00000 
 43692.65567		 261.35540			43431.30027		70.13800		324.00000 
 43692.65567		 261.35540			43431.30027		171.36400		875.00000 
 43692.65567		 261.35540			43431.30027		70.13800		324.00000 
 43692.65567		 261.35540			43431.30027		171.36400		875.00000 
 43692.65567		 261.35540			43431.30027		70.13800		324.00000 
 43692.65567		 261.35540			43431.30027		171.36400		875.00000 
 43692.65567		 261.35540			43431.30027		70.13800		324.00000 
 43692.65567		 261.35540			43431.30027		171.36400		875.00000 
 43692.65567		 261.35540			43431.30027		70.13800		324.00000 
 43692.65567		 261.35540			43431.30027		171.36400		875.00000 
 43692.65567		 261.35540			43431.30027		70.13800		324.00000 
 43692.65567		 261.35540			43431.30027		171.36400		875.00000 
 43692.65567		 261.35540			43431.30027		70.13800		324.00000 
 43692.65567		 261.35540			43431.30027		171.36400		875.00000 
 43692.65567		 261.35540			43431.30027		70.13800		324.00000 
 43692.65567		 261.35540			43431.30027		171.36400		875.00000 
 43692.65567		 261.35540			43431.30027		70.13800		324.00000 
 43692.65567		 261.35540			43431.30027		171.36400		875.00000 
 43692.65567		 261.35540			43431.30027		70.13800		324.00000 
 43692.65567		 261.35540			43431.30027		171.36400		875.00000 
 43692.65567		 261.35540			43431.30027		70.13800		324.00000 
 43692.65567		 261.35540			43431.30027		171.36400		875.00000 
 43692.65567		 261.35540			43431.30027		70.13800		324.00000 
 43692.65567		 265.17429			43427.48138		171.36400		875.00000 
 43692.65567		 261.35540			43431.30027		70.13800		324.00000 
 43692.65567		 265.17429			43427.48138		171.36400		875.00000 
 43692.65567		 261.35540			43431.30027		70.13800		324.00000 
 43692.65567		 272.81207			43419.84360		171.36400		875.00000 
 43692.65567		 261.35540			43431.30027		70.13800		324.00000 
 43692.65567		 272.81207			43419.84360		171.36400		875.00000 
 43692.65567		 261.35540			43431.30027		70.13800		324.00000 
 43692.65567		 272.81207			43419.84360		171.36400		875.00000 
 43692.65567		 265.17429			43427.48138		70.13800		324.00000 
 43692.65567		 272.81207			43419.84360		171.36400		875.00000 
 43692.65567		 265.17429			43427.48138		70.13800		324.00000 
 43692.65567		 272.81207			43419.84360		171.36400		875.00000 
 43692.65567		 272.81207			43419.84360		70.13800		324.00000 
 43692.65567		 272.81207			43419.84360		171.36400		875.00000 
 43692.65567		 272.81207			43419.84360		70.13800		324.00000 
 43692.65567		 272.81207			43419.84360		171.36400		875.00000 
 43692.65567		 272.81207			43419.84360		70.13800		324.00000 
 43692.65567		 305.27265			43387.38302		171.36400		875.00000 
 43692.65567		 305.27265			43387.38302		70.13800		324.00000 
 43692.65567		 305.27265			43387.38302		171.36400		875.00000 
 43692.65567		 305.27265			43387.38302		70.13800		324.00000 
 43692.65567		 305.27265			43387.38302		171.36400		875.00000 
 43692.65567		 305.27265			43387.38302		70.13800		324.00000 
 43692.65567		 305.27265			43387.38302		171.36400		875.00000 
 43692.65567		 305.27265			43387.38302		70.13800		324.00000 
 43692.65567		 305.27265			43387.38302		171.36400		875.00000 
 43692.65567		 305.27265			43387.38302		70.13800		324.00000 
 43692.65567		 309.09154			43383.56413		171.36400		875.00000 
 43692.65567		 305.27265			43387.38302		70.13800		324.00000 
 43692.65567		 310.52363			43382.13204		171.36400		875.00000 
 43692.65567		 305.27265			43387.38302		70.13800		324.00000 
 43692.65567		 311.00099			43381.65468		171.36400		875.00000 
 43692.65567		 305.27265			43387.38302		70.13800		324.00000 
 43692.65567		 311.00099			43381.65468		146.52200		875.00000 
 43692.65567		 305.27265			43387.38302		70.13800		324.00000 
 43692.65567		 311.00099			43381.65468		146.52200		875.00000 
 43692.65567		 305.27265			43387.38302		70.13800		324.00000 
 43692.65567		 311.00099			43381.65468		146.52200		875.00000 
 43692.65567		 305.27265			43387.38302		70.13800		324.00000 
 43692.65567		 311.00099			43381.65468		146.52200		875.00000 
 43692.65567		 305.27265			43387.38302		70.13800		324.00000 
 43692.65567		 311.00099			43381.65468		146.52200		875.00000 
 43692.65567		 305.27265			43387.38302		70.13800		324.00000 
 43692.65567		 311.00099			43381.65468		146.52200		875.00000 
 43692.65567		 305.27265			43387.38302		70.13800		324.00000 
 43692.65567		 311.00099			43381.65468		146.52200		875.00000 
 43692.65567		 305.27265			43387.38302		70.13800		324.00000 
 43692.65567		 311.00099			43381.65468		146.52200		875.00000 
 43692.65567		 305.27265			43387.38302		70.13800		324.00000 
 43692.65567		 311.00099			43381.65468		146.52200		875.00000 
 43692.65567		 305.27265			43387.38302		70.13800		324.00000 
 43692.65567		 311.00099			43381.65468		146.52200		875.00000 
 43692.65567		 305.27265			43387.38302		70.13800		324.00000 
 43692.65567		 311.00099			43381.65468		146.52200		875.00000 
 43692.65567		 305.27265			43387.38302		70.13800		324.00000 
 43692.65567		 311.00099			43381.65468		146.52200		875.00000 
 43692.65567		 305.27265			43387.38302		70.13800		324.00000 
 43692.65567		 311.00099			43381.65468		146.52200		875.00000 
 43692.65567		 305.27265			43387.38302		70.13800		324.00000 
 43692.65567		 311.00099			43381.65468		146.52200		875.00000 
 43692.65567		 305.27265			43387.38302		70.13800		324.00000 
 43692.65567		 311.00099			43381.65468		146.52200		875.00000 
 43692.65567		 305.27265			43387.38302		70.13800		324.00000 
 43692.65567		 311.00099			43381.65468		146.52200		875.00000 
 43692.65567		 305.27265			43387.38302		70.13800		324.00000 
 43692.65567		 311.00099			43381.65468		146.52200		875.00000 
 43692.65567		 305.27265			43387.38302		70.13800		324.00000 
 43692.65567		 311.00099			43381.65468		146.52200		875.00000 
 43692.65567		 305.27265			43387.38302		70.13800		324.00000 
 43692.65567		 311.00099			43381.65468		146.52200		875.00000 
 43692.65567		 305.27265			43387.38302		70.13800		324.00000 
 43692.65567		 311.00099			43381.65468		146.52200		875.00000 
 43692.65567		 305.27265			43387.38302		70.13800		324.00000 
 43692.65567		 311.00099			43381.65468		146.52200		875.00000 
 43692.65567		 305.27265			43387.38302		70.13800		324.00000 
 43692.65567		 311.00099			43381.65468		146.52200		875.00000 
 43692.65567		 305.27265			43387.38302		70.13800		324.00000 
 43692.65567		 311.00099			43381.65468		146.52200		875.00000 
 43692.65567		 305.27265			43387.38302		70.13800		324.00000 
 43692.65567		 311.00099			43381.65468		146.52200		875.00000 
 43692.65567		 305.27265			43387.38302		70.13800		324.00000 
 43692.65567		 311.00099			43381.65468		146.52200		875.00000 
 43692.65567		 305.27265			43387.38302		70.13800		324.00000 
 43692.65567		 311.00099			43381.65468		146.52200		875.00000 
 43692.65567		 305.27265			43387.38302		70.13800		324.00000 
 43692.65567		 311.00099			43381.65468		146.52200		875.00000 
 43692.65567		 305.27265			43387.38302		70.13800		324.00000 
 43692.65567		 311.00099			43381.65468		146.52200		875.00000 
 43692.65567		 305.27265			43387.38302		70.13800		324.00000 
 43692.65567		 311.00099			43381.65468		146.52200		875.00000 
 43692.65567		 305.27265			43387.38302		70.13800		324.00000 
 43692.65567		 311.00099			43381.65468		146.52200		875.00000 
 43692.65567		 305.27265			43387.38302		70.13800		324.00000 
 43692.65567		 311.00099			43381.65468		146.52200		875.00000 
 43692.65567		 305.27265			43387.38302		70.13800		324.00000 
 43692.65567		 311.00099			43381.65468		136.21600		875.00000 
 43692.65567		 305.27265			43387.38302		70.13800		324.00000 
 43692.65567		 311.00099			43381.65468		136.21600		875.00000 
 43692.65567		 305.27265			43387.38302		70.13800		324.00000 
 43692.65567		 311.00099			43381.65468		136.21600		875.00000 
 43692.65567		 305.27265			43387.38302		70.13800		324.00000 
 43692.65567		 311.00099			43381.65468		136.21600		875.00000 
 43692.65567		 305.27265			43387.38302		70.13800		324.00000 
 43692.65567		 311.00099			43381.65468		136.21600		875.00000 
 43692.65567		 305.27265			43387.38302		70.13800		324.00000 
 43692.65567		 311.00099			43381.65468		136.21600		875.00000 
 43692.65567		 305.27265			43387.38302		70.13800		324.00000 
 43692.65567		 311.00099			43381.65468		136.21600		875.00000 
 43692.65567		 305.27265			43387.38302		70.13800		324.00000 
 43692.65567		 311.00099			43381.65468		136.21600		875.00000 
 43692.65567		 305.27265			43387.38302		70.13800		324.00000 
 43692.65567		 311.00099			43381.65468		136.21600		875.00000 
 43692.65567		 305.27265			43387.38302		70.13800		324.00000 
 43692.65567		 311.00099			43381.65468		136.21600		875.00000 
 43692.65567		 305.27265			43387.38302		70.13800		324.00000 
 43692.65567		 311.00099			43381.65468		136.21600		875.00000 
 43692.65567		 305.27265			43387.38302		70.13800		324.00000 
 43692.65567		 311.00099			43381.65468		136.21600		875.00000 
 43692.65567		 305.27265			43387.38302		70.13800		324.00000 
 43692.65567		 311.00099			43381.65468		136.21600		875.00000 
 43692.65567		 305.27265			43387.38302		70.13800		324.00000 
 43692.65567		 311.00099			43381.65468		136.21600		875.00000 
 43692.65567		 305.27265			43387.38302		70.13800		324.00000 
 43692.65567		 311.00099			43381.65468		136.21600		875.00000 
 43692.65567		 305.27265			43387.38302		70.13800		324.00000 
 43692.65567		 311.00099			43381.65468		136.21600		875.00000 
 43692.65567		 305.27265			43387.38302		70.13800		324.00000 
 43692.65567		 311.00099			43381.65468		136.21600		875.00000 
 43692.65567		 305.27265			43387.38302		70.13800		324.00000 
 43692.65567		 314.81988			43377.83579		136.21600		875.00000 
 43692.65567		 305.27265			43387.38302		70.13800		324.00000 
 43692.65567		 314.81988			43377.83579		136.21600		875.00000 
 43692.65567		 305.27265			43387.38302		70.13800		324.00000 
 43692.65567		 318.63877			43374.01690		136.21600		875.00000 
 43692.65567		 305.27265			43387.38302		70.13800		324.00000 
 43692.65567		 322.45767			43370.19801		136.21600		875.00000 
 43692.65567		 305.27265			43387.38302		70.13800		324.00000 
 43692.65567		 326.27656			43366.37912		136.21600		875.00000 
 43692.65567		 305.27265			43387.38302		70.13800		324.00000 
 43692.65567		 326.27656			43366.37912		136.21600		875.00000 
 43692.65567		 305.27265			43387.38302		70.13800		324.00000 
 43692.65567		 326.27656			43366.37912		136.21600		875.00000 
 43692.65567		 305.27265			43387.38302		70.13800		324.00000 
 43692.65567		 537.27032			43155.38535		136.21600		875.00000 
 43692.65567		 305.27265			43387.38302		70.13800		324.00000 
 43692.65567		 593.59897			43099.05670		136.21600		875.00000 
 43692.65567		 305.27265			43387.38302		70.13800		324.00000 
 43692.65567		 621.76330			43070.89237		136.21600		875.00000 
 43692.65567		 305.27265			43387.38302		70.13800		324.00000 
 43692.65567		 621.76330			43070.89237		136.21600		875.00000 
 43692.65567		 305.27265			43387.38302		70.13800		324.00000 
 43692.65567		 621.76330			43070.89237		136.21600		875.00000 
 43692.65567		 305.27265			43387.38302		70.13800		324.00000 
 43692.65567		 621.76330			43070.89237		136.21600		875.00000 
 43692.65567		 305.27265			43387.38302		70.13800		324.00000 
 43692.65567		 621.76330			43070.89237		136.21600		875.00000 
 43692.65567		 305.27265			43387.38302		70.13800		324.00000 
 43692.65567		 621.76330			43070.89237		136.21600		875.00000 
 43692.65567		 305.27265			43387.38302		70.13800		324.00000 
 43692.65567		 621.76330			43070.89237		136.21600		875.00000 
 43692.65567		 305.27265			43387.38302		70.13800		324.00000 
 43692.65567		 621.76330			43070.89237		136.21600		875.00000 
 43692.65567		 305.27265			43387.38302		70.13800		324.00000 
 43692.65567		 621.76330			43070.89237		136.21600		875.00000 
 43692.65567		 305.27265			43387.38302		70.13800		324.00000 
 43692.65567		 621.76330			43070.89237		136.21600		875.00000 
 43692.65567		 305.27265			43387.38302		70.13800		324.00000 
 43692.65567		 621.76330			43070.89237		136.21600		875.00000 
 43692.65567		 305.27265			43387.38302		70.13800		324.00000 
 43692.65567		 621.76330			43070.89237		136.21600		875.00000 
 43692.65567		 305.27265			43387.38302		70.13800		324.00000 
 43692.65567		 621.76330			43070.89237		136.21600		875.00000 
 43692.65567		 305.27265			43387.38302		70.13800		324.00000 
 43692.65567		 621.76330			43070.89237		136.21600		875.00000 
 43692.65567		 305.27265			43387.38302		70.13800		324.00000 
 43692.65567		 621.76330			43070.89237		136.21600		875.00000 
 43692.65567		 305.27265			43387.38302		70.13800		324.00000 
 43692.65567		 621.76330			43070.89237		136.21600		875.00000 
 43692.65567		 305.27265			43387.38302		70.13800		324.00000 
 43692.65567		 621.76330			43070.89237		153.44600		875.00000 
 43692.65567		 305.27265			43387.38302		70.13800		324.00000 
 43692.65567		 621.76330			43070.89237		153.44600		875.00000 
 43692.65567		 305.27265			43387.38302		70.13800		324.00000 
 43692.65567		 621.76330			43070.89237		153.44600		875.00000 
 43692.65567		 305.27265			43387.38302		70.13800		324.00000 
 43692.65567		 621.76330			43070.89237		153.44600		875.00000 
 43692.65567		 305.27265			43387.38302		70.13800		324.00000 
 43692.65567		 621.76330			43070.89237		153.44600		875.00000 
 43692.65567		 305.27265			43387.38302		70.13800		324.00000 
 43692.65567		 621.76330			43070.89237		153.44600		875.00000 
 43692.65567		 305.27265			43387.38302		70.13800		324.00000 
 43692.65567		 621.76330			43070.89237		153.44600		875.00000 
 43692.65567		 305.27265			43387.38302		70.13800		324.00000 
 43692.65567		 621.76330			43070.89237		153.44600		875.00000 
 43692.65567		 305.27265			43387.38302		70.13800		324.00000 
 43692.65567		 621.76330			43070.89237		153.44600		875.00000 
 43692.65567		 305.27265			43387.38302		70.13800		324.00000 
 43692.65567		 621.76330			43070.89237		153.44600		875.00000 
 43692.65567		 305.27265			43387.38302		70.13800		324.00000 
 43692.65567		 621.76330			43070.89237		153.44600		875.00000 
 43692.65567		 305.27265			43387.38302		70.13800		324.00000 
 43692.65567		 621.76330			43070.89237		153.44600		875.00000 
 43692.65567		 305.27265			43387.38302		70.13800		324.00000 
 43692.65567		 621.76330			43070.89237		153.44600		875.00000 
 43692.65567		 305.27265			43387.38302		70.13800		324.00000 
 43692.65567		 621.76330			43070.89237		153.44600		875.00000 
 43692.65567		 305.27265			43387.38302		70.13800		324.00000 
 43692.65567		 621.76330			43070.89237		153.44600		875.00000 
 43692.65567		 305.27265			43387.38302		70.13800		324.00000 
 43692.65567		 621.76330			43070.89237		153.44600		875.00000 
 43692.65567		 305.27265			43387.38302		70.13800		324.00000 
 43692.65567		 621.76330			43070.89237		153.44600		875.00000 
 43692.65567		 305.27265			43387.38302		70.13800		324.00000 
 43692.65567		 621.76330			43070.89237		153.44600		875.00000 
 43692.65567		 305.27265			43387.38302		70.13800		324.00000 
 43692.65567		 621.76330			43070.89237		153.44600		875.00000 
 43692.65567		 305.27265			43387.38302		70.13800		324.00000 
 43692.65567		 621.76330			43070.89237		153.44600		875.00000 
 43692.65567		 305.27265			43387.38302		70.13800		324.00000 
 43692.65567		 621.76330			43070.89237		153.44600		875.00000 
 43692.65567		 305.27265			43387.38302		70.13800		324.00000 
 43692.65567		 621.76330			43070.89237		153.44600		875.00000 
 43692.65567		 305.27265			43387.38302		70.13800		324.00000 
 43692.65567		 621.76330			43070.89237		153.44600		875.00000 
 43692.65567		 305.27265			43387.38302		70.13800		324.00000 
 43692.65567		 621.76330			43070.89237		153.44600		875.00000 
 43692.65567		 305.27265			43387.38302		70.13800		324.00000 
 43692.65567		 621.76330			43070.89237		153.44600		875.00000 
 43692.65567		 305.27265			43387.38302		70.13800		324.00000 
 43692.65567		 621.76330			43070.89237		153.44600		875.00000 
 43692.65567		 305.27265			43387.38302		70.13800		324.00000 
 43692.65567		 621.76330			43070.89237		153.44600		875.00000 
 43692.65567		 305.27265			43387.38302		70.13800		324.00000 
 43692.65567		 621.76330			43070.89237		153.44600		875.00000 
 43692.65567		 305.27265			43387.38302		70.13800		324.00000 
 43692.65567		 621.76330			43070.89237		153.44600		875.00000 
 43692.65567		 305.27265			43387.38302		70.13800		324.00000 
 43692.65567		 621.76330			43070.89237		153.44600		875.00000 
 43692.65567		 305.27265			43387.38302		70.13800		324.00000 
 43692.65567		 621.76330			43070.89237		153.44600		875.00000 
 43692.65567		 305.27265			43387.38302		70.13800		324.00000 
 43692.65567		 621.76330			43070.89237		153.44600		875.00000 
 43692.65567		 305.27265			43387.38302		70.13800		324.00000 
 43692.65567		 621.76330			43070.89237		153.44600		875.00000 
 43692.65567		 305.27265			43387.38302		70.13800		324.00000 
 43692.65567		 621.76330			43070.89237		153.44600		875.00000 
 43692.65567		 305.27265			43387.38302		70.13800		324.00000 
 43692.65567		 621.76330			43070.89237		153.44600		875.00000 
 43692.65567		 305.27265			43387.38302		70.13800		324.00000 
 43692.65567		 621.76330			43070.89237		153.44600		875.00000 
 43692.65567		 305.27265			43387.38302		70.13800		324.00000 
 43692.65567		 621.76330			43070.89237		153.44600		875.00000 
 43692.65567		 305.27265			43387.38302		70.13800		324.00000 
 43692.65567		 621.76330			43070.89237		153.44600		875.00000 
 43692.65567		 305.27265			43387.38302		70.13800		324.00000 
 43692.65567		 621.76330			43070.89237		153.44600		875.00000 
 43692.65567		 305.27265			43387.38302		70.13800		324.00000 
 43692.65567		 621.76330			43070.89237		153.44600		875.00000 
 43692.65567		 305.27265			43387.38302		70.13800		324.00000 
 43692.65567		 621.76330			43070.89237		153.44600		875.00000 
 43692.65567		 305.27265			43387.38302		70.13800		324.00000 
 43692.65567		 621.76330			43070.89237		153.44600		875.00000 
 43692.65567		 305.27265			43387.38302		70.13800		324.00000 
 43692.65567		 621.76330			43070.89237		153.44600		875.00000 
 43692.65567		 305.27265			43387.38302		70.13800		324.00000 
 43692.65567		 621.76330			43070.89237		153.44600		875.00000 
 43692.65567		 305.27265			43387.38302		70.13800		324.00000 
 43692.65567		 621.76330			43070.89237		153.44600		875.00000 
 43692.65567		 305.27265			43387.38302		70.13800		324.00000 
 43692.65567		 621.76330			43070.89237		153.44600		875.00000 
 43692.65567		 305.27265			43387.38302		70.13800		324.00000 
 43692.65567		 621.76330			43070.89237		153.44600		875.00000 
 43692.65567		 305.27265			43387.38302		70.13800		324.00000 
 43692.65567		 621.76330			43070.89237		153.44600		875.00000 
 43692.65567		 305.27265			43387.38302		70.13800		324.00000 
 43692.65567		 621.76330			43070.89237		153.44600		875.00000 
 43692.65567		 305.27265			43387.38302		70.13800		324.00000 
 43692.65567		 621.76330			43070.89237		153.44600		875.00000 
 43692.65567		 305.27265			43387.38302		70.13800		324.00000 
 43692.65567		 621.76330			43070.89237		153.44600		875.00000 
 43692.65567		 305.27265			43387.38302		70.13800		324.00000 
 43692.65567		 621.76330			43070.89237		153.44600		875.00000 
 43692.65567		 305.27265			43387.38302		70.13800		324.00000 
 43692.65567		 621.76330			43070.89237		153.44600		875.00000 
 43692.65567		 305.27265			43387.38302		70.13800		324.00000 
 43692.65567		 621.76330			43070.89237		153.44600		875.00000 
 43692.65567		 305.27265			43387.38302		70.13800		324.00000 
 43692.65567		 621.76330			43070.89237		153.44600		875.00000 
 43692.65567		 305.27265			43387.38302		70.13800		324.00000 
 43692.65567		 621.76330			43070.89237		153.44600		875.00000 
 43692.65567		 305.27265			43387.38302		70.13800		324.00000 
 43692.65567		 621.76330			43070.89237		153.44600		875.00000 
 43692.65567		 305.27265			43387.38302		70.13800		324.00000 
 43692.65567		 621.76330			43070.89237		153.44600		875.00000 
 43692.65567		 305.27265			43387.38302		70.13800		324.00000 
 43692.65567		 621.76330			43070.89237		153.44600		875.00000 
 43692.65567		 305.27265			43387.38302		70.13800		324.00000 
 43692.65567		 621.76330			43070.89237		153.44600		875.00000 
 43692.65567		 305.27265			43387.38302		70.13800		324.00000 
 43692.65567		 621.76330			43070.89237		153.44600		875.00000 
 43692.65567		 305.27265			43387.38302		70.13800		324.00000 
 43692.65567		 621.76330			43070.89237		153.44600		875.00000 
 43692.65567		 305.27265			43387.38302		70.13800		324.00000 
 43692.65567		 621.76330			43070.89237		153.44600		875.00000 
 43692.65567		 305.27265			43387.38302		70.13800		324.00000 
 43692.65567		 621.76330			43070.89237		153.44600		875.00000 
 43692.65567		 305.27265			43387.38302		70.13800		324.00000 
 43692.65567		 621.76330			43070.89237		195.13800		875.00000 
 43692.65567		 305.27265			43387.38302		70.13800		324.00000 
 43692.65567		 621.76330			43070.89237		195.13800		875.00000 
 43692.65567		 305.27265			43387.38302		70.13800		324.00000 
 43692.65567		 621.76330			43070.89237		195.13800		875.00000 
 43692.65567		 305.27265			43387.38302		70.13800		324.00000 
 43692.65567		 621.76330			43070.89237		195.13800		875.00000 
 43692.65567		 305.27265			43387.38302		70.13800		324.00000 
 43692.65567		 621.76330			43070.89237		195.13800		875.00000 
 43692.65567		 305.27265			43387.38302		70.13800		324.00000 
 43692.65567		 621.76330			43070.89237		195.13800		875.00000 
 43692.65567		 305.27265			43387.38302		70.13800		324.00000 
 43692.65567		 621.76330			43070.89237		195.13800		875.00000 
 43692.65567		 305.27265			43387.38302		70.13800		324.00000 
 43692.65567		 621.76330			43070.89237		195.13800		875.00000 
 43692.65567		 305.27265			43387.38302		70.13800		324.00000 
 43692.65567		 621.76330			43070.89237		195.13800		875.00000 
 43692.65567		 305.27265			43387.38302		70.13800		324.00000 
 43692.65567		 621.76330			43070.89237		195.13800		875.00000 
 43692.65567		 305.27265			43387.38302		70.13800		324.00000 
 43692.65567		 621.76330			43070.89237		195.13800		875.00000 
 43692.65567		 305.27265			43387.38302		70.13800		324.00000 
 43692.65567		 621.76330			43070.89237		195.13800		875.00000 
 43692.65567		 305.27265			43387.38302		70.13800		324.00000 
 43692.65567		 621.76330			43070.89237		195.13800		875.00000 
 43692.65567		 305.27265			43387.38302		70.13800		324.00000 
 43692.65567		 621.76330			43070.89237		195.13800		875.00000 
 43692.65567		 305.27265			43387.38302		70.13800		324.00000 
 43692.65567		 621.76330			43070.89237		195.13800		875.00000 
 43692.65567		 305.27265			43387.38302		70.13800		324.00000 
 43692.65567		 621.76330			43070.89237		195.13800		875.00000 
 43692.65567		 305.27265			43387.38302		70.13800		324.00000 
 43692.65567		 621.76330			43070.89237		195.13800		875.00000 
 43692.65567		 305.27265			43387.38302		70.13800		324.00000 
 43692.65567		 621.76330			43070.89237		195.13800		875.00000 
 43692.65567		 305.27265			43387.38302		70.13800		324.00000 
 43692.65567		 621.76330			43070.89237		195.13800		875.00000 
 43692.65567		 305.27265			43387.38302		70.13800		324.00000 
 43692.65567		 621.76330			43070.89237		195.13800		875.00000 
 43692.65567		 305.27265			43387.38302		70.13800		324.00000 
 43692.65567		 621.76330			43070.89237		195.13800		875.00000 
 43692.65567		 305.27265			43387.38302		70.13800		324.00000 
 43692.65567		 621.76330			43070.89237		195.13800		875.00000 
 43692.65567		 305.27265			43387.38302		70.13800		324.00000 
 43692.65567		 621.76330			43070.89237		195.13800		875.00000 
 43692.65567		 305.27265			43387.38302		70.13800		324.00000 
 43692.65567		 621.76330			43070.89237		195.13800		875.00000 
 43692.65567		 305.27265			43387.38302		70.13800		324.00000 
 43692.65567		 621.76330			43070.89237		195.13800		875.00000 
 43692.65567		 305.27265			43387.38302		70.13800		324.00000 
 43692.65567		 621.76330			43070.89237		195.13800		875.00000 
 43692.65567		 305.27265			43387.38302		70.13800		324.00000 
 43692.65567		 621.76330			43070.89237		195.13800		875.00000 
 43692.65567		 305.27265			43387.38302		70.13800		324.00000 
 43692.65567		 621.76330			43070.89237		195.13800		875.00000 
 43692.65567		 305.27265			43387.38302		70.13800		324.00000 
 43692.65567		 621.76330			43070.89237		195.13800		875.00000 
 43692.65567		 305.27265			43387.38302		70.13800		324.00000 
 43692.65567		 621.76330			43070.89237		195.13800		875.00000 
 43692.65567		 305.27265			43387.38302		70.13800		324.00000 
 43692.65567		 621.76330			43070.89237		195.13800		875.00000 
 43692.65567		 305.27265			43387.38302		70.13800		324.00000 
 43692.65567		 621.76330			43070.89237		195.13800		875.00000 
 43692.65567		 305.27265			43387.38302		70.13800		324.00000 
 43692.65567		 621.76330			43070.89237		195.13800		875.00000 
 43692.65567		 305.27265			43387.38302		70.13800		324.00000 
 43692.65567		 621.76330			43070.89237		195.13800		875.00000 
 43692.65567		 305.27265			43387.38302		70.13800		324.00000 
 43692.65567		 621.76330			43070.89237		195.13800		875.00000 
 43692.65567		 305.27265			43387.38302		70.13800		324.00000 
 43692.65567		 621.76330			43070.89237		195.13800		875.00000 
 43692.65567		 305.27265			43387.38302		70.13800		324.00000 
 43692.65567		 621.76330			43070.89237		195.13800		875.00000 
 43692.65567		 305.27265			43387.38302		70.13800		324.00000 
 43692.65567		 621.76330			43070.89237		195.13800		875.00000 
 43692.65567		 305.27265			43387.38302		70.13800		324.00000 
 43692.65567		 621.76330			43070.89237		195.13800		875.00000 
 43692.65567		 305.27265			43387.38302		70.13800		324.00000 
 43692.65567		 621.76330			43070.89237		195.13800		875.00000 
 43692.65567		 305.27265			43387.38302		70.13800		324.00000 
 43692.65567		 621.76330			43070.89237		195.13800		875.00000 
 43692.65567		 305.27265			43387.38302		70.13800		324.00000 
 43692.65567		 621.76330			43070.89237		195.13800		875.00000 
 43692.65567		 305.27265			43387.38302		70.13800		324.00000 
 43692.65567		 621.76330			43070.89237		195.13800		875.00000 
 43692.65567		 305.27265			43387.38302		70.13800		324.00000 
 43692.65567		 621.76330			43070.89237		195.13800		875.00000 
 43692.65567		 305.27265			43387.38302		70.13800		324.00000 
 43692.65567		 621.76330			43070.89237		195.13800		875.00000 
 43692.65567		 305.27265			43387.38302		70.13800		324.00000 
 43692.65567		 621.76330			43070.89237		195.13800		875.00000 
 43692.65567		 305.27265			43387.38302		70.13800		324.00000 
 43692.65567		 621.76330			43070.89237		195.13800		875.00000 
 43692.65567		 305.27265			43387.38302		70.13800		324.00000 
 43692.65567		 621.76330			43070.89237		195.13800		875.00000 
 43692.65567		 305.27265			43387.38302		70.13800		324.00000 
 43692.65567		 621.76330			43070.89237		195.13800		875.00000 
 43692.65567		 305.27265			43387.38302		70.13800		324.00000 
 43692.65567		 621.76330			43070.89237		195.13800		875.00000 
 43692.65567		 305.27265			43387.38302		70.13800		324.00000 
 43692.65567		 621.76330			43070.89237		195.13800		875.00000 
 43692.65567		 305.27265			43387.38302		70.13800		324.00000 
 43692.65567		 621.76330			43070.89237		195.13800		875.00000 
 43692.65567		 305.27265			43387.38302		70.13800		324.00000 
 43692.65567		 621.76330			43070.89237		195.13800		875.00000 
 43692.65567		 305.27265			43387.38302		70.13800		324.00000 
 43692.65567		 621.76330			43070.89237		195.13800		875.00000 
 43692.65567		 305.27265			43387.38302		70.13800		324.00000 
 43692.65567		 621.76330			43070.89237		195.13800		875.00000 
 43692.65567		 305.27265			43387.38302		70.13800		324.00000 
 43692.65567		 621.76330			43070.89237		195.13800		875.00000 
 43692.65567		 305.27265			43387.38302		70.13800		324.00000 
 43692.65567		 621.76330			43070.89237		195.13800		875.00000 
 43692.65567		 305.27265			43387.38302		70.13800		324.00000 
 43692.65567		 621.76330			43070.89237		195.13800		875.00000 
 43692.65567		 305.27265			43387.38302		70.13800		324.00000 
 43692.65567		 621.76330			43070.89237		195.13800		875.00000 
 43692.65567		 305.27265			43387.38302		70.13800		324.00000 
 43692.65567		 621.76330			43070.89237		195.13800		875.00000 
 43692.65567		 305.27265			43387.38302		70.13800		324.00000 
 43692.65567		 621.76330			43070.89237		195.13800		875.00000 
 43692.65567		 305.27265			43387.38302		70.13800		324.00000 
 43692.65567		 621.76330			43070.89237		195.13800		875.00000 
 43692.65567		 305.27265			43387.38302		70.13800		324.00000 
 43692.65567		 621.76330			43070.89237		195.13800		875.00000 
 43692.65567		 305.27265			43387.38302		70.13800		324.00000 
 43692.65567		 621.76330			43070.89237		195.13800		875.00000 
 43692.65567		 305.27265			43387.38302		70.13800		324.00000 
 43692.65567		 621.76330			43070.89237		195.13800		875.00000 
 43692.65567		 305.27265			43387.38302		70.13800		324.00000 
 43692.65567		 621.76330			43070.89237		211.63000		875.00000 
 43692.65567		 305.27265			43387.38302		70.13800		324.00000 
 43692.65567		 621.76330			43070.89237		211.63000		875.00000 
 43692.65567		 305.27265			43387.38302		70.13800		324.00000 
 43692.65567		 621.76330			43070.89237		211.63000		875.00000 
 43692.65567		 305.27265			43387.38302		70.13800		324.00000 
 43692.65567		 621.76330			43070.89237		211.63000		875.00000 
 43692.65567		 305.27265			43387.38302		70.13800		324.00000 
 43692.65567		 621.76330			43070.89237		211.63000		875.00000 
 43692.65567		 305.27265			43387.38302		70.13800		324.00000 
 43692.65567		 621.76330			43070.89237		211.63000		875.00000 
 43692.65567		 305.27265			43387.38302		70.13800		324.00000 
 43692.65567		 621.76330			43070.89237		211.63000		875.00000 
 43692.65567		 305.27265			43387.38302		70.13800		324.00000 
 43692.65567		 621.76330			43070.89237		211.63000		875.00000 
 43692.65567		 305.27265			43387.38302		70.13800		324.00000 
 43692.65567		 621.76330			43070.89237		211.63000		875.00000 
 43692.65567		 305.27265			43387.38302		70.13800		324.00000 
 43692.65567		 621.76330			43070.89237		211.63000		875.00000 
 43692.65567		 305.27265			43387.38302		70.13800		324.00000 
 43692.65567		 621.76330			43070.89237		211.63000		875.00000 
 43692.65567		 305.27265			43387.38302		70.13800		324.00000 
 43692.65567		 621.76330			43070.89237		211.63000		875.00000 
 43692.65567		 305.27265			43387.38302		70.13800		324.00000 
 43692.65567		 621.76330			43070.89237		211.63000		875.00000 
 43692.65567		 305.27265			43387.38302		70.13800		324.00000 
 43692.65567		 621.76330			43070.89237		211.63000		875.00000 
 43692.65567		 305.27265			43387.38302		70.13800		324.00000 
 43692.65567		 621.76330			43070.89237		211.63000		875.00000 
 43692.65567		 305.27265			43387.38302		70.13800		324.00000 
 43692.65567		 621.76330			43070.89237		211.63000		875.00000 
 43692.65567		 305.27265			43387.38302		70.13800		324.00000 
 43692.65567		 621.76330			43070.89237		211.63000		875.00000 
 43692.65567		 305.27265			43387.38302		70.13800		324.00000 
 43692.65567		 621.76330			43070.89237		211.63000		875.00000 
 43692.65567		 305.27265			43387.38302		70.13800		324.00000 
 43692.65567		 621.76330			43070.89237		211.63000		875.00000 
 43692.65567		 305.27265			43387.38302		70.13800		324.00000 
 43692.65567		 621.76330			43070.89237		211.63000		875.00000 
 43692.65567		 305.27265			43387.38302		70.13800		324.00000 
 43692.65567		 621.76330			43070.89237		211.63000		875.00000 
 43692.65567		 305.27265			43387.38302		70.13800		324.00000 
 43692.65567		 621.76330			43070.89237		211.63000		875.00000 
 43692.65567		 305.27265			43387.38302		70.13800		324.00000 
 43692.65567		 621.76330			43070.89237		211.63000		875.00000 
 43692.65567		 305.27265			43387.38302		70.13800		324.00000 
 43692.65567		 621.76330			43070.89237		211.63000		875.00000 
 43692.65567		 305.27265			43387.38302		70.13800		324.00000 
 43692.65567		 621.76330			43070.89237		211.63000		875.00000 
 43692.65567		 305.27265			43387.38302		70.13800		324.00000 
 43692.65567		 621.76330			43070.89237		211.63000		875.00000 
 43692.65567		 305.27265			43387.38302		70.13800		324.00000 
 43692.65567		 621.76330			43070.89237		211.63000		875.00000 
 43692.65567		 305.27265			43387.38302		70.13800		324.00000 
 43692.65567		 621.76330			43070.89237		211.63000		875.00000 
 43692.65567		 305.27265			43387.38302		70.13800		324.00000 
 43692.65567		 621.76330			43070.89237		211.63000		875.00000 
 43692.65567		 305.27265			43387.38302		70.13800		324.00000 
 43692.65567		 621.76330			43070.89237		211.63000		875.00000 
 43692.65567		 305.27265			43387.38302		70.13800		324.00000 
 43692.65567		 621.76330			43070.89237		211.63000		875.00000 
 43692.65567		 305.27265			43387.38302		70.13800		324.00000 
 43692.65567		 621.76330			43070.89237		211.63000		875.00000 
 43692.65567		 305.27265			43387.38302		70.13800		324.00000 
 43692.65567		 621.76330			43070.89237		211.63000		875.00000 
 43692.65567		 305.27265			43387.38302		70.13800		324.00000 
 43692.65567		 621.76330			43070.89237		211.63000		875.00000 
 43692.65567		 305.27265			43387.38302		70.13800		324.00000 
 43692.65567		 621.76330			43070.89237		211.63000		875.00000 
 43692.65567		 305.27265			43387.38302		70.13800		324.00000 
 43692.65567		 621.76330			43070.89237		211.63000		875.00000 
 43692.65567		 305.27265			43387.38302		70.13800		324.00000 
 43692.65567		 621.76330			43070.89237		211.63000		875.00000 
 43692.65567		 305.27265			43387.38302		70.13800		324.00000 
 43692.65567		 621.76330			43070.89237		211.63000		875.00000 
 43692.65567		 305.27265			43387.38302		70.13800		324.00000 
 43692.65567		 621.76330			43070.89237		211.63000		875.00000 
 43692.65567		 305.27265			43387.38302		70.13800		324.00000 
 43692.65567		 621.76330			43070.89237		211.63000		875.00000 
 43692.65567		 305.27265			43387.38302		70.13800		324.00000 
 43692.65567		 621.76330			43070.89237		211.63000		875.00000 
 43692.65567		 305.27265			43387.38302		70.13800		324.00000 
 43692.65567		 621.76330			43070.89237		211.63000		875.00000 
 43692.65567		 305.27265			43387.38302		70.13800		324.00000 
 43692.65567		 621.76330			43070.89237		211.63000		875.00000 
 43692.65567		 305.27265			43387.38302		70.13800		324.00000 
 43692.65567		 621.76330			43070.89237		211.63000		875.00000 
 43692.65567		 305.27265			43387.38302		70.13800		324.00000 
 43692.65567		 621.76330			43070.89237		211.63000		875.00000 
 43692.65567		 305.27265			43387.38302		70.13800		324.00000 
 43692.65567		 621.76330			43070.89237		211.63000		875.00000 
 43692.65567		 305.27265			43387.38302		70.13800		324.00000 
 43692.65567		 621.76330			43070.89237		211.63000		875.00000 
 43692.65567		 305.27265			43387.38302		70.13800		324.00000 
 43692.65567		 621.76330			43070.89237		211.63000		875.00000 
 43692.65567		 305.27265			43387.38302		70.13800		324.00000 
 43692.65567		 621.76330			43070.89237		211.63000		875.00000 
 43692.65567		 305.27265			43387.38302		70.13800		324.00000 
 43692.65567		 621.76330			43070.89237		211.63000		875.00000 
 43692.65567		 305.27265			43387.38302		70.13800		324.00000 
 43692.65567		 621.76330			43070.89237		211.63000		875.00000 
 43692.65567		 305.27265			43387.38302		70.13800		324.00000 
 43692.65567		 621.76330			43070.89237		211.63000		875.00000 
 43692.65567		 305.27265			43387.38302		70.13800		324.00000 
 43692.65567		 621.76330			43070.89237		211.63000		875.00000 
 43692.65567		 305.27265			43387.38302		70.13800		324.00000 
 43692.65567		 621.76330			43070.89237		211.63000		875.00000 
 43692.65567		 305.27265			43387.38302		70.13800		324.00000 
 43692.65567		 621.76330			43070.89237		211.63000		875.00000 
 43692.65567		 305.27265			43387.38302		70.13800		324.00000 
 43692.65567		 621.76330			43070.89237		211.63000		875.00000 
 43692.65567		 305.27265			43387.38302		70.13800		324.00000 
 43692.65567		 621.76330			43070.89237		211.63000		875.00000 
 43692.65567		 305.27265			43387.38302		70.13800		324.00000 
 43692.65567		 621.76330			43070.89237		211.63000		875.00000 
 43692.65567		 305.27265			43387.38302		70.13800		324.00000 
 43692.65567		 621.76330			43070.89237		211.63000		875.00000 
 43692.65567		 305.27265			43387.38302		70.13800		324.00000 
 43692.65567		 621.76330			43070.89237		211.63000		875.00000 
 43692.65567		 305.27265			43387.38302		70.13800		324.00000 
 43692.65567		 621.76330			43070.89237		211.63000		875.00000 
 43692.65567		 305.27265			43387.38302		70.13800		324.00000 
 43692.65567		 621.76330			43070.89237		211.63000		875.00000 
 43692.65567		 305.27265			43387.38302		70.13800		324.00000 
 43692.65567		 621.76330			43070.89237		211.63000		875.00000 
 43692.65567		 305.27265			43387.38302		70.13800		324.00000 
 43692.65567		 621.76330			43070.89237		211.63000		875.00000 
 43692.65567		 305.27265			43387.38302		70.13800		324.00000 
 43692.65567		 621.76330			43070.89237		218.38000		875.00000 
 43692.65567		 305.27265			43387.38302		70.13800		324.00000 
 43692.65567		 621.76330			43070.89237		218.38000		875.00000 
 43692.65567		 305.27265			43387.38302		70.13800		324.00000 
 43692.65567		 621.76330			43070.89237		218.38000		875.00000 
 43692.65567		 305.27265			43387.38302		70.13800		324.00000 
 43692.65567		 621.76330			43070.89237		218.38000		875.00000 
 43692.65567		 305.27265			43387.38302		70.13800		324.00000 
 43692.65567		 621.76330			43070.89237		218.38000		875.00000 
 43692.65567		 305.27265			43387.38302		70.13800		324.00000 
 43692.65567		 621.76330			43070.89237		218.38000		875.00000 
 43692.65567		 305.27265			43387.38302		70.13800		324.00000 
 43692.65567		 621.76330			43070.89237		218.38000		875.00000 
 43692.65567		 305.27265			43387.38302		70.13800		324.00000 
 43692.65567		 621.76330			43070.89237		218.38000		875.00000 
 43692.65567		 305.27265			43387.38302		70.13800		324.00000 
 43692.65567		 621.76330			43070.89237		218.38000		875.00000 
 43692.65567		 305.27265			43387.38302		70.13800		324.00000 
 43692.65567		 621.76330			43070.89237		218.38000		875.00000 
 43692.65567		 305.27265			43387.38302		70.13800		324.00000 
 43692.65567		 621.76330			43070.89237		218.38000		875.00000 
 43692.65567		 305.27265			43387.38302		70.13800		324.00000 
 43692.65567		 621.76330			43070.89237		218.38000		875.00000 
 43692.65567		 305.27265			43387.38302		70.13800		324.00000 
 43692.65567		 621.76330			43070.89237		218.38000		875.00000 
 43692.65567		 305.27265			43387.38302		70.13800		324.00000 
 43692.65567		 621.76330			43070.89237		218.38000		875.00000 
 43692.65567		 305.27265			43387.38302		70.13800		324.00000 
 43692.65567		 621.76330			43070.89237		218.38000		875.00000 
 43692.65567		 305.27265			43387.38302		70.13800		324.00000 
 43692.65567		 621.76330			43070.89237		218.38000		875.00000 
 43692.65567		 305.27265			43387.38302		70.13800		324.00000 
 43692.65567		 621.76330			43070.89237		218.38000		875.00000 
 43692.65567		 305.27265			43387.38302		70.13800		324.00000 
 43692.65567		 621.76330			43070.89237		218.38000		875.00000 
 43692.65567		 305.27265			43387.38302		70.13800		324.00000 
 43692.65567		 621.76330			43070.89237		218.38000		875.00000 
 43692.65567		 305.27265			43387.38302		70.13800		324.00000 
 43692.65567		 621.76330			43070.89237		218.38000		875.00000 
 43692.65567		 305.27265			43387.38302		70.13800		324.00000 
 43692.65567		 621.76330			43070.89237		218.38000		875.00000 
 43692.65567		 305.27265			43387.38302		70.13800		324.00000 
 43692.65567		 621.76330			43070.89237		218.38000		875.00000 
 43692.65567		 305.27265			43387.38302		70.13800		324.00000 
 43692.65567		 621.76330			43070.89237		218.38000		875.00000 
 43692.65567		 305.27265			43387.38302		70.13800		324.00000 
 43692.65567		 621.76330			43070.89237		218.38000		875.00000 
 43692.65567		 305.27265			43387.38302		70.13800		324.00000 
 43692.65567		 621.76330			43070.89237		218.38000		875.00000 
 43692.65567		 305.27265			43387.38302		70.13800		324.00000 
 43692.65567		 621.76330			43070.89237		218.38000		875.00000 
 43692.65567		 305.27265			43387.38302		70.13800		324.00000 
 43692.65567		 621.76330			43070.89237		218.38000		875.00000 
 43692.65567		 305.27265			43387.38302		70.13800		324.00000 
 43692.65567		 621.76330			43070.89237		218.38000		875.00000 
 43692.65567		 305.27265			43387.38302		70.13800		324.00000 
 43692.65567		 621.76330			43070.89237		218.38000		875.00000 
 43692.65567		 305.27265			43387.38302		70.13800		324.00000 
 43692.65567		 621.76330			43070.89237		218.38000		875.00000 
 43692.65567		 305.27265			43387.38302		70.13800		324.00000 
 43692.65567		 621.76330			43070.89237		218.38000		875.00000 
 43692.65567		 305.27265			43387.38302		70.13800		324.00000 
 43692.65567		 621.76330			43070.89237		218.38000		875.00000 
 43692.65567		 305.27265			43387.38302		70.13800		324.00000 
 43692.65567		 621.76330			43070.89237		218.38000		875.00000 
 43692.65567		 305.27265			43387.38302		70.13800		324.00000 
 43692.65567		 621.76330			43070.89237		218.38000		875.00000 
 43692.65567		 305.27265			43387.38302		70.13800		324.00000 
 43692.65567		 621.76330			43070.89237		218.38000		875.00000 
 43692.65567		 305.27265			43387.38302		70.13800		324.00000 
 43692.65567		 621.76330			43070.89237		218.38000		875.00000 
 43692.65567		 305.27265			43387.38302		70.13800		324.00000 
 43692.65567		 621.76330			43070.89237		218.38000		875.00000 
 43692.65567		 305.27265			43387.38302		70.13800		324.00000 
 43692.65567		 621.76330			43070.89237		218.38000		875.00000 
 43692.65567		 305.27265			43387.38302		70.13800		324.00000 
 43692.65567		 621.76330			43070.89237		218.38000		875.00000 
 43692.65567		 305.27265			43387.38302		70.13800		324.00000 
 43692.65567		 621.76330			43070.89237		218.38000		875.00000 
 43692.65567		 305.27265			43387.38302		70.13800		324.00000 
 43692.65567		 621.76330			43070.89237		218.38000		875.00000 
 43692.65567		 305.27265			43387.38302		70.13800		324.00000 
 43692.65567		 621.76330			43070.89237		218.38000		875.00000 
 43692.65567		 305.27265			43387.38302		70.13800		324.00000 
 43692.65567		 621.76330			43070.89237		218.38000		875.00000 
 43692.65567		 305.27265			43387.38302		70.13800		324.00000 
 43692.65567		 621.76330			43070.89237		218.38000		875.00000 
 43692.65567		 305.27265			43387.38302		70.13800		324.00000 
 43692.65567		 621.76330			43070.89237		218.38000		875.00000 
 43692.65567		 305.27265			43387.38302		70.13800		324.00000 
 43692.65567		 621.76330			43070.89237		218.38000		875.00000 
 43692.65567		 305.27265			43387.38302		70.13800		324.00000 
 43692.65567		 621.76330			43070.89237		218.38000		875.00000 
 43692.65567		 305.27265			43387.38302		70.13800		324.00000 
 43692.65567		 621.76330			43070.89237		218.38000		875.00000 
 43692.65567		 305.27265			43387.38302		70.13800		324.00000 
 43692.65567		 621.76330			43070.89237		218.38000		875.00000 
 43692.65567		 305.27265			43387.38302		70.13800		324.00000 
 43692.65567		 621.76330			43070.89237		218.38000		875.00000 
 43692.65567		 305.27265			43387.38302		70.13800		324.00000 
 43692.65567		 621.76330			43070.89237		218.38000		875.00000 
 43692.65567		 305.27265			43387.38302		70.13800		324.00000 
 43692.65567		 621.76330			43070.89237		218.38000		875.00000 
 43692.65567		 305.27265			43387.38302		70.13800		324.00000 
 43692.65567		 621.76330			43070.89237		218.38000		875.00000 
 43692.65567		 305.27265			43387.38302		70.13800		324.00000 
 43692.65567		 621.76330			43070.89237		218.38000		875.00000 
 43692.65567		 305.27265			43387.38302		70.13800		324.00000 
 43692.65567		 621.76330			43070.89237		218.38000		875.00000 
 43692.65567		 305.27265			43387.38302		70.13800		324.00000 
 43692.65567		 621.76330			43070.89237		218.38000		875.00000 
 43692.65567		 305.27265			43387.38302		70.13800		324.00000 
 43692.65567		 621.76330			43070.89237		218.38000		875.00000 
 43692.65567		 305.27265			43387.38302		70.13800		324.00000 
 43692.65567		 621.76330			43070.89237		218.38000		875.00000 
 43692.65567		 305.27265			43387.38302		70.13800		324.00000 
 43692.65567		 621.76330			43070.89237		218.38000		875.00000 
 43692.65567		 305.27265			43387.38302		70.13800		324.00000 
 43692.65567		 621.76330			43070.89237		218.38000		875.00000 
 43692.65567		 305.27265			43387.38302		70.13800		324.00000 
 43692.65567		 621.76330			43070.89237		218.38000		875.00000 
 43692.65567		 305.27265			43387.38302		70.13800		324.00000 
 43692.65567		 621.76330			43070.89237		218.38000		875.00000 
 43692.65567		 305.27265			43387.38302		70.13800		324.00000 
 43692.65567		 621.76330			43070.89237		218.38000		875.00000 
 43692.65567		 305.27265			43387.38302		70.13800		324.00000 
 43692.65567		 621.76330			43070.89237		218.38000		875.00000 
 43692.65567		 305.27265			43387.38302		70.13800		324.00000 
 43692.65567		 621.76330			43070.89237		218.38000		875.00000 
 43692.65567		 305.27265			43387.38302		70.13800		324.00000 
 43692.65567		 621.76330			43070.89237		221.22600		875.00000 
 43692.65567		 305.27265			43387.38302		70.13800		324.00000 
 43692.65567		 621.76330			43070.89237		221.22600		875.00000 
 43692.65567		 305.27265			43387.38302		70.13800		324.00000 
 43692.65567		 621.76330			43070.89237		221.22600		875.00000 
 43692.65567		 305.27265			43387.38302		70.13800		324.00000 
 43692.65567		 621.76330			43070.89237		221.22600		875.00000 
 43692.65567		 305.27265			43387.38302		70.13800		324.00000 
 43692.65567		 621.76330			43070.89237		221.22600		875.00000 
 43692.65567		 305.27265			43387.38302		69.64400		324.00000 
 43692.65567		 621.76330			43070.89237		221.22600		875.00000 
 43692.65567		 305.27265			43387.38302		69.64400		324.00000 
 43692.65567		 621.76330			43070.89237		221.22600		875.00000 
 43692.65567		 305.27265			43387.38302		69.64400		324.00000 
 43692.65567		 621.76330			43070.89237		221.22600		875.00000 
 43692.65567		 305.27265			43387.38302		69.64400		324.00000 
 43692.65567		 621.76330			43070.89237		221.22600		875.00000 
 43692.65567		 305.27265			43387.38302		69.64400		324.00000 
 43692.65567		 621.76330			43070.89237		221.22600		875.00000 
 43692.65567		 305.27265			43387.38302		69.64400		324.00000 
 43692.65567		 621.76330			43070.89237		221.22600		875.00000 
 43692.65567		 305.27265			43387.38302		69.64400		324.00000 
 43692.65567		 621.76330			43070.89237		221.22600		875.00000 
 43692.65567		 305.27265			43387.38302		69.64400		324.00000 
 43692.65567		 621.76330			43070.89237		221.22600		875.00000 
 43692.65567		 305.27265			43387.38302		69.64400		324.00000 
 43692.65567		 621.76330			43070.89237		221.22600		875.00000 
 43692.65567		 305.27265			43387.38302		69.64400		324.00000 
 43692.65567		 621.76330			43070.89237		221.22600		875.00000 
 43692.65567		 305.27265			43387.38302		69.64400		324.00000 
 43692.65567		 621.76330			43070.89237		221.22600		875.00000 
 43692.65567		 305.27265			43387.38302		69.64400		324.00000 
 43692.65567		 621.76330			43070.89237		221.22600		875.00000 
 43692.65567		 305.27265			43387.38302		69.64400		324.00000 
 43692.65567		 621.76330			43070.89237		221.22600		875.00000 
 43692.65567		 305.27265			43387.38302		69.64400		324.00000 
 43692.65567		 621.76330			43070.89237		221.22600		875.00000 
 43692.65567		 305.27265			43387.38302		69.64400		324.00000 
 43692.65567		 621.76330			43070.89237		221.22600		875.00000 
 43692.65567		 305.27265			43387.38302		69.64400		324.00000 
 43692.65567		 621.76330			43070.89237		221.22600		875.00000 
 43692.65567		 305.27265			43387.38302		69.64400		324.00000 
 43692.65567		 621.76330			43070.89237		221.22600		875.00000 
 43692.65567		 305.27265			43387.38302		69.64400		324.00000 
 43692.65567		 621.76330			43070.89237		221.22600		875.00000 
 43692.65567		 305.27265			43387.38302		69.64400		324.00000 
 43692.65567		 621.76330			43070.89237		221.22600		875.00000 
 43692.65567		 305.27265			43387.38302		69.64400		324.00000 
 43692.65567		 621.76330			43070.89237		221.22600		875.00000 
 43692.65567		 305.27265			43387.38302		69.64400		324.00000 
 43692.65567		 621.76330			43070.89237		221.22600		875.00000 
 43692.65567		 305.27265			43387.38302		69.64400		324.00000 
 43692.65567		 621.76330			43070.89237		221.22600		875.00000 
 43692.65567		 305.27265			43387.38302		69.64400		324.00000 
 43692.65567		 621.76330			43070.89237		221.22600		875.00000 
 43692.65567		 305.27265			43387.38302		69.64400		324.00000 
 43692.65567		 621.76330			43070.89237		221.22600		875.00000 
 43692.65567		 305.27265			43387.38302		69.64400		324.00000 
 43692.65567		 621.76330			43070.89237		221.22600		875.00000 
 43692.65567		 305.27265			43387.38302		69.64400		324.00000 
 43692.65567		 621.76330			43070.89237		221.22600		875.00000 
 43692.65567		 305.27265			43387.38302		69.64400		324.00000 
 43692.65567		 621.76330			43070.89237		221.22600		875.00000 
 43692.65567		 305.27265			43387.38302		69.64400		324.00000 
 43692.65567		 621.76330			43070.89237		221.22600		875.00000 
 43692.65567		 305.27265			43387.38302		69.64400		324.00000 
 43692.65567		 621.76330			43070.89237		221.22600		875.00000 
 43692.65567		 305.27265			43387.38302		69.64400		324.00000 
 43692.65567		 621.76330			43070.89237		221.22600		875.00000 
 43692.65567		 305.27265			43387.38302		69.64400		324.00000 
 43692.65567		 621.76330			43070.89237		221.22600		875.00000 
 43692.65567		 305.27265			43387.38302		69.64400		324.00000 
 43692.65567		 621.76330			43070.89237		221.22600		875.00000 
 43692.65567		 305.27265			43387.38302		69.64400		324.00000 
 43692.65567		 621.76330			43070.89237		221.22600		875.00000 
 43692.65567		 305.27265			43387.38302		69.64400		324.00000 
 43692.65567		 621.76330			43070.89237		221.22600		875.00000 
 43692.65567		 305.27265			43387.38302		69.64400		324.00000 
 43692.65567		 621.76330			43070.89237		221.22600		875.00000 
 43692.65567		 305.27265			43387.38302		69.64400		324.00000 
 43692.65567		 621.76330			43070.89237		221.22600		875.00000 
 43692.65567		 305.27265			43387.38302		69.64400		324.00000 
 43692.65567		 593.59897			43099.05670		221.22600		875.00000 
 43692.65567		 305.27265			43387.38302		69.64400		324.00000 
 43692.65567		 537.27032			43155.38535		221.22600		875.00000 
 43692.65567		 305.27265			43387.38302		69.64400		324.00000 
 43692.65567		 537.27032			43155.38535		221.22600		875.00000 
 43692.65567		 305.27265			43387.38302		69.64400		324.00000 
 43692.65567		 537.27032			43155.38535		221.22600		875.00000 
 43692.65567		 305.27265			43387.38302		69.64400		324.00000 
 43692.65567		 537.27032			43155.38535		221.22600		875.00000 
 43692.65567		 305.27265			43387.38302		69.64400		324.00000 
 43692.65567		 537.27032			43155.38535		221.22600		875.00000 
 43692.65567		 305.27265			43387.38302		69.64400		324.00000 
 43692.65567		 537.27032			43155.38535		221.22600		875.00000 
 43692.65567		 305.27265			43387.38302		69.64400		324.00000 
 43692.65567		 537.27032			43155.38535		221.22600		875.00000 
 43692.65567		 305.27265			43387.38302		69.64400		324.00000 
 43692.65567		 537.27032			43155.38535		221.22600		875.00000 
 43692.65567		 305.27265			43387.38302		69.64400		324.00000 
 43692.65567		 537.27032			43155.38535		221.22600		875.00000 
 43692.65567		 305.27265			43387.38302		69.64400		324.00000 
 43692.65567		 537.27032			43155.38535		221.22600		875.00000 
 43692.65567		 305.27265			43387.38302		69.64400		324.00000 
 43692.65567		 537.27032			43155.38535		221.22600		875.00000 
 43692.65567		 305.27265			43387.38302		69.64400		324.00000 
 43692.65567		 537.27032			43155.38535		221.22600		875.00000 
 43692.65567		 305.27265			43387.38302		69.64400		324.00000 
 43692.65567		 537.27032			43155.38535		221.22600		875.00000 
 43692.65567		 305.27265			43387.38302		69.64400		324.00000 
 43692.65567		 537.27032			43155.38535		221.22600		875.00000 
 43692.65567		 305.27265			43387.38302		69.64400		324.00000 
 43692.65567		 537.27032			43155.38535		221.22600		875.00000 
 43692.65567		 305.27265			43387.38302		69.64400		324.00000 
 43692.65567		 537.27032			43155.38535		197.72400		875.00000 
 43692.65567		 305.27265			43387.38302		69.64400		324.00000 
 43692.65567		 537.27032			43155.38535		197.72400		875.00000 
 43692.65567		 305.27265			43387.38302		69.64400		324.00000 
 43692.65567		 537.27032			43155.38535		197.72400		875.00000 
 43692.65567		 305.27265			43387.38302		69.64400		324.00000 
 43692.65567		 537.27032			43155.38535		197.72400		875.00000 
 43692.65567		 305.27265			43387.38302		69.64400		324.00000 
 43692.65567		 537.27032			43155.38535		197.72400		875.00000 
 43692.65567		 305.27265			43387.38302		69.64400		324.00000 
 43692.65567		 537.27032			43155.38535		197.72400		875.00000 
 43692.65567		 305.27265			43387.38302		69.64400		324.00000 
 43692.65567		 537.27032			43155.38535		197.72400		875.00000 
 43692.65567		 305.27265			43387.38302		69.64400		324.00000 
 43692.65567		 537.27032			43155.38535		197.72400		875.00000 
 43692.65567		 305.27265			43387.38302		69.64400		324.00000 
 43692.65567		 525.81365			43166.84203		197.72400		875.00000 
 43692.65567		 305.27265			43387.38302		69.64400		324.00000 
 43692.65567		 525.81365			43166.84203		197.72400		875.00000 
 43692.65567		 261.35540			43431.30027		69.64400		324.00000 
 43692.65567		 261.35540			43431.30027		197.72400		875.00000 
 43692.65567		 261.35540			43431.30027		69.64400		324.00000 
