Memory Total (MiB) 	 Memory Used (MiB) 	    Memory Free (MiB) 	 Power Drawed (W) 	 Clocks (Mhz) 	 
 43692.65567		 261.35540			43431.30027		184.84200		875.00000 
 43692.65567		 261.35540			43431.30027		69.67200		324.00000 
 43692.65567		 261.35540			43431.30027		184.84200		875.00000 
 43692.65567		 261.35540			43431.30027		69.67200		324.00000 
 43692.65567		 261.35540			43431.30027		184.84200		875.00000 
 43692.65567		 261.35540			43431.30027		69.67200		324.00000 
 43692.65567		 261.35540			43431.30027		184.84200		875.00000 
 43692.65567		 261.35540			43431.30027		69.67200		324.00000 
 43692.65567		 261.35540			43431.30027		184.84200		875.00000 
 43692.65567		 261.35540			43431.30027		69.67200		324.00000 
 43692.65567		 261.35540			43431.30027		184.84200		875.00000 
 43692.65567		 261.35540			43431.30027		69.67200		324.00000 
 43692.65567		 261.35540			43431.30027		184.84200		875.00000 
 43692.65567		 261.35540			43431.30027		69.67200		324.00000 
 43692.65567		 261.35540			43431.30027		184.84200		875.00000 
 43692.65567		 261.35540			43431.30027		69.67200		324.00000 
 43692.65567		 261.35540			43431.30027		184.84200		875.00000 
 43692.65567		 261.35540			43431.30027		69.67200		324.00000 
 43692.65567		 261.35540			43431.30027		184.84200		875.00000 
 43692.65567		 261.35540			43431.30027		69.67200		324.00000 
 43692.65567		 261.35540			43431.30027		184.84200		875.00000 
 43692.65567		 261.35540			43431.30027		69.67200		324.00000 
 43692.65567		 261.35540			43431.30027		184.84200		875.00000 
 43692.65567		 261.35540			43431.30027		69.67200		324.00000 
 43692.65567		 261.35540			43431.30027		184.84200		875.00000 
 43692.65567		 261.35540			43431.30027		69.67200		324.00000 
 43692.65567		 261.35540			43431.30027		184.84200		875.00000 
 43692.65567		 261.35540			43431.30027		69.67200		324.00000 
 43692.65567		 261.35540			43431.30027		184.84200		875.00000 
 43692.65567		 261.35540			43431.30027		69.67200		324.00000 
 43692.65567		 261.35540			43431.30027		184.84200		875.00000 
 43692.65567		 261.35540			43431.30027		69.67200		324.00000 
 43692.65567		 261.35540			43431.30027		184.84200		875.00000 
 43692.65567		 261.35540			43431.30027		69.67200		324.00000 
 43692.65567		 261.35540			43431.30027		184.84200		875.00000 
 43692.65567		 261.35540			43431.30027		69.67200		324.00000 
 43692.65567		 261.35540			43431.30027		184.84200		875.00000 
 43692.65567		 261.35540			43431.30027		69.67200		324.00000 
 43692.65567		 265.17429			43427.48138		152.01600		875.00000 
 43692.65567		 261.35540			43431.30027		69.67200		324.00000 
 43692.65567		 272.81207			43419.84360		152.01600		875.00000 
 43692.65567		 261.35540			43431.30027		69.67200		324.00000 
 43692.65567		 272.81207			43419.84360		152.01600		875.00000 
 43692.65567		 261.35540			43431.30027		69.67200		324.00000 
 43692.65567		 272.81207			43419.84360		152.01600		875.00000 
 43692.65567		 265.17429			43427.48138		69.67200		324.00000 
 43692.65567		 272.81207			43419.84360		152.01600		875.00000 
 43692.65567		 265.17429			43427.48138		69.67200		324.00000 
 43692.65567		 272.81207			43419.84360		152.01600		875.00000 
 43692.65567		 272.81207			43419.84360		69.67200		324.00000 
 43692.65567		 272.81207			43419.84360		152.01600		875.00000 
 43692.65567		 272.81207			43419.84360		69.67200		324.00000 
 43692.65567		 272.81207			43419.84360		152.01600		875.00000 
 43692.65567		 272.81207			43419.84360		69.67200		324.00000 
 43692.65567		 272.81207			43419.84360		152.01600		875.00000 
 43692.65567		 305.27265			43387.38302		69.67200		324.00000 
 43692.65567		 305.27265			43387.38302		152.01600		875.00000 
 43692.65567		 305.27265			43387.38302		69.67200		324.00000 
 43692.65567		 305.27265			43387.38302		152.01600		875.00000 
 43692.65567		 305.27265			43387.38302		69.67200		324.00000 
 43692.65567		 305.27265			43387.38302		152.01600		875.00000 
 43692.65567		 305.27265			43387.38302		69.67200		324.00000 
 43692.65567		 305.27265			43387.38302		152.01600		875.00000 
 43692.65567		 305.27265			43387.38302		69.67200		324.00000 
 43692.65567		 309.09154			43383.56413		152.01600		875.00000 
 43692.65567		 305.27265			43387.38302		69.67200		324.00000 
 43692.65567		 310.52363			43382.13204		152.01600		875.00000 
 43692.65567		 305.27265			43387.38302		69.67200		324.00000 
 43692.65567		 311.00099			43381.65468		152.01600		875.00000 
 43692.65567		 305.27265			43387.38302		69.67200		324.00000 
 43692.65567		 311.00099			43381.65468		152.01600		875.00000 
 43692.65567		 305.27265			43387.38302		69.67200		324.00000 
 43692.65567		 311.00099			43381.65468		152.01600		875.00000 
 43692.65567		 305.27265			43387.38302		69.67200		324.00000 
 43692.65567		 311.00099			43381.65468		152.01600		875.00000 
 43692.65567		 305.27265			43387.38302		69.67200		324.00000 
 43692.65567		 311.00099			43381.65468		152.01600		875.00000 
 43692.65567		 305.27265			43387.38302		69.67200		324.00000 
 43692.65567		 311.00099			43381.65468		152.01600		875.00000 
 43692.65567		 305.27265			43387.38302		69.67200		324.00000 
 43692.65567		 311.00099			43381.65468		152.01600		875.00000 
 43692.65567		 305.27265			43387.38302		69.67200		324.00000 
 43692.65567		 311.00099			43381.65468		152.01600		875.00000 
 43692.65567		 305.27265			43387.38302		69.67200		324.00000 
 43692.65567		 311.00099			43381.65468		152.01600		875.00000 
 43692.65567		 305.27265			43387.38302		69.67200		324.00000 
 43692.65567		 311.00099			43381.65468		152.01600		875.00000 
 43692.65567		 305.27265			43387.38302		69.67200		324.00000 
 43692.65567		 311.00099			43381.65468		152.01600		875.00000 
 43692.65567		 305.27265			43387.38302		69.67200		324.00000 
 43692.65567		 311.00099			43381.65468		152.01600		875.00000 
 43692.65567		 305.27265			43387.38302		69.67200		324.00000 
 43692.65567		 311.00099			43381.65468		152.01600		875.00000 
 43692.65567		 305.27265			43387.38302		69.67200		324.00000 
 43692.65567		 311.00099			43381.65468		152.01600		875.00000 
 43692.65567		 305.27265			43387.38302		69.67200		324.00000 
 43692.65567		 311.00099			43381.65468		152.01600		875.00000 
 43692.65567		 305.27265			43387.38302		69.67200		324.00000 
 43692.65567		 311.00099			43381.65468		139.87400		875.00000 
 43692.65567		 305.27265			43387.38302		69.67200		324.00000 
 43692.65567		 311.00099			43381.65468		139.87400		875.00000 
 43692.65567		 305.27265			43387.38302		69.67200		324.00000 
 43692.65567		 311.00099			43381.65468		139.87400		875.00000 
 43692.65567		 305.27265			43387.38302		69.67200		324.00000 
 43692.65567		 311.00099			43381.65468		139.87400		875.00000 
 43692.65567		 305.27265			43387.38302		69.67200		324.00000 
 43692.65567		 311.00099			43381.65468		139.87400		875.00000 
 43692.65567		 305.27265			43387.38302		69.67200		324.00000 
 43692.65567		 311.00099			43381.65468		139.87400		875.00000 
 43692.65567		 305.27265			43387.38302		69.67200		324.00000 
 43692.65567		 311.00099			43381.65468		139.87400		875.00000 
 43692.65567		 305.27265			43387.38302		69.67200		324.00000 
 43692.65567		 311.00099			43381.65468		139.87400		875.00000 
 43692.65567		 305.27265			43387.38302		69.67200		324.00000 
 43692.65567		 311.00099			43381.65468		139.87400		875.00000 
 43692.65567		 305.27265			43387.38302		69.67200		324.00000 
 43692.65567		 311.00099			43381.65468		139.87400		875.00000 
 43692.65567		 305.27265			43387.38302		69.67200		324.00000 
 43692.65567		 311.00099			43381.65468		139.87400		875.00000 
 43692.65567		 305.27265			43387.38302		69.67200		324.00000 
 43692.65567		 311.00099			43381.65468		139.87400		875.00000 
 43692.65567		 305.27265			43387.38302		69.67200		324.00000 
 43692.65567		 311.00099			43381.65468		139.87400		875.00000 
 43692.65567		 305.27265			43387.38302		69.67200		324.00000 
 43692.65567		 311.00099			43381.65468		139.87400		875.00000 
 43692.65567		 305.27265			43387.38302		69.67200		324.00000 
 43692.65567		 311.00099			43381.65468		139.87400		875.00000 
 43692.65567		 305.27265			43387.38302		69.67200		324.00000 
 43692.65567		 311.00099			43381.65468		139.87400		875.00000 
 43692.65567		 305.27265			43387.38302		69.67200		324.00000 
 43692.65567		 311.00099			43381.65468		139.87400		875.00000 
 43692.65567		 305.27265			43387.38302		69.67200		324.00000 
 43692.65567		 311.00099			43381.65468		139.87400		875.00000 
 43692.65567		 305.27265			43387.38302		69.67200		324.00000 
 43692.65567		 311.00099			43381.65468		139.87400		875.00000 
 43692.65567		 305.27265			43387.38302		69.67200		324.00000 
 43692.65567		 311.00099			43381.65468		139.87400		875.00000 
 43692.65567		 305.27265			43387.38302		69.67200		324.00000 
 43692.65567		 311.00099			43381.65468		139.87400		875.00000 
 43692.65567		 305.27265			43387.38302		69.67200		324.00000 
 43692.65567		 311.00099			43381.65468		139.87400		875.00000 
 43692.65567		 305.27265			43387.38302		69.67200		324.00000 
 43692.65567		 311.00099			43381.65468		139.87400		875.00000 
 43692.65567		 305.27265			43387.38302		69.67200		324.00000 
 43692.65567		 311.00099			43381.65468		139.87400		875.00000 
 43692.65567		 305.27265			43387.38302		69.67200		324.00000 
 43692.65567		 311.00099			43381.65468		139.87400		875.00000 
 43692.65567		 305.27265			43387.38302		69.67200		324.00000 
 43692.65567		 311.00099			43381.65468		139.87400		875.00000 
 43692.65567		 305.27265			43387.38302		69.67200		324.00000 
 43692.65567		 311.00099			43381.65468		139.87400		875.00000 
 43692.65567		 305.27265			43387.38302		69.67200		324.00000 
 43692.65567		 311.00099			43381.65468		139.87400		875.00000 
 43692.65567		 305.27265			43387.38302		69.67200		324.00000 
 43692.65567		 311.00099			43381.65468		139.87400		875.00000 
 43692.65567		 305.27265			43387.38302		69.67200		324.00000 
 43692.65567		 311.00099			43381.65468		139.87400		875.00000 
 43692.65567		 305.27265			43387.38302		69.67200		324.00000 
 43692.65567		 311.00099			43381.65468		139.87400		875.00000 
 43692.65567		 305.27265			43387.38302		69.67200		324.00000 
 43692.65567		 311.00099			43381.65468		135.03600		875.00000 
 43692.65567		 305.27265			43387.38302		69.67200		324.00000 
 43692.65567		 311.00099			43381.65468		135.03600		875.00000 
 43692.65567		 305.27265			43387.38302		69.67200		324.00000 
 43692.65567		 311.00099			43381.65468		135.03600		875.00000 
 43692.65567		 305.27265			43387.38302		69.67200		324.00000 
 43692.65567		 311.00099			43381.65468		135.03600		875.00000 
 43692.65567		 305.27265			43387.38302		69.67200		324.00000 
 43692.65567		 314.81988			43377.83579		135.03600		875.00000 
 43692.65567		 305.27265			43387.38302		69.67200		324.00000 
 43692.65567		 314.81988			43377.83579		135.03600		875.00000 
 43692.65567		 305.27265			43387.38302		69.67200		324.00000 
 43692.65567		 314.81988			43377.83579		135.03600		875.00000 
 43692.65567		 305.27265			43387.38302		69.67200		324.00000 
 43692.65567		 322.45767			43370.19801		135.03600		875.00000 
 43692.65567		 305.27265			43387.38302		69.67200		324.00000 
 43692.65567		 326.27656			43366.37912		135.03600		875.00000 
 43692.65567		 305.27265			43387.38302		69.67200		324.00000 
 43692.65567		 326.27656			43366.37912		135.03600		875.00000 
 43692.65567		 305.27265			43387.38302		69.67200		324.00000 
 43692.65567		 326.27656			43366.37912		135.03600		875.00000 
 43692.65567		 305.27265			43387.38302		69.67200		324.00000 
 43692.65567		 326.27656			43366.37912		135.03600		875.00000 
 43692.65567		 305.27265			43387.38302		69.67200		324.00000 
 43692.65567		 537.27032			43155.38535		135.03600		875.00000 
 43692.65567		 305.27265			43387.38302		69.67200		324.00000 
 43692.65567		 772.13216			42920.52351		135.03600		875.00000 
 43692.65567		 305.27265			43387.38302		69.67200		324.00000 
 43692.65567		 889.56308			42803.09259		135.03600		875.00000 
 43692.65567		 305.27265			43387.38302		69.67200		324.00000 
 43692.65567		 889.56308			42803.09259		135.03600		875.00000 
 43692.65567		 305.27265			43387.38302		69.67200		324.00000 
 43692.65567		 889.56308			42803.09259		135.03600		875.00000 
 43692.65567		 305.27265			43387.38302		69.67200		324.00000 
 43692.65567		 889.56308			42803.09259		135.03600		875.00000 
 43692.65567		 305.27265			43387.38302		69.67200		324.00000 
 43692.65567		 889.56308			42803.09259		135.03600		875.00000 
 43692.65567		 305.27265			43387.38302		69.67200		324.00000 
 43692.65567		 889.56308			42803.09259		135.03600		875.00000 
 43692.65567		 305.27265			43387.38302		69.67200		324.00000 
 43692.65567		 889.56308			42803.09259		135.03600		875.00000 
 43692.65567		 305.27265			43387.38302		69.67200		324.00000 
 43692.65567		 889.56308			42803.09259		135.03600		875.00000 
 43692.65567		 305.27265			43387.38302		69.67200		324.00000 
 43692.65567		 889.56308			42803.09259		135.03600		875.00000 
 43692.65567		 305.27265			43387.38302		69.67200		324.00000 
 43692.65567		 889.56308			42803.09259		135.03600		875.00000 
 43692.65567		 305.27265			43387.38302		69.67200		324.00000 
 43692.65567		 889.56308			42803.09259		135.03600		875.00000 
 43692.65567		 305.27265			43387.38302		69.67200		324.00000 
 43692.65567		 889.56308			42803.09259		135.03600		875.00000 
 43692.65567		 305.27265			43387.38302		69.67200		324.00000 
 43692.65567		 889.56308			42803.09259		135.03600		875.00000 
 43692.65567		 305.27265			43387.38302		69.67200		324.00000 
 43692.65567		 889.56308			42803.09259		135.03600		875.00000 
 43692.65567		 305.27265			43387.38302		69.67200		324.00000 
 43692.65567		 889.56308			42803.09259		135.03600		875.00000 
 43692.65567		 305.27265			43387.38302		69.67200		324.00000 
 43692.65567		 889.56308			42803.09259		135.03600		875.00000 
 43692.65567		 305.27265			43387.38302		69.67200		324.00000 
 43692.65567		 889.56308			42803.09259		135.03600		875.00000 
 43692.65567		 305.27265			43387.38302		69.67200		324.00000 
 43692.65567		 889.56308			42803.09259		135.03600		875.00000 
 43692.65567		 305.27265			43387.38302		69.67200		324.00000 
 43692.65567		 889.56308			42803.09259		135.03600		875.00000 
 43692.65567		 305.27265			43387.38302		69.67200		324.00000 
 43692.65567		 889.56308			42803.09259		135.03600		875.00000 
 43692.65567		 305.27265			43387.38302		69.67200		324.00000 
 43692.65567		 889.56308			42803.09259		135.03600		875.00000 
 43692.65567		 305.27265			43387.38302		69.67200		324.00000 
 43692.65567		 889.56308			42803.09259		135.03600		875.00000 
 43692.65567		 305.27265			43387.38302		69.67200		324.00000 
 43692.65567		 889.56308			42803.09259		135.03600		875.00000 
 43692.65567		 305.27265			43387.38302		69.67200		324.00000 
 43692.65567		 889.56308			42803.09259		135.03600		875.00000 
 43692.65567		 305.27265			43387.38302		69.67200		324.00000 
 43692.65567		 889.56308			42803.09259		135.03600		875.00000 
 43692.65567		 305.27265			43387.38302		69.67200		324.00000 
 43692.65567		 889.56308			42803.09259		135.03600		875.00000 
 43692.65567		 305.27265			43387.38302		69.67200		324.00000 
 43692.65567		 889.56308			42803.09259		135.03600		875.00000 
 43692.65567		 305.27265			43387.38302		69.67200		324.00000 
 43692.65567		 889.56308			42803.09259		135.03600		875.00000 
 43692.65567		 305.27265			43387.38302		69.67200		324.00000 
 43692.65567		 889.56308			42803.09259		135.03600		875.00000 
 43692.65567		 305.27265			43387.38302		69.67200		324.00000 
 43692.65567		 889.56308			42803.09259		135.03600		875.00000 
 43692.65567		 305.27265			43387.38302		69.67200		324.00000 
 43692.65567		 889.56308			42803.09259		135.03600		875.00000 
 43692.65567		 305.27265			43387.38302		69.67200		324.00000 
 43692.65567		 889.56308			42803.09259		135.03600		875.00000 
 43692.65567		 305.27265			43387.38302		69.67200		324.00000 
 43692.65567		 889.56308			42803.09259		135.03600		875.00000 
 43692.65567		 305.27265			43387.38302		69.67200		324.00000 
 43692.65567		 889.56308			42803.09259		135.03600		875.00000 
 43692.65567		 305.27265			43387.38302		69.67200		324.00000 
 43692.65567		 889.56308			42803.09259		135.03600		875.00000 
 43692.65567		 305.27265			43387.38302		69.67200		324.00000 
 43692.65567		 889.56308			42803.09259		135.03600		875.00000 
 43692.65567		 305.27265			43387.38302		69.67200		324.00000 
 43692.65567		 889.56308			42803.09259		135.03600		875.00000 
 43692.65567		 305.27265			43387.38302		69.67200		324.00000 
 43692.65567		 889.56308			42803.09259		135.03600		875.00000 
 43692.65567		 305.27265			43387.38302		69.67200		324.00000 
 43692.65567		 889.56308			42803.09259		135.03600		875.00000 
 43692.65567		 305.27265			43387.38302		69.67200		324.00000 
 43692.65567		 889.56308			42803.09259		135.03600		875.00000 
 43692.65567		 305.27265			43387.38302		69.67200		324.00000 
 43692.65567		 889.56308			42803.09259		135.03600		875.00000 
 43692.65567		 305.27265			43387.38302		69.67200		324.00000 
 43692.65567		 889.56308			42803.09259		135.03600		875.00000 
 43692.65567		 305.27265			43387.38302		69.67200		324.00000 
 43692.65567		 889.56308			42803.09259		135.03600		875.00000 
 43692.65567		 305.27265			43387.38302		69.67200		324.00000 
 43692.65567		 889.56308			42803.09259		135.03600		875.00000 
 43692.65567		 305.27265			43387.38302		69.67200		324.00000 
 43692.65567		 889.56308			42803.09259		178.07400		875.00000 
 43692.65567		 305.27265			43387.38302		69.67200		324.00000 
 43692.65567		 889.56308			42803.09259		178.07400		875.00000 
 43692.65567		 305.27265			43387.38302		69.67200		324.00000 
 43692.65567		 889.56308			42803.09259		178.07400		875.00000 
 43692.65567		 305.27265			43387.38302		69.67200		324.00000 
 43692.65567		 889.56308			42803.09259		178.07400		875.00000 
 43692.65567		 305.27265			43387.38302		69.67200		324.00000 
 43692.65567		 889.56308			42803.09259		178.07400		875.00000 
 43692.65567		 305.27265			43387.38302		69.67200		324.00000 
 43692.65567		 889.56308			42803.09259		178.07400		875.00000 
 43692.65567		 305.27265			43387.38302		69.67200		324.00000 
 43692.65567		 889.56308			42803.09259		178.07400		875.00000 
 43692.65567		 305.27265			43387.38302		69.67200		324.00000 
 43692.65567		 889.56308			42803.09259		178.07400		875.00000 
 43692.65567		 305.27265			43387.38302		69.67200		324.00000 
 43692.65567		 889.56308			42803.09259		178.07400		875.00000 
 43692.65567		 305.27265			43387.38302		69.67200		324.00000 
 43692.65567		 889.56308			42803.09259		178.07400		875.00000 
 43692.65567		 305.27265			43387.38302		69.67200		324.00000 
 43692.65567		 889.56308			42803.09259		178.07400		875.00000 
 43692.65567		 305.27265			43387.38302		69.67200		324.00000 
 43692.65567		 889.56308			42803.09259		178.07400		875.00000 
 43692.65567		 305.27265			43387.38302		69.67200		324.00000 
 43692.65567		 889.56308			42803.09259		178.07400		875.00000 
 43692.65567		 305.27265			43387.38302		69.67200		324.00000 
 43692.65567		 889.56308			42803.09259		178.07400		875.00000 
 43692.65567		 305.27265			43387.38302		69.67200		324.00000 
 43692.65567		 889.56308			42803.09259		178.07400		875.00000 
 43692.65567		 305.27265			43387.38302		69.67200		324.00000 
 43692.65567		 889.56308			42803.09259		178.07400		875.00000 
 43692.65567		 305.27265			43387.38302		69.67200		324.00000 
 43692.65567		 889.56308			42803.09259		178.07400		875.00000 
 43692.65567		 305.27265			43387.38302		69.67200		324.00000 
 43692.65567		 889.56308			42803.09259		178.07400		875.00000 
 43692.65567		 305.27265			43387.38302		69.67200		324.00000 
 43692.65567		 889.56308			42803.09259		178.07400		875.00000 
 43692.65567		 305.27265			43387.38302		69.67200		324.00000 
 43692.65567		 889.56308			42803.09259		178.07400		875.00000 
 43692.65567		 305.27265			43387.38302		69.67200		324.00000 
 43692.65567		 889.56308			42803.09259		178.07400		875.00000 
 43692.65567		 305.27265			43387.38302		69.67200		324.00000 
 43692.65567		 889.56308			42803.09259		178.07400		875.00000 
 43692.65567		 305.27265			43387.38302		69.67200		324.00000 
 43692.65567		 889.56308			42803.09259		178.07400		875.00000 
 43692.65567		 305.27265			43387.38302		69.67200		324.00000 
 43692.65567		 889.56308			42803.09259		178.07400		875.00000 
 43692.65567		 305.27265			43387.38302		69.67200		324.00000 
 43692.65567		 889.56308			42803.09259		178.07400		875.00000 
 43692.65567		 305.27265			43387.38302		69.67200		324.00000 
 43692.65567		 889.56308			42803.09259		178.07400		875.00000 
 43692.65567		 305.27265			43387.38302		69.67200		324.00000 
 43692.65567		 889.56308			42803.09259		178.07400		875.00000 
 43692.65567		 305.27265			43387.38302		69.67200		324.00000 
 43692.65567		 889.56308			42803.09259		178.07400		875.00000 
 43692.65567		 305.27265			43387.38302		69.67200		324.00000 
 43692.65567		 889.56308			42803.09259		178.07400		875.00000 
 43692.65567		 305.27265			43387.38302		69.67200		324.00000 
 43692.65567		 889.56308			42803.09259		178.07400		875.00000 
 43692.65567		 305.27265			43387.38302		69.67200		324.00000 
 43692.65567		 889.56308			42803.09259		178.07400		875.00000 
 43692.65567		 305.27265			43387.38302		69.67200		324.00000 
 43692.65567		 889.56308			42803.09259		178.07400		875.00000 
 43692.65567		 305.27265			43387.38302		69.67200		324.00000 
 43692.65567		 889.56308			42803.09259		178.07400		875.00000 
 43692.65567		 305.27265			43387.38302		69.67200		324.00000 
 43692.65567		 889.56308			42803.09259		178.07400		875.00000 
 43692.65567		 305.27265			43387.38302		69.67200		324.00000 
 43692.65567		 889.56308			42803.09259		178.07400		875.00000 
 43692.65567		 305.27265			43387.38302		69.67200		324.00000 
 43692.65567		 889.56308			42803.09259		178.07400		875.00000 
 43692.65567		 305.27265			43387.38302		69.67200		324.00000 
 43692.65567		 889.56308			42803.09259		178.07400		875.00000 
 43692.65567		 305.27265			43387.38302		69.67200		324.00000 
 43692.65567		 889.56308			42803.09259		178.07400		875.00000 
 43692.65567		 305.27265			43387.38302		69.67200		324.00000 
 43692.65567		 889.56308			42803.09259		178.07400		875.00000 
 43692.65567		 305.27265			43387.38302		69.67200		324.00000 
 43692.65567		 889.56308			42803.09259		178.07400		875.00000 
 43692.65567		 305.27265			43387.38302		69.67200		324.00000 
 43692.65567		 889.56308			42803.09259		178.07400		875.00000 
 43692.65567		 305.27265			43387.38302		69.67200		324.00000 
 43692.65567		 889.56308			42803.09259		178.07400		875.00000 
 43692.65567		 305.27265			43387.38302		69.67200		324.00000 
 43692.65567		 889.56308			42803.09259		178.07400		875.00000 
 43692.65567		 305.27265			43387.38302		69.67200		324.00000 
 43692.65567		 889.56308			42803.09259		178.07400		875.00000 
 43692.65567		 305.27265			43387.38302		69.67200		324.00000 
 43692.65567		 889.56308			42803.09259		178.07400		875.00000 
 43692.65567		 305.27265			43387.38302		69.67200		324.00000 
 43692.65567		 889.56308			42803.09259		178.07400		875.00000 
 43692.65567		 305.27265			43387.38302		69.67200		324.00000 
 43692.65567		 889.56308			42803.09259		178.07400		875.00000 
 43692.65567		 305.27265			43387.38302		69.67200		324.00000 
 43692.65567		 889.56308			42803.09259		178.07400		875.00000 
 43692.65567		 305.27265			43387.38302		69.67200		324.00000 
 43692.65567		 889.56308			42803.09259		178.07400		875.00000 
 43692.65567		 305.27265			43387.38302		69.67200		324.00000 
 43692.65567		 889.56308			42803.09259		178.07400		875.00000 
 43692.65567		 305.27265			43387.38302		69.67200		324.00000 
 43692.65567		 889.56308			42803.09259		178.07400		875.00000 
 43692.65567		 305.27265			43387.38302		69.67200		324.00000 
 43692.65567		 889.56308			42803.09259		178.07400		875.00000 
 43692.65567		 305.27265			43387.38302		69.67200		324.00000 
 43692.65567		 889.56308			42803.09259		178.07400		875.00000 
 43692.65567		 305.27265			43387.38302		69.67200		324.00000 
 43692.65567		 889.56308			42803.09259		178.07400		875.00000 
 43692.65567		 305.27265			43387.38302		69.67200		324.00000 
 43692.65567		 889.56308			42803.09259		178.07400		875.00000 
 43692.65567		 305.27265			43387.38302		69.67200		324.00000 
 43692.65567		 889.56308			42803.09259		178.07400		875.00000 
 43692.65567		 305.27265			43387.38302		69.67200		324.00000 
 43692.65567		 889.56308			42803.09259		178.07400		875.00000 
 43692.65567		 305.27265			43387.38302		69.67200		324.00000 
 43692.65567		 889.56308			42803.09259		178.07400		875.00000 
 43692.65567		 305.27265			43387.38302		69.67200		324.00000 
 43692.65567		 889.56308			42803.09259		178.07400		875.00000 
 43692.65567		 305.27265			43387.38302		69.67200		324.00000 
 43692.65567		 889.56308			42803.09259		178.07400		875.00000 
 43692.65567		 305.27265			43387.38302		69.67200		324.00000 
 43692.65567		 889.56308			42803.09259		178.07400		875.00000 
 43692.65567		 305.27265			43387.38302		69.67200		324.00000 
 43692.65567		 889.56308			42803.09259		178.07400		875.00000 
 43692.65567		 305.27265			43387.38302		69.67200		324.00000 
 43692.65567		 889.56308			42803.09259		178.07400		875.00000 
 43692.65567		 305.27265			43387.38302		69.67200		324.00000 
 43692.65567		 889.56308			42803.09259		178.07400		875.00000 
 43692.65567		 305.27265			43387.38302		69.67200		324.00000 
 43692.65567		 889.56308			42803.09259		208.12000		875.00000 
 43692.65567		 305.27265			43387.38302		69.67200		324.00000 
 43692.65567		 889.56308			42803.09259		208.12000		875.00000 
 43692.65567		 305.27265			43387.38302		69.67200		324.00000 
 43692.65567		 889.56308			42803.09259		208.12000		875.00000 
 43692.65567		 305.27265			43387.38302		69.67200		324.00000 
 43692.65567		 889.56308			42803.09259		208.12000		875.00000 
 43692.65567		 305.27265			43387.38302		69.67200		324.00000 
 43692.65567		 889.56308			42803.09259		208.12000		875.00000 
 43692.65567		 305.27265			43387.38302		69.67200		324.00000 
 43692.65567		 889.56308			42803.09259		208.12000		875.00000 
 43692.65567		 305.27265			43387.38302		69.67200		324.00000 
 43692.65567		 889.56308			42803.09259		208.12000		875.00000 
 43692.65567		 305.27265			43387.38302		69.67200		324.00000 
 43692.65567		 889.56308			42803.09259		208.12000		875.00000 
 43692.65567		 305.27265			43387.38302		69.67200		324.00000 
 43692.65567		 889.56308			42803.09259		208.12000		875.00000 
 43692.65567		 305.27265			43387.38302		69.67200		324.00000 
 43692.65567		 889.56308			42803.09259		208.12000		875.00000 
 43692.65567		 305.27265			43387.38302		69.67200		324.00000 
 43692.65567		 889.56308			42803.09259		208.12000		875.00000 
 43692.65567		 305.27265			43387.38302		69.67200		324.00000 
 43692.65567		 889.56308			42803.09259		208.12000		875.00000 
 43692.65567		 305.27265			43387.38302		69.67200		324.00000 
 43692.65567		 889.56308			42803.09259		208.12000		875.00000 
 43692.65567		 305.27265			43387.38302		69.67200		324.00000 
 43692.65567		 889.56308			42803.09259		208.12000		875.00000 
 43692.65567		 305.27265			43387.38302		69.67200		324.00000 
 43692.65567		 889.56308			42803.09259		208.12000		875.00000 
 43692.65567		 305.27265			43387.38302		69.67200		324.00000 
 43692.65567		 889.56308			42803.09259		208.12000		875.00000 
 43692.65567		 305.27265			43387.38302		69.67200		324.00000 
 43692.65567		 889.56308			42803.09259		208.12000		875.00000 
 43692.65567		 305.27265			43387.38302		69.67200		324.00000 
 43692.65567		 889.56308			42803.09259		208.12000		875.00000 
 43692.65567		 305.27265			43387.38302		69.67200		324.00000 
 43692.65567		 889.56308			42803.09259		208.12000		875.00000 
 43692.65567		 305.27265			43387.38302		69.67200		324.00000 
 43692.65567		 889.56308			42803.09259		208.12000		875.00000 
 43692.65567		 305.27265			43387.38302		69.67200		324.00000 
 43692.65567		 889.56308			42803.09259		208.12000		875.00000 
 43692.65567		 305.27265			43387.38302		69.67200		324.00000 
 43692.65567		 889.56308			42803.09259		208.12000		875.00000 
 43692.65567		 305.27265			43387.38302		69.67200		324.00000 
 43692.65567		 889.56308			42803.09259		208.12000		875.00000 
 43692.65567		 305.27265			43387.38302		69.67200		324.00000 
 43692.65567		 889.56308			42803.09259		208.12000		875.00000 
 43692.65567		 305.27265			43387.38302		69.67200		324.00000 
 43692.65567		 889.56308			42803.09259		208.12000		875.00000 
 43692.65567		 305.27265			43387.38302		69.67200		324.00000 
 43692.65567		 889.56308			42803.09259		208.12000		875.00000 
 43692.65567		 305.27265			43387.38302		69.67200		324.00000 
 43692.65567		 889.56308			42803.09259		208.12000		875.00000 
 43692.65567		 305.27265			43387.38302		69.67200		324.00000 
 43692.65567		 889.56308			42803.09259		208.12000		875.00000 
 43692.65567		 305.27265			43387.38302		69.67200		324.00000 
 43692.65567		 889.56308			42803.09259		208.12000		875.00000 
 43692.65567		 305.27265			43387.38302		69.67200		324.00000 
 43692.65567		 889.56308			42803.09259		208.12000		875.00000 
 43692.65567		 305.27265			43387.38302		69.67200		324.00000 
 43692.65567		 889.56308			42803.09259		208.12000		875.00000 
 43692.65567		 305.27265			43387.38302		69.67200		324.00000 
 43692.65567		 889.56308			42803.09259		208.12000		875.00000 
 43692.65567		 305.27265			43387.38302		69.67200		324.00000 
 43692.65567		 889.56308			42803.09259		208.12000		875.00000 
 43692.65567		 305.27265			43387.38302		69.67200		324.00000 
 43692.65567		 889.56308			42803.09259		208.12000		875.00000 
 43692.65567		 305.27265			43387.38302		69.67200		324.00000 
 43692.65567		 889.56308			42803.09259		208.12000		875.00000 
 43692.65567		 305.27265			43387.38302		69.67200		324.00000 
 43692.65567		 889.56308			42803.09259		208.12000		875.00000 
 43692.65567		 305.27265			43387.38302		69.67200		324.00000 
 43692.65567		 889.56308			42803.09259		208.12000		875.00000 
 43692.65567		 305.27265			43387.38302		69.67200		324.00000 
 43692.65567		 889.56308			42803.09259		208.12000		875.00000 
 43692.65567		 305.27265			43387.38302		69.67200		324.00000 
 43692.65567		 889.56308			42803.09259		208.12000		875.00000 
 43692.65567		 305.27265			43387.38302		69.67200		324.00000 
 43692.65567		 889.56308			42803.09259		208.12000		875.00000 
 43692.65567		 305.27265			43387.38302		69.67200		324.00000 
 43692.65567		 889.56308			42803.09259		208.12000		875.00000 
 43692.65567		 305.27265			43387.38302		69.67200		324.00000 
 43692.65567		 889.56308			42803.09259		208.12000		875.00000 
 43692.65567		 305.27265			43387.38302		69.67200		324.00000 
 43692.65567		 889.56308			42803.09259		208.12000		875.00000 
 43692.65567		 305.27265			43387.38302		69.67200		324.00000 
 43692.65567		 889.56308			42803.09259		208.12000		875.00000 
 43692.65567		 305.27265			43387.38302		69.67200		324.00000 
 43692.65567		 889.56308			42803.09259		208.12000		875.00000 
 43692.65567		 305.27265			43387.38302		69.67200		324.00000 
 43692.65567		 889.56308			42803.09259		208.12000		875.00000 
 43692.65567		 305.27265			43387.38302		69.67200		324.00000 
 43692.65567		 889.56308			42803.09259		208.12000		875.00000 
 43692.65567		 305.27265			43387.38302		69.67200		324.00000 
 43692.65567		 889.56308			42803.09259		208.12000		875.00000 
 43692.65567		 305.27265			43387.38302		69.67200		324.00000 
 43692.65567		 889.56308			42803.09259		208.12000		875.00000 
 43692.65567		 305.27265			43387.38302		69.67200		324.00000 
 43692.65567		 889.56308			42803.09259		208.12000		875.00000 
 43692.65567		 305.27265			43387.38302		69.67200		324.00000 
 43692.65567		 889.56308			42803.09259		208.12000		875.00000 
 43692.65567		 305.27265			43387.38302		69.67200		324.00000 
 43692.65567		 889.56308			42803.09259		208.12000		875.00000 
 43692.65567		 305.27265			43387.38302		69.67200		324.00000 
 43692.65567		 889.56308			42803.09259		208.12000		875.00000 
 43692.65567		 305.27265			43387.38302		69.67200		324.00000 
 43692.65567		 889.56308			42803.09259		208.12000		875.00000 
 43692.65567		 305.27265			43387.38302		69.67200		324.00000 
 43692.65567		 889.56308			42803.09259		208.12000		875.00000 
 43692.65567		 305.27265			43387.38302		69.67200		324.00000 
 43692.65567		 889.56308			42803.09259		208.12000		875.00000 
 43692.65567		 305.27265			43387.38302		69.67200		324.00000 
 43692.65567		 889.56308			42803.09259		208.12000		875.00000 
 43692.65567		 305.27265			43387.38302		69.67200		324.00000 
 43692.65567		 889.56308			42803.09259		208.12000		875.00000 
 43692.65567		 305.27265			43387.38302		69.67200		324.00000 
 43692.65567		 889.56308			42803.09259		208.12000		875.00000 
 43692.65567		 305.27265			43387.38302		69.67200		324.00000 
 43692.65567		 889.56308			42803.09259		208.12000		875.00000 
 43692.65567		 305.27265			43387.38302		69.67200		324.00000 
 43692.65567		 889.56308			42803.09259		208.12000		875.00000 
 43692.65567		 305.27265			43387.38302		69.67200		324.00000 
 43692.65567		 889.56308			42803.09259		208.12000		875.00000 
 43692.65567		 305.27265			43387.38302		69.67200		324.00000 
 43692.65567		 889.56308			42803.09259		208.12000		875.00000 
 43692.65567		 305.27265			43387.38302		69.67200		324.00000 
 43692.65567		 889.56308			42803.09259		208.12000		875.00000 
 43692.65567		 305.27265			43387.38302		69.67200		324.00000 
 43692.65567		 889.56308			42803.09259		218.59400		875.00000 
 43692.65567		 305.27265			43387.38302		69.67200		324.00000 
 43692.65567		 889.56308			42803.09259		218.59400		875.00000 
 43692.65567		 305.27265			43387.38302		69.67200		324.00000 
 43692.65567		 889.56308			42803.09259		218.59400		875.00000 
 43692.65567		 305.27265			43387.38302		69.67200		324.00000 
 43692.65567		 889.56308			42803.09259		218.59400		875.00000 
 43692.65567		 305.27265			43387.38302		69.67200		324.00000 
 43692.65567		 889.56308			42803.09259		218.59400		875.00000 
 43692.65567		 305.27265			43387.38302		69.67200		324.00000 
 43692.65567		 889.56308			42803.09259		218.59400		875.00000 
 43692.65567		 305.27265			43387.38302		69.67200		324.00000 
 43692.65567		 889.56308			42803.09259		218.59400		875.00000 
 43692.65567		 305.27265			43387.38302		69.67200		324.00000 
 43692.65567		 889.56308			42803.09259		218.59400		875.00000 
 43692.65567		 305.27265			43387.38302		69.67200		324.00000 
 43692.65567		 889.56308			42803.09259		218.59400		875.00000 
 43692.65567		 305.27265			43387.38302		69.67200		324.00000 
 43692.65567		 889.56308			42803.09259		218.59400		875.00000 
 43692.65567		 305.27265			43387.38302		69.67200		324.00000 
 43692.65567		 889.56308			42803.09259		218.59400		875.00000 
 43692.65567		 305.27265			43387.38302		69.67200		324.00000 
 43692.65567		 889.56308			42803.09259		218.59400		875.00000 
 43692.65567		 305.27265			43387.38302		69.67200		324.00000 
 43692.65567		 889.56308			42803.09259		218.59400		875.00000 
 43692.65567		 305.27265			43387.38302		69.67200		324.00000 
 43692.65567		 889.56308			42803.09259		218.59400		875.00000 
 43692.65567		 305.27265			43387.38302		69.67200		324.00000 
 43692.65567		 889.56308			42803.09259		218.59400		875.00000 
 43692.65567		 305.27265			43387.38302		69.67200		324.00000 
 43692.65567		 889.56308			42803.09259		218.59400		875.00000 
 43692.65567		 305.27265			43387.38302		69.67200		324.00000 
 43692.65567		 889.56308			42803.09259		218.59400		875.00000 
 43692.65567		 305.27265			43387.38302		69.67200		324.00000 
 43692.65567		 889.56308			42803.09259		218.59400		875.00000 
 43692.65567		 305.27265			43387.38302		69.67200		324.00000 
 43692.65567		 889.56308			42803.09259		218.59400		875.00000 
 43692.65567		 305.27265			43387.38302		69.67200		324.00000 
 43692.65567		 889.56308			42803.09259		218.59400		875.00000 
 43692.65567		 305.27265			43387.38302		69.67200		324.00000 
 43692.65567		 889.56308			42803.09259		218.59400		875.00000 
 43692.65567		 305.27265			43387.38302		69.67200		324.00000 
 43692.65567		 889.56308			42803.09259		218.59400		875.00000 
 43692.65567		 305.27265			43387.38302		69.67200		324.00000 
 43692.65567		 889.56308			42803.09259		218.59400		875.00000 
 43692.65567		 305.27265			43387.38302		69.67200		324.00000 
 43692.65567		 889.56308			42803.09259		218.59400		875.00000 
 43692.65567		 305.27265			43387.38302		69.67200		324.00000 
 43692.65567		 889.56308			42803.09259		218.59400		875.00000 
 43692.65567		 305.27265			43387.38302		69.67200		324.00000 
 43692.65567		 889.56308			42803.09259		218.59400		875.00000 
 43692.65567		 305.27265			43387.38302		69.67200		324.00000 
 43692.65567		 889.56308			42803.09259		218.59400		875.00000 
 43692.65567		 305.27265			43387.38302		69.67200		324.00000 
 43692.65567		 889.56308			42803.09259		218.59400		875.00000 
 43692.65567		 305.27265			43387.38302		69.67200		324.00000 
 43692.65567		 889.56308			42803.09259		218.59400		875.00000 
 43692.65567		 305.27265			43387.38302		69.67200		324.00000 
 43692.65567		 889.56308			42803.09259		218.59400		875.00000 
 43692.65567		 305.27265			43387.38302		69.67200		324.00000 
 43692.65567		 889.56308			42803.09259		218.59400		875.00000 
 43692.65567		 305.27265			43387.38302		69.67200		324.00000 
 43692.65567		 889.56308			42803.09259		218.59400		875.00000 
 43692.65567		 305.27265			43387.38302		69.67200		324.00000 
 43692.65567		 889.56308			42803.09259		218.59400		875.00000 
 43692.65567		 305.27265			43387.38302		69.67200		324.00000 
 43692.65567		 889.56308			42803.09259		218.59400		875.00000 
 43692.65567		 305.27265			43387.38302		69.67200		324.00000 
 43692.65567		 889.56308			42803.09259		218.59400		875.00000 
 43692.65567		 305.27265			43387.38302		69.67200		324.00000 
 43692.65567		 889.56308			42803.09259		218.59400		875.00000 
 43692.65567		 305.27265			43387.38302		69.67200		324.00000 
 43692.65567		 889.56308			42803.09259		218.59400		875.00000 
 43692.65567		 305.27265			43387.38302		69.67200		324.00000 
 43692.65567		 889.56308			42803.09259		218.59400		875.00000 
 43692.65567		 305.27265			43387.38302		69.67200		324.00000 
 43692.65567		 889.56308			42803.09259		218.59400		875.00000 
 43692.65567		 305.27265			43387.38302		69.67200		324.00000 
 43692.65567		 889.56308			42803.09259		218.59400		875.00000 
 43692.65567		 305.27265			43387.38302		69.67200		324.00000 
 43692.65567		 889.56308			42803.09259		218.59400		875.00000 
 43692.65567		 305.27265			43387.38302		69.67200		324.00000 
 43692.65567		 889.56308			42803.09259		218.59400		875.00000 
 43692.65567		 305.27265			43387.38302		69.67200		324.00000 
 43692.65567		 889.56308			42803.09259		218.59400		875.00000 
 43692.65567		 305.27265			43387.38302		69.67200		324.00000 
 43692.65567		 889.56308			42803.09259		218.59400		875.00000 
 43692.65567		 305.27265			43387.38302		69.67200		324.00000 
 43692.65567		 889.56308			42803.09259		218.59400		875.00000 
 43692.65567		 305.27265			43387.38302		69.67200		324.00000 
 43692.65567		 889.56308			42803.09259		218.59400		875.00000 
 43692.65567		 305.27265			43387.38302		69.67200		324.00000 
 43692.65567		 889.56308			42803.09259		218.59400		875.00000 
 43692.65567		 305.27265			43387.38302		69.67200		324.00000 
 43692.65567		 889.56308			42803.09259		218.59400		875.00000 
 43692.65567		 305.27265			43387.38302		69.67200		324.00000 
 43692.65567		 889.56308			42803.09259		218.59400		875.00000 
 43692.65567		 305.27265			43387.38302		69.67200		324.00000 
 43692.65567		 889.56308			42803.09259		218.59400		875.00000 
 43692.65567		 305.27265			43387.38302		69.67200		324.00000 
 43692.65567		 889.56308			42803.09259		218.59400		875.00000 
 43692.65567		 305.27265			43387.38302		69.67200		324.00000 
 43692.65567		 889.56308			42803.09259		218.59400		875.00000 
 43692.65567		 305.27265			43387.38302		69.67200		324.00000 
 43692.65567		 889.56308			42803.09259		218.59400		875.00000 
 43692.65567		 305.27265			43387.38302		69.67200		324.00000 
 43692.65567		 889.56308			42803.09259		218.59400		875.00000 
 43692.65567		 305.27265			43387.38302		69.67200		324.00000 
 43692.65567		 889.56308			42803.09259		218.59400		875.00000 
 43692.65567		 305.27265			43387.38302		69.67200		324.00000 
 43692.65567		 889.56308			42803.09259		218.59400		875.00000 
 43692.65567		 305.27265			43387.38302		69.67200		324.00000 
 43692.65567		 889.56308			42803.09259		218.59400		875.00000 
 43692.65567		 305.27265			43387.38302		69.67200		324.00000 
 43692.65567		 889.56308			42803.09259		218.59400		875.00000 
 43692.65567		 305.27265			43387.38302		69.67200		324.00000 
 43692.65567		 889.56308			42803.09259		218.59400		875.00000 
 43692.65567		 305.27265			43387.38302		69.67200		324.00000 
 43692.65567		 889.56308			42803.09259		218.59400		875.00000 
 43692.65567		 305.27265			43387.38302		69.67200		324.00000 
 43692.65567		 889.56308			42803.09259		218.59400		875.00000 
 43692.65567		 305.27265			43387.38302		69.67200		324.00000 
 43692.65567		 889.56308			42803.09259		218.59400		875.00000 
 43692.65567		 305.27265			43387.38302		69.67200		324.00000 
 43692.65567		 889.56308			42803.09259		218.59400		875.00000 
 43692.65567		 305.27265			43387.38302		69.67200		324.00000 
 43692.65567		 889.56308			42803.09259		218.59400		875.00000 
 43692.65567		 305.27265			43387.38302		69.67200		324.00000 
 43692.65567		 889.56308			42803.09259		221.99400		875.00000 
 43692.65567		 305.27265			43387.38302		69.67200		324.00000 
 43692.65567		 889.56308			42803.09259		221.99400		875.00000 
 43692.65567		 305.27265			43387.38302		69.67200		324.00000 
 43692.65567		 889.56308			42803.09259		221.99400		875.00000 
 43692.65567		 305.27265			43387.38302		69.67200		324.00000 
 43692.65567		 889.56308			42803.09259		221.99400		875.00000 
 43692.65567		 305.27265			43387.38302		69.67200		324.00000 
 43692.65567		 889.56308			42803.09259		221.99400		875.00000 
 43692.65567		 305.27265			43387.38302		69.67200		324.00000 
 43692.65567		 889.56308			42803.09259		221.99400		875.00000 
 43692.65567		 305.27265			43387.38302		69.67200		324.00000 
 43692.65567		 889.56308			42803.09259		221.99400		875.00000 
 43692.65567		 305.27265			43387.38302		69.67200		324.00000 
 43692.65567		 889.56308			42803.09259		221.99400		875.00000 
 43692.65567		 305.27265			43387.38302		69.67200		324.00000 
 43692.65567		 889.56308			42803.09259		221.99400		875.00000 
 43692.65567		 305.27265			43387.38302		69.67200		324.00000 
 43692.65567		 889.56308			42803.09259		221.99400		875.00000 
 43692.65567		 305.27265			43387.38302		69.67200		324.00000 
 43692.65567		 889.56308			42803.09259		221.99400		875.00000 
 43692.65567		 305.27265			43387.38302		69.67200		324.00000 
 43692.65567		 889.56308			42803.09259		221.99400		875.00000 
 43692.65567		 305.27265			43387.38302		69.67200		324.00000 
 43692.65567		 889.56308			42803.09259		221.99400		875.00000 
 43692.65567		 305.27265			43387.38302		69.67200		324.00000 
 43692.65567		 889.56308			42803.09259		221.99400		875.00000 
 43692.65567		 305.27265			43387.38302		69.67200		324.00000 
 43692.65567		 889.56308			42803.09259		221.99400		875.00000 
 43692.65567		 305.27265			43387.38302		69.67200		324.00000 
 43692.65567		 889.56308			42803.09259		221.99400		875.00000 
 43692.65567		 305.27265			43387.38302		69.67200		324.00000 
 43692.65567		 889.56308			42803.09259		221.99400		875.00000 
 43692.65567		 305.27265			43387.38302		69.67200		324.00000 
 43692.65567		 889.56308			42803.09259		221.99400		875.00000 
 43692.65567		 305.27265			43387.38302		69.67200		324.00000 
 43692.65567		 889.56308			42803.09259		221.99400		875.00000 
 43692.65567		 305.27265			43387.38302		69.67200		324.00000 
 43692.65567		 889.56308			42803.09259		221.99400		875.00000 
 43692.65567		 305.27265			43387.38302		69.67200		324.00000 
 43692.65567		 889.56308			42803.09259		221.99400		875.00000 
 43692.65567		 305.27265			43387.38302		69.67200		324.00000 
 43692.65567		 889.56308			42803.09259		221.99400		875.00000 
 43692.65567		 305.27265			43387.38302		69.67200		324.00000 
 43692.65567		 889.56308			42803.09259		221.99400		875.00000 
 43692.65567		 305.27265			43387.38302		69.67200		324.00000 
 43692.65567		 889.56308			42803.09259		221.99400		875.00000 
 43692.65567		 305.27265			43387.38302		69.67200		324.00000 
 43692.65567		 889.56308			42803.09259		221.99400		875.00000 
 43692.65567		 305.27265			43387.38302		69.67200		324.00000 
 43692.65567		 889.56308			42803.09259		221.99400		875.00000 
 43692.65567		 305.27265			43387.38302		69.67200		324.00000 
 43692.65567		 889.56308			42803.09259		221.99400		875.00000 
 43692.65567		 305.27265			43387.38302		69.67200		324.00000 
 43692.65567		 889.56308			42803.09259		221.99400		875.00000 
 43692.65567		 305.27265			43387.38302		69.67200		324.00000 
 43692.65567		 889.56308			42803.09259		221.99400		875.00000 
 43692.65567		 305.27265			43387.38302		69.67200		324.00000 
 43692.65567		 889.56308			42803.09259		221.99400		875.00000 
 43692.65567		 305.27265			43387.38302		69.67200		324.00000 
 43692.65567		 889.56308			42803.09259		221.99400		875.00000 
 43692.65567		 305.27265			43387.38302		69.67200		324.00000 
 43692.65567		 889.56308			42803.09259		221.99400		875.00000 
 43692.65567		 305.27265			43387.38302		69.67200		324.00000 
 43692.65567		 889.56308			42803.09259		221.99400		875.00000 
 43692.65567		 305.27265			43387.38302		69.67200		324.00000 
 43692.65567		 889.56308			42803.09259		221.99400		875.00000 
 43692.65567		 305.27265			43387.38302		69.67200		324.00000 
 43692.65567		 889.56308			42803.09259		221.99400		875.00000 
 43692.65567		 305.27265			43387.38302		69.67200		324.00000 
 43692.65567		 889.56308			42803.09259		221.99400		875.00000 
 43692.65567		 305.27265			43387.38302		69.67200		324.00000 
 43692.65567		 889.56308			42803.09259		221.99400		875.00000 
 43692.65567		 305.27265			43387.38302		69.67200		324.00000 
 43692.65567		 889.56308			42803.09259		221.99400		875.00000 
 43692.65567		 305.27265			43387.38302		69.67200		324.00000 
 43692.65567		 889.56308			42803.09259		221.99400		875.00000 
 43692.65567		 305.27265			43387.38302		69.67200		324.00000 
 43692.65567		 889.56308			42803.09259		221.99400		875.00000 
 43692.65567		 305.27265			43387.38302		69.67200		324.00000 
 43692.65567		 889.56308			42803.09259		221.99400		875.00000 
 43692.65567		 305.27265			43387.38302		69.67200		324.00000 
 43692.65567		 889.56308			42803.09259		221.99400		875.00000 
 43692.65567		 305.27265			43387.38302		69.67200		324.00000 
 43692.65567		 889.56308			42803.09259		221.99400		875.00000 
 43692.65567		 305.27265			43387.38302		69.67200		324.00000 
 43692.65567		 889.56308			42803.09259		221.99400		875.00000 
 43692.65567		 305.27265			43387.38302		69.67200		324.00000 
 43692.65567		 889.56308			42803.09259		221.99400		875.00000 
 43692.65567		 305.27265			43387.38302		69.67200		324.00000 
 43692.65567		 889.56308			42803.09259		221.99400		875.00000 
 43692.65567		 305.27265			43387.38302		69.67200		324.00000 
 43692.65567		 889.56308			42803.09259		221.99400		875.00000 
 43692.65567		 305.27265			43387.38302		69.67200		324.00000 
 43692.65567		 889.56308			42803.09259		221.99400		875.00000 
 43692.65567		 305.27265			43387.38302		69.67200		324.00000 
 43692.65567		 889.56308			42803.09259		221.99400		875.00000 
 43692.65567		 305.27265			43387.38302		69.67200		324.00000 
 43692.65567		 889.56308			42803.09259		221.99400		875.00000 
 43692.65567		 305.27265			43387.38302		69.67200		324.00000 
 43692.65567		 889.56308			42803.09259		221.99400		875.00000 
 43692.65567		 305.27265			43387.38302		69.67200		324.00000 
 43692.65567		 889.56308			42803.09259		221.99400		875.00000 
 43692.65567		 305.27265			43387.38302		69.67200		324.00000 
 43692.65567		 889.56308			42803.09259		221.99400		875.00000 
 43692.65567		 305.27265			43387.38302		69.67200		324.00000 
 43692.65567		 889.56308			42803.09259		221.99400		875.00000 
 43692.65567		 305.27265			43387.38302		69.67200		324.00000 
 43692.65567		 889.56308			42803.09259		221.99400		875.00000 
 43692.65567		 305.27265			43387.38302		69.67200		324.00000 
 43692.65567		 889.56308			42803.09259		221.99400		875.00000 
 43692.65567		 305.27265			43387.38302		69.67200		324.00000 
 43692.65567		 889.56308			42803.09259		221.99400		875.00000 
 43692.65567		 305.27265			43387.38302		69.67200		324.00000 
 43692.65567		 889.56308			42803.09259		221.99400		875.00000 
 43692.65567		 305.27265			43387.38302		69.67200		324.00000 
 43692.65567		 889.56308			42803.09259		221.99400		875.00000 
 43692.65567		 305.27265			43387.38302		69.67200		324.00000 
 43692.65567		 889.56308			42803.09259		221.99400		875.00000 
 43692.65567		 305.27265			43387.38302		69.67200		324.00000 
 43692.65567		 889.56308			42803.09259		221.99400		875.00000 
 43692.65567		 305.27265			43387.38302		69.67200		324.00000 
 43692.65567		 889.56308			42803.09259		221.99400		875.00000 
 43692.65567		 305.27265			43387.38302		69.67200		324.00000 
 43692.65567		 889.56308			42803.09259		221.99400		875.00000 
 43692.65567		 305.27265			43387.38302		69.67200		324.00000 
 43692.65567		 889.56308			42803.09259		221.99400		875.00000 
 43692.65567		 305.27265			43387.38302		69.67200		324.00000 
 43692.65567		 889.56308			42803.09259		223.36600		875.00000 
 43692.65567		 305.27265			43387.38302		69.67200		324.00000 
 43692.65567		 889.56308			42803.09259		223.36600		875.00000 
 43692.65567		 305.27265			43387.38302		69.67200		324.00000 
 43692.65567		 889.56308			42803.09259		223.36600		875.00000 
 43692.65567		 305.27265			43387.38302		69.67200		324.00000 
 43692.65567		 889.56308			42803.09259		223.36600		875.00000 
 43692.65567		 305.27265			43387.38302		69.67200		324.00000 
 43692.65567		 889.56308			42803.09259		223.36600		875.00000 
 43692.65567		 305.27265			43387.38302		69.67200		324.00000 
 43692.65567		 889.56308			42803.09259		223.36600		875.00000 
 43692.65567		 305.27265			43387.38302		69.67200		324.00000 
 43692.65567		 889.56308			42803.09259		223.36600		875.00000 
 43692.65567		 305.27265			43387.38302		69.67200		324.00000 
 43692.65567		 889.56308			42803.09259		223.36600		875.00000 
 43692.65567		 305.27265			43387.38302		69.67200		324.00000 
 43692.65567		 889.56308			42803.09259		223.36600		875.00000 
 43692.65567		 305.27265			43387.38302		69.67200		324.00000 
 43692.65567		 889.56308			42803.09259		223.36600		875.00000 
 43692.65567		 305.27265			43387.38302		69.67200		324.00000 
 43692.65567		 889.56308			42803.09259		223.36600		875.00000 
 43692.65567		 305.27265			43387.38302		69.67200		324.00000 
 43692.65567		 889.56308			42803.09259		223.36600		875.00000 
 43692.65567		 305.27265			43387.38302		69.67200		324.00000 
 43692.65567		 889.56308			42803.09259		223.36600		875.00000 
 43692.65567		 305.27265			43387.38302		69.67200		324.00000 
 43692.65567		 889.56308			42803.09259		223.36600		875.00000 
 43692.65567		 305.27265			43387.38302		69.67200		324.00000 
 43692.65567		 889.56308			42803.09259		223.36600		875.00000 
 43692.65567		 305.27265			43387.38302		69.67200		324.00000 
 43692.65567		 889.56308			42803.09259		223.36600		875.00000 
 43692.65567		 305.27265			43387.38302		69.67200		324.00000 
 43692.65567		 889.56308			42803.09259		223.36600		875.00000 
 43692.65567		 305.27265			43387.38302		69.67200		324.00000 
 43692.65567		 889.56308			42803.09259		223.36600		875.00000 
 43692.65567		 305.27265			43387.38302		69.67200		324.00000 
 43692.65567		 889.56308			42803.09259		223.36600		875.00000 
 43692.65567		 305.27265			43387.38302		69.67200		324.00000 
 43692.65567		 889.56308			42803.09259		223.36600		875.00000 
 43692.65567		 305.27265			43387.38302		69.67200		324.00000 
 43692.65567		 889.56308			42803.09259		223.36600		875.00000 
 43692.65567		 305.27265			43387.38302		69.67200		324.00000 
 43692.65567		 889.56308			42803.09259		223.36600		875.00000 
 43692.65567		 305.27265			43387.38302		69.67200		324.00000 
 43692.65567		 889.56308			42803.09259		223.36600		875.00000 
 43692.65567		 305.27265			43387.38302		69.67200		324.00000 
 43692.65567		 889.56308			42803.09259		223.36600		875.00000 
 43692.65567		 305.27265			43387.38302		69.67200		324.00000 
 43692.65567		 889.56308			42803.09259		223.36600		875.00000 
 43692.65567		 305.27265			43387.38302		69.67200		324.00000 
 43692.65567		 889.56308			42803.09259		223.36600		875.00000 
 43692.65567		 305.27265			43387.38302		69.67200		324.00000 
 43692.65567		 889.56308			42803.09259		223.36600		875.00000 
 43692.65567		 305.27265			43387.38302		69.67200		324.00000 
 43692.65567		 889.56308			42803.09259		223.36600		875.00000 
 43692.65567		 305.27265			43387.38302		69.67200		324.00000 
 43692.65567		 889.56308			42803.09259		223.36600		875.00000 
 43692.65567		 305.27265			43387.38302		69.67200		324.00000 
 43692.65567		 889.56308			42803.09259		223.36600		875.00000 
 43692.65567		 305.27265			43387.38302		69.67200		324.00000 
 43692.65567		 889.56308			42803.09259		223.36600		875.00000 
 43692.65567		 305.27265			43387.38302		69.67200		324.00000 
 43692.65567		 889.56308			42803.09259		223.36600		875.00000 
 43692.65567		 305.27265			43387.38302		69.67200		324.00000 
 43692.65567		 889.56308			42803.09259		223.36600		875.00000 
 43692.65567		 305.27265			43387.38302		69.67200		324.00000 
 43692.65567		 889.56308			42803.09259		223.36600		875.00000 
 43692.65567		 305.27265			43387.38302		69.67200		324.00000 
 43692.65567		 889.56308			42803.09259		223.36600		875.00000 
 43692.65567		 305.27265			43387.38302		69.67200		324.00000 
 43692.65567		 889.56308			42803.09259		223.36600		875.00000 
 43692.65567		 305.27265			43387.38302		69.67200		324.00000 
 43692.65567		 889.56308			42803.09259		223.36600		875.00000 
 43692.65567		 305.27265			43387.38302		69.67200		324.00000 
 43692.65567		 889.56308			42803.09259		223.36600		875.00000 
 43692.65567		 305.27265			43387.38302		69.67200		324.00000 
 43692.65567		 889.56308			42803.09259		223.36600		875.00000 
 43692.65567		 305.27265			43387.38302		69.67200		324.00000 
 43692.65567		 889.56308			42803.09259		223.36600		875.00000 
 43692.65567		 305.27265			43387.38302		69.67200		324.00000 
 43692.65567		 889.56308			42803.09259		223.36600		875.00000 
 43692.65567		 305.27265			43387.38302		69.67200		324.00000 
 43692.65567		 889.56308			42803.09259		223.36600		875.00000 
 43692.65567		 305.27265			43387.38302		69.67200		324.00000 
 43692.65567		 889.56308			42803.09259		223.36600		875.00000 
 43692.65567		 305.27265			43387.38302		69.67200		324.00000 
 43692.65567		 889.56308			42803.09259		223.36600		875.00000 
 43692.65567		 305.27265			43387.38302		69.67200		324.00000 
 43692.65567		 889.56308			42803.09259		223.36600		875.00000 
 43692.65567		 305.27265			43387.38302		69.67200		324.00000 
 43692.65567		 889.56308			42803.09259		223.36600		875.00000 
 43692.65567		 305.27265			43387.38302		69.67200		324.00000 
 43692.65567		 889.56308			42803.09259		223.36600		875.00000 
 43692.65567		 305.27265			43387.38302		69.67200		324.00000 
 43692.65567		 889.56308			42803.09259		223.36600		875.00000 
 43692.65567		 305.27265			43387.38302		69.67200		324.00000 
 43692.65567		 889.56308			42803.09259		223.36600		875.00000 
 43692.65567		 305.27265			43387.38302		69.67200		324.00000 
 43692.65567		 889.56308			42803.09259		223.36600		875.00000 
 43692.65567		 305.27265			43387.38302		69.67200		324.00000 
 43692.65567		 889.56308			42803.09259		223.36600		875.00000 
 43692.65567		 305.27265			43387.38302		69.67200		324.00000 
 43692.65567		 889.56308			42803.09259		223.36600		875.00000 
 43692.65567		 305.27265			43387.38302		69.67200		324.00000 
 43692.65567		 889.56308			42803.09259		223.36600		875.00000 
 43692.65567		 305.27265			43387.38302		69.67200		324.00000 
 43692.65567		 889.56308			42803.09259		223.36600		875.00000 
 43692.65567		 305.27265			43387.38302		69.67200		324.00000 
 43692.65567		 889.56308			42803.09259		223.36600		875.00000 
 43692.65567		 305.27265			43387.38302		69.67200		324.00000 
 43692.65567		 889.56308			42803.09259		223.36600		875.00000 
 43692.65567		 305.27265			43387.38302		69.67200		324.00000 
 43692.65567		 889.56308			42803.09259		223.36600		875.00000 
 43692.65567		 305.27265			43387.38302		69.67200		324.00000 
 43692.65567		 889.56308			42803.09259		223.36600		875.00000 
 43692.65567		 305.27265			43387.38302		69.67200		324.00000 
 43692.65567		 889.56308			42803.09259		223.36600		875.00000 
 43692.65567		 305.27265			43387.38302		69.67200		324.00000 
 43692.65567		 889.56308			42803.09259		223.36600		875.00000 
 43692.65567		 305.27265			43387.38302		69.67200		324.00000 
 43692.65567		 889.56308			42803.09259		223.36600		875.00000 
 43692.65567		 305.27265			43387.38302		69.67200		324.00000 
 43692.65567		 889.56308			42803.09259		223.36600		875.00000 
 43692.65567		 305.27265			43387.38302		69.67200		324.00000 
 43692.65567		 889.56308			42803.09259		223.36600		875.00000 
 43692.65567		 305.27265			43387.38302		69.67200		324.00000 
 43692.65567		 889.56308			42803.09259		223.36600		875.00000 
 43692.65567		 305.27265			43387.38302		69.67200		324.00000 
 43692.65567		 889.56308			42803.09259		223.58200		875.00000 
 43692.65567		 305.27265			43387.38302		69.67200		324.00000 
 43692.65567		 889.56308			42803.09259		223.58200		875.00000 
 43692.65567		 305.27265			43387.38302		69.67200		324.00000 
 43692.65567		 889.56308			42803.09259		223.58200		875.00000 
 43692.65567		 305.27265			43387.38302		69.67200		324.00000 
 43692.65567		 889.56308			42803.09259		223.58200		875.00000 
 43692.65567		 305.27265			43387.38302		69.67200		324.00000 
 43692.65567		 889.56308			42803.09259		223.58200		875.00000 
 43692.65567		 305.27265			43387.38302		69.67200		324.00000 
 43692.65567		 889.56308			42803.09259		223.58200		875.00000 
 43692.65567		 305.27265			43387.38302		69.67200		324.00000 
 43692.65567		 889.56308			42803.09259		223.58200		875.00000 
 43692.65567		 305.27265			43387.38302		69.67200		324.00000 
 43692.65567		 889.56308			42803.09259		223.58200		875.00000 
 43692.65567		 305.27265			43387.38302		69.67200		324.00000 
 43692.65567		 889.56308			42803.09259		223.58200		875.00000 
 43692.65567		 305.27265			43387.38302		69.67200		324.00000 
 43692.65567		 889.56308			42803.09259		223.58200		875.00000 
 43692.65567		 305.27265			43387.38302		69.67200		324.00000 
 43692.65567		 889.56308			42803.09259		223.58200		875.00000 
 43692.65567		 305.27265			43387.38302		69.67200		324.00000 
 43692.65567		 889.56308			42803.09259		223.58200		875.00000 
 43692.65567		 305.27265			43387.38302		69.67200		324.00000 
 43692.65567		 889.56308			42803.09259		223.58200		875.00000 
 43692.65567		 305.27265			43387.38302		69.67200		324.00000 
 43692.65567		 889.56308			42803.09259		223.58200		875.00000 
 43692.65567		 305.27265			43387.38302		69.67200		324.00000 
 43692.65567		 889.56308			42803.09259		223.58200		875.00000 
 43692.65567		 305.27265			43387.38302		69.67200		324.00000 
 43692.65567		 889.56308			42803.09259		223.58200		875.00000 
 43692.65567		 305.27265			43387.38302		69.67200		324.00000 
 43692.65567		 889.56308			42803.09259		223.58200		875.00000 
 43692.65567		 305.27265			43387.38302		69.67200		324.00000 
 43692.65567		 889.56308			42803.09259		223.58200		875.00000 
 43692.65567		 305.27265			43387.38302		69.67200		324.00000 
 43692.65567		 889.56308			42803.09259		223.58200		875.00000 
 43692.65567		 305.27265			43387.38302		69.67200		324.00000 
 43692.65567		 889.56308			42803.09259		223.58200		875.00000 
 43692.65567		 305.27265			43387.38302		69.67200		324.00000 
 43692.65567		 889.56308			42803.09259		223.58200		875.00000 
 43692.65567		 305.27265			43387.38302		69.67200		324.00000 
 43692.65567		 889.56308			42803.09259		223.58200		875.00000 
 43692.65567		 305.27265			43387.38302		69.67200		324.00000 
 43692.65567		 889.56308			42803.09259		223.58200		875.00000 
 43692.65567		 305.27265			43387.38302		69.67200		324.00000 
 43692.65567		 889.56308			42803.09259		223.58200		875.00000 
 43692.65567		 305.27265			43387.38302		69.67200		324.00000 
 43692.65567		 889.56308			42803.09259		223.58200		875.00000 
 43692.65567		 305.27265			43387.38302		69.67200		324.00000 
 43692.65567		 889.56308			42803.09259		223.58200		875.00000 
 43692.65567		 305.27265			43387.38302		69.67200		324.00000 
 43692.65567		 889.56308			42803.09259		223.58200		875.00000 
 43692.65567		 305.27265			43387.38302		69.67200		324.00000 
 43692.65567		 889.56308			42803.09259		223.58200		875.00000 
 43692.65567		 305.27265			43387.38302		69.67200		324.00000 
 43692.65567		 889.56308			42803.09259		223.58200		875.00000 
 43692.65567		 305.27265			43387.38302		69.67200		324.00000 
 43692.65567		 889.56308			42803.09259		223.58200		875.00000 
 43692.65567		 305.27265			43387.38302		69.67200		324.00000 
 43692.65567		 889.56308			42803.09259		223.58200		875.00000 
 43692.65567		 305.27265			43387.38302		69.67200		324.00000 
 43692.65567		 889.56308			42803.09259		223.58200		875.00000 
 43692.65567		 305.27265			43387.38302		69.67200		324.00000 
 43692.65567		 889.56308			42803.09259		223.58200		875.00000 
 43692.65567		 305.27265			43387.38302		69.67200		324.00000 
 43692.65567		 889.56308			42803.09259		223.58200		875.00000 
 43692.65567		 305.27265			43387.38302		69.67200		324.00000 
 43692.65567		 889.56308			42803.09259		223.58200		875.00000 
 43692.65567		 305.27265			43387.38302		69.67200		324.00000 
 43692.65567		 889.56308			42803.09259		223.58200		875.00000 
 43692.65567		 305.27265			43387.38302		69.67200		324.00000 
 43692.65567		 889.56308			42803.09259		223.58200		875.00000 
 43692.65567		 305.27265			43387.38302		69.67200		324.00000 
 43692.65567		 889.56308			42803.09259		223.58200		875.00000 
 43692.65567		 305.27265			43387.38302		69.67200		324.00000 
 43692.65567		 889.56308			42803.09259		223.58200		875.00000 
 43692.65567		 305.27265			43387.38302		69.67200		324.00000 
 43692.65567		 889.56308			42803.09259		223.58200		875.00000 
 43692.65567		 305.27265			43387.38302		69.67200		324.00000 
 43692.65567		 889.56308			42803.09259		223.58200		875.00000 
 43692.65567		 305.27265			43387.38302		69.67200		324.00000 
 43692.65567		 889.56308			42803.09259		223.58200		875.00000 
 43692.65567		 305.27265			43387.38302		69.67200		324.00000 
 43692.65567		 889.56308			42803.09259		223.58200		875.00000 
 43692.65567		 305.27265			43387.38302		69.67200		324.00000 
 43692.65567		 889.56308			42803.09259		223.58200		875.00000 
 43692.65567		 305.27265			43387.38302		69.67200		324.00000 
 43692.65567		 889.56308			42803.09259		223.58200		875.00000 
 43692.65567		 305.27265			43387.38302		69.67200		324.00000 
 43692.65567		 889.56308			42803.09259		223.58200		875.00000 
 43692.65567		 305.27265			43387.38302		69.67200		324.00000 
 43692.65567		 889.56308			42803.09259		223.58200		875.00000 
 43692.65567		 305.27265			43387.38302		69.67200		324.00000 
 43692.65567		 889.56308			42803.09259		223.58200		875.00000 
 43692.65567		 305.27265			43387.38302		69.67200		324.00000 
 43692.65567		 889.56308			42803.09259		223.58200		875.00000 
 43692.65567		 305.27265			43387.38302		69.67200		324.00000 
 43692.65567		 889.56308			42803.09259		223.58200		875.00000 
 43692.65567		 305.27265			43387.38302		69.67200		324.00000 
 43692.65567		 889.56308			42803.09259		223.58200		875.00000 
 43692.65567		 305.27265			43387.38302		69.67200		324.00000 
 43692.65567		 889.56308			42803.09259		223.58200		875.00000 
 43692.65567		 305.27265			43387.38302		69.67200		324.00000 
 43692.65567		 889.56308			42803.09259		223.58200		875.00000 
 43692.65567		 305.27265			43387.38302		69.67200		324.00000 
 43692.65567		 889.56308			42803.09259		223.58200		875.00000 
 43692.65567		 305.27265			43387.38302		69.67200		324.00000 
 43692.65567		 889.56308			42803.09259		223.58200		875.00000 
 43692.65567		 305.27265			43387.38302		69.67200		324.00000 
 43692.65567		 889.56308			42803.09259		223.58200		875.00000 
 43692.65567		 305.27265			43387.38302		69.67200		324.00000 
 43692.65567		 889.56308			42803.09259		223.58200		875.00000 
 43692.65567		 305.27265			43387.38302		69.67200		324.00000 
 43692.65567		 889.56308			42803.09259		223.58200		875.00000 
 43692.65567		 305.27265			43387.38302		69.67200		324.00000 
 43692.65567		 889.56308			42803.09259		223.58200		875.00000 
 43692.65567		 305.27265			43387.38302		69.67200		324.00000 
 43692.65567		 889.56308			42803.09259		223.58200		875.00000 
 43692.65567		 305.27265			43387.38302		69.67200		324.00000 
 43692.65567		 889.56308			42803.09259		223.58200		875.00000 
 43692.65567		 305.27265			43387.38302		69.67200		324.00000 
 43692.65567		 889.56308			42803.09259		223.58200		875.00000 
 43692.65567		 305.27265			43387.38302		69.67200		324.00000 
 43692.65567		 889.56308			42803.09259		223.58200		875.00000 
 43692.65567		 305.27265			43387.38302		70.12600		324.00000 
 43692.65567		 889.56308			42803.09259		223.18800		875.00000 
 43692.65567		 305.27265			43387.38302		70.12600		324.00000 
 43692.65567		 889.56308			42803.09259		223.18800		875.00000 
 43692.65567		 305.27265			43387.38302		70.12600		324.00000 
 43692.65567		 889.56308			42803.09259		223.18800		875.00000 
 43692.65567		 305.27265			43387.38302		70.12600		324.00000 
 43692.65567		 889.56308			42803.09259		223.18800		875.00000 
 43692.65567		 305.27265			43387.38302		70.12600		324.00000 
 43692.65567		 889.56308			42803.09259		223.18800		875.00000 
 43692.65567		 305.27265			43387.38302		70.12600		324.00000 
 43692.65567		 889.56308			42803.09259		223.18800		875.00000 
 43692.65567		 305.27265			43387.38302		70.12600		324.00000 
 43692.65567		 889.56308			42803.09259		223.18800		875.00000 
 43692.65567		 305.27265			43387.38302		70.12600		324.00000 
 43692.65567		 889.56308			42803.09259		223.18800		875.00000 
 43692.65567		 305.27265			43387.38302		70.12600		324.00000 
 43692.65567		 889.56308			42803.09259		223.18800		875.00000 
 43692.65567		 305.27265			43387.38302		70.12600		324.00000 
 43692.65567		 889.56308			42803.09259		223.18800		875.00000 
 43692.65567		 305.27265			43387.38302		70.12600		324.00000 
 43692.65567		 889.56308			42803.09259		223.18800		875.00000 
 43692.65567		 305.27265			43387.38302		70.12600		324.00000 
 43692.65567		 889.56308			42803.09259		223.18800		875.00000 
 43692.65567		 305.27265			43387.38302		70.12600		324.00000 
 43692.65567		 889.56308			42803.09259		223.18800		875.00000 
 43692.65567		 305.27265			43387.38302		70.12600		324.00000 
 43692.65567		 889.56308			42803.09259		223.18800		875.00000 
 43692.65567		 305.27265			43387.38302		70.12600		324.00000 
 43692.65567		 889.56308			42803.09259		223.18800		875.00000 
 43692.65567		 305.27265			43387.38302		70.12600		324.00000 
 43692.65567		 889.56308			42803.09259		223.18800		875.00000 
 43692.65567		 305.27265			43387.38302		70.12600		324.00000 
 43692.65567		 889.56308			42803.09259		223.18800		875.00000 
 43692.65567		 305.27265			43387.38302		70.12600		324.00000 
 43692.65567		 889.56308			42803.09259		223.18800		875.00000 
 43692.65567		 305.27265			43387.38302		70.12600		324.00000 
 43692.65567		 889.56308			42803.09259		223.18800		875.00000 
 43692.65567		 305.27265			43387.38302		70.12600		324.00000 
 43692.65567		 889.56308			42803.09259		223.18800		875.00000 
 43692.65567		 305.27265			43387.38302		70.12600		324.00000 
 43692.65567		 889.56308			42803.09259		223.18800		875.00000 
 43692.65567		 305.27265			43387.38302		70.12600		324.00000 
 43692.65567		 889.56308			42803.09259		223.18800		875.00000 
 43692.65567		 305.27265			43387.38302		70.12600		324.00000 
 43692.65567		 889.56308			42803.09259		223.18800		875.00000 
 43692.65567		 305.27265			43387.38302		70.12600		324.00000 
 43692.65567		 889.56308			42803.09259		223.18800		875.00000 
 43692.65567		 305.27265			43387.38302		70.12600		324.00000 
 43692.65567		 889.56308			42803.09259		223.18800		875.00000 
 43692.65567		 305.27265			43387.38302		70.12600		324.00000 
 43692.65567		 889.56308			42803.09259		223.18800		875.00000 
 43692.65567		 305.27265			43387.38302		70.12600		324.00000 
 43692.65567		 889.56308			42803.09259		223.18800		875.00000 
 43692.65567		 305.27265			43387.38302		70.12600		324.00000 
 43692.65567		 889.56308			42803.09259		223.18800		875.00000 
 43692.65567		 305.27265			43387.38302		70.12600		324.00000 
 43692.65567		 889.56308			42803.09259		223.18800		875.00000 
 43692.65567		 305.27265			43387.38302		70.12600		324.00000 
 43692.65567		 889.56308			42803.09259		223.18800		875.00000 
 43692.65567		 305.27265			43387.38302		70.12600		324.00000 
 43692.65567		 889.56308			42803.09259		223.18800		875.00000 
 43692.65567		 305.27265			43387.38302		70.12600		324.00000 
 43692.65567		 889.56308			42803.09259		223.18800		875.00000 
 43692.65567		 305.27265			43387.38302		70.12600		324.00000 
 43692.65567		 889.56308			42803.09259		223.18800		875.00000 
 43692.65567		 305.27265			43387.38302		70.12600		324.00000 
 43692.65567		 889.56308			42803.09259		223.18800		875.00000 
 43692.65567		 305.27265			43387.38302		70.12600		324.00000 
 43692.65567		 889.56308			42803.09259		223.18800		875.00000 
 43692.65567		 305.27265			43387.38302		70.12600		324.00000 
 43692.65567		 889.56308			42803.09259		223.18800		875.00000 
 43692.65567		 305.27265			43387.38302		70.12600		324.00000 
 43692.65567		 889.56308			42803.09259		223.18800		875.00000 
 43692.65567		 305.27265			43387.38302		70.12600		324.00000 
 43692.65567		 889.56308			42803.09259		223.18800		875.00000 
 43692.65567		 305.27265			43387.38302		70.12600		324.00000 
 43692.65567		 889.56308			42803.09259		223.18800		875.00000 
 43692.65567		 305.27265			43387.38302		70.12600		324.00000 
 43692.65567		 889.56308			42803.09259		223.18800		875.00000 
 43692.65567		 305.27265			43387.38302		70.12600		324.00000 
 43692.65567		 889.56308			42803.09259		223.18800		875.00000 
 43692.65567		 305.27265			43387.38302		70.12600		324.00000 
 43692.65567		 889.56308			42803.09259		223.18800		875.00000 
 43692.65567		 305.27265			43387.38302		70.12600		324.00000 
 43692.65567		 889.56308			42803.09259		223.18800		875.00000 
 43692.65567		 305.27265			43387.38302		70.12600		324.00000 
 43692.65567		 889.56308			42803.09259		223.18800		875.00000 
 43692.65567		 305.27265			43387.38302		70.12600		324.00000 
 43692.65567		 889.56308			42803.09259		223.18800		875.00000 
 43692.65567		 305.27265			43387.38302		70.12600		324.00000 
 43692.65567		 889.56308			42803.09259		223.18800		875.00000 
 43692.65567		 305.27265			43387.38302		70.12600		324.00000 
 43692.65567		 889.56308			42803.09259		223.18800		875.00000 
 43692.65567		 305.27265			43387.38302		70.12600		324.00000 
 43692.65567		 889.56308			42803.09259		223.18800		875.00000 
 43692.65567		 305.27265			43387.38302		70.12600		324.00000 
 43692.65567		 889.56308			42803.09259		223.18800		875.00000 
 43692.65567		 305.27265			43387.38302		70.12600		324.00000 
 43692.65567		 889.56308			42803.09259		223.18800		875.00000 
 43692.65567		 305.27265			43387.38302		70.12600		324.00000 
 43692.65567		 889.56308			42803.09259		223.18800		875.00000 
 43692.65567		 305.27265			43387.38302		70.12600		324.00000 
 43692.65567		 889.56308			42803.09259		223.18800		875.00000 
 43692.65567		 305.27265			43387.38302		70.12600		324.00000 
 43692.65567		 889.56308			42803.09259		223.18800		875.00000 
 43692.65567		 305.27265			43387.38302		70.12600		324.00000 
 43692.65567		 889.56308			42803.09259		223.18800		875.00000 
 43692.65567		 305.27265			43387.38302		70.12600		324.00000 
 43692.65567		 889.56308			42803.09259		223.18800		875.00000 
 43692.65567		 305.27265			43387.38302		70.12600		324.00000 
 43692.65567		 889.56308			42803.09259		223.18800		875.00000 
 43692.65567		 305.27265			43387.38302		70.12600		324.00000 
 43692.65567		 889.56308			42803.09259		223.18800		875.00000 
 43692.65567		 305.27265			43387.38302		70.12600		324.00000 
 43692.65567		 889.56308			42803.09259		223.18800		875.00000 
 43692.65567		 305.27265			43387.38302		70.12600		324.00000 
 43692.65567		 889.56308			42803.09259		223.18800		875.00000 
 43692.65567		 305.27265			43387.38302		70.12600		324.00000 
 43692.65567		 889.56308			42803.09259		223.18800		875.00000 
 43692.65567		 305.27265			43387.38302		70.12600		324.00000 
 43692.65567		 889.56308			42803.09259		223.18800		875.00000 
 43692.65567		 305.27265			43387.38302		70.12600		324.00000 
 43692.65567		 889.56308			42803.09259		223.18800		875.00000 
 43692.65567		 305.27265			43387.38302		70.12600		324.00000 
 43692.65567		 889.56308			42803.09259		223.18800		875.00000 
 43692.65567		 305.27265			43387.38302		70.12600		324.00000 
 43692.65567		 889.56308			42803.09259		223.18800		875.00000 
 43692.65567		 305.27265			43387.38302		70.12600		324.00000 
 43692.65567		 889.56308			42803.09259		223.18800		875.00000 
 43692.65567		 305.27265			43387.38302		70.12600		324.00000 
 43692.65567		 889.56308			42803.09259		223.18800		875.00000 
 43692.65567		 305.27265			43387.38302		70.12600		324.00000 
 43692.65567		 889.56308			42803.09259		223.18800		875.00000 
 43692.65567		 305.27265			43387.38302		70.12600		324.00000 
 43692.65567		 889.56308			42803.09259		223.18800		875.00000 
 43692.65567		 305.27265			43387.38302		70.12600		324.00000 
 43692.65567		 889.56308			42803.09259		223.18800		875.00000 
 43692.65567		 305.27265			43387.38302		70.12600		324.00000 
 43692.65567		 889.56308			42803.09259		223.18800		875.00000 
 43692.65567		 305.27265			43387.38302		70.12600		324.00000 
 43692.65567		 889.56308			42803.09259		223.18800		875.00000 
 43692.65567		 305.27265			43387.38302		70.12600		324.00000 
 43692.65567		 889.56308			42803.09259		223.18800		875.00000 
 43692.65567		 305.27265			43387.38302		70.12600		324.00000 
 43692.65567		 889.56308			42803.09259		223.18800		875.00000 
 43692.65567		 305.27265			43387.38302		70.12600		324.00000 
 43692.65567		 889.56308			42803.09259		223.18800		875.00000 
 43692.65567		 305.27265			43387.38302		70.12600		324.00000 
 43692.65567		 889.56308			42803.09259		223.18800		875.00000 
 43692.65567		 305.27265			43387.38302		70.12600		324.00000 
 43692.65567		 889.56308			42803.09259		223.18800		875.00000 
 43692.65567		 305.27265			43387.38302		70.12600		324.00000 
 43692.65567		 889.56308			42803.09259		223.18800		875.00000 
 43692.65567		 305.27265			43387.38302		70.12600		324.00000 
 43692.65567		 889.56308			42803.09259		223.18800		875.00000 
 43692.65567		 305.27265			43387.38302		70.12600		324.00000 
 43692.65567		 889.56308			42803.09259		223.18800		875.00000 
 43692.65567		 305.27265			43387.38302		70.12600		324.00000 
 43692.65567		 889.56308			42803.09259		223.18800		875.00000 
 43692.65567		 305.27265			43387.38302		70.12600		324.00000 
 43692.65567		 889.56308			42803.09259		223.18800		875.00000 
 43692.65567		 305.27265			43387.38302		70.12600		324.00000 
 43692.65567		 889.56308			42803.09259		223.18800		875.00000 
 43692.65567		 305.27265			43387.38302		70.12600		324.00000 
 43692.65567		 889.56308			42803.09259		223.18800		875.00000 
 43692.65567		 305.27265			43387.38302		70.12600		324.00000 
 43692.65567		 889.56308			42803.09259		223.18800		875.00000 
 43692.65567		 305.27265			43387.38302		70.12600		324.00000 
 43692.65567		 889.56308			42803.09259		223.18800		875.00000 
 43692.65567		 305.27265			43387.38302		70.12600		324.00000 
 43692.65567		 889.56308			42803.09259		223.18800		875.00000 
 43692.65567		 305.27265			43387.38302		70.12600		324.00000 
 43692.65567		 889.56308			42803.09259		223.18800		875.00000 
 43692.65567		 305.27265			43387.38302		70.12600		324.00000 
 43692.65567		 889.56308			42803.09259		223.18800		875.00000 
 43692.65567		 305.27265			43387.38302		70.12600		324.00000 
 43692.65567		 889.56308			42803.09259		223.18800		875.00000 
 43692.65567		 305.27265			43387.38302		70.12600		324.00000 
 43692.65567		 889.56308			42803.09259		223.18800		875.00000 
 43692.65567		 305.27265			43387.38302		70.12600		324.00000 
 43692.65567		 889.56308			42803.09259		223.18800		875.00000 
 43692.65567		 305.27265			43387.38302		70.12600		324.00000 
 43692.65567		 889.56308			42803.09259		223.18800		875.00000 
 43692.65567		 305.27265			43387.38302		70.12600		324.00000 
 43692.65567		 889.56308			42803.09259		223.18800		875.00000 
 43692.65567		 305.27265			43387.38302		70.12600		324.00000 
 43692.65567		 889.56308			42803.09259		223.18800		875.00000 
 43692.65567		 305.27265			43387.38302		70.12600		324.00000 
 43692.65567		 889.56308			42803.09259		223.18800		875.00000 
 43692.65567		 305.27265			43387.38302		70.12600		324.00000 
 43692.65567		 889.56308			42803.09259		223.18800		875.00000 
 43692.65567		 305.27265			43387.38302		70.12600		324.00000 
 43692.65567		 889.56308			42803.09259		223.18800		875.00000 
 43692.65567		 305.27265			43387.38302		70.12600		324.00000 
 43692.65567		 889.56308			42803.09259		223.18800		875.00000 
 43692.65567		 305.27265			43387.38302		70.12600		324.00000 
 43692.65567		 889.56308			42803.09259		223.18800		875.00000 
 43692.65567		 305.27265			43387.38302		70.12600		324.00000 
 43692.65567		 889.56308			42803.09259		223.18800		875.00000 
 43692.65567		 305.27265			43387.38302		70.12600		324.00000 
 43692.65567		 889.56308			42803.09259		223.18800		875.00000 
 43692.65567		 305.27265			43387.38302		70.12600		324.00000 
 43692.65567		 889.56308			42803.09259		223.18800		875.00000 
 43692.65567		 305.27265			43387.38302		70.12600		324.00000 
 43692.65567		 889.56308			42803.09259		223.18800		875.00000 
 43692.65567		 305.27265			43387.38302		70.12600		324.00000 
 43692.65567		 889.56308			42803.09259		223.18800		875.00000 
 43692.65567		 305.27265			43387.38302		70.12600		324.00000 
 43692.65567		 889.56308			42803.09259		223.18800		875.00000 
 43692.65567		 305.27265			43387.38302		70.12600		324.00000 
 43692.65567		 889.56308			42803.09259		223.18800		875.00000 
 43692.65567		 305.27265			43387.38302		70.12600		324.00000 
 43692.65567		 889.56308			42803.09259		223.18800		875.00000 
 43692.65567		 305.27265			43387.38302		70.12600		324.00000 
 43692.65567		 889.56308			42803.09259		223.18800		875.00000 
 43692.65567		 305.27265			43387.38302		70.12600		324.00000 
 43692.65567		 889.56308			42803.09259		223.18800		875.00000 
 43692.65567		 305.27265			43387.38302		70.12600		324.00000 
 43692.65567		 889.56308			42803.09259		223.18800		875.00000 
 43692.65567		 305.27265			43387.38302		70.12600		324.00000 
 43692.65567		 889.56308			42803.09259		223.18800		875.00000 
 43692.65567		 305.27265			43387.38302		70.12600		324.00000 
 43692.65567		 889.56308			42803.09259		223.18800		875.00000 
 43692.65567		 305.27265			43387.38302		70.12600		324.00000 
 43692.65567		 889.56308			42803.09259		223.18800		875.00000 
 43692.65567		 305.27265			43387.38302		70.12600		324.00000 
 43692.65567		 889.56308			42803.09259		223.18800		875.00000 
 43692.65567		 305.27265			43387.38302		70.12600		324.00000 
 43692.65567		 889.56308			42803.09259		223.18800		875.00000 
 43692.65567		 305.27265			43387.38302		70.12600		324.00000 
 43692.65567		 889.56308			42803.09259		223.18800		875.00000 
 43692.65567		 305.27265			43387.38302		70.12600		324.00000 
 43692.65567		 889.56308			42803.09259		223.18800		875.00000 
 43692.65567		 305.27265			43387.38302		70.12600		324.00000 
 43692.65567		 889.56308			42803.09259		223.18800		875.00000 
 43692.65567		 305.27265			43387.38302		70.12600		324.00000 
 43692.65567		 889.56308			42803.09259		223.18800		875.00000 
 43692.65567		 305.27265			43387.38302		70.12600		324.00000 
 43692.65567		 889.56308			42803.09259		223.18800		875.00000 
 43692.65567		 305.27265			43387.38302		70.12600		324.00000 
 43692.65567		 889.56308			42803.09259		223.18800		875.00000 
 43692.65567		 305.27265			43387.38302		70.12600		324.00000 
 43692.65567		 889.56308			42803.09259		223.18800		875.00000 
 43692.65567		 305.27265			43387.38302		70.12600		324.00000 
 43692.65567		 889.56308			42803.09259		223.18800		875.00000 
 43692.65567		 305.27265			43387.38302		70.12600		324.00000 
 43692.65567		 889.56308			42803.09259		223.18800		875.00000 
 43692.65567		 305.27265			43387.38302		70.12600		324.00000 
 43692.65567		 889.56308			42803.09259		223.18800		875.00000 
 43692.65567		 305.27265			43387.38302		70.12600		324.00000 
 43692.65567		 889.56308			42803.09259		223.18800		875.00000 
 43692.65567		 305.27265			43387.38302		70.12600		324.00000 
 43692.65567		 889.56308			42803.09259		223.18800		875.00000 
 43692.65567		 305.27265			43387.38302		70.12600		324.00000 
 43692.65567		 889.56308			42803.09259		223.18800		875.00000 
 43692.65567		 305.27265			43387.38302		70.12600		324.00000 
 43692.65567		 889.56308			42803.09259		223.18800		875.00000 
 43692.65567		 305.27265			43387.38302		70.12600		324.00000 
 43692.65567		 889.56308			42803.09259		223.18800		875.00000 
 43692.65567		 305.27265			43387.38302		70.12600		324.00000 
 43692.65567		 889.56308			42803.09259		223.18800		875.00000 
 43692.65567		 305.27265			43387.38302		70.12600		324.00000 
 43692.65567		 889.56308			42803.09259		223.18800		875.00000 
 43692.65567		 305.27265			43387.38302		70.12600		324.00000 
 43692.65567		 889.56308			42803.09259		223.18800		875.00000 
 43692.65567		 305.27265			43387.38302		70.12600		324.00000 
 43692.65567		 889.56308			42803.09259		223.55400		875.00000 
 43692.65567		 305.27265			43387.38302		70.12600		324.00000 
 43692.65567		 889.56308			42803.09259		223.55400		875.00000 
 43692.65567		 305.27265			43387.38302		70.12600		324.00000 
 43692.65567		 889.56308			42803.09259		223.55400		875.00000 
 43692.65567		 305.27265			43387.38302		70.12600		324.00000 
 43692.65567		 889.56308			42803.09259		223.55400		875.00000 
 43692.65567		 305.27265			43387.38302		70.12600		324.00000 
 43692.65567		 889.56308			42803.09259		223.55400		875.00000 
 43692.65567		 305.27265			43387.38302		70.12600		324.00000 
 43692.65567		 889.56308			42803.09259		223.55400		875.00000 
 43692.65567		 305.27265			43387.38302		70.12600		324.00000 
 43692.65567		 889.56308			42803.09259		223.55400		875.00000 
 43692.65567		 305.27265			43387.38302		70.12600		324.00000 
 43692.65567		 889.56308			42803.09259		223.55400		875.00000 
 43692.65567		 305.27265			43387.38302		70.12600		324.00000 
 43692.65567		 889.56308			42803.09259		223.55400		875.00000 
 43692.65567		 305.27265			43387.38302		70.12600		324.00000 
 43692.65567		 889.56308			42803.09259		223.55400		875.00000 
 43692.65567		 305.27265			43387.38302		70.12600		324.00000 
 43692.65567		 889.56308			42803.09259		223.55400		875.00000 
 43692.65567		 305.27265			43387.38302		70.12600		324.00000 
 43692.65567		 889.56308			42803.09259		223.55400		875.00000 
 43692.65567		 305.27265			43387.38302		70.12600		324.00000 
 43692.65567		 889.56308			42803.09259		223.55400		875.00000 
 43692.65567		 305.27265			43387.38302		70.12600		324.00000 
 43692.65567		 889.56308			42803.09259		223.55400		875.00000 
 43692.65567		 305.27265			43387.38302		70.12600		324.00000 
 43692.65567		 889.56308			42803.09259		223.55400		875.00000 
 43692.65567		 305.27265			43387.38302		70.12600		324.00000 
 43692.65567		 889.56308			42803.09259		223.55400		875.00000 
 43692.65567		 305.27265			43387.38302		70.12600		324.00000 
 43692.65567		 889.56308			42803.09259		223.55400		875.00000 
 43692.65567		 305.27265			43387.38302		70.12600		324.00000 
 43692.65567		 889.56308			42803.09259		223.55400		875.00000 
 43692.65567		 305.27265			43387.38302		70.12600		324.00000 
 43692.65567		 889.56308			42803.09259		223.55400		875.00000 
 43692.65567		 305.27265			43387.38302		70.12600		324.00000 
 43692.65567		 889.56308			42803.09259		223.55400		875.00000 
 43692.65567		 305.27265			43387.38302		70.12600		324.00000 
 43692.65567		 889.56308			42803.09259		223.55400		875.00000 
 43692.65567		 305.27265			43387.38302		70.12600		324.00000 
 43692.65567		 889.56308			42803.09259		223.55400		875.00000 
 43692.65567		 305.27265			43387.38302		70.12600		324.00000 
 43692.65567		 889.56308			42803.09259		223.55400		875.00000 
 43692.65567		 305.27265			43387.38302		70.12600		324.00000 
 43692.65567		 889.56308			42803.09259		223.55400		875.00000 
 43692.65567		 305.27265			43387.38302		70.12600		324.00000 
 43692.65567		 889.56308			42803.09259		223.55400		875.00000 
 43692.65567		 305.27265			43387.38302		70.12600		324.00000 
 43692.65567		 889.56308			42803.09259		223.55400		875.00000 
 43692.65567		 305.27265			43387.38302		70.12600		324.00000 
 43692.65567		 889.56308			42803.09259		223.55400		875.00000 
 43692.65567		 305.27265			43387.38302		70.12600		324.00000 
 43692.65567		 889.56308			42803.09259		223.55400		875.00000 
 43692.65567		 305.27265			43387.38302		70.12600		324.00000 
 43692.65567		 889.56308			42803.09259		223.55400		875.00000 
 43692.65567		 305.27265			43387.38302		70.12600		324.00000 
 43692.65567		 889.56308			42803.09259		223.55400		875.00000 
 43692.65567		 305.27265			43387.38302		70.12600		324.00000 
 43692.65567		 889.56308			42803.09259		223.55400		875.00000 
 43692.65567		 305.27265			43387.38302		70.12600		324.00000 
 43692.65567		 889.56308			42803.09259		223.55400		875.00000 
 43692.65567		 305.27265			43387.38302		70.12600		324.00000 
 43692.65567		 889.56308			42803.09259		223.55400		875.00000 
 43692.65567		 305.27265			43387.38302		70.12600		324.00000 
 43692.65567		 889.56308			42803.09259		223.55400		875.00000 
 43692.65567		 305.27265			43387.38302		70.12600		324.00000 
 43692.65567		 889.56308			42803.09259		223.55400		875.00000 
 43692.65567		 305.27265			43387.38302		70.12600		324.00000 
 43692.65567		 889.56308			42803.09259		223.55400		875.00000 
 43692.65567		 305.27265			43387.38302		70.12600		324.00000 
 43692.65567		 889.56308			42803.09259		223.55400		875.00000 
 43692.65567		 305.27265			43387.38302		70.12600		324.00000 
 43692.65567		 889.56308			42803.09259		223.55400		875.00000 
 43692.65567		 305.27265			43387.38302		70.12600		324.00000 
 43692.65567		 889.56308			42803.09259		223.55400		875.00000 
 43692.65567		 305.27265			43387.38302		70.12600		324.00000 
 43692.65567		 889.56308			42803.09259		223.55400		875.00000 
 43692.65567		 305.27265			43387.38302		70.12600		324.00000 
 43692.65567		 889.56308			42803.09259		223.55400		875.00000 
 43692.65567		 305.27265			43387.38302		70.12600		324.00000 
 43692.65567		 889.56308			42803.09259		223.55400		875.00000 
 43692.65567		 305.27265			43387.38302		70.12600		324.00000 
 43692.65567		 889.56308			42803.09259		223.55400		875.00000 
 43692.65567		 305.27265			43387.38302		70.12600		324.00000 
 43692.65567		 889.56308			42803.09259		223.55400		875.00000 
 43692.65567		 305.27265			43387.38302		70.12600		324.00000 
 43692.65567		 889.56308			42803.09259		223.55400		875.00000 
 43692.65567		 305.27265			43387.38302		70.12600		324.00000 
 43692.65567		 889.56308			42803.09259		223.55400		875.00000 
 43692.65567		 305.27265			43387.38302		70.12600		324.00000 
 43692.65567		 889.56308			42803.09259		223.55400		875.00000 
 43692.65567		 305.27265			43387.38302		70.12600		324.00000 
 43692.65567		 889.56308			42803.09259		223.55400		875.00000 
 43692.65567		 305.27265			43387.38302		70.12600		324.00000 
 43692.65567		 889.56308			42803.09259		223.55400		875.00000 
 43692.65567		 305.27265			43387.38302		70.12600		324.00000 
 43692.65567		 889.56308			42803.09259		223.55400		875.00000 
 43692.65567		 305.27265			43387.38302		70.12600		324.00000 
 43692.65567		 889.56308			42803.09259		223.55400		875.00000 
 43692.65567		 305.27265			43387.38302		70.12600		324.00000 
 43692.65567		 889.56308			42803.09259		223.55400		875.00000 
 43692.65567		 305.27265			43387.38302		70.12600		324.00000 
 43692.65567		 889.56308			42803.09259		223.55400		875.00000 
 43692.65567		 305.27265			43387.38302		70.12600		324.00000 
 43692.65567		 889.56308			42803.09259		223.55400		875.00000 
 43692.65567		 305.27265			43387.38302		70.12600		324.00000 
 43692.65567		 889.56308			42803.09259		223.55400		875.00000 
 43692.65567		 305.27265			43387.38302		70.12600		324.00000 
 43692.65567		 889.56308			42803.09259		223.55400		875.00000 
 43692.65567		 305.27265			43387.38302		70.12600		324.00000 
 43692.65567		 889.56308			42803.09259		223.55400		875.00000 
 43692.65567		 305.27265			43387.38302		70.12600		324.00000 
 43692.65567		 889.56308			42803.09259		223.55400		875.00000 
 43692.65567		 305.27265			43387.38302		70.12600		324.00000 
 43692.65567		 889.56308			42803.09259		223.55400		875.00000 
 43692.65567		 305.27265			43387.38302		70.12600		324.00000 
 43692.65567		 889.56308			42803.09259		223.55400		875.00000 
 43692.65567		 305.27265			43387.38302		70.12600		324.00000 
 43692.65567		 889.56308			42803.09259		223.55400		875.00000 
 43692.65567		 305.27265			43387.38302		70.12600		324.00000 
 43692.65567		 889.56308			42803.09259		223.55400		875.00000 
 43692.65567		 305.27265			43387.38302		70.12600		324.00000 
 43692.65567		 889.56308			42803.09259		223.55400		875.00000 
 43692.65567		 305.27265			43387.38302		70.12600		324.00000 
 43692.65567		 889.56308			42803.09259		223.55400		875.00000 
 43692.65567		 305.27265			43387.38302		70.12600		324.00000 
 43692.65567		 889.56308			42803.09259		222.59000		875.00000 
 43692.65567		 305.27265			43387.38302		70.12600		324.00000 
 43692.65567		 889.56308			42803.09259		222.59000		875.00000 
 43692.65567		 305.27265			43387.38302		70.12600		324.00000 
 43692.65567		 889.56308			42803.09259		222.59000		875.00000 
 43692.65567		 305.27265			43387.38302		70.12600		324.00000 
 43692.65567		 889.56308			42803.09259		222.59000		875.00000 
 43692.65567		 305.27265			43387.38302		70.12600		324.00000 
 43692.65567		 889.56308			42803.09259		222.59000		875.00000 
 43692.65567		 305.27265			43387.38302		70.12600		324.00000 
 43692.65567		 889.56308			42803.09259		222.59000		875.00000 
 43692.65567		 305.27265			43387.38302		70.12600		324.00000 
 43692.65567		 889.56308			42803.09259		222.59000		875.00000 
 43692.65567		 305.27265			43387.38302		70.12600		324.00000 
 43692.65567		 889.56308			42803.09259		222.59000		875.00000 
 43692.65567		 305.27265			43387.38302		70.12600		324.00000 
 43692.65567		 889.56308			42803.09259		222.59000		875.00000 
 43692.65567		 305.27265			43387.38302		70.12600		324.00000 
 43692.65567		 889.56308			42803.09259		222.59000		875.00000 
 43692.65567		 305.27265			43387.38302		70.12600		324.00000 
 43692.65567		 889.56308			42803.09259		222.59000		875.00000 
 43692.65567		 305.27265			43387.38302		70.12600		324.00000 
 43692.65567		 889.56308			42803.09259		222.59000		875.00000 
 43692.65567		 305.27265			43387.38302		70.12600		324.00000 
 43692.65567		 889.56308			42803.09259		222.59000		875.00000 
 43692.65567		 305.27265			43387.38302		70.12600		324.00000 
 43692.65567		 889.56308			42803.09259		222.59000		875.00000 
 43692.65567		 305.27265			43387.38302		70.12600		324.00000 
 43692.65567		 889.56308			42803.09259		222.59000		875.00000 
 43692.65567		 305.27265			43387.38302		70.12600		324.00000 
 43692.65567		 889.56308			42803.09259		222.59000		875.00000 
 43692.65567		 305.27265			43387.38302		70.12600		324.00000 
 43692.65567		 889.56308			42803.09259		222.59000		875.00000 
 43692.65567		 305.27265			43387.38302		70.12600		324.00000 
 43692.65567		 889.56308			42803.09259		222.59000		875.00000 
 43692.65567		 305.27265			43387.38302		70.12600		324.00000 
 43692.65567		 889.56308			42803.09259		222.59000		875.00000 
 43692.65567		 305.27265			43387.38302		70.12600		324.00000 
 43692.65567		 889.56308			42803.09259		222.59000		875.00000 
 43692.65567		 305.27265			43387.38302		70.12600		324.00000 
 43692.65567		 889.56308			42803.09259		222.59000		875.00000 
 43692.65567		 305.27265			43387.38302		70.12600		324.00000 
 43692.65567		 889.56308			42803.09259		222.59000		875.00000 
 43692.65567		 305.27265			43387.38302		70.12600		324.00000 
 43692.65567		 889.56308			42803.09259		222.59000		875.00000 
 43692.65567		 305.27265			43387.38302		70.12600		324.00000 
 43692.65567		 889.56308			42803.09259		222.59000		875.00000 
 43692.65567		 305.27265			43387.38302		70.12600		324.00000 
 43692.65567		 889.56308			42803.09259		222.59000		875.00000 
 43692.65567		 305.27265			43387.38302		70.12600		324.00000 
 43692.65567		 889.56308			42803.09259		222.59000		875.00000 
 43692.65567		 305.27265			43387.38302		70.12600		324.00000 
 43692.65567		 889.56308			42803.09259		222.59000		875.00000 
 43692.65567		 305.27265			43387.38302		70.12600		324.00000 
 43692.65567		 889.56308			42803.09259		222.59000		875.00000 
 43692.65567		 305.27265			43387.38302		70.12600		324.00000 
 43692.65567		 889.56308			42803.09259		222.59000		875.00000 
 43692.65567		 305.27265			43387.38302		70.12600		324.00000 
 43692.65567		 889.56308			42803.09259		222.59000		875.00000 
 43692.65567		 305.27265			43387.38302		70.12600		324.00000 
 43692.65567		 889.56308			42803.09259		222.59000		875.00000 
 43692.65567		 305.27265			43387.38302		70.12600		324.00000 
 43692.65567		 889.56308			42803.09259		222.59000		875.00000 
 43692.65567		 305.27265			43387.38302		70.12600		324.00000 
 43692.65567		 889.56308			42803.09259		222.59000		875.00000 
 43692.65567		 305.27265			43387.38302		70.12600		324.00000 
 43692.65567		 889.56308			42803.09259		222.59000		875.00000 
 43692.65567		 305.27265			43387.38302		70.12600		324.00000 
 43692.65567		 889.56308			42803.09259		222.59000		875.00000 
 43692.65567		 305.27265			43387.38302		70.12600		324.00000 
 43692.65567		 889.56308			42803.09259		222.59000		875.00000 
 43692.65567		 305.27265			43387.38302		70.12600		324.00000 
 43692.65567		 889.56308			42803.09259		222.59000		875.00000 
 43692.65567		 305.27265			43387.38302		70.12600		324.00000 
 43692.65567		 889.56308			42803.09259		222.59000		875.00000 
 43692.65567		 305.27265			43387.38302		70.12600		324.00000 
 43692.65567		 889.56308			42803.09259		222.59000		875.00000 
 43692.65567		 305.27265			43387.38302		70.12600		324.00000 
 43692.65567		 889.56308			42803.09259		222.59000		875.00000 
 43692.65567		 305.27265			43387.38302		70.12600		324.00000 
 43692.65567		 889.56308			42803.09259		222.59000		875.00000 
 43692.65567		 305.27265			43387.38302		70.12600		324.00000 
 43692.65567		 889.56308			42803.09259		222.59000		875.00000 
 43692.65567		 305.27265			43387.38302		70.12600		324.00000 
 43692.65567		 889.56308			42803.09259		222.59000		875.00000 
 43692.65567		 305.27265			43387.38302		70.12600		324.00000 
 43692.65567		 889.56308			42803.09259		222.59000		875.00000 
 43692.65567		 305.27265			43387.38302		70.12600		324.00000 
 43692.65567		 889.56308			42803.09259		222.59000		875.00000 
 43692.65567		 305.27265			43387.38302		70.12600		324.00000 
 43692.65567		 889.56308			42803.09259		222.59000		875.00000 
 43692.65567		 305.27265			43387.38302		70.12600		324.00000 
 43692.65567		 889.56308			42803.09259		222.59000		875.00000 
 43692.65567		 305.27265			43387.38302		70.12600		324.00000 
 43692.65567		 889.56308			42803.09259		222.59000		875.00000 
 43692.65567		 305.27265			43387.38302		70.12600		324.00000 
 43692.65567		 889.56308			42803.09259		222.59000		875.00000 
 43692.65567		 305.27265			43387.38302		70.12600		324.00000 
 43692.65567		 889.56308			42803.09259		222.59000		875.00000 
 43692.65567		 305.27265			43387.38302		70.12600		324.00000 
 43692.65567		 889.56308			42803.09259		222.59000		875.00000 
 43692.65567		 305.27265			43387.38302		70.12600		324.00000 
 43692.65567		 889.56308			42803.09259		222.59000		875.00000 
 43692.65567		 305.27265			43387.38302		70.12600		324.00000 
 43692.65567		 889.56308			42803.09259		222.59000		875.00000 
 43692.65567		 305.27265			43387.38302		70.12600		324.00000 
 43692.65567		 889.56308			42803.09259		222.59000		875.00000 
 43692.65567		 305.27265			43387.38302		70.12600		324.00000 
 43692.65567		 889.56308			42803.09259		222.59000		875.00000 
 43692.65567		 305.27265			43387.38302		70.12600		324.00000 
 43692.65567		 889.56308			42803.09259		222.59000		875.00000 
 43692.65567		 305.27265			43387.38302		70.12600		324.00000 
 43692.65567		 889.56308			42803.09259		222.59000		875.00000 
 43692.65567		 305.27265			43387.38302		70.12600		324.00000 
 43692.65567		 889.56308			42803.09259		222.59000		875.00000 
 43692.65567		 305.27265			43387.38302		70.12600		324.00000 
 43692.65567		 889.56308			42803.09259		222.59000		875.00000 
 43692.65567		 305.27265			43387.38302		70.12600		324.00000 
 43692.65567		 889.56308			42803.09259		222.59000		875.00000 
 43692.65567		 305.27265			43387.38302		70.12600		324.00000 
 43692.65567		 889.56308			42803.09259		222.59000		875.00000 
 43692.65567		 305.27265			43387.38302		70.12600		324.00000 
 43692.65567		 889.56308			42803.09259		222.59000		875.00000 
 43692.65567		 305.27265			43387.38302		70.12600		324.00000 
 43692.65567		 889.56308			42803.09259		222.59000		875.00000 
 43692.65567		 305.27265			43387.38302		70.12600		324.00000 
 43692.65567		 889.56308			42803.09259		222.59000		875.00000 
 43692.65567		 305.27265			43387.38302		70.12600		324.00000 
 43692.65567		 889.56308			42803.09259		223.62400		875.00000 
 43692.65567		 305.27265			43387.38302		70.12600		324.00000 
 43692.65567		 889.56308			42803.09259		223.62400		875.00000 
 43692.65567		 305.27265			43387.38302		70.12600		324.00000 
 43692.65567		 889.56308			42803.09259		223.62400		875.00000 
 43692.65567		 305.27265			43387.38302		70.12600		324.00000 
 43692.65567		 889.56308			42803.09259		223.62400		875.00000 
 43692.65567		 305.27265			43387.38302		70.12600		324.00000 
 43692.65567		 889.56308			42803.09259		223.62400		875.00000 
 43692.65567		 305.27265			43387.38302		70.12600		324.00000 
 43692.65567		 889.56308			42803.09259		223.62400		875.00000 
 43692.65567		 305.27265			43387.38302		70.12600		324.00000 
 43692.65567		 889.56308			42803.09259		223.62400		875.00000 
 43692.65567		 305.27265			43387.38302		70.12600		324.00000 
 43692.65567		 889.56308			42803.09259		223.62400		875.00000 
 43692.65567		 305.27265			43387.38302		70.12600		324.00000 
 43692.65567		 889.56308			42803.09259		223.62400		875.00000 
 43692.65567		 305.27265			43387.38302		70.12600		324.00000 
 43692.65567		 889.56308			42803.09259		223.62400		875.00000 
 43692.65567		 305.27265			43387.38302		70.12600		324.00000 
 43692.65567		 889.56308			42803.09259		223.62400		875.00000 
 43692.65567		 305.27265			43387.38302		70.12600		324.00000 
 43692.65567		 889.56308			42803.09259		223.62400		875.00000 
 43692.65567		 305.27265			43387.38302		70.12600		324.00000 
 43692.65567		 889.56308			42803.09259		223.62400		875.00000 
 43692.65567		 305.27265			43387.38302		70.12600		324.00000 
 43692.65567		 889.56308			42803.09259		223.62400		875.00000 
 43692.65567		 305.27265			43387.38302		70.12600		324.00000 
 43692.65567		 889.56308			42803.09259		223.62400		875.00000 
 43692.65567		 305.27265			43387.38302		70.12600		324.00000 
 43692.65567		 889.56308			42803.09259		223.62400		875.00000 
 43692.65567		 305.27265			43387.38302		70.12600		324.00000 
 43692.65567		 889.56308			42803.09259		223.62400		875.00000 
 43692.65567		 305.27265			43387.38302		70.12600		324.00000 
 43692.65567		 889.56308			42803.09259		223.62400		875.00000 
 43692.65567		 305.27265			43387.38302		70.12600		324.00000 
 43692.65567		 889.56308			42803.09259		223.62400		875.00000 
 43692.65567		 305.27265			43387.38302		70.12600		324.00000 
 43692.65567		 889.56308			42803.09259		223.62400		875.00000 
 43692.65567		 305.27265			43387.38302		70.12600		324.00000 
 43692.65567		 889.56308			42803.09259		223.62400		875.00000 
 43692.65567		 305.27265			43387.38302		70.12600		324.00000 
 43692.65567		 889.56308			42803.09259		223.62400		875.00000 
 43692.65567		 305.27265			43387.38302		70.12600		324.00000 
 43692.65567		 889.56308			42803.09259		223.62400		875.00000 
 43692.65567		 305.27265			43387.38302		70.12600		324.00000 
 43692.65567		 889.56308			42803.09259		223.62400		875.00000 
 43692.65567		 305.27265			43387.38302		70.12600		324.00000 
 43692.65567		 889.56308			42803.09259		223.62400		875.00000 
 43692.65567		 305.27265			43387.38302		70.12600		324.00000 
 43692.65567		 889.56308			42803.09259		223.62400		875.00000 
 43692.65567		 305.27265			43387.38302		70.12600		324.00000 
 43692.65567		 889.56308			42803.09259		223.62400		875.00000 
 43692.65567		 305.27265			43387.38302		70.12600		324.00000 
 43692.65567		 889.56308			42803.09259		223.62400		875.00000 
 43692.65567		 305.27265			43387.38302		70.12600		324.00000 
 43692.65567		 889.56308			42803.09259		223.62400		875.00000 
 43692.65567		 305.27265			43387.38302		70.12600		324.00000 
 43692.65567		 889.56308			42803.09259		223.62400		875.00000 
 43692.65567		 305.27265			43387.38302		70.12600		324.00000 
 43692.65567		 889.56308			42803.09259		223.62400		875.00000 
 43692.65567		 305.27265			43387.38302		70.12600		324.00000 
 43692.65567		 889.56308			42803.09259		223.62400		875.00000 
 43692.65567		 305.27265			43387.38302		70.12600		324.00000 
 43692.65567		 889.56308			42803.09259		223.62400		875.00000 
 43692.65567		 305.27265			43387.38302		70.12600		324.00000 
 43692.65567		 889.56308			42803.09259		223.62400		875.00000 
 43692.65567		 305.27265			43387.38302		70.12600		324.00000 
 43692.65567		 889.56308			42803.09259		223.62400		875.00000 
 43692.65567		 305.27265			43387.38302		70.12600		324.00000 
 43692.65567		 889.56308			42803.09259		223.62400		875.00000 
 43692.65567		 305.27265			43387.38302		70.12600		324.00000 
 43692.65567		 889.56308			42803.09259		223.62400		875.00000 
 43692.65567		 305.27265			43387.38302		70.12600		324.00000 
 43692.65567		 889.56308			42803.09259		223.62400		875.00000 
 43692.65567		 305.27265			43387.38302		70.12600		324.00000 
 43692.65567		 889.56308			42803.09259		223.62400		875.00000 
 43692.65567		 305.27265			43387.38302		70.12600		324.00000 
 43692.65567		 889.56308			42803.09259		223.62400		875.00000 
 43692.65567		 305.27265			43387.38302		70.12600		324.00000 
 43692.65567		 889.56308			42803.09259		223.62400		875.00000 
 43692.65567		 305.27265			43387.38302		70.12600		324.00000 
 43692.65567		 889.56308			42803.09259		223.62400		875.00000 
 43692.65567		 305.27265			43387.38302		70.12600		324.00000 
 43692.65567		 889.56308			42803.09259		223.62400		875.00000 
 43692.65567		 305.27265			43387.38302		70.12600		324.00000 
 43692.65567		 889.56308			42803.09259		223.62400		875.00000 
 43692.65567		 305.27265			43387.38302		70.12600		324.00000 
 43692.65567		 889.56308			42803.09259		223.62400		875.00000 
 43692.65567		 305.27265			43387.38302		70.12600		324.00000 
 43692.65567		 889.56308			42803.09259		223.62400		875.00000 
 43692.65567		 305.27265			43387.38302		70.12600		324.00000 
 43692.65567		 889.56308			42803.09259		223.62400		875.00000 
 43692.65567		 305.27265			43387.38302		70.12600		324.00000 
 43692.65567		 889.56308			42803.09259		223.62400		875.00000 
 43692.65567		 305.27265			43387.38302		70.12600		324.00000 
 43692.65567		 889.56308			42803.09259		223.62400		875.00000 
 43692.65567		 305.27265			43387.38302		70.12600		324.00000 
 43692.65567		 889.56308			42803.09259		223.62400		875.00000 
 43692.65567		 305.27265			43387.38302		70.12600		324.00000 
 43692.65567		 889.56308			42803.09259		223.62400		875.00000 
 43692.65567		 305.27265			43387.38302		70.12600		324.00000 
 43692.65567		 889.56308			42803.09259		223.62400		875.00000 
 43692.65567		 305.27265			43387.38302		70.12600		324.00000 
 43692.65567		 889.56308			42803.09259		223.62400		875.00000 
 43692.65567		 305.27265			43387.38302		70.12600		324.00000 
 43692.65567		 889.56308			42803.09259		223.62400		875.00000 
 43692.65567		 305.27265			43387.38302		70.12600		324.00000 
 43692.65567		 889.56308			42803.09259		223.62400		875.00000 
 43692.65567		 305.27265			43387.38302		70.12600		324.00000 
 43692.65567		 889.56308			42803.09259		223.62400		875.00000 
 43692.65567		 305.27265			43387.38302		70.12600		324.00000 
 43692.65567		 889.56308			42803.09259		223.62400		875.00000 
 43692.65567		 305.27265			43387.38302		70.12600		324.00000 
 43692.65567		 889.56308			42803.09259		223.62400		875.00000 
 43692.65567		 305.27265			43387.38302		70.12600		324.00000 
 43692.65567		 889.56308			42803.09259		223.62400		875.00000 
 43692.65567		 305.27265			43387.38302		70.12600		324.00000 
 43692.65567		 889.56308			42803.09259		223.62400		875.00000 
 43692.65567		 305.27265			43387.38302		70.12600		324.00000 
 43692.65567		 889.56308			42803.09259		223.62400		875.00000 
 43692.65567		 305.27265			43387.38302		70.12600		324.00000 
 43692.65567		 889.56308			42803.09259		223.62400		875.00000 
 43692.65567		 305.27265			43387.38302		70.12600		324.00000 
 43692.65567		 889.56308			42803.09259		223.62400		875.00000 
 43692.65567		 305.27265			43387.38302		70.12600		324.00000 
 43692.65567		 889.56308			42803.09259		223.62400		875.00000 
 43692.65567		 305.27265			43387.38302		70.12600		324.00000 
 43692.65567		 889.56308			42803.09259		222.66000		875.00000 
 43692.65567		 305.27265			43387.38302		70.12600		324.00000 
 43692.65567		 889.56308			42803.09259		222.66000		875.00000 
 43692.65567		 305.27265			43387.38302		70.12600		324.00000 
 43692.65567		 889.56308			42803.09259		222.66000		875.00000 
 43692.65567		 305.27265			43387.38302		70.12600		324.00000 
 43692.65567		 889.56308			42803.09259		222.66000		875.00000 
 43692.65567		 305.27265			43387.38302		70.12600		324.00000 
 43692.65567		 889.56308			42803.09259		222.66000		875.00000 
 43692.65567		 305.27265			43387.38302		70.12600		324.00000 
 43692.65567		 889.56308			42803.09259		222.66000		875.00000 
 43692.65567		 305.27265			43387.38302		70.12600		324.00000 
 43692.65567		 889.56308			42803.09259		222.66000		875.00000 
 43692.65567		 305.27265			43387.38302		70.12600		324.00000 
 43692.65567		 889.56308			42803.09259		222.66000		875.00000 
 43692.65567		 305.27265			43387.38302		70.12600		324.00000 
 43692.65567		 889.56308			42803.09259		222.66000		875.00000 
 43692.65567		 305.27265			43387.38302		70.12600		324.00000 
 43692.65567		 889.56308			42803.09259		222.66000		875.00000 
 43692.65567		 305.27265			43387.38302		70.12600		324.00000 
 43692.65567		 889.56308			42803.09259		222.66000		875.00000 
 43692.65567		 305.27265			43387.38302		70.12600		324.00000 
 43692.65567		 889.56308			42803.09259		222.66000		875.00000 
 43692.65567		 305.27265			43387.38302		70.12600		324.00000 
 43692.65567		 889.56308			42803.09259		222.66000		875.00000 
 43692.65567		 305.27265			43387.38302		70.12600		324.00000 
 43692.65567		 889.56308			42803.09259		222.66000		875.00000 
 43692.65567		 305.27265			43387.38302		70.12600		324.00000 
 43692.65567		 889.56308			42803.09259		222.66000		875.00000 
 43692.65567		 305.27265			43387.38302		70.12600		324.00000 
 43692.65567		 889.56308			42803.09259		222.66000		875.00000 
 43692.65567		 305.27265			43387.38302		70.12600		324.00000 
 43692.65567		 889.56308			42803.09259		222.66000		875.00000 
 43692.65567		 305.27265			43387.38302		70.12600		324.00000 
 43692.65567		 889.56308			42803.09259		222.66000		875.00000 
 43692.65567		 305.27265			43387.38302		70.12600		324.00000 
 43692.65567		 889.56308			42803.09259		222.66000		875.00000 
 43692.65567		 305.27265			43387.38302		70.12600		324.00000 
 43692.65567		 889.56308			42803.09259		222.66000		875.00000 
 43692.65567		 305.27265			43387.38302		70.12600		324.00000 
 43692.65567		 889.56308			42803.09259		222.66000		875.00000 
 43692.65567		 305.27265			43387.38302		70.12600		324.00000 
 43692.65567		 889.56308			42803.09259		222.66000		875.00000 
 43692.65567		 305.27265			43387.38302		70.12600		324.00000 
 43692.65567		 889.56308			42803.09259		222.66000		875.00000 
 43692.65567		 305.27265			43387.38302		70.12600		324.00000 
 43692.65567		 889.56308			42803.09259		222.66000		875.00000 
 43692.65567		 305.27265			43387.38302		70.12600		324.00000 
 43692.65567		 889.56308			42803.09259		222.66000		875.00000 
 43692.65567		 305.27265			43387.38302		70.12600		324.00000 
 43692.65567		 889.56308			42803.09259		222.66000		875.00000 
 43692.65567		 305.27265			43387.38302		70.12600		324.00000 
 43692.65567		 889.56308			42803.09259		222.66000		875.00000 
 43692.65567		 305.27265			43387.38302		70.12600		324.00000 
 43692.65567		 889.56308			42803.09259		222.66000		875.00000 
 43692.65567		 305.27265			43387.38302		70.12600		324.00000 
 43692.65567		 889.56308			42803.09259		222.66000		875.00000 
 43692.65567		 305.27265			43387.38302		70.12600		324.00000 
 43692.65567		 889.56308			42803.09259		222.66000		875.00000 
 43692.65567		 305.27265			43387.38302		70.12600		324.00000 
 43692.65567		 889.56308			42803.09259		222.66000		875.00000 
 43692.65567		 305.27265			43387.38302		70.12600		324.00000 
 43692.65567		 889.56308			42803.09259		222.66000		875.00000 
 43692.65567		 305.27265			43387.38302		70.12600		324.00000 
 43692.65567		 889.56308			42803.09259		222.66000		875.00000 
 43692.65567		 305.27265			43387.38302		70.12600		324.00000 
 43692.65567		 889.56308			42803.09259		222.66000		875.00000 
 43692.65567		 305.27265			43387.38302		70.12600		324.00000 
 43692.65567		 889.56308			42803.09259		222.66000		875.00000 
 43692.65567		 305.27265			43387.38302		70.12600		324.00000 
 43692.65567		 889.56308			42803.09259		222.66000		875.00000 
 43692.65567		 305.27265			43387.38302		70.12600		324.00000 
 43692.65567		 889.56308			42803.09259		222.66000		875.00000 
 43692.65567		 305.27265			43387.38302		70.12600		324.00000 
 43692.65567		 889.56308			42803.09259		222.66000		875.00000 
 43692.65567		 305.27265			43387.38302		70.12600		324.00000 
 43692.65567		 889.56308			42803.09259		222.66000		875.00000 
 43692.65567		 305.27265			43387.38302		70.12600		324.00000 
 43692.65567		 889.56308			42803.09259		222.66000		875.00000 
 43692.65567		 305.27265			43387.38302		70.12600		324.00000 
 43692.65567		 889.56308			42803.09259		222.66000		875.00000 
 43692.65567		 305.27265			43387.38302		70.12600		324.00000 
 43692.65567		 889.56308			42803.09259		222.66000		875.00000 
 43692.65567		 305.27265			43387.38302		70.12600		324.00000 
 43692.65567		 889.56308			42803.09259		222.66000		875.00000 
 43692.65567		 305.27265			43387.38302		70.12600		324.00000 
 43692.65567		 889.56308			42803.09259		222.66000		875.00000 
 43692.65567		 305.27265			43387.38302		70.12600		324.00000 
 43692.65567		 889.56308			42803.09259		222.66000		875.00000 
 43692.65567		 305.27265			43387.38302		70.12600		324.00000 
 43692.65567		 889.56308			42803.09259		222.66000		875.00000 
 43692.65567		 305.27265			43387.38302		70.12600		324.00000 
 43692.65567		 889.56308			42803.09259		222.66000		875.00000 
 43692.65567		 305.27265			43387.38302		70.12600		324.00000 
 43692.65567		 889.56308			42803.09259		222.66000		875.00000 
 43692.65567		 305.27265			43387.38302		70.12600		324.00000 
 43692.65567		 889.56308			42803.09259		222.66000		875.00000 
 43692.65567		 305.27265			43387.38302		70.12600		324.00000 
 43692.65567		 889.56308			42803.09259		222.66000		875.00000 
 43692.65567		 305.27265			43387.38302		70.12600		324.00000 
 43692.65567		 889.56308			42803.09259		222.66000		875.00000 
 43692.65567		 305.27265			43387.38302		70.12600		324.00000 
 43692.65567		 889.56308			42803.09259		222.66000		875.00000 
 43692.65567		 305.27265			43387.38302		70.12600		324.00000 
 43692.65567		 889.56308			42803.09259		222.66000		875.00000 
 43692.65567		 305.27265			43387.38302		70.12600		324.00000 
 43692.65567		 889.56308			42803.09259		222.66000		875.00000 
 43692.65567		 305.27265			43387.38302		70.12600		324.00000 
 43692.65567		 889.56308			42803.09259		222.66000		875.00000 
 43692.65567		 305.27265			43387.38302		70.12600		324.00000 
 43692.65567		 889.56308			42803.09259		222.66000		875.00000 
 43692.65567		 305.27265			43387.38302		70.12600		324.00000 
 43692.65567		 889.56308			42803.09259		222.66000		875.00000 
 43692.65567		 305.27265			43387.38302		70.12600		324.00000 
 43692.65567		 889.56308			42803.09259		222.66000		875.00000 
 43692.65567		 305.27265			43387.38302		70.12600		324.00000 
 43692.65567		 889.56308			42803.09259		222.66000		875.00000 
 43692.65567		 305.27265			43387.38302		70.12600		324.00000 
 43692.65567		 889.56308			42803.09259		222.66000		875.00000 
 43692.65567		 305.27265			43387.38302		70.12600		324.00000 
 43692.65567		 889.56308			42803.09259		222.66000		875.00000 
 43692.65567		 305.27265			43387.38302		70.12600		324.00000 
 43692.65567		 889.56308			42803.09259		222.66000		875.00000 
 43692.65567		 305.27265			43387.38302		70.12600		324.00000 
 43692.65567		 889.56308			42803.09259		222.66000		875.00000 
 43692.65567		 305.27265			43387.38302		70.12600		324.00000 
 43692.65567		 889.56308			42803.09259		222.66000		875.00000 
 43692.65567		 305.27265			43387.38302		70.12600		324.00000 
 43692.65567		 889.56308			42803.09259		223.62400		875.00000 
 43692.65567		 305.27265			43387.38302		70.12600		324.00000 
 43692.65567		 889.56308			42803.09259		223.62400		875.00000 
 43692.65567		 305.27265			43387.38302		70.12600		324.00000 
 43692.65567		 889.56308			42803.09259		223.62400		875.00000 
 43692.65567		 305.27265			43387.38302		70.12600		324.00000 
 43692.65567		 889.56308			42803.09259		223.62400		875.00000 
 43692.65567		 305.27265			43387.38302		70.12600		324.00000 
 43692.65567		 889.56308			42803.09259		223.62400		875.00000 
 43692.65567		 305.27265			43387.38302		70.12600		324.00000 
 43692.65567		 889.56308			42803.09259		223.62400		875.00000 
 43692.65567		 305.27265			43387.38302		70.12600		324.00000 
 43692.65567		 889.56308			42803.09259		223.62400		875.00000 
 43692.65567		 305.27265			43387.38302		70.12600		324.00000 
 43692.65567		 889.56308			42803.09259		223.62400		875.00000 
 43692.65567		 305.27265			43387.38302		70.12600		324.00000 
 43692.65567		 889.56308			42803.09259		223.62400		875.00000 
 43692.65567		 305.27265			43387.38302		70.12600		324.00000 
 43692.65567		 889.56308			42803.09259		223.62400		875.00000 
 43692.65567		 305.27265			43387.38302		70.12600		324.00000 
 43692.65567		 889.56308			42803.09259		223.62400		875.00000 
 43692.65567		 305.27265			43387.38302		70.12600		324.00000 
 43692.65567		 889.56308			42803.09259		223.62400		875.00000 
 43692.65567		 305.27265			43387.38302		70.12600		324.00000 
 43692.65567		 889.56308			42803.09259		223.62400		875.00000 
 43692.65567		 305.27265			43387.38302		70.12600		324.00000 
 43692.65567		 889.56308			42803.09259		223.62400		875.00000 
 43692.65567		 305.27265			43387.38302		70.12600		324.00000 
 43692.65567		 889.56308			42803.09259		223.62400		875.00000 
 43692.65567		 305.27265			43387.38302		70.12600		324.00000 
 43692.65567		 889.56308			42803.09259		223.62400		875.00000 
 43692.65567		 305.27265			43387.38302		70.12600		324.00000 
 43692.65567		 889.56308			42803.09259		223.62400		875.00000 
 43692.65567		 305.27265			43387.38302		70.12600		324.00000 
 43692.65567		 889.56308			42803.09259		223.62400		875.00000 
 43692.65567		 305.27265			43387.38302		70.12600		324.00000 
 43692.65567		 889.56308			42803.09259		223.62400		875.00000 
 43692.65567		 305.27265			43387.38302		70.12600		324.00000 
 43692.65567		 889.56308			42803.09259		223.62400		875.00000 
 43692.65567		 305.27265			43387.38302		70.12600		324.00000 
 43692.65567		 889.56308			42803.09259		223.62400		875.00000 
 43692.65567		 305.27265			43387.38302		70.12600		324.00000 
 43692.65567		 889.56308			42803.09259		223.62400		875.00000 
 43692.65567		 305.27265			43387.38302		70.12600		324.00000 
 43692.65567		 889.56308			42803.09259		223.62400		875.00000 
 43692.65567		 305.27265			43387.38302		70.12600		324.00000 
 43692.65567		 889.56308			42803.09259		223.62400		875.00000 
 43692.65567		 305.27265			43387.38302		70.12600		324.00000 
 43692.65567		 889.56308			42803.09259		223.62400		875.00000 
 43692.65567		 305.27265			43387.38302		70.12600		324.00000 
 43692.65567		 889.56308			42803.09259		223.62400		875.00000 
 43692.65567		 305.27265			43387.38302		70.12600		324.00000 
 43692.65567		 889.56308			42803.09259		223.62400		875.00000 
 43692.65567		 305.27265			43387.38302		70.12600		324.00000 
 43692.65567		 889.56308			42803.09259		223.62400		875.00000 
 43692.65567		 305.27265			43387.38302		70.12600		324.00000 
 43692.65567		 889.56308			42803.09259		223.62400		875.00000 
 43692.65567		 305.27265			43387.38302		70.12600		324.00000 
 43692.65567		 889.56308			42803.09259		223.62400		875.00000 
 43692.65567		 305.27265			43387.38302		70.12600		324.00000 
 43692.65567		 889.56308			42803.09259		223.62400		875.00000 
 43692.65567		 305.27265			43387.38302		70.12600		324.00000 
 43692.65567		 889.56308			42803.09259		223.62400		875.00000 
 43692.65567		 305.27265			43387.38302		70.12600		324.00000 
 43692.65567		 889.56308			42803.09259		223.62400		875.00000 
 43692.65567		 305.27265			43387.38302		70.12600		324.00000 
 43692.65567		 889.56308			42803.09259		223.62400		875.00000 
 43692.65567		 305.27265			43387.38302		70.12600		324.00000 
 43692.65567		 889.56308			42803.09259		223.62400		875.00000 
 43692.65567		 305.27265			43387.38302		70.12600		324.00000 
 43692.65567		 889.56308			42803.09259		223.62400		875.00000 
 43692.65567		 305.27265			43387.38302		70.12600		324.00000 
 43692.65567		 889.56308			42803.09259		223.62400		875.00000 
 43692.65567		 305.27265			43387.38302		70.12600		324.00000 
 43692.65567		 889.56308			42803.09259		223.62400		875.00000 
 43692.65567		 305.27265			43387.38302		70.12600		324.00000 
 43692.65567		 889.56308			42803.09259		223.62400		875.00000 
 43692.65567		 305.27265			43387.38302		70.12600		324.00000 
 43692.65567		 889.56308			42803.09259		223.62400		875.00000 
 43692.65567		 305.27265			43387.38302		70.12600		324.00000 
 43692.65567		 889.56308			42803.09259		223.62400		875.00000 
 43692.65567		 305.27265			43387.38302		70.12600		324.00000 
 43692.65567		 889.56308			42803.09259		223.62400		875.00000 
 43692.65567		 305.27265			43387.38302		70.12600		324.00000 
 43692.65567		 889.56308			42803.09259		223.62400		875.00000 
 43692.65567		 305.27265			43387.38302		70.12600		324.00000 
 43692.65567		 889.56308			42803.09259		223.62400		875.00000 
 43692.65567		 305.27265			43387.38302		70.12600		324.00000 
 43692.65567		 889.56308			42803.09259		223.62400		875.00000 
 43692.65567		 305.27265			43387.38302		70.12600		324.00000 
 43692.65567		 889.56308			42803.09259		223.62400		875.00000 
 43692.65567		 305.27265			43387.38302		70.12600		324.00000 
 43692.65567		 889.56308			42803.09259		223.62400		875.00000 
 43692.65567		 305.27265			43387.38302		70.12600		324.00000 
 43692.65567		 889.56308			42803.09259		223.62400		875.00000 
 43692.65567		 305.27265			43387.38302		70.12600		324.00000 
 43692.65567		 889.56308			42803.09259		223.62400		875.00000 
 43692.65567		 305.27265			43387.38302		70.12600		324.00000 
 43692.65567		 889.56308			42803.09259		223.62400		875.00000 
 43692.65567		 305.27265			43387.38302		70.12600		324.00000 
 43692.65567		 889.56308			42803.09259		223.62400		875.00000 
 43692.65567		 305.27265			43387.38302		70.12600		324.00000 
 43692.65567		 889.56308			42803.09259		223.62400		875.00000 
 43692.65567		 305.27265			43387.38302		70.12600		324.00000 
 43692.65567		 889.56308			42803.09259		223.62400		875.00000 
 43692.65567		 305.27265			43387.38302		70.12600		324.00000 
 43692.65567		 889.56308			42803.09259		223.62400		875.00000 
 43692.65567		 305.27265			43387.38302		70.12600		324.00000 
 43692.65567		 889.56308			42803.09259		223.62400		875.00000 
 43692.65567		 305.27265			43387.38302		70.12600		324.00000 
 43692.65567		 889.56308			42803.09259		223.62400		875.00000 
 43692.65567		 305.27265			43387.38302		70.12600		324.00000 
 43692.65567		 889.56308			42803.09259		223.62400		875.00000 
 43692.65567		 305.27265			43387.38302		70.12600		324.00000 
 43692.65567		 889.56308			42803.09259		223.62400		875.00000 
 43692.65567		 305.27265			43387.38302		70.12600		324.00000 
 43692.65567		 889.56308			42803.09259		223.62400		875.00000 
 43692.65567		 305.27265			43387.38302		70.12600		324.00000 
 43692.65567		 889.56308			42803.09259		223.62400		875.00000 
 43692.65567		 305.27265			43387.38302		70.12600		324.00000 
 43692.65567		 889.56308			42803.09259		223.62400		875.00000 
 43692.65567		 305.27265			43387.38302		70.12600		324.00000 
 43692.65567		 889.56308			42803.09259		223.62400		875.00000 
 43692.65567		 305.27265			43387.38302		70.12600		324.00000 
 43692.65567		 889.56308			42803.09259		223.62400		875.00000 
 43692.65567		 305.27265			43387.38302		70.12600		324.00000 
 43692.65567		 889.56308			42803.09259		223.62400		875.00000 
 43692.65567		 305.27265			43387.38302		70.12600		324.00000 
 43692.65567		 889.56308			42803.09259		223.62400		875.00000 
 43692.65567		 305.27265			43387.38302		70.12600		324.00000 
 43692.65567		 889.56308			42803.09259		222.66000		875.00000 
 43692.65567		 305.27265			43387.38302		70.12600		324.00000 
 43692.65567		 889.56308			42803.09259		222.66000		875.00000 
 43692.65567		 305.27265			43387.38302		70.12600		324.00000 
 43692.65567		 889.56308			42803.09259		222.66000		875.00000 
 43692.65567		 305.27265			43387.38302		70.12600		324.00000 
 43692.65567		 889.56308			42803.09259		222.66000		875.00000 
 43692.65567		 305.27265			43387.38302		70.12600		324.00000 
 43692.65567		 889.56308			42803.09259		222.66000		875.00000 
 43692.65567		 305.27265			43387.38302		70.12600		324.00000 
 43692.65567		 889.56308			42803.09259		222.66000		875.00000 
 43692.65567		 305.27265			43387.38302		70.12600		324.00000 
 43692.65567		 889.56308			42803.09259		222.66000		875.00000 
 43692.65567		 305.27265			43387.38302		70.12600		324.00000 
 43692.65567		 889.56308			42803.09259		222.66000		875.00000 
 43692.65567		 305.27265			43387.38302		70.12600		324.00000 
 43692.65567		 889.56308			42803.09259		222.66000		875.00000 
 43692.65567		 305.27265			43387.38302		70.12600		324.00000 
 43692.65567		 889.56308			42803.09259		222.66000		875.00000 
 43692.65567		 305.27265			43387.38302		70.12600		324.00000 
 43692.65567		 889.56308			42803.09259		222.66000		875.00000 
 43692.65567		 305.27265			43387.38302		70.12600		324.00000 
 43692.65567		 889.56308			42803.09259		222.66000		875.00000 
 43692.65567		 305.27265			43387.38302		70.12600		324.00000 
 43692.65567		 889.56308			42803.09259		222.66000		875.00000 
 43692.65567		 305.27265			43387.38302		70.12600		324.00000 
 43692.65567		 889.56308			42803.09259		222.66000		875.00000 
 43692.65567		 305.27265			43387.38302		70.12600		324.00000 
 43692.65567		 889.56308			42803.09259		222.66000		875.00000 
 43692.65567		 305.27265			43387.38302		70.12600		324.00000 
 43692.65567		 889.56308			42803.09259		222.66000		875.00000 
 43692.65567		 305.27265			43387.38302		70.12600		324.00000 
 43692.65567		 889.56308			42803.09259		222.66000		875.00000 
 43692.65567		 305.27265			43387.38302		70.12600		324.00000 
 43692.65567		 889.56308			42803.09259		222.66000		875.00000 
 43692.65567		 305.27265			43387.38302		70.12600		324.00000 
 43692.65567		 889.56308			42803.09259		222.66000		875.00000 
 43692.65567		 305.27265			43387.38302		70.12600		324.00000 
 43692.65567		 889.56308			42803.09259		222.66000		875.00000 
 43692.65567		 305.27265			43387.38302		70.12600		324.00000 
 43692.65567		 889.56308			42803.09259		222.66000		875.00000 
 43692.65567		 305.27265			43387.38302		70.12600		324.00000 
 43692.65567		 889.56308			42803.09259		222.66000		875.00000 
 43692.65567		 305.27265			43387.38302		70.12600		324.00000 
 43692.65567		 889.56308			42803.09259		222.66000		875.00000 
 43692.65567		 305.27265			43387.38302		70.12600		324.00000 
 43692.65567		 889.56308			42803.09259		222.66000		875.00000 
 43692.65567		 305.27265			43387.38302		70.12600		324.00000 
 43692.65567		 889.56308			42803.09259		222.66000		875.00000 
 43692.65567		 305.27265			43387.38302		70.12600		324.00000 
 43692.65567		 889.56308			42803.09259		222.66000		875.00000 
 43692.65567		 305.27265			43387.38302		70.12600		324.00000 
 43692.65567		 889.56308			42803.09259		222.66000		875.00000 
 43692.65567		 305.27265			43387.38302		70.12600		324.00000 
 43692.65567		 889.56308			42803.09259		222.66000		875.00000 
 43692.65567		 305.27265			43387.38302		70.12600		324.00000 
 43692.65567		 889.56308			42803.09259		222.66000		875.00000 
 43692.65567		 305.27265			43387.38302		70.12600		324.00000 
 43692.65567		 889.56308			42803.09259		222.66000		875.00000 
 43692.65567		 305.27265			43387.38302		70.12600		324.00000 
 43692.65567		 889.56308			42803.09259		222.66000		875.00000 
 43692.65567		 305.27265			43387.38302		70.12600		324.00000 
 43692.65567		 889.56308			42803.09259		222.66000		875.00000 
 43692.65567		 305.27265			43387.38302		70.12600		324.00000 
 43692.65567		 889.56308			42803.09259		222.66000		875.00000 
 43692.65567		 305.27265			43387.38302		70.12600		324.00000 
 43692.65567		 889.56308			42803.09259		222.66000		875.00000 
 43692.65567		 305.27265			43387.38302		70.12600		324.00000 
 43692.65567		 889.56308			42803.09259		222.66000		875.00000 
 43692.65567		 305.27265			43387.38302		70.12600		324.00000 
 43692.65567		 889.56308			42803.09259		222.66000		875.00000 
 43692.65567		 305.27265			43387.38302		70.12600		324.00000 
 43692.65567		 889.56308			42803.09259		222.66000		875.00000 
 43692.65567		 305.27265			43387.38302		70.12600		324.00000 
 43692.65567		 889.56308			42803.09259		222.66000		875.00000 
 43692.65567		 305.27265			43387.38302		70.12600		324.00000 
 43692.65567		 889.56308			42803.09259		222.66000		875.00000 
 43692.65567		 305.27265			43387.38302		70.12600		324.00000 
 43692.65567		 889.56308			42803.09259		222.66000		875.00000 
 43692.65567		 305.27265			43387.38302		70.12600		324.00000 
 43692.65567		 889.56308			42803.09259		222.66000		875.00000 
 43692.65567		 305.27265			43387.38302		70.12600		324.00000 
 43692.65567		 889.56308			42803.09259		222.66000		875.00000 
 43692.65567		 305.27265			43387.38302		70.12600		324.00000 
 43692.65567		 889.56308			42803.09259		222.66000		875.00000 
 43692.65567		 305.27265			43387.38302		70.12600		324.00000 
 43692.65567		 889.56308			42803.09259		222.66000		875.00000 
 43692.65567		 305.27265			43387.38302		70.12600		324.00000 
 43692.65567		 889.56308			42803.09259		222.66000		875.00000 
 43692.65567		 305.27265			43387.38302		70.12600		324.00000 
 43692.65567		 889.56308			42803.09259		222.66000		875.00000 
 43692.65567		 305.27265			43387.38302		70.12600		324.00000 
 43692.65567		 889.56308			42803.09259		222.66000		875.00000 
 43692.65567		 305.27265			43387.38302		70.12600		324.00000 
 43692.65567		 889.56308			42803.09259		222.66000		875.00000 
 43692.65567		 305.27265			43387.38302		70.12600		324.00000 
 43692.65567		 889.56308			42803.09259		222.66000		875.00000 
 43692.65567		 305.27265			43387.38302		70.12600		324.00000 
 43692.65567		 889.56308			42803.09259		222.66000		875.00000 
 43692.65567		 305.27265			43387.38302		70.12600		324.00000 
 43692.65567		 889.56308			42803.09259		222.66000		875.00000 
 43692.65567		 305.27265			43387.38302		70.12600		324.00000 
 43692.65567		 889.56308			42803.09259		222.66000		875.00000 
 43692.65567		 305.27265			43387.38302		70.12600		324.00000 
 43692.65567		 889.56308			42803.09259		222.66000		875.00000 
 43692.65567		 305.27265			43387.38302		70.12600		324.00000 
 43692.65567		 889.56308			42803.09259		222.66000		875.00000 
 43692.65567		 305.27265			43387.38302		70.12600		324.00000 
 43692.65567		 889.56308			42803.09259		222.66000		875.00000 
 43692.65567		 305.27265			43387.38302		70.12600		324.00000 
 43692.65567		 889.56308			42803.09259		222.66000		875.00000 
 43692.65567		 305.27265			43387.38302		70.12600		324.00000 
 43692.65567		 889.56308			42803.09259		222.66000		875.00000 
 43692.65567		 305.27265			43387.38302		70.12600		324.00000 
 43692.65567		 889.56308			42803.09259		222.66000		875.00000 
 43692.65567		 305.27265			43387.38302		70.12600		324.00000 
 43692.65567		 889.56308			42803.09259		222.66000		875.00000 
 43692.65567		 305.27265			43387.38302		70.12600		324.00000 
 43692.65567		 889.56308			42803.09259		222.66000		875.00000 
 43692.65567		 305.27265			43387.38302		70.12600		324.00000 
 43692.65567		 889.56308			42803.09259		222.66000		875.00000 
 43692.65567		 305.27265			43387.38302		70.12600		324.00000 
 43692.65567		 889.56308			42803.09259		222.66000		875.00000 
 43692.65567		 305.27265			43387.38302		70.12600		324.00000 
 43692.65567		 889.56308			42803.09259		222.66000		875.00000 
 43692.65567		 305.27265			43387.38302		70.12600		324.00000 
 43692.65567		 889.56308			42803.09259		222.66000		875.00000 
 43692.65567		 305.27265			43387.38302		70.12600		324.00000 
 43692.65567		 889.56308			42803.09259		222.66000		875.00000 
 43692.65567		 305.27265			43387.38302		70.12600		324.00000 
 43692.65567		 889.56308			42803.09259		222.66000		875.00000 
 43692.65567		 305.27265			43387.38302		70.12600		324.00000 
 43692.65567		 889.56308			42803.09259		222.66000		875.00000 
 43692.65567		 305.27265			43387.38302		70.12600		324.00000 
 43692.65567		 889.56308			42803.09259		222.66000		875.00000 
 43692.65567		 305.27265			43387.38302		70.12600		324.00000 
 43692.65567		 889.56308			42803.09259		222.66000		875.00000 
 43692.65567		 305.27265			43387.38302		70.12600		324.00000 
 43692.65567		 889.56308			42803.09259		222.66000		875.00000 
 43692.65567		 305.27265			43387.38302		70.12600		324.00000 
 43692.65567		 889.56308			42803.09259		222.66000		875.00000 
 43692.65567		 305.27265			43387.38302		70.12600		324.00000 
 43692.65567		 889.56308			42803.09259		222.66000		875.00000 
 43692.65567		 305.27265			43387.38302		70.12600		324.00000 
 43692.65567		 889.56308			42803.09259		222.66000		875.00000 
 43692.65567		 305.27265			43387.38302		70.12600		324.00000 
 43692.65567		 889.56308			42803.09259		222.66000		875.00000 
 43692.65567		 305.27265			43387.38302		70.12600		324.00000 
 43692.65567		 889.56308			42803.09259		222.66000		875.00000 
 43692.65567		 305.27265			43387.38302		70.12600		324.00000 
 43692.65567		 889.56308			42803.09259		222.66000		875.00000 
 43692.65567		 305.27265			43387.38302		70.12600		324.00000 
 43692.65567		 889.56308			42803.09259		222.66000		875.00000 
 43692.65567		 305.27265			43387.38302		70.12600		324.00000 
 43692.65567		 889.56308			42803.09259		222.66000		875.00000 
 43692.65567		 305.27265			43387.38302		70.12600		324.00000 
 43692.65567		 889.56308			42803.09259		222.66000		875.00000 
 43692.65567		 305.27265			43387.38302		70.12600		324.00000 
 43692.65567		 889.56308			42803.09259		222.66000		875.00000 
 43692.65567		 305.27265			43387.38302		70.12600		324.00000 
 43692.65567		 889.56308			42803.09259		222.66000		875.00000 
 43692.65567		 305.27265			43387.38302		70.12600		324.00000 
 43692.65567		 889.56308			42803.09259		222.66000		875.00000 
 43692.65567		 305.27265			43387.38302		70.12600		324.00000 
 43692.65567		 889.56308			42803.09259		222.66000		875.00000 
 43692.65567		 305.27265			43387.38302		70.12600		324.00000 
 43692.65567		 889.56308			42803.09259		222.66000		875.00000 
 43692.65567		 305.27265			43387.38302		70.12600		324.00000 
 43692.65567		 889.56308			42803.09259		222.66000		875.00000 
 43692.65567		 305.27265			43387.38302		70.12600		324.00000 
 43692.65567		 889.56308			42803.09259		222.66000		875.00000 
 43692.65567		 305.27265			43387.38302		70.12600		324.00000 
 43692.65567		 889.56308			42803.09259		222.66000		875.00000 
 43692.65567		 305.27265			43387.38302		70.12600		324.00000 
 43692.65567		 889.56308			42803.09259		222.66000		875.00000 
 43692.65567		 305.27265			43387.38302		70.12600		324.00000 
 43692.65567		 889.56308			42803.09259		222.66000		875.00000 
 43692.65567		 305.27265			43387.38302		70.12600		324.00000 
 43692.65567		 889.56308			42803.09259		222.66000		875.00000 
 43692.65567		 305.27265			43387.38302		70.12600		324.00000 
 43692.65567		 889.56308			42803.09259		222.66000		875.00000 
 43692.65567		 305.27265			43387.38302		70.12600		324.00000 
 43692.65567		 889.56308			42803.09259		222.66000		875.00000 
 43692.65567		 305.27265			43387.38302		70.12600		324.00000 
 43692.65567		 889.56308			42803.09259		222.66000		875.00000 
 43692.65567		 305.27265			43387.38302		70.12600		324.00000 
 43692.65567		 889.56308			42803.09259		222.66000		875.00000 
 43692.65567		 305.27265			43387.38302		70.12600		324.00000 
 43692.65567		 889.56308			42803.09259		222.66000		875.00000 
 43692.65567		 305.27265			43387.38302		70.12600		324.00000 
 43692.65567		 889.56308			42803.09259		222.66000		875.00000 
 43692.65567		 305.27265			43387.38302		70.12600		324.00000 
 43692.65567		 889.56308			42803.09259		222.66000		875.00000 
 43692.65567		 305.27265			43387.38302		70.12600		324.00000 
 43692.65567		 889.56308			42803.09259		222.66000		875.00000 
 43692.65567		 305.27265			43387.38302		70.12600		324.00000 
 43692.65567		 889.56308			42803.09259		222.66000		875.00000 
 43692.65567		 305.27265			43387.38302		70.12600		324.00000 
 43692.65567		 889.56308			42803.09259		222.66000		875.00000 
 43692.65567		 305.27265			43387.38302		70.12600		324.00000 
 43692.65567		 889.56308			42803.09259		222.66000		875.00000 
 43692.65567		 305.27265			43387.38302		70.12600		324.00000 
 43692.65567		 889.56308			42803.09259		222.66000		875.00000 
 43692.65567		 305.27265			43387.38302		70.12600		324.00000 
 43692.65567		 889.56308			42803.09259		222.66000		875.00000 
 43692.65567		 305.27265			43387.38302		70.12600		324.00000 
 43692.65567		 889.56308			42803.09259		222.66000		875.00000 
 43692.65567		 305.27265			43387.38302		70.12600		324.00000 
 43692.65567		 889.56308			42803.09259		222.66000		875.00000 
 43692.65567		 305.27265			43387.38302		70.12600		324.00000 
 43692.65567		 889.56308			42803.09259		222.66000		875.00000 
 43692.65567		 305.27265			43387.38302		70.12600		324.00000 
 43692.65567		 889.56308			42803.09259		222.66000		875.00000 
 43692.65567		 305.27265			43387.38302		70.12600		324.00000 
 43692.65567		 889.56308			42803.09259		222.66000		875.00000 
 43692.65567		 305.27265			43387.38302		70.12600		324.00000 
 43692.65567		 889.56308			42803.09259		222.66000		875.00000 
 43692.65567		 305.27265			43387.38302		70.12600		324.00000 
 43692.65567		 889.56308			42803.09259		222.66000		875.00000 
 43692.65567		 305.27265			43387.38302		70.12600		324.00000 
 43692.65567		 889.56308			42803.09259		222.66000		875.00000 
 43692.65567		 305.27265			43387.38302		70.12600		324.00000 
 43692.65567		 889.56308			42803.09259		222.66000		875.00000 
 43692.65567		 305.27265			43387.38302		70.12600		324.00000 
 43692.65567		 889.56308			42803.09259		222.66000		875.00000 
 43692.65567		 305.27265			43387.38302		70.12600		324.00000 
 43692.65567		 889.56308			42803.09259		222.66000		875.00000 
 43692.65567		 305.27265			43387.38302		70.12600		324.00000 
 43692.65567		 889.56308			42803.09259		222.66000		875.00000 
 43692.65567		 305.27265			43387.38302		70.12600		324.00000 
 43692.65567		 889.56308			42803.09259		222.66000		875.00000 
 43692.65567		 305.27265			43387.38302		70.12600		324.00000 
 43692.65567		 889.56308			42803.09259		222.66000		875.00000 
 43692.65567		 305.27265			43387.38302		70.12600		324.00000 
 43692.65567		 889.56308			42803.09259		222.66000		875.00000 
 43692.65567		 305.27265			43387.38302		70.12600		324.00000 
 43692.65567		 889.56308			42803.09259		222.66000		875.00000 
 43692.65567		 305.27265			43387.38302		70.12600		324.00000 
 43692.65567		 889.56308			42803.09259		222.66000		875.00000 
 43692.65567		 305.27265			43387.38302		70.12600		324.00000 
 43692.65567		 889.56308			42803.09259		222.66000		875.00000 
 43692.65567		 305.27265			43387.38302		70.12600		324.00000 
 43692.65567		 889.56308			42803.09259		222.66000		875.00000 
 43692.65567		 305.27265			43387.38302		70.12600		324.00000 
 43692.65567		 889.56308			42803.09259		222.66000		875.00000 
 43692.65567		 305.27265			43387.38302		70.12600		324.00000 
 43692.65567		 889.56308			42803.09259		222.66000		875.00000 
 43692.65567		 305.27265			43387.38302		70.12600		324.00000 
 43692.65567		 889.56308			42803.09259		222.66000		875.00000 
 43692.65567		 305.27265			43387.38302		70.12600		324.00000 
 43692.65567		 889.56308			42803.09259		222.66000		875.00000 
 43692.65567		 305.27265			43387.38302		70.12600		324.00000 
 43692.65567		 889.56308			42803.09259		222.66000		875.00000 
 43692.65567		 305.27265			43387.38302		70.12600		324.00000 
 43692.65567		 889.56308			42803.09259		222.66000		875.00000 
 43692.65567		 305.27265			43387.38302		70.12600		324.00000 
 43692.65567		 889.56308			42803.09259		222.66000		875.00000 
 43692.65567		 305.27265			43387.38302		70.12600		324.00000 
 43692.65567		 889.56308			42803.09259		223.26000		875.00000 
 43692.65567		 305.27265			43387.38302		70.12600		324.00000 
 43692.65567		 889.56308			42803.09259		223.26000		875.00000 
 43692.65567		 305.27265			43387.38302		70.12600		324.00000 
 43692.65567		 889.56308			42803.09259		223.26000		875.00000 
 43692.65567		 305.27265			43387.38302		70.12600		324.00000 
 43692.65567		 889.56308			42803.09259		223.26000		875.00000 
 43692.65567		 305.27265			43387.38302		70.12600		324.00000 
 43692.65567		 889.56308			42803.09259		223.26000		875.00000 
 43692.65567		 305.27265			43387.38302		70.12600		324.00000 
 43692.65567		 889.56308			42803.09259		223.26000		875.00000 
 43692.65567		 305.27265			43387.38302		70.12600		324.00000 
 43692.65567		 889.56308			42803.09259		223.26000		875.00000 
 43692.65567		 305.27265			43387.38302		70.12600		324.00000 
 43692.65567		 889.56308			42803.09259		223.26000		875.00000 
 43692.65567		 305.27265			43387.38302		70.12600		324.00000 
 43692.65567		 889.56308			42803.09259		223.26000		875.00000 
 43692.65567		 305.27265			43387.38302		70.12600		324.00000 
 43692.65567		 889.56308			42803.09259		223.26000		875.00000 
 43692.65567		 305.27265			43387.38302		70.12600		324.00000 
 43692.65567		 889.56308			42803.09259		223.26000		875.00000 
 43692.65567		 305.27265			43387.38302		70.12600		324.00000 
 43692.65567		 889.56308			42803.09259		223.26000		875.00000 
 43692.65567		 305.27265			43387.38302		70.12600		324.00000 
 43692.65567		 889.56308			42803.09259		223.26000		875.00000 
 43692.65567		 305.27265			43387.38302		70.12600		324.00000 
 43692.65567		 889.56308			42803.09259		223.26000		875.00000 
 43692.65567		 305.27265			43387.38302		70.12600		324.00000 
 43692.65567		 889.56308			42803.09259		223.26000		875.00000 
 43692.65567		 305.27265			43387.38302		70.12600		324.00000 
 43692.65567		 889.56308			42803.09259		223.26000		875.00000 
 43692.65567		 305.27265			43387.38302		70.12600		324.00000 
 43692.65567		 889.56308			42803.09259		223.26000		875.00000 
 43692.65567		 305.27265			43387.38302		70.12600		324.00000 
 43692.65567		 889.56308			42803.09259		223.26000		875.00000 
 43692.65567		 305.27265			43387.38302		70.12600		324.00000 
 43692.65567		 889.56308			42803.09259		223.26000		875.00000 
 43692.65567		 305.27265			43387.38302		70.12600		324.00000 
 43692.65567		 889.56308			42803.09259		223.26000		875.00000 
 43692.65567		 305.27265			43387.38302		70.12600		324.00000 
 43692.65567		 889.56308			42803.09259		223.26000		875.00000 
 43692.65567		 305.27265			43387.38302		70.12600		324.00000 
 43692.65567		 889.56308			42803.09259		223.26000		875.00000 
 43692.65567		 305.27265			43387.38302		70.12600		324.00000 
 43692.65567		 889.56308			42803.09259		223.26000		875.00000 
 43692.65567		 305.27265			43387.38302		70.12600		324.00000 
 43692.65567		 889.56308			42803.09259		223.26000		875.00000 
 43692.65567		 305.27265			43387.38302		70.12600		324.00000 
 43692.65567		 889.56308			42803.09259		223.26000		875.00000 
 43692.65567		 305.27265			43387.38302		70.12600		324.00000 
 43692.65567		 889.56308			42803.09259		223.26000		875.00000 
 43692.65567		 305.27265			43387.38302		70.12600		324.00000 
 43692.65567		 889.56308			42803.09259		223.26000		875.00000 
 43692.65567		 305.27265			43387.38302		70.12600		324.00000 
 43692.65567		 889.56308			42803.09259		223.26000		875.00000 
 43692.65567		 305.27265			43387.38302		70.12600		324.00000 
 43692.65567		 889.56308			42803.09259		223.26000		875.00000 
 43692.65567		 305.27265			43387.38302		70.12600		324.00000 
 43692.65567		 889.56308			42803.09259		223.26000		875.00000 
 43692.65567		 305.27265			43387.38302		70.12600		324.00000 
 43692.65567		 889.56308			42803.09259		223.26000		875.00000 
 43692.65567		 305.27265			43387.38302		70.12600		324.00000 
 43692.65567		 889.56308			42803.09259		223.26000		875.00000 
 43692.65567		 305.27265			43387.38302		70.12600		324.00000 
 43692.65567		 889.56308			42803.09259		223.26000		875.00000 
 43692.65567		 305.27265			43387.38302		70.12600		324.00000 
 43692.65567		 889.56308			42803.09259		223.26000		875.00000 
 43692.65567		 305.27265			43387.38302		70.12600		324.00000 
 43692.65567		 889.56308			42803.09259		223.26000		875.00000 
 43692.65567		 305.27265			43387.38302		70.12600		324.00000 
 43692.65567		 889.56308			42803.09259		223.26000		875.00000 
 43692.65567		 305.27265			43387.38302		70.12600		324.00000 
 43692.65567		 889.56308			42803.09259		223.26000		875.00000 
 43692.65567		 305.27265			43387.38302		70.12600		324.00000 
 43692.65567		 889.56308			42803.09259		223.26000		875.00000 
 43692.65567		 305.27265			43387.38302		70.12600		324.00000 
 43692.65567		 889.56308			42803.09259		223.26000		875.00000 
 43692.65567		 305.27265			43387.38302		70.12600		324.00000 
 43692.65567		 889.56308			42803.09259		223.26000		875.00000 
 43692.65567		 305.27265			43387.38302		70.12600		324.00000 
 43692.65567		 889.56308			42803.09259		223.26000		875.00000 
 43692.65567		 305.27265			43387.38302		70.12600		324.00000 
 43692.65567		 889.56308			42803.09259		223.26000		875.00000 
 43692.65567		 305.27265			43387.38302		70.12600		324.00000 
 43692.65567		 889.56308			42803.09259		223.26000		875.00000 
 43692.65567		 305.27265			43387.38302		70.12600		324.00000 
 43692.65567		 889.56308			42803.09259		223.26000		875.00000 
 43692.65567		 305.27265			43387.38302		70.12600		324.00000 
 43692.65567		 889.56308			42803.09259		223.26000		875.00000 
 43692.65567		 305.27265			43387.38302		70.12600		324.00000 
 43692.65567		 889.56308			42803.09259		223.26000		875.00000 
 43692.65567		 305.27265			43387.38302		70.12600		324.00000 
 43692.65567		 889.56308			42803.09259		223.26000		875.00000 
 43692.65567		 305.27265			43387.38302		70.12600		324.00000 
 43692.65567		 889.56308			42803.09259		223.26000		875.00000 
 43692.65567		 305.27265			43387.38302		70.12600		324.00000 
 43692.65567		 889.56308			42803.09259		223.26000		875.00000 
 43692.65567		 305.27265			43387.38302		70.12600		324.00000 
 43692.65567		 889.56308			42803.09259		223.26000		875.00000 
 43692.65567		 305.27265			43387.38302		70.12600		324.00000 
 43692.65567		 889.56308			42803.09259		223.26000		875.00000 
 43692.65567		 305.27265			43387.38302		70.12600		324.00000 
 43692.65567		 889.56308			42803.09259		223.26000		875.00000 
 43692.65567		 305.27265			43387.38302		70.12600		324.00000 
 43692.65567		 889.56308			42803.09259		223.26000		875.00000 
 43692.65567		 305.27265			43387.38302		70.12600		324.00000 
 43692.65567		 889.56308			42803.09259		223.26000		875.00000 
 43692.65567		 305.27265			43387.38302		70.12600		324.00000 
 43692.65567		 889.56308			42803.09259		223.26000		875.00000 
 43692.65567		 305.27265			43387.38302		70.12600		324.00000 
 43692.65567		 889.56308			42803.09259		223.26000		875.00000 
 43692.65567		 305.27265			43387.38302		70.12600		324.00000 
 43692.65567		 889.56308			42803.09259		223.26000		875.00000 
 43692.65567		 305.27265			43387.38302		70.12600		324.00000 
 43692.65567		 889.56308			42803.09259		223.26000		875.00000 
 43692.65567		 305.27265			43387.38302		70.12600		324.00000 
 43692.65567		 889.56308			42803.09259		223.26000		875.00000 
 43692.65567		 305.27265			43387.38302		70.12600		324.00000 
 43692.65567		 889.56308			42803.09259		223.26000		875.00000 
 43692.65567		 305.27265			43387.38302		70.12600		324.00000 
 43692.65567		 889.56308			42803.09259		223.26000		875.00000 
 43692.65567		 305.27265			43387.38302		70.12600		324.00000 
 43692.65567		 889.56308			42803.09259		223.26000		875.00000 
 43692.65567		 305.27265			43387.38302		70.12600		324.00000 
 43692.65567		 889.56308			42803.09259		223.26000		875.00000 
 43692.65567		 305.27265			43387.38302		70.12600		324.00000 
 43692.65567		 889.56308			42803.09259		223.26000		875.00000 
 43692.65567		 305.27265			43387.38302		70.12600		324.00000 
 43692.65567		 889.56308			42803.09259		223.62400		875.00000 
 43692.65567		 305.27265			43387.38302		70.12600		324.00000 
 43692.65567		 889.56308			42803.09259		223.62400		875.00000 
 43692.65567		 305.27265			43387.38302		70.12600		324.00000 
 43692.65567		 889.56308			42803.09259		223.62400		875.00000 
 43692.65567		 305.27265			43387.38302		70.12600		324.00000 
 43692.65567		 889.56308			42803.09259		223.62400		875.00000 
 43692.65567		 305.27265			43387.38302		70.12600		324.00000 
 43692.65567		 889.56308			42803.09259		223.62400		875.00000 
 43692.65567		 305.27265			43387.38302		70.12600		324.00000 
 43692.65567		 889.56308			42803.09259		223.62400		875.00000 
 43692.65567		 305.27265			43387.38302		70.12600		324.00000 
 43692.65567		 889.56308			42803.09259		223.62400		875.00000 
 43692.65567		 305.27265			43387.38302		70.12600		324.00000 
 43692.65567		 889.56308			42803.09259		223.62400		875.00000 
 43692.65567		 305.27265			43387.38302		70.12600		324.00000 
 43692.65567		 889.56308			42803.09259		223.62400		875.00000 
 43692.65567		 305.27265			43387.38302		70.12600		324.00000 
 43692.65567		 889.56308			42803.09259		223.62400		875.00000 
 43692.65567		 305.27265			43387.38302		70.12600		324.00000 
 43692.65567		 889.56308			42803.09259		223.62400		875.00000 
 43692.65567		 305.27265			43387.38302		70.12600		324.00000 
 43692.65567		 889.56308			42803.09259		223.62400		875.00000 
 43692.65567		 305.27265			43387.38302		70.12600		324.00000 
 43692.65567		 889.56308			42803.09259		223.62400		875.00000 
 43692.65567		 305.27265			43387.38302		70.12600		324.00000 
 43692.65567		 889.56308			42803.09259		223.62400		875.00000 
 43692.65567		 305.27265			43387.38302		70.12600		324.00000 
 43692.65567		 889.56308			42803.09259		223.62400		875.00000 
 43692.65567		 305.27265			43387.38302		70.12600		324.00000 
 43692.65567		 889.56308			42803.09259		223.62400		875.00000 
 43692.65567		 305.27265			43387.38302		69.65600		324.00000 
 43692.65567		 889.56308			42803.09259		223.62400		875.00000 
 43692.65567		 305.27265			43387.38302		69.65600		324.00000 
 43692.65567		 889.56308			42803.09259		223.62400		875.00000 
 43692.65567		 305.27265			43387.38302		69.65600		324.00000 
 43692.65567		 889.56308			42803.09259		223.62400		875.00000 
 43692.65567		 305.27265			43387.38302		69.65600		324.00000 
 43692.65567		 889.56308			42803.09259		223.62400		875.00000 
 43692.65567		 305.27265			43387.38302		69.65600		324.00000 
 43692.65567		 889.56308			42803.09259		223.62400		875.00000 
 43692.65567		 305.27265			43387.38302		69.65600		324.00000 
 43692.65567		 889.56308			42803.09259		223.62400		875.00000 
 43692.65567		 305.27265			43387.38302		69.65600		324.00000 
 43692.65567		 889.56308			42803.09259		223.62400		875.00000 
 43692.65567		 305.27265			43387.38302		69.65600		324.00000 
 43692.65567		 889.56308			42803.09259		223.62400		875.00000 
 43692.65567		 305.27265			43387.38302		69.65600		324.00000 
 43692.65567		 889.56308			42803.09259		223.62400		875.00000 
 43692.65567		 305.27265			43387.38302		69.65600		324.00000 
 43692.65567		 889.56308			42803.09259		223.62400		875.00000 
 43692.65567		 305.27265			43387.38302		69.65600		324.00000 
 43692.65567		 889.56308			42803.09259		223.62400		875.00000 
 43692.65567		 305.27265			43387.38302		69.65600		324.00000 
 43692.65567		 889.56308			42803.09259		223.62400		875.00000 
 43692.65567		 305.27265			43387.38302		69.65600		324.00000 
 43692.65567		 889.56308			42803.09259		223.62400		875.00000 
 43692.65567		 305.27265			43387.38302		69.65600		324.00000 
 43692.65567		 889.56308			42803.09259		223.62400		875.00000 
 43692.65567		 305.27265			43387.38302		69.65600		324.00000 
 43692.65567		 889.56308			42803.09259		223.62400		875.00000 
 43692.65567		 305.27265			43387.38302		69.65600		324.00000 
 43692.65567		 889.56308			42803.09259		223.62400		875.00000 
 43692.65567		 305.27265			43387.38302		69.65600		324.00000 
 43692.65567		 889.56308			42803.09259		223.62400		875.00000 
 43692.65567		 305.27265			43387.38302		69.65600		324.00000 
 43692.65567		 889.56308			42803.09259		223.62400		875.00000 
 43692.65567		 305.27265			43387.38302		69.65600		324.00000 
 43692.65567		 889.56308			42803.09259		223.62400		875.00000 
 43692.65567		 305.27265			43387.38302		69.65600		324.00000 
 43692.65567		 889.56308			42803.09259		223.62400		875.00000 
 43692.65567		 305.27265			43387.38302		69.65600		324.00000 
 43692.65567		 889.56308			42803.09259		223.62400		875.00000 
 43692.65567		 305.27265			43387.38302		69.65600		324.00000 
 43692.65567		 889.56308			42803.09259		223.62400		875.00000 
 43692.65567		 305.27265			43387.38302		69.65600		324.00000 
 43692.65567		 889.56308			42803.09259		223.62400		875.00000 
 43692.65567		 305.27265			43387.38302		69.65600		324.00000 
 43692.65567		 889.56308			42803.09259		223.62400		875.00000 
 43692.65567		 305.27265			43387.38302		69.65600		324.00000 
 43692.65567		 889.56308			42803.09259		223.62400		875.00000 
 43692.65567		 305.27265			43387.38302		69.65600		324.00000 
 43692.65567		 889.56308			42803.09259		223.62400		875.00000 
 43692.65567		 305.27265			43387.38302		69.65600		324.00000 
 43692.65567		 889.56308			42803.09259		223.62400		875.00000 
 43692.65567		 305.27265			43387.38302		69.65600		324.00000 
 43692.65567		 889.56308			42803.09259		223.62400		875.00000 
 43692.65567		 305.27265			43387.38302		69.65600		324.00000 
 43692.65567		 889.56308			42803.09259		223.62400		875.00000 
 43692.65567		 305.27265			43387.38302		69.65600		324.00000 
 43692.65567		 889.56308			42803.09259		223.62400		875.00000 
 43692.65567		 305.27265			43387.38302		69.65600		324.00000 
 43692.65567		 889.56308			42803.09259		223.62400		875.00000 
 43692.65567		 305.27265			43387.38302		69.65600		324.00000 
 43692.65567		 889.56308			42803.09259		223.62400		875.00000 
 43692.65567		 305.27265			43387.38302		69.65600		324.00000 
 43692.65567		 889.56308			42803.09259		223.62400		875.00000 
 43692.65567		 305.27265			43387.38302		69.65600		324.00000 
 43692.65567		 889.56308			42803.09259		223.62400		875.00000 
 43692.65567		 305.27265			43387.38302		69.65600		324.00000 
 43692.65567		 889.56308			42803.09259		223.62400		875.00000 
 43692.65567		 305.27265			43387.38302		69.65600		324.00000 
 43692.65567		 889.56308			42803.09259		223.62400		875.00000 
 43692.65567		 305.27265			43387.38302		69.65600		324.00000 
 43692.65567		 889.56308			42803.09259		223.62400		875.00000 
 43692.65567		 305.27265			43387.38302		69.65600		324.00000 
 43692.65567		 889.56308			42803.09259		223.62400		875.00000 
 43692.65567		 305.27265			43387.38302		69.65600		324.00000 
 43692.65567		 889.56308			42803.09259		223.62400		875.00000 
 43692.65567		 305.27265			43387.38302		69.65600		324.00000 
 43692.65567		 889.56308			42803.09259		223.62400		875.00000 
 43692.65567		 305.27265			43387.38302		69.65600		324.00000 
 43692.65567		 889.56308			42803.09259		223.62400		875.00000 
 43692.65567		 305.27265			43387.38302		69.65600		324.00000 
 43692.65567		 889.56308			42803.09259		223.62400		875.00000 
 43692.65567		 305.27265			43387.38302		69.65600		324.00000 
 43692.65567		 889.56308			42803.09259		223.62400		875.00000 
 43692.65567		 305.27265			43387.38302		69.65600		324.00000 
 43692.65567		 889.56308			42803.09259		223.62400		875.00000 
 43692.65567		 305.27265			43387.38302		69.65600		324.00000 
 43692.65567		 889.56308			42803.09259		223.62400		875.00000 
 43692.65567		 305.27265			43387.38302		69.65600		324.00000 
 43692.65567		 889.56308			42803.09259		223.62400		875.00000 
 43692.65567		 305.27265			43387.38302		69.65600		324.00000 
 43692.65567		 889.56308			42803.09259		222.66000		875.00000 
 43692.65567		 305.27265			43387.38302		69.65600		324.00000 
 43692.65567		 889.56308			42803.09259		222.66000		875.00000 
 43692.65567		 305.27265			43387.38302		69.65600		324.00000 
 43692.65567		 889.56308			42803.09259		222.66000		875.00000 
 43692.65567		 305.27265			43387.38302		69.65600		324.00000 
 43692.65567		 889.56308			42803.09259		222.66000		875.00000 
 43692.65567		 305.27265			43387.38302		69.65600		324.00000 
 43692.65567		 889.56308			42803.09259		222.66000		875.00000 
 43692.65567		 305.27265			43387.38302		69.65600		324.00000 
 43692.65567		 889.56308			42803.09259		222.66000		875.00000 
 43692.65567		 305.27265			43387.38302		69.65600		324.00000 
 43692.65567		 889.56308			42803.09259		222.66000		875.00000 
 43692.65567		 305.27265			43387.38302		69.65600		324.00000 
 43692.65567		 889.56308			42803.09259		222.66000		875.00000 
 43692.65567		 305.27265			43387.38302		69.65600		324.00000 
 43692.65567		 889.56308			42803.09259		222.66000		875.00000 
 43692.65567		 305.27265			43387.38302		69.65600		324.00000 
 43692.65567		 889.56308			42803.09259		222.66000		875.00000 
 43692.65567		 305.27265			43387.38302		69.65600		324.00000 
 43692.65567		 889.56308			42803.09259		222.66000		875.00000 
 43692.65567		 305.27265			43387.38302		69.65600		324.00000 
 43692.65567		 889.56308			42803.09259		222.66000		875.00000 
 43692.65567		 305.27265			43387.38302		69.65600		324.00000 
 43692.65567		 889.56308			42803.09259		222.66000		875.00000 
 43692.65567		 305.27265			43387.38302		69.65600		324.00000 
 43692.65567		 889.56308			42803.09259		222.66000		875.00000 
 43692.65567		 305.27265			43387.38302		69.65600		324.00000 
 43692.65567		 889.56308			42803.09259		222.66000		875.00000 
 43692.65567		 305.27265			43387.38302		69.65600		324.00000 
 43692.65567		 889.56308			42803.09259		222.66000		875.00000 
 43692.65567		 305.27265			43387.38302		69.65600		324.00000 
 43692.65567		 889.56308			42803.09259		222.66000		875.00000 
 43692.65567		 305.27265			43387.38302		69.65600		324.00000 
 43692.65567		 889.56308			42803.09259		222.66000		875.00000 
 43692.65567		 305.27265			43387.38302		69.65600		324.00000 
 43692.65567		 889.56308			42803.09259		222.66000		875.00000 
 43692.65567		 305.27265			43387.38302		69.65600		324.00000 
 43692.65567		 889.56308			42803.09259		222.66000		875.00000 
 43692.65567		 305.27265			43387.38302		69.65600		324.00000 
 43692.65567		 889.56308			42803.09259		222.66000		875.00000 
 43692.65567		 305.27265			43387.38302		69.65600		324.00000 
 43692.65567		 889.56308			42803.09259		222.66000		875.00000 
 43692.65567		 305.27265			43387.38302		69.65600		324.00000 
 43692.65567		 889.56308			42803.09259		222.66000		875.00000 
 43692.65567		 305.27265			43387.38302		69.65600		324.00000 
 43692.65567		 889.56308			42803.09259		222.66000		875.00000 
 43692.65567		 305.27265			43387.38302		69.65600		324.00000 
 43692.65567		 889.56308			42803.09259		222.66000		875.00000 
 43692.65567		 305.27265			43387.38302		69.65600		324.00000 
 43692.65567		 889.56308			42803.09259		222.66000		875.00000 
 43692.65567		 305.27265			43387.38302		69.65600		324.00000 
 43692.65567		 889.56308			42803.09259		222.66000		875.00000 
 43692.65567		 305.27265			43387.38302		69.65600		324.00000 
 43692.65567		 889.56308			42803.09259		222.66000		875.00000 
 43692.65567		 305.27265			43387.38302		69.65600		324.00000 
 43692.65567		 889.56308			42803.09259		222.66000		875.00000 
 43692.65567		 305.27265			43387.38302		69.65600		324.00000 
 43692.65567		 889.56308			42803.09259		222.66000		875.00000 
 43692.65567		 305.27265			43387.38302		69.65600		324.00000 
 43692.65567		 889.56308			42803.09259		222.66000		875.00000 
 43692.65567		 305.27265			43387.38302		69.65600		324.00000 
 43692.65567		 889.56308			42803.09259		222.66000		875.00000 
 43692.65567		 305.27265			43387.38302		69.65600		324.00000 
 43692.65567		 889.56308			42803.09259		222.66000		875.00000 
 43692.65567		 305.27265			43387.38302		69.65600		324.00000 
 43692.65567		 889.56308			42803.09259		222.66000		875.00000 
 43692.65567		 305.27265			43387.38302		69.65600		324.00000 
 43692.65567		 889.56308			42803.09259		222.66000		875.00000 
 43692.65567		 305.27265			43387.38302		69.65600		324.00000 
 43692.65567		 889.56308			42803.09259		222.66000		875.00000 
 43692.65567		 305.27265			43387.38302		69.65600		324.00000 
 43692.65567		 889.56308			42803.09259		222.66000		875.00000 
 43692.65567		 305.27265			43387.38302		69.65600		324.00000 
 43692.65567		 889.56308			42803.09259		222.66000		875.00000 
 43692.65567		 305.27265			43387.38302		69.65600		324.00000 
 43692.65567		 889.56308			42803.09259		222.66000		875.00000 
 43692.65567		 305.27265			43387.38302		69.65600		324.00000 
 43692.65567		 889.56308			42803.09259		222.66000		875.00000 
 43692.65567		 305.27265			43387.38302		69.65600		324.00000 
 43692.65567		 889.56308			42803.09259		222.66000		875.00000 
 43692.65567		 305.27265			43387.38302		69.65600		324.00000 
 43692.65567		 889.56308			42803.09259		222.66000		875.00000 
 43692.65567		 305.27265			43387.38302		69.65600		324.00000 
 43692.65567		 889.56308			42803.09259		222.66000		875.00000 
 43692.65567		 305.27265			43387.38302		69.65600		324.00000 
 43692.65567		 889.56308			42803.09259		222.66000		875.00000 
 43692.65567		 305.27265			43387.38302		69.65600		324.00000 
 43692.65567		 889.56308			42803.09259		222.66000		875.00000 
 43692.65567		 305.27265			43387.38302		69.65600		324.00000 
 43692.65567		 889.56308			42803.09259		222.66000		875.00000 
 43692.65567		 305.27265			43387.38302		69.65600		324.00000 
 43692.65567		 889.56308			42803.09259		222.66000		875.00000 
 43692.65567		 305.27265			43387.38302		69.65600		324.00000 
 43692.65567		 889.56308			42803.09259		222.66000		875.00000 
 43692.65567		 305.27265			43387.38302		69.65600		324.00000 
 43692.65567		 889.56308			42803.09259		222.66000		875.00000 
 43692.65567		 305.27265			43387.38302		69.65600		324.00000 
 43692.65567		 889.56308			42803.09259		222.66000		875.00000 
 43692.65567		 305.27265			43387.38302		69.65600		324.00000 
 43692.65567		 889.56308			42803.09259		222.66000		875.00000 
 43692.65567		 305.27265			43387.38302		69.65600		324.00000 
 43692.65567		 889.56308			42803.09259		222.66000		875.00000 
 43692.65567		 305.27265			43387.38302		69.65600		324.00000 
 43692.65567		 889.56308			42803.09259		222.66000		875.00000 
 43692.65567		 305.27265			43387.38302		69.65600		324.00000 
 43692.65567		 889.56308			42803.09259		222.66000		875.00000 
 43692.65567		 305.27265			43387.38302		69.65600		324.00000 
 43692.65567		 889.56308			42803.09259		222.66000		875.00000 
 43692.65567		 305.27265			43387.38302		69.65600		324.00000 
 43692.65567		 889.56308			42803.09259		222.66000		875.00000 
 43692.65567		 305.27265			43387.38302		69.65600		324.00000 
 43692.65567		 889.56308			42803.09259		222.66000		875.00000 
 43692.65567		 305.27265			43387.38302		69.65600		324.00000 
 43692.65567		 889.56308			42803.09259		222.66000		875.00000 
 43692.65567		 305.27265			43387.38302		69.65600		324.00000 
 43692.65567		 889.56308			42803.09259		222.66000		875.00000 
 43692.65567		 305.27265			43387.38302		69.65600		324.00000 
 43692.65567		 889.56308			42803.09259		222.66000		875.00000 
 43692.65567		 305.27265			43387.38302		69.65600		324.00000 
 43692.65567		 889.56308			42803.09259		222.66000		875.00000 
 43692.65567		 305.27265			43387.38302		69.65600		324.00000 
 43692.65567		 889.56308			42803.09259		222.66000		875.00000 
 43692.65567		 305.27265			43387.38302		69.65600		324.00000 
 43692.65567		 889.56308			42803.09259		222.66000		875.00000 
 43692.65567		 305.27265			43387.38302		69.65600		324.00000 
 43692.65567		 889.56308			42803.09259		222.66000		875.00000 
 43692.65567		 305.27265			43387.38302		69.65600		324.00000 
 43692.65567		 889.56308			42803.09259		223.55400		875.00000 
 43692.65567		 305.27265			43387.38302		69.65600		324.00000 
 43692.65567		 889.56308			42803.09259		223.55400		875.00000 
 43692.65567		 305.27265			43387.38302		69.65600		324.00000 
 43692.65567		 889.56308			42803.09259		223.55400		875.00000 
 43692.65567		 305.27265			43387.38302		69.65600		324.00000 
 43692.65567		 889.56308			42803.09259		223.55400		875.00000 
 43692.65567		 305.27265			43387.38302		69.65600		324.00000 
 43692.65567		 889.56308			42803.09259		223.55400		875.00000 
 43692.65567		 305.27265			43387.38302		69.65600		324.00000 
 43692.65567		 889.56308			42803.09259		223.55400		875.00000 
 43692.65567		 305.27265			43387.38302		69.65600		324.00000 
 43692.65567		 889.56308			42803.09259		223.55400		875.00000 
 43692.65567		 305.27265			43387.38302		69.65600		324.00000 
 43692.65567		 889.56308			42803.09259		223.55400		875.00000 
 43692.65567		 305.27265			43387.38302		69.65600		324.00000 
 43692.65567		 889.56308			42803.09259		223.55400		875.00000 
 43692.65567		 305.27265			43387.38302		69.65600		324.00000 
 43692.65567		 889.56308			42803.09259		223.55400		875.00000 
 43692.65567		 305.27265			43387.38302		69.65600		324.00000 
 43692.65567		 889.56308			42803.09259		223.55400		875.00000 
 43692.65567		 305.27265			43387.38302		69.65600		324.00000 
 43692.65567		 889.56308			42803.09259		223.55400		875.00000 
 43692.65567		 305.27265			43387.38302		69.65600		324.00000 
 43692.65567		 889.56308			42803.09259		223.55400		875.00000 
 43692.65567		 305.27265			43387.38302		69.65600		324.00000 
 43692.65567		 889.56308			42803.09259		223.55400		875.00000 
 43692.65567		 305.27265			43387.38302		69.65600		324.00000 
 43692.65567		 889.56308			42803.09259		223.55400		875.00000 
 43692.65567		 305.27265			43387.38302		69.65600		324.00000 
 43692.65567		 889.56308			42803.09259		223.55400		875.00000 
 43692.65567		 305.27265			43387.38302		69.65600		324.00000 
 43692.65567		 889.56308			42803.09259		223.55400		875.00000 
 43692.65567		 305.27265			43387.38302		69.65600		324.00000 
 43692.65567		 889.56308			42803.09259		223.55400		875.00000 
 43692.65567		 305.27265			43387.38302		69.65600		324.00000 
 43692.65567		 889.56308			42803.09259		223.55400		875.00000 
 43692.65567		 305.27265			43387.38302		69.65600		324.00000 
 43692.65567		 889.56308			42803.09259		223.55400		875.00000 
 43692.65567		 305.27265			43387.38302		69.65600		324.00000 
 43692.65567		 889.56308			42803.09259		223.55400		875.00000 
 43692.65567		 305.27265			43387.38302		69.65600		324.00000 
 43692.65567		 889.56308			42803.09259		223.55400		875.00000 
 43692.65567		 305.27265			43387.38302		69.65600		324.00000 
 43692.65567		 889.56308			42803.09259		223.55400		875.00000 
 43692.65567		 305.27265			43387.38302		69.65600		324.00000 
 43692.65567		 889.56308			42803.09259		223.55400		875.00000 
 43692.65567		 305.27265			43387.38302		69.65600		324.00000 
 43692.65567		 889.56308			42803.09259		223.55400		875.00000 
 43692.65567		 305.27265			43387.38302		69.65600		324.00000 
 43692.65567		 889.56308			42803.09259		223.55400		875.00000 
 43692.65567		 305.27265			43387.38302		69.65600		324.00000 
 43692.65567		 889.56308			42803.09259		223.55400		875.00000 
 43692.65567		 305.27265			43387.38302		69.65600		324.00000 
 43692.65567		 889.56308			42803.09259		223.55400		875.00000 
 43692.65567		 305.27265			43387.38302		69.65600		324.00000 
 43692.65567		 889.56308			42803.09259		223.55400		875.00000 
 43692.65567		 305.27265			43387.38302		69.65600		324.00000 
 43692.65567		 889.56308			42803.09259		223.55400		875.00000 
 43692.65567		 305.27265			43387.38302		69.65600		324.00000 
 43692.65567		 889.56308			42803.09259		223.55400		875.00000 
 43692.65567		 305.27265			43387.38302		69.65600		324.00000 
 43692.65567		 889.56308			42803.09259		223.55400		875.00000 
 43692.65567		 305.27265			43387.38302		69.65600		324.00000 
 43692.65567		 889.56308			42803.09259		223.55400		875.00000 
 43692.65567		 305.27265			43387.38302		69.65600		324.00000 
 43692.65567		 889.56308			42803.09259		223.55400		875.00000 
 43692.65567		 305.27265			43387.38302		69.65600		324.00000 
 43692.65567		 889.56308			42803.09259		223.55400		875.00000 
 43692.65567		 305.27265			43387.38302		69.65600		324.00000 
 43692.65567		 889.56308			42803.09259		223.55400		875.00000 
 43692.65567		 305.27265			43387.38302		69.65600		324.00000 
 43692.65567		 889.56308			42803.09259		223.55400		875.00000 
 43692.65567		 305.27265			43387.38302		69.65600		324.00000 
 43692.65567		 889.56308			42803.09259		223.55400		875.00000 
 43692.65567		 305.27265			43387.38302		69.65600		324.00000 
 43692.65567		 889.56308			42803.09259		223.55400		875.00000 
 43692.65567		 305.27265			43387.38302		69.65600		324.00000 
 43692.65567		 889.56308			42803.09259		223.55400		875.00000 
 43692.65567		 305.27265			43387.38302		69.65600		324.00000 
 43692.65567		 889.56308			42803.09259		223.55400		875.00000 
 43692.65567		 305.27265			43387.38302		69.65600		324.00000 
 43692.65567		 889.56308			42803.09259		223.55400		875.00000 
 43692.65567		 305.27265			43387.38302		69.65600		324.00000 
 43692.65567		 889.56308			42803.09259		223.55400		875.00000 
 43692.65567		 305.27265			43387.38302		69.65600		324.00000 
 43692.65567		 889.56308			42803.09259		223.55400		875.00000 
 43692.65567		 305.27265			43387.38302		69.65600		324.00000 
 43692.65567		 889.56308			42803.09259		223.55400		875.00000 
 43692.65567		 305.27265			43387.38302		69.65600		324.00000 
 43692.65567		 889.56308			42803.09259		223.55400		875.00000 
 43692.65567		 305.27265			43387.38302		69.65600		324.00000 
 43692.65567		 889.56308			42803.09259		223.55400		875.00000 
 43692.65567		 305.27265			43387.38302		69.65600		324.00000 
 43692.65567		 889.56308			42803.09259		223.55400		875.00000 
 43692.65567		 305.27265			43387.38302		69.65600		324.00000 
 43692.65567		 889.56308			42803.09259		223.55400		875.00000 
 43692.65567		 305.27265			43387.38302		69.65600		324.00000 
 43692.65567		 889.56308			42803.09259		223.55400		875.00000 
 43692.65567		 305.27265			43387.38302		69.65600		324.00000 
 43692.65567		 889.56308			42803.09259		223.55400		875.00000 
 43692.65567		 305.27265			43387.38302		69.65600		324.00000 
 43692.65567		 889.56308			42803.09259		223.55400		875.00000 
 43692.65567		 305.27265			43387.38302		69.65600		324.00000 
 43692.65567		 889.56308			42803.09259		223.55400		875.00000 
 43692.65567		 305.27265			43387.38302		69.65600		324.00000 
 43692.65567		 889.56308			42803.09259		223.55400		875.00000 
 43692.65567		 305.27265			43387.38302		69.65600		324.00000 
 43692.65567		 889.56308			42803.09259		223.55400		875.00000 
 43692.65567		 305.27265			43387.38302		69.65600		324.00000 
 43692.65567		 889.56308			42803.09259		223.55400		875.00000 
 43692.65567		 305.27265			43387.38302		69.65600		324.00000 
 43692.65567		 889.56308			42803.09259		223.55400		875.00000 
 43692.65567		 305.27265			43387.38302		69.65600		324.00000 
 43692.65567		 889.56308			42803.09259		223.55400		875.00000 
 43692.65567		 305.27265			43387.38302		69.65600		324.00000 
 43692.65567		 889.56308			42803.09259		223.55400		875.00000 
 43692.65567		 305.27265			43387.38302		69.65600		324.00000 
 43692.65567		 889.56308			42803.09259		223.55400		875.00000 
 43692.65567		 305.27265			43387.38302		69.65600		324.00000 
 43692.65567		 889.56308			42803.09259		223.55400		875.00000 
 43692.65567		 305.27265			43387.38302		69.65600		324.00000 
 43692.65567		 889.56308			42803.09259		223.55400		875.00000 
 43692.65567		 305.27265			43387.38302		69.65600		324.00000 
 43692.65567		 889.56308			42803.09259		223.55400		875.00000 
 43692.65567		 305.27265			43387.38302		69.65600		324.00000 
 43692.65567		 889.56308			42803.09259		223.55400		875.00000 
 43692.65567		 305.27265			43387.38302		69.65600		324.00000 
 43692.65567		 889.56308			42803.09259		224.15200		875.00000 
 43692.65567		 305.27265			43387.38302		69.65600		324.00000 
 43692.65567		 889.56308			42803.09259		224.15200		875.00000 
 43692.65567		 305.27265			43387.38302		69.65600		324.00000 
 43692.65567		 889.56308			42803.09259		224.15200		875.00000 
 43692.65567		 305.27265			43387.38302		69.65600		324.00000 
 43692.65567		 889.56308			42803.09259		224.15200		875.00000 
 43692.65567		 305.27265			43387.38302		69.65600		324.00000 
 43692.65567		 889.56308			42803.09259		224.15200		875.00000 
 43692.65567		 305.27265			43387.38302		69.65600		324.00000 
 43692.65567		 772.13216			42920.52351		224.15200		875.00000 
 43692.65567		 305.27265			43387.38302		69.65600		324.00000 
 43692.65567		 772.13216			42920.52351		224.15200		875.00000 
 43692.65567		 305.27265			43387.38302		69.65600		324.00000 
 43692.65567		 654.70124			43037.95443		224.15200		875.00000 
 43692.65567		 305.27265			43387.38302		69.65600		324.00000 
 43692.65567		 654.70124			43037.95443		224.15200		875.00000 
 43692.65567		 305.27265			43387.38302		69.65600		324.00000 
 43692.65567		 537.27032			43155.38535		224.15200		875.00000 
 43692.65567		 305.27265			43387.38302		69.65600		324.00000 
 43692.65567		 537.27032			43155.38535		224.15200		875.00000 
 43692.65567		 305.27265			43387.38302		69.65600		324.00000 
 43692.65567		 537.27032			43155.38535		224.15200		875.00000 
 43692.65567		 305.27265			43387.38302		69.65600		324.00000 
 43692.65567		 537.27032			43155.38535		224.15200		875.00000 
 43692.65567		 305.27265			43387.38302		69.65600		324.00000 
 43692.65567		 537.27032			43155.38535		224.15200		875.00000 
 43692.65567		 305.27265			43387.38302		69.65600		324.00000 
 43692.65567		 537.27032			43155.38535		224.15200		875.00000 
 43692.65567		 305.27265			43387.38302		69.65600		324.00000 
 43692.65567		 537.27032			43155.38535		224.15200		875.00000 
 43692.65567		 305.27265			43387.38302		69.65600		324.00000 
 43692.65567		 537.27032			43155.38535		224.15200		875.00000 
 43692.65567		 305.27265			43387.38302		69.65600		324.00000 
 43692.65567		 537.27032			43155.38535		224.15200		875.00000 
 43692.65567		 305.27265			43387.38302		69.65600		324.00000 
 43692.65567		 537.27032			43155.38535		224.15200		875.00000 
 43692.65567		 305.27265			43387.38302		69.65600		324.00000 
 43692.65567		 537.27032			43155.38535		224.15200		875.00000 
 43692.65567		 305.27265			43387.38302		69.65600		324.00000 
 43692.65567		 537.27032			43155.38535		224.15200		875.00000 
 43692.65567		 305.27265			43387.38302		69.65600		324.00000 
 43692.65567		 537.27032			43155.38535		224.15200		875.00000 
 43692.65567		 305.27265			43387.38302		69.65600		324.00000 
 43692.65567		 537.27032			43155.38535		224.15200		875.00000 
 43692.65567		 305.27265			43387.38302		69.65600		324.00000 
 43692.65567		 537.27032			43155.38535		224.15200		875.00000 
 43692.65567		 305.27265			43387.38302		69.65600		324.00000 
 43692.65567		 537.27032			43155.38535		224.15200		875.00000 
 43692.65567		 305.27265			43387.38302		69.65600		324.00000 
 43692.65567		 537.27032			43155.38535		224.15200		875.00000 
 43692.65567		 305.27265			43387.38302		69.65600		324.00000 
 43692.65567		 537.27032			43155.38535		224.15200		875.00000 
 43692.65567		 305.27265			43387.38302		69.65600		324.00000 
 43692.65567		 537.27032			43155.38535		224.15200		875.00000 
 43692.65567		 305.27265			43387.38302		69.65600		324.00000 
 43692.65567		 537.27032			43155.38535		224.15200		875.00000 
 43692.65567		 305.27265			43387.38302		69.65600		324.00000 
 43692.65567		 525.81365			43166.84203		224.15200		875.00000 
 43692.65567		 305.27265			43387.38302		69.65600		324.00000 
 43692.65567		 525.81365			43166.84203		224.15200		875.00000 
 43692.65567		 261.35540			43431.30027		69.65600		324.00000 
 43692.65567		 261.35540			43431.30027		224.15200		875.00000 
 43692.65567		 261.35540			43431.30027		69.65600		324.00000 
