Memory Total (MiB) 	 Memory Used (MiB) 	    Memory Free (MiB) 	 Power Drawed (W) 	 Clocks (Mhz) 	 
 43692.65567		 261.35540			43431.30027		179.12400		875.00000 
 43692.65567		 261.35540			43431.30027		69.19000		324.00000 
 43692.65567		 261.35540			43431.30027		179.12400		875.00000 
 43692.65567		 261.35540			43431.30027		69.19000		324.00000 
 43692.65567		 261.35540			43431.30027		179.12400		875.00000 
 43692.65567		 261.35540			43431.30027		69.19000		324.00000 
 43692.65567		 261.35540			43431.30027		179.12400		875.00000 
 43692.65567		 261.35540			43431.30027		69.19000		324.00000 
 43692.65567		 261.35540			43431.30027		179.12400		875.00000 
 43692.65567		 261.35540			43431.30027		69.19000		324.00000 
 43692.65567		 261.35540			43431.30027		179.12400		875.00000 
 43692.65567		 261.35540			43431.30027		69.19000		324.00000 
 43692.65567		 261.35540			43431.30027		179.12400		875.00000 
 43692.65567		 261.35540			43431.30027		69.19000		324.00000 
 43692.65567		 261.35540			43431.30027		179.12400		875.00000 
 43692.65567		 261.35540			43431.30027		69.19000		324.00000 
 43692.65567		 261.35540			43431.30027		179.12400		875.00000 
 43692.65567		 261.35540			43431.30027		69.19000		324.00000 
 43692.65567		 261.35540			43431.30027		179.12400		875.00000 
 43692.65567		 261.35540			43431.30027		69.19000		324.00000 
 43692.65567		 261.35540			43431.30027		179.12400		875.00000 
 43692.65567		 261.35540			43431.30027		69.19000		324.00000 
 43692.65567		 261.35540			43431.30027		179.12400		875.00000 
 43692.65567		 261.35540			43431.30027		69.19000		324.00000 
 43692.65567		 261.35540			43431.30027		179.12400		875.00000 
 43692.65567		 261.35540			43431.30027		69.19000		324.00000 
 43692.65567		 261.35540			43431.30027		179.12400		875.00000 
 43692.65567		 261.35540			43431.30027		69.19000		324.00000 
 43692.65567		 261.35540			43431.30027		179.12400		875.00000 
 43692.65567		 261.35540			43431.30027		69.19000		324.00000 
 43692.65567		 261.35540			43431.30027		179.12400		875.00000 
 43692.65567		 261.35540			43431.30027		69.19000		324.00000 
 43692.65567		 261.35540			43431.30027		179.12400		875.00000 
 43692.65567		 261.35540			43431.30027		69.19000		324.00000 
 43692.65567		 261.35540			43431.30027		179.12400		875.00000 
 43692.65567		 261.35540			43431.30027		69.19000		324.00000 
 43692.65567		 265.17429			43427.48138		179.12400		875.00000 
 43692.65567		 261.35540			43431.30027		69.19000		324.00000 
 43692.65567		 265.17429			43427.48138		179.12400		875.00000 
 43692.65567		 261.35540			43431.30027		69.19000		324.00000 
 43692.65567		 272.81207			43419.84360		179.12400		875.00000 
 43692.65567		 261.35540			43431.30027		69.19000		324.00000 
 43692.65567		 272.81207			43419.84360		179.12400		875.00000 
 43692.65567		 261.35540			43431.30027		69.19000		324.00000 
 43692.65567		 272.81207			43419.84360		179.12400		875.00000 
 43692.65567		 265.17429			43427.48138		69.19000		324.00000 
 43692.65567		 272.81207			43419.84360		179.12400		875.00000 
 43692.65567		 265.17429			43427.48138		69.19000		324.00000 
 43692.65567		 272.81207			43419.84360		179.12400		875.00000 
 43692.65567		 272.81207			43419.84360		69.19000		324.00000 
 43692.65567		 272.81207			43419.84360		179.12400		875.00000 
 43692.65567		 272.81207			43419.84360		69.19000		324.00000 
 43692.65567		 272.81207			43419.84360		179.12400		875.00000 
 43692.65567		 272.81207			43419.84360		69.19000		324.00000 
 43692.65567		 272.81207			43419.84360		179.12400		875.00000 
 43692.65567		 305.27265			43387.38302		69.19000		324.00000 
 43692.65567		 305.27265			43387.38302		179.12400		875.00000 
 43692.65567		 305.27265			43387.38302		69.19000		324.00000 
 43692.65567		 305.27265			43387.38302		149.62600		875.00000 
 43692.65567		 305.27265			43387.38302		69.19000		324.00000 
 43692.65567		 305.27265			43387.38302		149.62600		875.00000 
 43692.65567		 305.27265			43387.38302		69.19000		324.00000 
 43692.65567		 305.27265			43387.38302		149.62600		875.00000 
 43692.65567		 305.27265			43387.38302		69.19000		324.00000 
 43692.65567		 305.27265			43387.38302		149.62600		875.00000 
 43692.65567		 305.27265			43387.38302		69.19000		324.00000 
 43692.65567		 309.56891			43383.08677		149.62600		875.00000 
 43692.65567		 305.27265			43387.38302		69.19000		324.00000 
 43692.65567		 311.00099			43381.65468		149.62600		875.00000 
 43692.65567		 305.27265			43387.38302		69.19000		324.00000 
 43692.65567		 311.00099			43381.65468		149.62600		875.00000 
 43692.65567		 305.27265			43387.38302		69.19000		324.00000 
 43692.65567		 311.00099			43381.65468		149.62600		875.00000 
 43692.65567		 305.27265			43387.38302		69.19000		324.00000 
 43692.65567		 311.00099			43381.65468		149.62600		875.00000 
 43692.65567		 305.27265			43387.38302		69.19000		324.00000 
 43692.65567		 311.00099			43381.65468		149.62600		875.00000 
 43692.65567		 305.27265			43387.38302		69.19000		324.00000 
 43692.65567		 311.00099			43381.65468		149.62600		875.00000 
 43692.65567		 305.27265			43387.38302		69.19000		324.00000 
 43692.65567		 311.00099			43381.65468		149.62600		875.00000 
 43692.65567		 305.27265			43387.38302		69.19000		324.00000 
 43692.65567		 311.00099			43381.65468		149.62600		875.00000 
 43692.65567		 305.27265			43387.38302		69.19000		324.00000 
 43692.65567		 311.00099			43381.65468		149.62600		875.00000 
 43692.65567		 305.27265			43387.38302		69.19000		324.00000 
 43692.65567		 311.00099			43381.65468		149.62600		875.00000 
 43692.65567		 305.27265			43387.38302		69.19000		324.00000 
 43692.65567		 311.00099			43381.65468		149.62600		875.00000 
 43692.65567		 305.27265			43387.38302		69.19000		324.00000 
 43692.65567		 311.00099			43381.65468		149.62600		875.00000 
 43692.65567		 305.27265			43387.38302		69.19000		324.00000 
 43692.65567		 311.00099			43381.65468		149.62600		875.00000 
 43692.65567		 305.27265			43387.38302		69.19000		324.00000 
 43692.65567		 311.00099			43381.65468		149.62600		875.00000 
 43692.65567		 305.27265			43387.38302		69.19000		324.00000 
 43692.65567		 311.00099			43381.65468		149.62600		875.00000 
 43692.65567		 305.27265			43387.38302		69.19000		324.00000 
 43692.65567		 311.00099			43381.65468		149.62600		875.00000 
 43692.65567		 305.27265			43387.38302		69.19000		324.00000 
 43692.65567		 311.00099			43381.65468		149.62600		875.00000 
 43692.65567		 305.27265			43387.38302		69.19000		324.00000 
 43692.65567		 311.00099			43381.65468		149.62600		875.00000 
 43692.65567		 305.27265			43387.38302		69.19000		324.00000 
 43692.65567		 311.00099			43381.65468		149.62600		875.00000 
 43692.65567		 305.27265			43387.38302		69.19000		324.00000 
 43692.65567		 311.00099			43381.65468		149.62600		875.00000 
 43692.65567		 305.27265			43387.38302		69.19000		324.00000 
 43692.65567		 311.00099			43381.65468		149.62600		875.00000 
 43692.65567		 305.27265			43387.38302		69.19000		324.00000 
 43692.65567		 311.00099			43381.65468		149.62600		875.00000 
 43692.65567		 305.27265			43387.38302		69.19000		324.00000 
 43692.65567		 311.00099			43381.65468		149.62600		875.00000 
 43692.65567		 305.27265			43387.38302		69.19000		324.00000 
 43692.65567		 311.00099			43381.65468		149.62600		875.00000 
 43692.65567		 305.27265			43387.38302		69.19000		324.00000 
 43692.65567		 311.00099			43381.65468		149.62600		875.00000 
 43692.65567		 305.27265			43387.38302		69.19000		324.00000 
 43692.65567		 311.00099			43381.65468		149.62600		875.00000 
 43692.65567		 305.27265			43387.38302		69.19000		324.00000 
 43692.65567		 311.00099			43381.65468		149.62600		875.00000 
 43692.65567		 305.27265			43387.38302		69.19000		324.00000 
 43692.65567		 311.00099			43381.65468		149.62600		875.00000 
 43692.65567		 305.27265			43387.38302		69.19000		324.00000 
 43692.65567		 311.00099			43381.65468		138.68600		875.00000 
 43692.65567		 305.27265			43387.38302		69.19000		324.00000 
 43692.65567		 311.00099			43381.65468		138.68600		875.00000 
 43692.65567		 305.27265			43387.38302		69.19000		324.00000 
 43692.65567		 311.00099			43381.65468		138.68600		875.00000 
 43692.65567		 305.27265			43387.38302		69.19000		324.00000 
 43692.65567		 311.00099			43381.65468		138.68600		875.00000 
 43692.65567		 305.27265			43387.38302		69.19000		324.00000 
 43692.65567		 311.00099			43381.65468		138.68600		875.00000 
 43692.65567		 305.27265			43387.38302		69.19000		324.00000 
 43692.65567		 311.00099			43381.65468		138.68600		875.00000 
 43692.65567		 305.27265			43387.38302		69.19000		324.00000 
 43692.65567		 311.00099			43381.65468		138.68600		875.00000 
 43692.65567		 305.27265			43387.38302		69.19000		324.00000 
 43692.65567		 311.00099			43381.65468		138.68600		875.00000 
 43692.65567		 305.27265			43387.38302		69.19000		324.00000 
 43692.65567		 311.00099			43381.65468		138.68600		875.00000 
 43692.65567		 305.27265			43387.38302		69.19000		324.00000 
 43692.65567		 311.00099			43381.65468		138.68600		875.00000 
 43692.65567		 305.27265			43387.38302		69.19000		324.00000 
 43692.65567		 311.00099			43381.65468		138.68600		875.00000 
 43692.65567		 305.27265			43387.38302		69.19000		324.00000 
 43692.65567		 311.00099			43381.65468		138.68600		875.00000 
 43692.65567		 305.27265			43387.38302		69.19000		324.00000 
 43692.65567		 311.00099			43381.65468		138.68600		875.00000 
 43692.65567		 305.27265			43387.38302		69.19000		324.00000 
 43692.65567		 311.00099			43381.65468		138.68600		875.00000 
 43692.65567		 305.27265			43387.38302		69.19000		324.00000 
 43692.65567		 311.00099			43381.65468		138.68600		875.00000 
 43692.65567		 305.27265			43387.38302		69.19000		324.00000 
 43692.65567		 311.00099			43381.65468		138.68600		875.00000 
 43692.65567		 305.27265			43387.38302		69.19000		324.00000 
 43692.65567		 311.00099			43381.65468		138.68600		875.00000 
 43692.65567		 305.27265			43387.38302		69.19000		324.00000 
 43692.65567		 311.00099			43381.65468		138.68600		875.00000 
 43692.65567		 305.27265			43387.38302		69.19000		324.00000 
 43692.65567		 311.00099			43381.65468		138.68600		875.00000 
 43692.65567		 305.27265			43387.38302		69.19000		324.00000 
 43692.65567		 311.00099			43381.65468		138.68600		875.00000 
 43692.65567		 305.27265			43387.38302		69.19000		324.00000 
 43692.65567		 311.00099			43381.65468		138.68600		875.00000 
 43692.65567		 305.27265			43387.38302		69.19000		324.00000 
 43692.65567		 311.00099			43381.65468		138.68600		875.00000 
 43692.65567		 305.27265			43387.38302		69.19000		324.00000 
 43692.65567		 311.00099			43381.65468		138.68600		875.00000 
 43692.65567		 305.27265			43387.38302		69.19000		324.00000 
 43692.65567		 311.00099			43381.65468		138.68600		875.00000 
 43692.65567		 305.27265			43387.38302		69.19000		324.00000 
 43692.65567		 314.81988			43377.83579		138.68600		875.00000 
 43692.65567		 305.27265			43387.38302		69.19000		324.00000 
 43692.65567		 314.81988			43377.83579		138.68600		875.00000 
 43692.65567		 305.27265			43387.38302		69.19000		324.00000 
 43692.65567		 314.81988			43377.83579		138.68600		875.00000 
 43692.65567		 305.27265			43387.38302		69.19000		324.00000 
 43692.65567		 318.63877			43374.01690		138.68600		875.00000 
 43692.65567		 305.27265			43387.38302		69.19000		324.00000 
 43692.65567		 322.45767			43370.19801		138.68600		875.00000 
 43692.65567		 305.27265			43387.38302		69.19000		324.00000 
 43692.65567		 326.27656			43366.37912		138.68600		875.00000 
 43692.65567		 305.27265			43387.38302		69.19000		324.00000 
 43692.65567		 326.27656			43366.37912		138.68600		875.00000 
 43692.65567		 305.27265			43387.38302		69.19000		324.00000 
 43692.65567		 326.27656			43366.37912		138.68600		875.00000 
 43692.65567		 305.27265			43387.38302		69.19000		324.00000 
 43692.65567		 537.27032			43155.38535		138.68600		875.00000 
 43692.65567		 305.27265			43387.38302		69.19000		324.00000 
 43692.65567		 605.53301			43087.12266		134.44800		875.00000 
 43692.65567		 305.27265			43387.38302		69.19000		324.00000 
 43692.65567		 742.05839			42950.59728		134.44800		875.00000 
 43692.65567		 305.27265			43387.38302		69.19000		324.00000 
 43692.65567		 742.05839			42950.59728		134.44800		875.00000 
 43692.65567		 305.27265			43387.38302		69.19000		324.00000 
 43692.65567		 742.05839			42950.59728		134.44800		875.00000 
 43692.65567		 305.27265			43387.38302		69.19000		324.00000 
 43692.65567		 742.05839			42950.59728		134.44800		875.00000 
 43692.65567		 305.27265			43387.38302		69.19000		324.00000 
 43692.65567		 742.05839			42950.59728		134.44800		875.00000 
 43692.65567		 305.27265			43387.38302		69.19000		324.00000 
 43692.65567		 742.05839			42950.59728		134.44800		875.00000 
 43692.65567		 305.27265			43387.38302		69.19000		324.00000 
 43692.65567		 742.05839			42950.59728		134.44800		875.00000 
 43692.65567		 305.27265			43387.38302		69.19000		324.00000 
 43692.65567		 742.05839			42950.59728		134.44800		875.00000 
 43692.65567		 305.27265			43387.38302		69.19000		324.00000 
 43692.65567		 742.05839			42950.59728		134.44800		875.00000 
 43692.65567		 305.27265			43387.38302		69.19000		324.00000 
 43692.65567		 742.05839			42950.59728		134.44800		875.00000 
 43692.65567		 305.27265			43387.38302		69.19000		324.00000 
 43692.65567		 742.05839			42950.59728		134.44800		875.00000 
 43692.65567		 305.27265			43387.38302		69.19000		324.00000 
 43692.65567		 742.05839			42950.59728		134.44800		875.00000 
 43692.65567		 305.27265			43387.38302		69.19000		324.00000 
 43692.65567		 742.05839			42950.59728		134.44800		875.00000 
 43692.65567		 305.27265			43387.38302		69.19000		324.00000 
 43692.65567		 742.05839			42950.59728		134.44800		875.00000 
 43692.65567		 305.27265			43387.38302		69.19000		324.00000 
 43692.65567		 742.05839			42950.59728		134.44800		875.00000 
 43692.65567		 305.27265			43387.38302		69.19000		324.00000 
 43692.65567		 742.05839			42950.59728		134.44800		875.00000 
 43692.65567		 305.27265			43387.38302		69.19000		324.00000 
 43692.65567		 742.05839			42950.59728		134.44800		875.00000 
 43692.65567		 305.27265			43387.38302		69.19000		324.00000 
 43692.65567		 742.05839			42950.59728		134.44800		875.00000 
 43692.65567		 305.27265			43387.38302		69.19000		324.00000 
 43692.65567		 742.05839			42950.59728		134.44800		875.00000 
 43692.65567		 305.27265			43387.38302		69.19000		324.00000 
 43692.65567		 742.05839			42950.59728		134.44800		875.00000 
 43692.65567		 305.27265			43387.38302		69.19000		324.00000 
 43692.65567		 742.05839			42950.59728		134.44800		875.00000 
 43692.65567		 305.27265			43387.38302		69.19000		324.00000 
 43692.65567		 742.05839			42950.59728		134.44800		875.00000 
 43692.65567		 305.27265			43387.38302		69.19000		324.00000 
 43692.65567		 742.05839			42950.59728		134.44800		875.00000 
 43692.65567		 305.27265			43387.38302		69.19000		324.00000 
 43692.65567		 742.05839			42950.59728		134.44800		875.00000 
 43692.65567		 305.27265			43387.38302		69.19000		324.00000 
 43692.65567		 742.05839			42950.59728		134.44800		875.00000 
 43692.65567		 305.27265			43387.38302		69.19000		324.00000 
 43692.65567		 742.05839			42950.59728		134.44800		875.00000 
 43692.65567		 305.27265			43387.38302		69.19000		324.00000 
 43692.65567		 742.05839			42950.59728		134.44800		875.00000 
 43692.65567		 305.27265			43387.38302		69.19000		324.00000 
 43692.65567		 742.05839			42950.59728		134.44800		875.00000 
 43692.65567		 305.27265			43387.38302		69.19000		324.00000 
 43692.65567		 742.05839			42950.59728		134.44800		875.00000 
 43692.65567		 305.27265			43387.38302		69.19000		324.00000 
 43692.65567		 742.05839			42950.59728		134.44800		875.00000 
 43692.65567		 305.27265			43387.38302		69.19000		324.00000 
 43692.65567		 742.05839			42950.59728		134.44800		875.00000 
 43692.65567		 305.27265			43387.38302		69.19000		324.00000 
 43692.65567		 742.05839			42950.59728		134.44800		875.00000 
 43692.65567		 305.27265			43387.38302		69.19000		324.00000 
 43692.65567		 742.05839			42950.59728		134.44800		875.00000 
 43692.65567		 305.27265			43387.38302		69.19000		324.00000 
 43692.65567		 742.05839			42950.59728		134.44800		875.00000 
 43692.65567		 305.27265			43387.38302		69.19000		324.00000 
 43692.65567		 742.05839			42950.59728		134.44800		875.00000 
 43692.65567		 305.27265			43387.38302		69.19000		324.00000 
 43692.65567		 742.05839			42950.59728		134.44800		875.00000 
 43692.65567		 305.27265			43387.38302		69.19000		324.00000 
 43692.65567		 742.05839			42950.59728		134.44800		875.00000 
 43692.65567		 305.27265			43387.38302		69.19000		324.00000 
 43692.65567		 742.05839			42950.59728		134.44800		875.00000 
 43692.65567		 305.27265			43387.38302		69.19000		324.00000 
 43692.65567		 742.05839			42950.59728		134.44800		875.00000 
 43692.65567		 305.27265			43387.38302		69.19000		324.00000 
 43692.65567		 742.05839			42950.59728		134.44800		875.00000 
 43692.65567		 305.27265			43387.38302		69.19000		324.00000 
 43692.65567		 742.05839			42950.59728		134.44800		875.00000 
 43692.65567		 305.27265			43387.38302		69.19000		324.00000 
 43692.65567		 742.05839			42950.59728		134.44800		875.00000 
 43692.65567		 305.27265			43387.38302		69.19000		324.00000 
 43692.65567		 742.05839			42950.59728		134.44800		875.00000 
 43692.65567		 305.27265			43387.38302		69.19000		324.00000 
 43692.65567		 742.05839			42950.59728		134.44800		875.00000 
 43692.65567		 305.27265			43387.38302		69.19000		324.00000 
 43692.65567		 742.05839			42950.59728		134.44800		875.00000 
 43692.65567		 305.27265			43387.38302		69.19000		324.00000 
 43692.65567		 742.05839			42950.59728		134.44800		875.00000 
 43692.65567		 305.27265			43387.38302		69.19000		324.00000 
 43692.65567		 742.05839			42950.59728		134.44800		875.00000 
 43692.65567		 305.27265			43387.38302		69.19000		324.00000 
 43692.65567		 742.05839			42950.59728		134.44800		875.00000 
 43692.65567		 305.27265			43387.38302		69.19000		324.00000 
 43692.65567		 742.05839			42950.59728		134.44800		875.00000 
 43692.65567		 305.27265			43387.38302		69.19000		324.00000 
 43692.65567		 742.05839			42950.59728		134.44800		875.00000 
 43692.65567		 305.27265			43387.38302		69.19000		324.00000 
 43692.65567		 742.05839			42950.59728		134.44800		875.00000 
 43692.65567		 305.27265			43387.38302		69.19000		324.00000 
 43692.65567		 742.05839			42950.59728		134.44800		875.00000 
 43692.65567		 305.27265			43387.38302		69.19000		324.00000 
 43692.65567		 742.05839			42950.59728		134.44800		875.00000 
 43692.65567		 305.27265			43387.38302		69.19000		324.00000 
 43692.65567		 742.05839			42950.59728		134.44800		875.00000 
 43692.65567		 305.27265			43387.38302		69.19000		324.00000 
 43692.65567		 742.05839			42950.59728		134.44800		875.00000 
 43692.65567		 305.27265			43387.38302		69.19000		324.00000 
 43692.65567		 742.05839			42950.59728		134.44800		875.00000 
 43692.65567		 305.27265			43387.38302		69.19000		324.00000 
 43692.65567		 742.05839			42950.59728		134.44800		875.00000 
 43692.65567		 305.27265			43387.38302		69.19000		324.00000 
 43692.65567		 742.05839			42950.59728		134.44800		875.00000 
 43692.65567		 305.27265			43387.38302		69.19000		324.00000 
 43692.65567		 742.05839			42950.59728		134.44800		875.00000 
 43692.65567		 305.27265			43387.38302		69.19000		324.00000 
 43692.65567		 742.05839			42950.59728		134.44800		875.00000 
 43692.65567		 305.27265			43387.38302		69.19000		324.00000 
 43692.65567		 742.05839			42950.59728		134.44800		875.00000 
 43692.65567		 305.27265			43387.38302		69.19000		324.00000 
 43692.65567		 742.05839			42950.59728		134.44800		875.00000 
 43692.65567		 305.27265			43387.38302		69.19000		324.00000 
 43692.65567		 742.05839			42950.59728		134.44800		875.00000 
 43692.65567		 305.27265			43387.38302		69.19000		324.00000 
 43692.65567		 742.05839			42950.59728		188.44800		875.00000 
 43692.65567		 305.27265			43387.38302		69.19000		324.00000 
 43692.65567		 742.05839			42950.59728		188.44800		875.00000 
 43692.65567		 305.27265			43387.38302		69.19000		324.00000 
 43692.65567		 742.05839			42950.59728		188.44800		875.00000 
 43692.65567		 305.27265			43387.38302		69.19000		324.00000 
 43692.65567		 742.05839			42950.59728		188.44800		875.00000 
 43692.65567		 305.27265			43387.38302		69.19000		324.00000 
 43692.65567		 742.05839			42950.59728		188.44800		875.00000 
 43692.65567		 305.27265			43387.38302		69.19000		324.00000 
 43692.65567		 742.05839			42950.59728		188.44800		875.00000 
 43692.65567		 305.27265			43387.38302		69.19000		324.00000 
 43692.65567		 742.05839			42950.59728		188.44800		875.00000 
 43692.65567		 305.27265			43387.38302		69.19000		324.00000 
 43692.65567		 742.05839			42950.59728		188.44800		875.00000 
 43692.65567		 305.27265			43387.38302		69.19000		324.00000 
 43692.65567		 742.05839			42950.59728		188.44800		875.00000 
 43692.65567		 305.27265			43387.38302		69.19000		324.00000 
 43692.65567		 742.05839			42950.59728		188.44800		875.00000 
 43692.65567		 305.27265			43387.38302		69.19000		324.00000 
 43692.65567		 742.05839			42950.59728		188.44800		875.00000 
 43692.65567		 305.27265			43387.38302		69.19000		324.00000 
 43692.65567		 742.05839			42950.59728		188.44800		875.00000 
 43692.65567		 305.27265			43387.38302		69.19000		324.00000 
 43692.65567		 742.05839			42950.59728		188.44800		875.00000 
 43692.65567		 305.27265			43387.38302		69.19000		324.00000 
 43692.65567		 742.05839			42950.59728		188.44800		875.00000 
 43692.65567		 305.27265			43387.38302		69.19000		324.00000 
 43692.65567		 742.05839			42950.59728		188.44800		875.00000 
 43692.65567		 305.27265			43387.38302		69.19000		324.00000 
 43692.65567		 742.05839			42950.59728		188.44800		875.00000 
 43692.65567		 305.27265			43387.38302		69.19000		324.00000 
 43692.65567		 742.05839			42950.59728		188.44800		875.00000 
 43692.65567		 305.27265			43387.38302		69.19000		324.00000 
 43692.65567		 742.05839			42950.59728		188.44800		875.00000 
 43692.65567		 305.27265			43387.38302		69.19000		324.00000 
 43692.65567		 742.05839			42950.59728		188.44800		875.00000 
 43692.65567		 305.27265			43387.38302		69.19000		324.00000 
 43692.65567		 742.05839			42950.59728		188.44800		875.00000 
 43692.65567		 305.27265			43387.38302		69.19000		324.00000 
 43692.65567		 742.05839			42950.59728		188.44800		875.00000 
 43692.65567		 305.27265			43387.38302		69.19000		324.00000 
 43692.65567		 742.05839			42950.59728		188.44800		875.00000 
 43692.65567		 305.27265			43387.38302		69.19000		324.00000 
 43692.65567		 742.05839			42950.59728		188.44800		875.00000 
 43692.65567		 305.27265			43387.38302		69.19000		324.00000 
 43692.65567		 742.05839			42950.59728		188.44800		875.00000 
 43692.65567		 305.27265			43387.38302		69.19000		324.00000 
 43692.65567		 742.05839			42950.59728		188.44800		875.00000 
 43692.65567		 305.27265			43387.38302		69.19000		324.00000 
 43692.65567		 742.05839			42950.59728		188.44800		875.00000 
 43692.65567		 305.27265			43387.38302		69.19000		324.00000 
 43692.65567		 742.05839			42950.59728		188.44800		875.00000 
 43692.65567		 305.27265			43387.38302		69.19000		324.00000 
 43692.65567		 742.05839			42950.59728		188.44800		875.00000 
 43692.65567		 305.27265			43387.38302		69.19000		324.00000 
 43692.65567		 742.05839			42950.59728		188.44800		875.00000 
 43692.65567		 305.27265			43387.38302		69.19000		324.00000 
 43692.65567		 742.05839			42950.59728		188.44800		875.00000 
 43692.65567		 305.27265			43387.38302		69.19000		324.00000 
 43692.65567		 742.05839			42950.59728		188.44800		875.00000 
 43692.65567		 305.27265			43387.38302		69.19000		324.00000 
 43692.65567		 742.05839			42950.59728		188.44800		875.00000 
 43692.65567		 305.27265			43387.38302		69.19000		324.00000 
 43692.65567		 742.05839			42950.59728		188.44800		875.00000 
 43692.65567		 305.27265			43387.38302		69.19000		324.00000 
 43692.65567		 742.05839			42950.59728		188.44800		875.00000 
 43692.65567		 305.27265			43387.38302		69.19000		324.00000 
 43692.65567		 742.05839			42950.59728		188.44800		875.00000 
 43692.65567		 305.27265			43387.38302		69.19000		324.00000 
 43692.65567		 742.05839			42950.59728		188.44800		875.00000 
 43692.65567		 305.27265			43387.38302		69.19000		324.00000 
 43692.65567		 742.05839			42950.59728		188.44800		875.00000 
 43692.65567		 305.27265			43387.38302		69.19000		324.00000 
 43692.65567		 742.05839			42950.59728		188.44800		875.00000 
 43692.65567		 305.27265			43387.38302		69.19000		324.00000 
 43692.65567		 742.05839			42950.59728		188.44800		875.00000 
 43692.65567		 305.27265			43387.38302		69.19000		324.00000 
 43692.65567		 742.05839			42950.59728		188.44800		875.00000 
 43692.65567		 305.27265			43387.38302		69.19000		324.00000 
 43692.65567		 742.05839			42950.59728		188.44800		875.00000 
 43692.65567		 305.27265			43387.38302		69.19000		324.00000 
 43692.65567		 742.05839			42950.59728		188.44800		875.00000 
 43692.65567		 305.27265			43387.38302		69.19000		324.00000 
 43692.65567		 742.05839			42950.59728		188.44800		875.00000 
 43692.65567		 305.27265			43387.38302		69.19000		324.00000 
 43692.65567		 742.05839			42950.59728		188.44800		875.00000 
 43692.65567		 305.27265			43387.38302		69.19000		324.00000 
 43692.65567		 742.05839			42950.59728		188.44800		875.00000 
 43692.65567		 305.27265			43387.38302		69.19000		324.00000 
 43692.65567		 742.05839			42950.59728		188.44800		875.00000 
 43692.65567		 305.27265			43387.38302		69.19000		324.00000 
 43692.65567		 742.05839			42950.59728		188.44800		875.00000 
 43692.65567		 305.27265			43387.38302		69.19000		324.00000 
 43692.65567		 742.05839			42950.59728		188.44800		875.00000 
 43692.65567		 305.27265			43387.38302		69.19000		324.00000 
 43692.65567		 742.05839			42950.59728		188.44800		875.00000 
 43692.65567		 305.27265			43387.38302		69.19000		324.00000 
 43692.65567		 742.05839			42950.59728		188.44800		875.00000 
 43692.65567		 305.27265			43387.38302		69.19000		324.00000 
 43692.65567		 742.05839			42950.59728		188.44800		875.00000 
 43692.65567		 305.27265			43387.38302		69.19000		324.00000 
 43692.65567		 742.05839			42950.59728		188.44800		875.00000 
 43692.65567		 305.27265			43387.38302		69.19000		324.00000 
 43692.65567		 742.05839			42950.59728		188.44800		875.00000 
 43692.65567		 305.27265			43387.38302		69.19000		324.00000 
 43692.65567		 742.05839			42950.59728		188.44800		875.00000 
 43692.65567		 305.27265			43387.38302		69.19000		324.00000 
 43692.65567		 742.05839			42950.59728		188.44800		875.00000 
 43692.65567		 305.27265			43387.38302		69.19000		324.00000 
 43692.65567		 742.05839			42950.59728		188.44800		875.00000 
 43692.65567		 305.27265			43387.38302		69.19000		324.00000 
 43692.65567		 742.05839			42950.59728		188.44800		875.00000 
 43692.65567		 305.27265			43387.38302		69.19000		324.00000 
 43692.65567		 742.05839			42950.59728		188.44800		875.00000 
 43692.65567		 305.27265			43387.38302		69.19000		324.00000 
 43692.65567		 742.05839			42950.59728		188.44800		875.00000 
 43692.65567		 305.27265			43387.38302		69.19000		324.00000 
 43692.65567		 742.05839			42950.59728		188.44800		875.00000 
 43692.65567		 305.27265			43387.38302		69.19000		324.00000 
 43692.65567		 742.05839			42950.59728		188.44800		875.00000 
 43692.65567		 305.27265			43387.38302		69.19000		324.00000 
 43692.65567		 742.05839			42950.59728		188.44800		875.00000 
 43692.65567		 305.27265			43387.38302		69.19000		324.00000 
 43692.65567		 742.05839			42950.59728		188.44800		875.00000 
 43692.65567		 305.27265			43387.38302		69.19000		324.00000 
 43692.65567		 742.05839			42950.59728		188.44800		875.00000 
 43692.65567		 305.27265			43387.38302		69.19000		324.00000 
 43692.65567		 742.05839			42950.59728		209.00000		875.00000 
 43692.65567		 305.27265			43387.38302		69.19000		324.00000 
 43692.65567		 742.05839			42950.59728		209.00000		875.00000 
 43692.65567		 305.27265			43387.38302		69.19000		324.00000 
 43692.65567		 742.05839			42950.59728		209.00000		875.00000 
 43692.65567		 305.27265			43387.38302		69.19000		324.00000 
 43692.65567		 742.05839			42950.59728		209.00000		875.00000 
 43692.65567		 305.27265			43387.38302		69.19000		324.00000 
 43692.65567		 742.05839			42950.59728		209.00000		875.00000 
 43692.65567		 305.27265			43387.38302		69.19000		324.00000 
 43692.65567		 742.05839			42950.59728		209.00000		875.00000 
 43692.65567		 305.27265			43387.38302		69.19000		324.00000 
 43692.65567		 742.05839			42950.59728		209.00000		875.00000 
 43692.65567		 305.27265			43387.38302		69.19000		324.00000 
 43692.65567		 742.05839			42950.59728		209.00000		875.00000 
 43692.65567		 305.27265			43387.38302		69.19000		324.00000 
 43692.65567		 742.05839			42950.59728		209.00000		875.00000 
 43692.65567		 305.27265			43387.38302		69.19000		324.00000 
 43692.65567		 742.05839			42950.59728		209.00000		875.00000 
 43692.65567		 305.27265			43387.38302		69.19000		324.00000 
 43692.65567		 742.05839			42950.59728		209.00000		875.00000 
 43692.65567		 305.27265			43387.38302		69.19000		324.00000 
 43692.65567		 742.05839			42950.59728		209.00000		875.00000 
 43692.65567		 305.27265			43387.38302		69.19000		324.00000 
 43692.65567		 742.05839			42950.59728		209.00000		875.00000 
 43692.65567		 305.27265			43387.38302		69.19000		324.00000 
 43692.65567		 742.05839			42950.59728		209.00000		875.00000 
 43692.65567		 305.27265			43387.38302		69.19000		324.00000 
 43692.65567		 742.05839			42950.59728		209.00000		875.00000 
 43692.65567		 305.27265			43387.38302		69.19000		324.00000 
 43692.65567		 742.05839			42950.59728		209.00000		875.00000 
 43692.65567		 305.27265			43387.38302		69.19000		324.00000 
 43692.65567		 742.05839			42950.59728		209.00000		875.00000 
 43692.65567		 305.27265			43387.38302		69.19000		324.00000 
 43692.65567		 742.05839			42950.59728		209.00000		875.00000 
 43692.65567		 305.27265			43387.38302		69.19000		324.00000 
 43692.65567		 742.05839			42950.59728		209.00000		875.00000 
 43692.65567		 305.27265			43387.38302		69.19000		324.00000 
 43692.65567		 742.05839			42950.59728		209.00000		875.00000 
 43692.65567		 305.27265			43387.38302		69.19000		324.00000 
 43692.65567		 742.05839			42950.59728		209.00000		875.00000 
 43692.65567		 305.27265			43387.38302		69.19000		324.00000 
 43692.65567		 742.05839			42950.59728		209.00000		875.00000 
 43692.65567		 305.27265			43387.38302		69.19000		324.00000 
 43692.65567		 742.05839			42950.59728		209.00000		875.00000 
 43692.65567		 305.27265			43387.38302		69.19000		324.00000 
 43692.65567		 742.05839			42950.59728		209.00000		875.00000 
 43692.65567		 305.27265			43387.38302		69.19000		324.00000 
 43692.65567		 742.05839			42950.59728		209.00000		875.00000 
 43692.65567		 305.27265			43387.38302		69.19000		324.00000 
 43692.65567		 742.05839			42950.59728		209.00000		875.00000 
 43692.65567		 305.27265			43387.38302		69.19000		324.00000 
 43692.65567		 742.05839			42950.59728		209.00000		875.00000 
 43692.65567		 305.27265			43387.38302		69.19000		324.00000 
 43692.65567		 742.05839			42950.59728		209.00000		875.00000 
 43692.65567		 305.27265			43387.38302		69.19000		324.00000 
 43692.65567		 742.05839			42950.59728		209.00000		875.00000 
 43692.65567		 305.27265			43387.38302		69.19000		324.00000 
 43692.65567		 742.05839			42950.59728		209.00000		875.00000 
 43692.65567		 305.27265			43387.38302		69.19000		324.00000 
 43692.65567		 742.05839			42950.59728		209.00000		875.00000 
 43692.65567		 305.27265			43387.38302		69.19000		324.00000 
 43692.65567		 742.05839			42950.59728		209.00000		875.00000 
 43692.65567		 305.27265			43387.38302		69.19000		324.00000 
 43692.65567		 742.05839			42950.59728		209.00000		875.00000 
 43692.65567		 305.27265			43387.38302		69.19000		324.00000 
 43692.65567		 742.05839			42950.59728		209.00000		875.00000 
 43692.65567		 305.27265			43387.38302		69.19000		324.00000 
 43692.65567		 742.05839			42950.59728		209.00000		875.00000 
 43692.65567		 305.27265			43387.38302		69.19000		324.00000 
 43692.65567		 742.05839			42950.59728		209.00000		875.00000 
 43692.65567		 305.27265			43387.38302		69.19000		324.00000 
 43692.65567		 742.05839			42950.59728		209.00000		875.00000 
 43692.65567		 305.27265			43387.38302		69.19000		324.00000 
 43692.65567		 742.05839			42950.59728		209.00000		875.00000 
 43692.65567		 305.27265			43387.38302		69.19000		324.00000 
 43692.65567		 742.05839			42950.59728		209.00000		875.00000 
 43692.65567		 305.27265			43387.38302		69.19000		324.00000 
 43692.65567		 742.05839			42950.59728		209.00000		875.00000 
 43692.65567		 305.27265			43387.38302		69.19000		324.00000 
 43692.65567		 742.05839			42950.59728		209.00000		875.00000 
 43692.65567		 305.27265			43387.38302		69.19000		324.00000 
 43692.65567		 742.05839			42950.59728		209.00000		875.00000 
 43692.65567		 305.27265			43387.38302		69.19000		324.00000 
 43692.65567		 742.05839			42950.59728		209.00000		875.00000 
 43692.65567		 305.27265			43387.38302		69.19000		324.00000 
 43692.65567		 742.05839			42950.59728		209.00000		875.00000 
 43692.65567		 305.27265			43387.38302		69.19000		324.00000 
 43692.65567		 742.05839			42950.59728		209.00000		875.00000 
 43692.65567		 305.27265			43387.38302		69.19000		324.00000 
 43692.65567		 742.05839			42950.59728		209.00000		875.00000 
 43692.65567		 305.27265			43387.38302		69.19000		324.00000 
 43692.65567		 742.05839			42950.59728		209.00000		875.00000 
 43692.65567		 305.27265			43387.38302		69.19000		324.00000 
 43692.65567		 742.05839			42950.59728		209.00000		875.00000 
 43692.65567		 305.27265			43387.38302		69.19000		324.00000 
 43692.65567		 742.05839			42950.59728		209.00000		875.00000 
 43692.65567		 305.27265			43387.38302		69.19000		324.00000 
 43692.65567		 742.05839			42950.59728		209.00000		875.00000 
 43692.65567		 305.27265			43387.38302		69.19000		324.00000 
 43692.65567		 742.05839			42950.59728		209.00000		875.00000 
 43692.65567		 305.27265			43387.38302		69.19000		324.00000 
 43692.65567		 742.05839			42950.59728		209.00000		875.00000 
 43692.65567		 305.27265			43387.38302		69.19000		324.00000 
 43692.65567		 742.05839			42950.59728		209.00000		875.00000 
 43692.65567		 305.27265			43387.38302		69.19000		324.00000 
 43692.65567		 742.05839			42950.59728		209.00000		875.00000 
 43692.65567		 305.27265			43387.38302		69.19000		324.00000 
 43692.65567		 742.05839			42950.59728		209.00000		875.00000 
 43692.65567		 305.27265			43387.38302		69.19000		324.00000 
 43692.65567		 742.05839			42950.59728		209.00000		875.00000 
 43692.65567		 305.27265			43387.38302		69.19000		324.00000 
 43692.65567		 742.05839			42950.59728		209.00000		875.00000 
 43692.65567		 305.27265			43387.38302		69.19000		324.00000 
 43692.65567		 742.05839			42950.59728		209.00000		875.00000 
 43692.65567		 305.27265			43387.38302		69.19000		324.00000 
 43692.65567		 742.05839			42950.59728		209.00000		875.00000 
 43692.65567		 305.27265			43387.38302		69.19000		324.00000 
 43692.65567		 742.05839			42950.59728		209.00000		875.00000 
 43692.65567		 305.27265			43387.38302		69.19000		324.00000 
 43692.65567		 742.05839			42950.59728		209.00000		875.00000 
 43692.65567		 305.27265			43387.38302		69.19000		324.00000 
 43692.65567		 742.05839			42950.59728		209.00000		875.00000 
 43692.65567		 305.27265			43387.38302		69.19000		324.00000 
 43692.65567		 742.05839			42950.59728		209.00000		875.00000 
 43692.65567		 305.27265			43387.38302		69.19000		324.00000 
 43692.65567		 742.05839			42950.59728		209.00000		875.00000 
 43692.65567		 305.27265			43387.38302		69.19000		324.00000 
 43692.65567		 742.05839			42950.59728		209.00000		875.00000 
 43692.65567		 305.27265			43387.38302		69.19000		324.00000 
 43692.65567		 742.05839			42950.59728		209.00000		875.00000 
 43692.65567		 305.27265			43387.38302		69.19000		324.00000 
 43692.65567		 742.05839			42950.59728		217.75400		875.00000 
 43692.65567		 305.27265			43387.38302		69.19000		324.00000 
 43692.65567		 742.05839			42950.59728		217.75400		875.00000 
 43692.65567		 305.27265			43387.38302		69.19000		324.00000 
 43692.65567		 742.05839			42950.59728		217.75400		875.00000 
 43692.65567		 305.27265			43387.38302		69.19000		324.00000 
 43692.65567		 742.05839			42950.59728		217.75400		875.00000 
 43692.65567		 305.27265			43387.38302		69.19000		324.00000 
 43692.65567		 742.05839			42950.59728		217.75400		875.00000 
 43692.65567		 305.27265			43387.38302		69.19000		324.00000 
 43692.65567		 742.05839			42950.59728		217.75400		875.00000 
 43692.65567		 305.27265			43387.38302		69.19000		324.00000 
 43692.65567		 742.05839			42950.59728		217.75400		875.00000 
 43692.65567		 305.27265			43387.38302		69.19000		324.00000 
 43692.65567		 742.05839			42950.59728		217.75400		875.00000 
 43692.65567		 305.27265			43387.38302		69.19000		324.00000 
 43692.65567		 742.05839			42950.59728		217.75400		875.00000 
 43692.65567		 305.27265			43387.38302		69.19000		324.00000 
 43692.65567		 742.05839			42950.59728		217.75400		875.00000 
 43692.65567		 305.27265			43387.38302		69.19000		324.00000 
 43692.65567		 742.05839			42950.59728		217.75400		875.00000 
 43692.65567		 305.27265			43387.38302		69.19000		324.00000 
 43692.65567		 742.05839			42950.59728		217.75400		875.00000 
 43692.65567		 305.27265			43387.38302		69.19000		324.00000 
 43692.65567		 742.05839			42950.59728		217.75400		875.00000 
 43692.65567		 305.27265			43387.38302		69.19000		324.00000 
 43692.65567		 742.05839			42950.59728		217.75400		875.00000 
 43692.65567		 305.27265			43387.38302		69.19000		324.00000 
 43692.65567		 742.05839			42950.59728		217.75400		875.00000 
 43692.65567		 305.27265			43387.38302		69.19000		324.00000 
 43692.65567		 742.05839			42950.59728		217.75400		875.00000 
 43692.65567		 305.27265			43387.38302		69.19000		324.00000 
 43692.65567		 742.05839			42950.59728		217.75400		875.00000 
 43692.65567		 305.27265			43387.38302		69.19000		324.00000 
 43692.65567		 742.05839			42950.59728		217.75400		875.00000 
 43692.65567		 305.27265			43387.38302		69.19000		324.00000 
 43692.65567		 742.05839			42950.59728		217.75400		875.00000 
 43692.65567		 305.27265			43387.38302		69.19000		324.00000 
 43692.65567		 742.05839			42950.59728		217.75400		875.00000 
 43692.65567		 305.27265			43387.38302		69.19000		324.00000 
 43692.65567		 742.05839			42950.59728		217.75400		875.00000 
 43692.65567		 305.27265			43387.38302		69.19000		324.00000 
 43692.65567		 742.05839			42950.59728		217.75400		875.00000 
 43692.65567		 305.27265			43387.38302		69.19000		324.00000 
 43692.65567		 742.05839			42950.59728		217.75400		875.00000 
 43692.65567		 305.27265			43387.38302		69.19000		324.00000 
 43692.65567		 742.05839			42950.59728		217.75400		875.00000 
 43692.65567		 305.27265			43387.38302		69.19000		324.00000 
 43692.65567		 742.05839			42950.59728		217.75400		875.00000 
 43692.65567		 305.27265			43387.38302		69.19000		324.00000 
 43692.65567		 742.05839			42950.59728		217.75400		875.00000 
 43692.65567		 305.27265			43387.38302		69.19000		324.00000 
 43692.65567		 742.05839			42950.59728		217.75400		875.00000 
 43692.65567		 305.27265			43387.38302		69.19000		324.00000 
 43692.65567		 742.05839			42950.59728		217.75400		875.00000 
 43692.65567		 305.27265			43387.38302		69.19000		324.00000 
 43692.65567		 742.05839			42950.59728		217.75400		875.00000 
 43692.65567		 305.27265			43387.38302		69.19000		324.00000 
 43692.65567		 742.05839			42950.59728		217.75400		875.00000 
 43692.65567		 305.27265			43387.38302		69.19000		324.00000 
 43692.65567		 742.05839			42950.59728		217.75400		875.00000 
 43692.65567		 305.27265			43387.38302		69.19000		324.00000 
 43692.65567		 742.05839			42950.59728		217.75400		875.00000 
 43692.65567		 305.27265			43387.38302		69.19000		324.00000 
 43692.65567		 742.05839			42950.59728		217.75400		875.00000 
 43692.65567		 305.27265			43387.38302		69.19000		324.00000 
 43692.65567		 742.05839			42950.59728		217.75400		875.00000 
 43692.65567		 305.27265			43387.38302		69.19000		324.00000 
 43692.65567		 742.05839			42950.59728		217.75400		875.00000 
 43692.65567		 305.27265			43387.38302		69.19000		324.00000 
 43692.65567		 742.05839			42950.59728		217.75400		875.00000 
 43692.65567		 305.27265			43387.38302		69.19000		324.00000 
 43692.65567		 742.05839			42950.59728		217.75400		875.00000 
 43692.65567		 305.27265			43387.38302		69.19000		324.00000 
 43692.65567		 742.05839			42950.59728		217.75400		875.00000 
 43692.65567		 305.27265			43387.38302		69.19000		324.00000 
 43692.65567		 742.05839			42950.59728		217.75400		875.00000 
 43692.65567		 305.27265			43387.38302		69.19000		324.00000 
 43692.65567		 742.05839			42950.59728		217.75400		875.00000 
 43692.65567		 305.27265			43387.38302		69.19000		324.00000 
 43692.65567		 742.05839			42950.59728		217.75400		875.00000 
 43692.65567		 305.27265			43387.38302		69.19000		324.00000 
 43692.65567		 742.05839			42950.59728		217.75400		875.00000 
 43692.65567		 305.27265			43387.38302		69.19000		324.00000 
 43692.65567		 742.05839			42950.59728		217.75400		875.00000 
 43692.65567		 305.27265			43387.38302		69.19000		324.00000 
 43692.65567		 742.05839			42950.59728		217.75400		875.00000 
 43692.65567		 305.27265			43387.38302		69.19000		324.00000 
 43692.65567		 742.05839			42950.59728		217.75400		875.00000 
 43692.65567		 305.27265			43387.38302		69.19000		324.00000 
 43692.65567		 742.05839			42950.59728		217.75400		875.00000 
 43692.65567		 305.27265			43387.38302		69.19000		324.00000 
 43692.65567		 742.05839			42950.59728		217.75400		875.00000 
 43692.65567		 305.27265			43387.38302		69.19000		324.00000 
 43692.65567		 742.05839			42950.59728		217.75400		875.00000 
 43692.65567		 305.27265			43387.38302		69.19000		324.00000 
 43692.65567		 742.05839			42950.59728		217.75400		875.00000 
 43692.65567		 305.27265			43387.38302		69.19000		324.00000 
 43692.65567		 742.05839			42950.59728		217.75400		875.00000 
 43692.65567		 305.27265			43387.38302		69.19000		324.00000 
 43692.65567		 742.05839			42950.59728		217.75400		875.00000 
 43692.65567		 305.27265			43387.38302		69.19000		324.00000 
 43692.65567		 742.05839			42950.59728		217.75400		875.00000 
 43692.65567		 305.27265			43387.38302		69.19000		324.00000 
 43692.65567		 742.05839			42950.59728		217.75400		875.00000 
 43692.65567		 305.27265			43387.38302		69.19000		324.00000 
 43692.65567		 742.05839			42950.59728		217.75400		875.00000 
 43692.65567		 305.27265			43387.38302		69.19000		324.00000 
 43692.65567		 742.05839			42950.59728		217.75400		875.00000 
 43692.65567		 305.27265			43387.38302		69.19000		324.00000 
 43692.65567		 742.05839			42950.59728		217.75400		875.00000 
 43692.65567		 305.27265			43387.38302		69.19000		324.00000 
 43692.65567		 742.05839			42950.59728		217.75400		875.00000 
 43692.65567		 305.27265			43387.38302		69.19000		324.00000 
 43692.65567		 742.05839			42950.59728		217.75400		875.00000 
 43692.65567		 305.27265			43387.38302		69.19000		324.00000 
 43692.65567		 742.05839			42950.59728		217.75400		875.00000 
 43692.65567		 305.27265			43387.38302		69.19000		324.00000 
 43692.65567		 742.05839			42950.59728		217.75400		875.00000 
 43692.65567		 305.27265			43387.38302		69.19000		324.00000 
 43692.65567		 742.05839			42950.59728		217.75400		875.00000 
 43692.65567		 305.27265			43387.38302		69.19000		324.00000 
 43692.65567		 742.05839			42950.59728		217.75400		875.00000 
 43692.65567		 305.27265			43387.38302		69.19000		324.00000 
 43692.65567		 742.05839			42950.59728		217.75400		875.00000 
 43692.65567		 305.27265			43387.38302		69.19000		324.00000 
 43692.65567		 742.05839			42950.59728		217.75400		875.00000 
 43692.65567		 305.27265			43387.38302		69.19000		324.00000 
 43692.65567		 742.05839			42950.59728		217.75400		875.00000 
 43692.65567		 305.27265			43387.38302		69.19000		324.00000 
 43692.65567		 742.05839			42950.59728		217.75400		875.00000 
 43692.65567		 305.27265			43387.38302		69.19000		324.00000 
 43692.65567		 742.05839			42950.59728		221.27200		875.00000 
 43692.65567		 305.27265			43387.38302		69.19000		324.00000 
 43692.65567		 742.05839			42950.59728		221.27200		875.00000 
 43692.65567		 305.27265			43387.38302		69.19000		324.00000 
 43692.65567		 742.05839			42950.59728		221.27200		875.00000 
 43692.65567		 305.27265			43387.38302		69.19000		324.00000 
 43692.65567		 742.05839			42950.59728		221.27200		875.00000 
 43692.65567		 305.27265			43387.38302		69.19000		324.00000 
 43692.65567		 742.05839			42950.59728		221.27200		875.00000 
 43692.65567		 305.27265			43387.38302		69.19000		324.00000 
 43692.65567		 742.05839			42950.59728		221.27200		875.00000 
 43692.65567		 305.27265			43387.38302		69.19000		324.00000 
 43692.65567		 742.05839			42950.59728		221.27200		875.00000 
 43692.65567		 305.27265			43387.38302		69.19000		324.00000 
 43692.65567		 742.05839			42950.59728		221.27200		875.00000 
 43692.65567		 305.27265			43387.38302		69.19000		324.00000 
 43692.65567		 742.05839			42950.59728		221.27200		875.00000 
 43692.65567		 305.27265			43387.38302		69.19000		324.00000 
 43692.65567		 742.05839			42950.59728		221.27200		875.00000 
 43692.65567		 305.27265			43387.38302		69.19000		324.00000 
 43692.65567		 742.05839			42950.59728		221.27200		875.00000 
 43692.65567		 305.27265			43387.38302		69.19000		324.00000 
 43692.65567		 742.05839			42950.59728		221.27200		875.00000 
 43692.65567		 305.27265			43387.38302		69.19000		324.00000 
 43692.65567		 742.05839			42950.59728		221.27200		875.00000 
 43692.65567		 305.27265			43387.38302		69.19000		324.00000 
 43692.65567		 742.05839			42950.59728		221.27200		875.00000 
 43692.65567		 305.27265			43387.38302		69.19000		324.00000 
 43692.65567		 742.05839			42950.59728		221.27200		875.00000 
 43692.65567		 305.27265			43387.38302		69.19000		324.00000 
 43692.65567		 742.05839			42950.59728		221.27200		875.00000 
 43692.65567		 305.27265			43387.38302		69.19000		324.00000 
 43692.65567		 742.05839			42950.59728		221.27200		875.00000 
 43692.65567		 305.27265			43387.38302		69.19000		324.00000 
 43692.65567		 742.05839			42950.59728		221.27200		875.00000 
 43692.65567		 305.27265			43387.38302		69.19000		324.00000 
 43692.65567		 742.05839			42950.59728		221.27200		875.00000 
 43692.65567		 305.27265			43387.38302		69.19000		324.00000 
 43692.65567		 742.05839			42950.59728		221.27200		875.00000 
 43692.65567		 305.27265			43387.38302		69.19000		324.00000 
 43692.65567		 742.05839			42950.59728		221.27200		875.00000 
 43692.65567		 305.27265			43387.38302		69.19000		324.00000 
 43692.65567		 742.05839			42950.59728		221.27200		875.00000 
 43692.65567		 305.27265			43387.38302		69.19000		324.00000 
 43692.65567		 742.05839			42950.59728		221.27200		875.00000 
 43692.65567		 305.27265			43387.38302		69.19000		324.00000 
 43692.65567		 742.05839			42950.59728		221.27200		875.00000 
 43692.65567		 305.27265			43387.38302		69.19000		324.00000 
 43692.65567		 742.05839			42950.59728		221.27200		875.00000 
 43692.65567		 305.27265			43387.38302		69.19000		324.00000 
 43692.65567		 742.05839			42950.59728		221.27200		875.00000 
 43692.65567		 305.27265			43387.38302		69.19000		324.00000 
 43692.65567		 742.05839			42950.59728		221.27200		875.00000 
 43692.65567		 305.27265			43387.38302		69.19000		324.00000 
 43692.65567		 742.05839			42950.59728		221.27200		875.00000 
 43692.65567		 305.27265			43387.38302		69.19000		324.00000 
 43692.65567		 742.05839			42950.59728		221.27200		875.00000 
 43692.65567		 305.27265			43387.38302		69.19000		324.00000 
 43692.65567		 742.05839			42950.59728		221.27200		875.00000 
 43692.65567		 305.27265			43387.38302		69.19000		324.00000 
 43692.65567		 742.05839			42950.59728		221.27200		875.00000 
 43692.65567		 305.27265			43387.38302		69.19000		324.00000 
 43692.65567		 742.05839			42950.59728		221.27200		875.00000 
 43692.65567		 305.27265			43387.38302		69.19000		324.00000 
 43692.65567		 742.05839			42950.59728		221.27200		875.00000 
 43692.65567		 305.27265			43387.38302		69.19000		324.00000 
 43692.65567		 742.05839			42950.59728		221.27200		875.00000 
 43692.65567		 305.27265			43387.38302		69.19000		324.00000 
 43692.65567		 742.05839			42950.59728		221.27200		875.00000 
 43692.65567		 305.27265			43387.38302		69.19000		324.00000 
 43692.65567		 742.05839			42950.59728		221.27200		875.00000 
 43692.65567		 305.27265			43387.38302		69.19000		324.00000 
 43692.65567		 742.05839			42950.59728		221.27200		875.00000 
 43692.65567		 305.27265			43387.38302		69.19000		324.00000 
 43692.65567		 742.05839			42950.59728		221.27200		875.00000 
 43692.65567		 305.27265			43387.38302		69.19000		324.00000 
 43692.65567		 742.05839			42950.59728		221.27200		875.00000 
 43692.65567		 305.27265			43387.38302		69.19000		324.00000 
 43692.65567		 742.05839			42950.59728		221.27200		875.00000 
 43692.65567		 305.27265			43387.38302		69.19000		324.00000 
 43692.65567		 742.05839			42950.59728		221.27200		875.00000 
 43692.65567		 305.27265			43387.38302		69.19000		324.00000 
 43692.65567		 742.05839			42950.59728		221.27200		875.00000 
 43692.65567		 305.27265			43387.38302		69.19000		324.00000 
 43692.65567		 742.05839			42950.59728		221.27200		875.00000 
 43692.65567		 305.27265			43387.38302		69.19000		324.00000 
 43692.65567		 742.05839			42950.59728		221.27200		875.00000 
 43692.65567		 305.27265			43387.38302		69.19000		324.00000 
 43692.65567		 742.05839			42950.59728		221.27200		875.00000 
 43692.65567		 305.27265			43387.38302		69.19000		324.00000 
 43692.65567		 742.05839			42950.59728		221.27200		875.00000 
 43692.65567		 305.27265			43387.38302		69.19000		324.00000 
 43692.65567		 742.05839			42950.59728		221.27200		875.00000 
 43692.65567		 305.27265			43387.38302		69.19000		324.00000 
 43692.65567		 742.05839			42950.59728		221.27200		875.00000 
 43692.65567		 305.27265			43387.38302		69.19000		324.00000 
 43692.65567		 742.05839			42950.59728		221.27200		875.00000 
 43692.65567		 305.27265			43387.38302		69.19000		324.00000 
 43692.65567		 742.05839			42950.59728		221.27200		875.00000 
 43692.65567		 305.27265			43387.38302		69.19000		324.00000 
 43692.65567		 742.05839			42950.59728		221.27200		875.00000 
 43692.65567		 305.27265			43387.38302		69.19000		324.00000 
 43692.65567		 742.05839			42950.59728		221.27200		875.00000 
 43692.65567		 305.27265			43387.38302		69.19000		324.00000 
 43692.65567		 742.05839			42950.59728		221.27200		875.00000 
 43692.65567		 305.27265			43387.38302		69.19000		324.00000 
 43692.65567		 742.05839			42950.59728		221.27200		875.00000 
 43692.65567		 305.27265			43387.38302		69.19000		324.00000 
 43692.65567		 742.05839			42950.59728		221.27200		875.00000 
 43692.65567		 305.27265			43387.38302		69.19000		324.00000 
 43692.65567		 742.05839			42950.59728		221.27200		875.00000 
 43692.65567		 305.27265			43387.38302		69.19000		324.00000 
 43692.65567		 742.05839			42950.59728		221.27200		875.00000 
 43692.65567		 305.27265			43387.38302		69.19000		324.00000 
 43692.65567		 742.05839			42950.59728		221.27200		875.00000 
 43692.65567		 305.27265			43387.38302		69.19000		324.00000 
 43692.65567		 742.05839			42950.59728		221.27200		875.00000 
 43692.65567		 305.27265			43387.38302		69.19000		324.00000 
 43692.65567		 742.05839			42950.59728		221.27200		875.00000 
 43692.65567		 305.27265			43387.38302		69.19000		324.00000 
 43692.65567		 742.05839			42950.59728		221.27200		875.00000 
 43692.65567		 305.27265			43387.38302		69.19000		324.00000 
 43692.65567		 742.05839			42950.59728		221.27200		875.00000 
 43692.65567		 305.27265			43387.38302		69.19000		324.00000 
 43692.65567		 742.05839			42950.59728		221.27200		875.00000 
 43692.65567		 305.27265			43387.38302		69.19000		324.00000 
 43692.65567		 742.05839			42950.59728		221.27200		875.00000 
 43692.65567		 305.27265			43387.38302		69.19000		324.00000 
 43692.65567		 742.05839			42950.59728		221.46000		875.00000 
 43692.65567		 305.27265			43387.38302		69.19000		324.00000 
 43692.65567		 742.05839			42950.59728		221.46000		875.00000 
 43692.65567		 305.27265			43387.38302		69.19000		324.00000 
 43692.65567		 742.05839			42950.59728		221.46000		875.00000 
 43692.65567		 305.27265			43387.38302		69.19000		324.00000 
 43692.65567		 742.05839			42950.59728		221.46000		875.00000 
 43692.65567		 305.27265			43387.38302		69.19000		324.00000 
 43692.65567		 742.05839			42950.59728		221.46000		875.00000 
 43692.65567		 305.27265			43387.38302		69.19000		324.00000 
 43692.65567		 742.05839			42950.59728		221.46000		875.00000 
 43692.65567		 305.27265			43387.38302		69.19000		324.00000 
 43692.65567		 742.05839			42950.59728		221.46000		875.00000 
 43692.65567		 305.27265			43387.38302		69.19000		324.00000 
 43692.65567		 742.05839			42950.59728		221.46000		875.00000 
 43692.65567		 305.27265			43387.38302		69.19000		324.00000 
 43692.65567		 742.05839			42950.59728		221.46000		875.00000 
 43692.65567		 305.27265			43387.38302		69.19000		324.00000 
 43692.65567		 742.05839			42950.59728		221.46000		875.00000 
 43692.65567		 305.27265			43387.38302		69.19000		324.00000 
 43692.65567		 742.05839			42950.59728		221.46000		875.00000 
 43692.65567		 305.27265			43387.38302		69.19000		324.00000 
 43692.65567		 742.05839			42950.59728		221.46000		875.00000 
 43692.65567		 305.27265			43387.38302		69.19000		324.00000 
 43692.65567		 742.05839			42950.59728		221.46000		875.00000 
 43692.65567		 305.27265			43387.38302		69.19000		324.00000 
 43692.65567		 742.05839			42950.59728		221.46000		875.00000 
 43692.65567		 305.27265			43387.38302		69.19000		324.00000 
 43692.65567		 742.05839			42950.59728		221.46000		875.00000 
 43692.65567		 305.27265			43387.38302		69.19000		324.00000 
 43692.65567		 742.05839			42950.59728		221.46000		875.00000 
 43692.65567		 305.27265			43387.38302		69.19000		324.00000 
 43692.65567		 742.05839			42950.59728		221.46000		875.00000 
 43692.65567		 305.27265			43387.38302		69.19000		324.00000 
 43692.65567		 742.05839			42950.59728		221.46000		875.00000 
 43692.65567		 305.27265			43387.38302		69.19000		324.00000 
 43692.65567		 742.05839			42950.59728		221.46000		875.00000 
 43692.65567		 305.27265			43387.38302		69.19000		324.00000 
 43692.65567		 742.05839			42950.59728		221.46000		875.00000 
 43692.65567		 305.27265			43387.38302		69.19000		324.00000 
 43692.65567		 742.05839			42950.59728		221.46000		875.00000 
 43692.65567		 305.27265			43387.38302		69.19000		324.00000 
 43692.65567		 742.05839			42950.59728		221.46000		875.00000 
 43692.65567		 305.27265			43387.38302		69.19000		324.00000 
 43692.65567		 742.05839			42950.59728		221.46000		875.00000 
 43692.65567		 305.27265			43387.38302		69.19000		324.00000 
 43692.65567		 742.05839			42950.59728		221.46000		875.00000 
 43692.65567		 305.27265			43387.38302		69.19000		324.00000 
 43692.65567		 742.05839			42950.59728		221.46000		875.00000 
 43692.65567		 305.27265			43387.38302		69.19000		324.00000 
 43692.65567		 742.05839			42950.59728		221.46000		875.00000 
 43692.65567		 305.27265			43387.38302		69.19000		324.00000 
 43692.65567		 742.05839			42950.59728		221.46000		875.00000 
 43692.65567		 305.27265			43387.38302		69.19000		324.00000 
 43692.65567		 742.05839			42950.59728		221.46000		875.00000 
 43692.65567		 305.27265			43387.38302		69.19000		324.00000 
 43692.65567		 742.05839			42950.59728		221.46000		875.00000 
 43692.65567		 305.27265			43387.38302		69.19000		324.00000 
 43692.65567		 742.05839			42950.59728		221.46000		875.00000 
 43692.65567		 305.27265			43387.38302		69.19000		324.00000 
 43692.65567		 742.05839			42950.59728		221.46000		875.00000 
 43692.65567		 305.27265			43387.38302		69.19000		324.00000 
 43692.65567		 742.05839			42950.59728		221.46000		875.00000 
 43692.65567		 305.27265			43387.38302		69.19000		324.00000 
 43692.65567		 742.05839			42950.59728		221.46000		875.00000 
 43692.65567		 305.27265			43387.38302		69.19000		324.00000 
 43692.65567		 742.05839			42950.59728		221.46000		875.00000 
 43692.65567		 305.27265			43387.38302		69.19000		324.00000 
 43692.65567		 742.05839			42950.59728		221.46000		875.00000 
 43692.65567		 305.27265			43387.38302		69.19000		324.00000 
 43692.65567		 742.05839			42950.59728		221.46000		875.00000 
 43692.65567		 305.27265			43387.38302		69.19000		324.00000 
 43692.65567		 742.05839			42950.59728		221.46000		875.00000 
 43692.65567		 305.27265			43387.38302		69.19000		324.00000 
 43692.65567		 742.05839			42950.59728		221.46000		875.00000 
 43692.65567		 305.27265			43387.38302		69.19000		324.00000 
 43692.65567		 742.05839			42950.59728		221.46000		875.00000 
 43692.65567		 305.27265			43387.38302		69.19000		324.00000 
 43692.65567		 742.05839			42950.59728		221.46000		875.00000 
 43692.65567		 305.27265			43387.38302		69.19000		324.00000 
 43692.65567		 742.05839			42950.59728		221.46000		875.00000 
 43692.65567		 305.27265			43387.38302		69.19000		324.00000 
 43692.65567		 742.05839			42950.59728		221.46000		875.00000 
 43692.65567		 305.27265			43387.38302		69.19000		324.00000 
 43692.65567		 742.05839			42950.59728		221.46000		875.00000 
 43692.65567		 305.27265			43387.38302		69.19000		324.00000 
 43692.65567		 742.05839			42950.59728		221.46000		875.00000 
 43692.65567		 305.27265			43387.38302		69.19000		324.00000 
 43692.65567		 742.05839			42950.59728		221.46000		875.00000 
 43692.65567		 305.27265			43387.38302		69.19000		324.00000 
 43692.65567		 742.05839			42950.59728		221.46000		875.00000 
 43692.65567		 305.27265			43387.38302		69.19000		324.00000 
 43692.65567		 742.05839			42950.59728		221.46000		875.00000 
 43692.65567		 305.27265			43387.38302		69.19000		324.00000 
 43692.65567		 742.05839			42950.59728		221.46000		875.00000 
 43692.65567		 305.27265			43387.38302		69.19000		324.00000 
 43692.65567		 742.05839			42950.59728		221.46000		875.00000 
 43692.65567		 305.27265			43387.38302		69.19000		324.00000 
 43692.65567		 742.05839			42950.59728		221.46000		875.00000 
 43692.65567		 305.27265			43387.38302		69.19000		324.00000 
 43692.65567		 742.05839			42950.59728		221.46000		875.00000 
 43692.65567		 305.27265			43387.38302		69.19000		324.00000 
 43692.65567		 742.05839			42950.59728		221.46000		875.00000 
 43692.65567		 305.27265			43387.38302		69.19000		324.00000 
 43692.65567		 742.05839			42950.59728		221.46000		875.00000 
 43692.65567		 305.27265			43387.38302		69.19000		324.00000 
 43692.65567		 742.05839			42950.59728		221.46000		875.00000 
 43692.65567		 305.27265			43387.38302		69.19000		324.00000 
 43692.65567		 742.05839			42950.59728		221.46000		875.00000 
 43692.65567		 305.27265			43387.38302		69.19000		324.00000 
 43692.65567		 742.05839			42950.59728		221.46000		875.00000 
 43692.65567		 305.27265			43387.38302		69.19000		324.00000 
 43692.65567		 742.05839			42950.59728		221.46000		875.00000 
 43692.65567		 305.27265			43387.38302		69.19000		324.00000 
 43692.65567		 742.05839			42950.59728		221.46000		875.00000 
 43692.65567		 305.27265			43387.38302		69.19000		324.00000 
 43692.65567		 742.05839			42950.59728		221.46000		875.00000 
 43692.65567		 305.27265			43387.38302		69.19000		324.00000 
 43692.65567		 742.05839			42950.59728		221.46000		875.00000 
 43692.65567		 305.27265			43387.38302		69.19000		324.00000 
 43692.65567		 742.05839			42950.59728		221.46000		875.00000 
 43692.65567		 305.27265			43387.38302		69.19000		324.00000 
 43692.65567		 742.05839			42950.59728		221.46000		875.00000 
 43692.65567		 305.27265			43387.38302		69.19000		324.00000 
 43692.65567		 742.05839			42950.59728		221.46000		875.00000 
 43692.65567		 305.27265			43387.38302		69.19000		324.00000 
 43692.65567		 742.05839			42950.59728		221.46000		875.00000 
 43692.65567		 305.27265			43387.38302		69.19000		324.00000 
 43692.65567		 742.05839			42950.59728		220.86200		875.00000 
 43692.65567		 305.27265			43387.38302		69.19000		324.00000 
 43692.65567		 742.05839			42950.59728		220.86200		875.00000 
 43692.65567		 305.27265			43387.38302		69.19000		324.00000 
 43692.65567		 742.05839			42950.59728		220.86200		875.00000 
 43692.65567		 305.27265			43387.38302		69.19000		324.00000 
 43692.65567		 742.05839			42950.59728		220.86200		875.00000 
 43692.65567		 305.27265			43387.38302		69.19000		324.00000 
 43692.65567		 742.05839			42950.59728		220.86200		875.00000 
 43692.65567		 305.27265			43387.38302		69.19000		324.00000 
 43692.65567		 742.05839			42950.59728		220.86200		875.00000 
 43692.65567		 305.27265			43387.38302		69.19000		324.00000 
 43692.65567		 742.05839			42950.59728		220.86200		875.00000 
 43692.65567		 305.27265			43387.38302		69.19000		324.00000 
 43692.65567		 742.05839			42950.59728		220.86200		875.00000 
 43692.65567		 305.27265			43387.38302		69.19000		324.00000 
 43692.65567		 742.05839			42950.59728		220.86200		875.00000 
 43692.65567		 305.27265			43387.38302		69.19000		324.00000 
 43692.65567		 742.05839			42950.59728		220.86200		875.00000 
 43692.65567		 305.27265			43387.38302		69.19000		324.00000 
 43692.65567		 742.05839			42950.59728		220.86200		875.00000 
 43692.65567		 305.27265			43387.38302		69.19000		324.00000 
 43692.65567		 742.05839			42950.59728		220.86200		875.00000 
 43692.65567		 305.27265			43387.38302		69.19000		324.00000 
 43692.65567		 742.05839			42950.59728		220.86200		875.00000 
 43692.65567		 305.27265			43387.38302		69.19000		324.00000 
 43692.65567		 742.05839			42950.59728		220.86200		875.00000 
 43692.65567		 305.27265			43387.38302		69.19000		324.00000 
 43692.65567		 742.05839			42950.59728		220.86200		875.00000 
 43692.65567		 305.27265			43387.38302		69.19000		324.00000 
 43692.65567		 742.05839			42950.59728		220.86200		875.00000 
 43692.65567		 305.27265			43387.38302		69.19000		324.00000 
 43692.65567		 742.05839			42950.59728		220.86200		875.00000 
 43692.65567		 305.27265			43387.38302		69.19000		324.00000 
 43692.65567		 742.05839			42950.59728		220.86200		875.00000 
 43692.65567		 305.27265			43387.38302		69.19000		324.00000 
 43692.65567		 742.05839			42950.59728		220.86200		875.00000 
 43692.65567		 305.27265			43387.38302		69.19000		324.00000 
 43692.65567		 742.05839			42950.59728		220.86200		875.00000 
 43692.65567		 305.27265			43387.38302		69.19000		324.00000 
 43692.65567		 742.05839			42950.59728		220.86200		875.00000 
 43692.65567		 305.27265			43387.38302		69.19000		324.00000 
 43692.65567		 742.05839			42950.59728		220.86200		875.00000 
 43692.65567		 305.27265			43387.38302		69.19000		324.00000 
 43692.65567		 742.05839			42950.59728		220.86200		875.00000 
 43692.65567		 305.27265			43387.38302		69.19000		324.00000 
 43692.65567		 742.05839			42950.59728		220.86200		875.00000 
 43692.65567		 305.27265			43387.38302		69.19000		324.00000 
 43692.65567		 742.05839			42950.59728		220.86200		875.00000 
 43692.65567		 305.27265			43387.38302		69.19000		324.00000 
 43692.65567		 742.05839			42950.59728		220.86200		875.00000 
 43692.65567		 305.27265			43387.38302		69.19000		324.00000 
 43692.65567		 742.05839			42950.59728		220.86200		875.00000 
 43692.65567		 305.27265			43387.38302		69.19000		324.00000 
 43692.65567		 742.05839			42950.59728		220.86200		875.00000 
 43692.65567		 305.27265			43387.38302		69.19000		324.00000 
 43692.65567		 742.05839			42950.59728		220.86200		875.00000 
 43692.65567		 305.27265			43387.38302		69.19000		324.00000 
 43692.65567		 742.05839			42950.59728		220.86200		875.00000 
 43692.65567		 305.27265			43387.38302		69.19000		324.00000 
 43692.65567		 742.05839			42950.59728		220.86200		875.00000 
 43692.65567		 305.27265			43387.38302		69.19000		324.00000 
 43692.65567		 742.05839			42950.59728		220.86200		875.00000 
 43692.65567		 305.27265			43387.38302		69.19000		324.00000 
 43692.65567		 742.05839			42950.59728		220.86200		875.00000 
 43692.65567		 305.27265			43387.38302		69.19000		324.00000 
 43692.65567		 742.05839			42950.59728		220.86200		875.00000 
 43692.65567		 305.27265			43387.38302		69.19000		324.00000 
 43692.65567		 742.05839			42950.59728		220.86200		875.00000 
 43692.65567		 305.27265			43387.38302		69.19000		324.00000 
 43692.65567		 742.05839			42950.59728		220.86200		875.00000 
 43692.65567		 305.27265			43387.38302		69.19000		324.00000 
 43692.65567		 742.05839			42950.59728		220.86200		875.00000 
 43692.65567		 305.27265			43387.38302		69.19000		324.00000 
 43692.65567		 742.05839			42950.59728		220.86200		875.00000 
 43692.65567		 305.27265			43387.38302		69.19000		324.00000 
 43692.65567		 742.05839			42950.59728		220.86200		875.00000 
 43692.65567		 305.27265			43387.38302		69.19000		324.00000 
 43692.65567		 742.05839			42950.59728		220.86200		875.00000 
 43692.65567		 305.27265			43387.38302		69.19000		324.00000 
 43692.65567		 742.05839			42950.59728		220.86200		875.00000 
 43692.65567		 305.27265			43387.38302		69.19000		324.00000 
 43692.65567		 742.05839			42950.59728		220.86200		875.00000 
 43692.65567		 305.27265			43387.38302		69.19000		324.00000 
 43692.65567		 742.05839			42950.59728		220.86200		875.00000 
 43692.65567		 305.27265			43387.38302		69.19000		324.00000 
 43692.65567		 742.05839			42950.59728		220.86200		875.00000 
 43692.65567		 305.27265			43387.38302		69.19000		324.00000 
 43692.65567		 742.05839			42950.59728		220.86200		875.00000 
 43692.65567		 305.27265			43387.38302		69.19000		324.00000 
 43692.65567		 742.05839			42950.59728		220.86200		875.00000 
 43692.65567		 305.27265			43387.38302		69.19000		324.00000 
 43692.65567		 742.05839			42950.59728		220.86200		875.00000 
 43692.65567		 305.27265			43387.38302		69.19000		324.00000 
 43692.65567		 742.05839			42950.59728		220.86200		875.00000 
 43692.65567		 305.27265			43387.38302		69.19000		324.00000 
 43692.65567		 742.05839			42950.59728		220.86200		875.00000 
 43692.65567		 305.27265			43387.38302		69.19000		324.00000 
 43692.65567		 742.05839			42950.59728		220.86200		875.00000 
 43692.65567		 305.27265			43387.38302		69.19000		324.00000 
 43692.65567		 742.05839			42950.59728		220.86200		875.00000 
 43692.65567		 305.27265			43387.38302		69.19000		324.00000 
 43692.65567		 742.05839			42950.59728		220.86200		875.00000 
 43692.65567		 305.27265			43387.38302		69.19000		324.00000 
 43692.65567		 742.05839			42950.59728		220.86200		875.00000 
 43692.65567		 305.27265			43387.38302		69.19000		324.00000 
 43692.65567		 742.05839			42950.59728		220.86200		875.00000 
 43692.65567		 305.27265			43387.38302		69.19000		324.00000 
 43692.65567		 742.05839			42950.59728		220.86200		875.00000 
 43692.65567		 305.27265			43387.38302		69.19000		324.00000 
 43692.65567		 742.05839			42950.59728		220.86200		875.00000 
 43692.65567		 305.27265			43387.38302		69.19000		324.00000 
 43692.65567		 742.05839			42950.59728		220.86200		875.00000 
 43692.65567		 305.27265			43387.38302		69.19000		324.00000 
 43692.65567		 742.05839			42950.59728		220.86200		875.00000 
 43692.65567		 305.27265			43387.38302		69.19000		324.00000 
 43692.65567		 742.05839			42950.59728		220.86200		875.00000 
 43692.65567		 305.27265			43387.38302		69.19000		324.00000 
 43692.65567		 742.05839			42950.59728		220.86200		875.00000 
 43692.65567		 305.27265			43387.38302		69.19000		324.00000 
 43692.65567		 742.05839			42950.59728		220.86200		875.00000 
 43692.65567		 305.27265			43387.38302		69.19000		324.00000 
 43692.65567		 742.05839			42950.59728		220.86200		875.00000 
 43692.65567		 305.27265			43387.38302		69.19000		324.00000 
 43692.65567		 742.05839			42950.59728		220.86200		875.00000 
 43692.65567		 305.27265			43387.38302		69.19000		324.00000 
 43692.65567		 742.05839			42950.59728		220.86200		875.00000 
 43692.65567		 305.27265			43387.38302		69.19000		324.00000 
 43692.65567		 742.05839			42950.59728		221.46000		875.00000 
 43692.65567		 305.27265			43387.38302		69.64400		324.00000 
 43692.65567		 742.05839			42950.59728		221.46000		875.00000 
 43692.65567		 305.27265			43387.38302		69.64400		324.00000 
 43692.65567		 742.05839			42950.59728		221.46000		875.00000 
 43692.65567		 305.27265			43387.38302		69.64400		324.00000 
 43692.65567		 742.05839			42950.59728		221.46000		875.00000 
 43692.65567		 305.27265			43387.38302		69.64400		324.00000 
 43692.65567		 742.05839			42950.59728		221.46000		875.00000 
 43692.65567		 305.27265			43387.38302		69.64400		324.00000 
 43692.65567		 742.05839			42950.59728		221.46000		875.00000 
 43692.65567		 305.27265			43387.38302		69.64400		324.00000 
 43692.65567		 742.05839			42950.59728		221.46000		875.00000 
 43692.65567		 305.27265			43387.38302		69.64400		324.00000 
 43692.65567		 742.05839			42950.59728		221.46000		875.00000 
 43692.65567		 305.27265			43387.38302		69.64400		324.00000 
 43692.65567		 742.05839			42950.59728		221.46000		875.00000 
 43692.65567		 305.27265			43387.38302		69.64400		324.00000 
 43692.65567		 742.05839			42950.59728		221.46000		875.00000 
 43692.65567		 305.27265			43387.38302		69.64400		324.00000 
 43692.65567		 742.05839			42950.59728		221.46000		875.00000 
 43692.65567		 305.27265			43387.38302		69.64400		324.00000 
 43692.65567		 742.05839			42950.59728		221.46000		875.00000 
 43692.65567		 305.27265			43387.38302		69.64400		324.00000 
 43692.65567		 742.05839			42950.59728		221.46000		875.00000 
 43692.65567		 305.27265			43387.38302		69.64400		324.00000 
 43692.65567		 742.05839			42950.59728		221.46000		875.00000 
 43692.65567		 305.27265			43387.38302		69.64400		324.00000 
 43692.65567		 742.05839			42950.59728		221.46000		875.00000 
 43692.65567		 305.27265			43387.38302		69.64400		324.00000 
 43692.65567		 742.05839			42950.59728		221.46000		875.00000 
 43692.65567		 305.27265			43387.38302		69.64400		324.00000 
 43692.65567		 742.05839			42950.59728		221.46000		875.00000 
 43692.65567		 305.27265			43387.38302		69.64400		324.00000 
 43692.65567		 742.05839			42950.59728		221.46000		875.00000 
 43692.65567		 305.27265			43387.38302		69.64400		324.00000 
 43692.65567		 742.05839			42950.59728		221.46000		875.00000 
 43692.65567		 305.27265			43387.38302		69.64400		324.00000 
 43692.65567		 742.05839			42950.59728		221.46000		875.00000 
 43692.65567		 305.27265			43387.38302		69.64400		324.00000 
 43692.65567		 742.05839			42950.59728		221.46000		875.00000 
 43692.65567		 305.27265			43387.38302		69.64400		324.00000 
 43692.65567		 742.05839			42950.59728		221.46000		875.00000 
 43692.65567		 305.27265			43387.38302		69.64400		324.00000 
 43692.65567		 742.05839			42950.59728		221.46000		875.00000 
 43692.65567		 305.27265			43387.38302		69.64400		324.00000 
 43692.65567		 742.05839			42950.59728		221.46000		875.00000 
 43692.65567		 305.27265			43387.38302		69.64400		324.00000 
 43692.65567		 742.05839			42950.59728		221.46000		875.00000 
 43692.65567		 305.27265			43387.38302		69.64400		324.00000 
 43692.65567		 742.05839			42950.59728		221.46000		875.00000 
 43692.65567		 305.27265			43387.38302		69.64400		324.00000 
 43692.65567		 742.05839			42950.59728		221.46000		875.00000 
 43692.65567		 305.27265			43387.38302		69.64400		324.00000 
 43692.65567		 742.05839			42950.59728		221.46000		875.00000 
 43692.65567		 305.27265			43387.38302		69.64400		324.00000 
 43692.65567		 742.05839			42950.59728		221.46000		875.00000 
 43692.65567		 305.27265			43387.38302		69.64400		324.00000 
 43692.65567		 742.05839			42950.59728		221.46000		875.00000 
 43692.65567		 305.27265			43387.38302		69.64400		324.00000 
 43692.65567		 742.05839			42950.59728		221.46000		875.00000 
 43692.65567		 305.27265			43387.38302		69.64400		324.00000 
 43692.65567		 742.05839			42950.59728		221.46000		875.00000 
 43692.65567		 305.27265			43387.38302		69.64400		324.00000 
 43692.65567		 742.05839			42950.59728		221.46000		875.00000 
 43692.65567		 305.27265			43387.38302		69.64400		324.00000 
 43692.65567		 742.05839			42950.59728		221.46000		875.00000 
 43692.65567		 305.27265			43387.38302		69.64400		324.00000 
 43692.65567		 742.05839			42950.59728		221.46000		875.00000 
 43692.65567		 305.27265			43387.38302		69.64400		324.00000 
 43692.65567		 742.05839			42950.59728		221.46000		875.00000 
 43692.65567		 305.27265			43387.38302		69.64400		324.00000 
 43692.65567		 742.05839			42950.59728		221.46000		875.00000 
 43692.65567		 305.27265			43387.38302		69.64400		324.00000 
 43692.65567		 742.05839			42950.59728		221.46000		875.00000 
 43692.65567		 305.27265			43387.38302		69.64400		324.00000 
 43692.65567		 742.05839			42950.59728		221.46000		875.00000 
 43692.65567		 305.27265			43387.38302		69.64400		324.00000 
 43692.65567		 742.05839			42950.59728		221.46000		875.00000 
 43692.65567		 305.27265			43387.38302		69.64400		324.00000 
 43692.65567		 742.05839			42950.59728		221.46000		875.00000 
 43692.65567		 305.27265			43387.38302		69.64400		324.00000 
 43692.65567		 742.05839			42950.59728		221.46000		875.00000 
 43692.65567		 305.27265			43387.38302		69.64400		324.00000 
 43692.65567		 742.05839			42950.59728		221.46000		875.00000 
 43692.65567		 305.27265			43387.38302		69.64400		324.00000 
 43692.65567		 742.05839			42950.59728		221.46000		875.00000 
 43692.65567		 305.27265			43387.38302		69.64400		324.00000 
 43692.65567		 742.05839			42950.59728		221.46000		875.00000 
 43692.65567		 305.27265			43387.38302		69.64400		324.00000 
 43692.65567		 742.05839			42950.59728		221.46000		875.00000 
 43692.65567		 305.27265			43387.38302		69.64400		324.00000 
 43692.65567		 742.05839			42950.59728		221.46000		875.00000 
 43692.65567		 305.27265			43387.38302		69.64400		324.00000 
 43692.65567		 742.05839			42950.59728		221.46000		875.00000 
 43692.65567		 305.27265			43387.38302		69.64400		324.00000 
 43692.65567		 742.05839			42950.59728		221.46000		875.00000 
 43692.65567		 305.27265			43387.38302		69.64400		324.00000 
 43692.65567		 742.05839			42950.59728		221.46000		875.00000 
 43692.65567		 305.27265			43387.38302		69.64400		324.00000 
 43692.65567		 742.05839			42950.59728		221.46000		875.00000 
 43692.65567		 305.27265			43387.38302		69.64400		324.00000 
 43692.65567		 742.05839			42950.59728		221.46000		875.00000 
 43692.65567		 305.27265			43387.38302		69.64400		324.00000 
 43692.65567		 742.05839			42950.59728		221.46000		875.00000 
 43692.65567		 305.27265			43387.38302		69.64400		324.00000 
 43692.65567		 742.05839			42950.59728		221.46000		875.00000 
 43692.65567		 305.27265			43387.38302		69.64400		324.00000 
 43692.65567		 742.05839			42950.59728		221.46000		875.00000 
 43692.65567		 305.27265			43387.38302		69.64400		324.00000 
 43692.65567		 742.05839			42950.59728		221.46000		875.00000 
 43692.65567		 305.27265			43387.38302		69.64400		324.00000 
 43692.65567		 742.05839			42950.59728		221.46000		875.00000 
 43692.65567		 305.27265			43387.38302		69.64400		324.00000 
 43692.65567		 742.05839			42950.59728		221.46000		875.00000 
 43692.65567		 305.27265			43387.38302		69.64400		324.00000 
 43692.65567		 742.05839			42950.59728		221.46000		875.00000 
 43692.65567		 305.27265			43387.38302		69.64400		324.00000 
 43692.65567		 742.05839			42950.59728		221.46000		875.00000 
 43692.65567		 305.27265			43387.38302		69.64400		324.00000 
 43692.65567		 742.05839			42950.59728		221.46000		875.00000 
 43692.65567		 305.27265			43387.38302		69.64400		324.00000 
 43692.65567		 742.05839			42950.59728		221.46000		875.00000 
 43692.65567		 305.27265			43387.38302		69.64400		324.00000 
 43692.65567		 742.05839			42950.59728		221.46000		875.00000 
 43692.65567		 305.27265			43387.38302		69.64400		324.00000 
 43692.65567		 742.05839			42950.59728		221.46000		875.00000 
 43692.65567		 305.27265			43387.38302		69.64400		324.00000 
 43692.65567		 742.05839			42950.59728		221.46000		875.00000 
 43692.65567		 305.27265			43387.38302		69.64400		324.00000 
 43692.65567		 742.05839			42950.59728		221.46000		875.00000 
 43692.65567		 305.27265			43387.38302		69.64400		324.00000 
 43692.65567		 742.05839			42950.59728		221.46000		875.00000 
 43692.65567		 305.27265			43387.38302		69.64400		324.00000 
 43692.65567		 742.05839			42950.59728		221.46000		875.00000 
 43692.65567		 305.27265			43387.38302		69.64400		324.00000 
 43692.65567		 742.05839			42950.59728		221.46000		875.00000 
 43692.65567		 305.27265			43387.38302		69.64400		324.00000 
 43692.65567		 742.05839			42950.59728		221.46000		875.00000 
 43692.65567		 305.27265			43387.38302		69.64400		324.00000 
 43692.65567		 742.05839			42950.59728		221.46000		875.00000 
 43692.65567		 305.27265			43387.38302		69.64400		324.00000 
 43692.65567		 742.05839			42950.59728		221.46000		875.00000 
 43692.65567		 305.27265			43387.38302		69.64400		324.00000 
 43692.65567		 742.05839			42950.59728		221.46000		875.00000 
 43692.65567		 305.27265			43387.38302		69.64400		324.00000 
 43692.65567		 742.05839			42950.59728		221.46000		875.00000 
 43692.65567		 305.27265			43387.38302		69.64400		324.00000 
 43692.65567		 742.05839			42950.59728		221.46000		875.00000 
 43692.65567		 305.27265			43387.38302		69.64400		324.00000 
 43692.65567		 742.05839			42950.59728		221.46000		875.00000 
 43692.65567		 305.27265			43387.38302		69.64400		324.00000 
 43692.65567		 742.05839			42950.59728		221.46000		875.00000 
 43692.65567		 305.27265			43387.38302		69.64400		324.00000 
 43692.65567		 742.05839			42950.59728		221.46000		875.00000 
 43692.65567		 305.27265			43387.38302		69.64400		324.00000 
 43692.65567		 742.05839			42950.59728		221.46000		875.00000 
 43692.65567		 305.27265			43387.38302		69.64400		324.00000 
 43692.65567		 742.05839			42950.59728		221.46000		875.00000 
 43692.65567		 305.27265			43387.38302		69.64400		324.00000 
 43692.65567		 742.05839			42950.59728		221.46000		875.00000 
 43692.65567		 305.27265			43387.38302		69.64400		324.00000 
 43692.65567		 742.05839			42950.59728		221.46000		875.00000 
 43692.65567		 305.27265			43387.38302		69.64400		324.00000 
 43692.65567		 742.05839			42950.59728		221.46000		875.00000 
 43692.65567		 305.27265			43387.38302		69.64400		324.00000 
 43692.65567		 742.05839			42950.59728		221.46000		875.00000 
 43692.65567		 305.27265			43387.38302		69.64400		324.00000 
 43692.65567		 742.05839			42950.59728		221.46000		875.00000 
 43692.65567		 305.27265			43387.38302		69.64400		324.00000 
 43692.65567		 742.05839			42950.59728		221.46000		875.00000 
 43692.65567		 305.27265			43387.38302		69.64400		324.00000 
 43692.65567		 742.05839			42950.59728		221.46000		875.00000 
 43692.65567		 305.27265			43387.38302		69.64400		324.00000 
 43692.65567		 742.05839			42950.59728		221.46000		875.00000 
 43692.65567		 305.27265			43387.38302		69.64400		324.00000 
 43692.65567		 742.05839			42950.59728		221.46000		875.00000 
 43692.65567		 305.27265			43387.38302		69.64400		324.00000 
 43692.65567		 742.05839			42950.59728		221.46000		875.00000 
 43692.65567		 305.27265			43387.38302		69.64400		324.00000 
 43692.65567		 742.05839			42950.59728		221.46000		875.00000 
 43692.65567		 305.27265			43387.38302		69.64400		324.00000 
 43692.65567		 742.05839			42950.59728		221.46000		875.00000 
 43692.65567		 305.27265			43387.38302		69.64400		324.00000 
 43692.65567		 742.05839			42950.59728		221.46000		875.00000 
 43692.65567		 305.27265			43387.38302		69.64400		324.00000 
 43692.65567		 742.05839			42950.59728		221.46000		875.00000 
 43692.65567		 305.27265			43387.38302		69.64400		324.00000 
 43692.65567		 742.05839			42950.59728		221.46000		875.00000 
 43692.65567		 305.27265			43387.38302		69.64400		324.00000 
 43692.65567		 742.05839			42950.59728		221.46000		875.00000 
 43692.65567		 305.27265			43387.38302		69.64400		324.00000 
 43692.65567		 742.05839			42950.59728		221.46000		875.00000 
 43692.65567		 305.27265			43387.38302		69.64400		324.00000 
 43692.65567		 742.05839			42950.59728		221.46000		875.00000 
 43692.65567		 305.27265			43387.38302		69.64400		324.00000 
 43692.65567		 742.05839			42950.59728		221.46000		875.00000 
 43692.65567		 305.27265			43387.38302		69.64400		324.00000 
 43692.65567		 742.05839			42950.59728		221.46000		875.00000 
 43692.65567		 305.27265			43387.38302		69.64400		324.00000 
 43692.65567		 742.05839			42950.59728		221.46000		875.00000 
 43692.65567		 305.27265			43387.38302		69.64400		324.00000 
 43692.65567		 742.05839			42950.59728		221.46000		875.00000 
 43692.65567		 305.27265			43387.38302		69.64400		324.00000 
 43692.65567		 742.05839			42950.59728		221.46000		875.00000 
 43692.65567		 305.27265			43387.38302		69.64400		324.00000 
 43692.65567		 742.05839			42950.59728		221.46000		875.00000 
 43692.65567		 305.27265			43387.38302		69.64400		324.00000 
 43692.65567		 742.05839			42950.59728		221.46000		875.00000 
 43692.65567		 305.27265			43387.38302		69.64400		324.00000 
 43692.65567		 742.05839			42950.59728		221.46000		875.00000 
 43692.65567		 305.27265			43387.38302		69.64400		324.00000 
 43692.65567		 742.05839			42950.59728		221.46000		875.00000 
 43692.65567		 305.27265			43387.38302		69.64400		324.00000 
 43692.65567		 742.05839			42950.59728		221.46000		875.00000 
 43692.65567		 305.27265			43387.38302		69.64400		324.00000 
 43692.65567		 742.05839			42950.59728		221.46000		875.00000 
 43692.65567		 305.27265			43387.38302		69.64400		324.00000 
 43692.65567		 742.05839			42950.59728		221.46000		875.00000 
 43692.65567		 305.27265			43387.38302		69.64400		324.00000 
 43692.65567		 742.05839			42950.59728		221.46000		875.00000 
 43692.65567		 305.27265			43387.38302		69.64400		324.00000 
 43692.65567		 742.05839			42950.59728		221.46000		875.00000 
 43692.65567		 305.27265			43387.38302		69.64400		324.00000 
 43692.65567		 742.05839			42950.59728		221.46000		875.00000 
 43692.65567		 305.27265			43387.38302		69.64400		324.00000 
 43692.65567		 742.05839			42950.59728		221.46000		875.00000 
 43692.65567		 305.27265			43387.38302		69.64400		324.00000 
 43692.65567		 742.05839			42950.59728		221.46000		875.00000 
 43692.65567		 305.27265			43387.38302		69.64400		324.00000 
 43692.65567		 742.05839			42950.59728		221.46000		875.00000 
 43692.65567		 305.27265			43387.38302		69.64400		324.00000 
 43692.65567		 742.05839			42950.59728		221.46000		875.00000 
 43692.65567		 305.27265			43387.38302		69.64400		324.00000 
 43692.65567		 742.05839			42950.59728		221.46000		875.00000 
 43692.65567		 305.27265			43387.38302		69.64400		324.00000 
 43692.65567		 742.05839			42950.59728		221.46000		875.00000 
 43692.65567		 305.27265			43387.38302		69.64400		324.00000 
 43692.65567		 742.05839			42950.59728		221.46000		875.00000 
 43692.65567		 305.27265			43387.38302		69.64400		324.00000 
 43692.65567		 742.05839			42950.59728		221.46000		875.00000 
 43692.65567		 305.27265			43387.38302		69.64400		324.00000 
 43692.65567		 742.05839			42950.59728		221.46000		875.00000 
 43692.65567		 305.27265			43387.38302		69.64400		324.00000 
 43692.65567		 742.05839			42950.59728		221.46000		875.00000 
 43692.65567		 305.27265			43387.38302		69.64400		324.00000 
 43692.65567		 742.05839			42950.59728		221.46000		875.00000 
 43692.65567		 305.27265			43387.38302		69.64400		324.00000 
 43692.65567		 742.05839			42950.59728		221.46000		875.00000 
 43692.65567		 305.27265			43387.38302		69.64400		324.00000 
 43692.65567		 742.05839			42950.59728		221.46000		875.00000 
 43692.65567		 305.27265			43387.38302		69.64400		324.00000 
 43692.65567		 742.05839			42950.59728		221.46000		875.00000 
 43692.65567		 305.27265			43387.38302		69.64400		324.00000 
 43692.65567		 742.05839			42950.59728		220.86200		875.00000 
 43692.65567		 305.27265			43387.38302		69.64400		324.00000 
 43692.65567		 742.05839			42950.59728		220.86200		875.00000 
 43692.65567		 305.27265			43387.38302		69.64400		324.00000 
 43692.65567		 742.05839			42950.59728		220.86200		875.00000 
 43692.65567		 305.27265			43387.38302		69.64400		324.00000 
 43692.65567		 742.05839			42950.59728		220.86200		875.00000 
 43692.65567		 305.27265			43387.38302		69.64400		324.00000 
 43692.65567		 742.05839			42950.59728		220.86200		875.00000 
 43692.65567		 305.27265			43387.38302		69.64400		324.00000 
 43692.65567		 742.05839			42950.59728		220.86200		875.00000 
 43692.65567		 305.27265			43387.38302		69.64400		324.00000 
 43692.65567		 742.05839			42950.59728		220.86200		875.00000 
 43692.65567		 305.27265			43387.38302		69.64400		324.00000 
 43692.65567		 742.05839			42950.59728		220.86200		875.00000 
 43692.65567		 305.27265			43387.38302		69.64400		324.00000 
 43692.65567		 742.05839			42950.59728		220.86200		875.00000 
 43692.65567		 305.27265			43387.38302		69.64400		324.00000 
 43692.65567		 742.05839			42950.59728		220.86200		875.00000 
 43692.65567		 305.27265			43387.38302		69.64400		324.00000 
 43692.65567		 742.05839			42950.59728		220.86200		875.00000 
 43692.65567		 305.27265			43387.38302		69.64400		324.00000 
 43692.65567		 742.05839			42950.59728		220.86200		875.00000 
 43692.65567		 305.27265			43387.38302		69.64400		324.00000 
 43692.65567		 742.05839			42950.59728		220.86200		875.00000 
 43692.65567		 305.27265			43387.38302		69.64400		324.00000 
 43692.65567		 742.05839			42950.59728		220.86200		875.00000 
 43692.65567		 305.27265			43387.38302		69.64400		324.00000 
 43692.65567		 742.05839			42950.59728		220.86200		875.00000 
 43692.65567		 305.27265			43387.38302		69.64400		324.00000 
 43692.65567		 742.05839			42950.59728		220.86200		875.00000 
 43692.65567		 305.27265			43387.38302		69.64400		324.00000 
 43692.65567		 742.05839			42950.59728		220.86200		875.00000 
 43692.65567		 305.27265			43387.38302		69.64400		324.00000 
 43692.65567		 742.05839			42950.59728		220.86200		875.00000 
 43692.65567		 305.27265			43387.38302		69.64400		324.00000 
 43692.65567		 742.05839			42950.59728		220.86200		875.00000 
 43692.65567		 305.27265			43387.38302		69.64400		324.00000 
 43692.65567		 742.05839			42950.59728		220.86200		875.00000 
 43692.65567		 305.27265			43387.38302		69.64400		324.00000 
 43692.65567		 742.05839			42950.59728		220.86200		875.00000 
 43692.65567		 305.27265			43387.38302		69.64400		324.00000 
 43692.65567		 742.05839			42950.59728		220.86200		875.00000 
 43692.65567		 305.27265			43387.38302		69.64400		324.00000 
 43692.65567		 742.05839			42950.59728		220.86200		875.00000 
 43692.65567		 305.27265			43387.38302		69.64400		324.00000 
 43692.65567		 742.05839			42950.59728		220.86200		875.00000 
 43692.65567		 305.27265			43387.38302		69.64400		324.00000 
 43692.65567		 742.05839			42950.59728		220.86200		875.00000 
 43692.65567		 305.27265			43387.38302		69.64400		324.00000 
 43692.65567		 742.05839			42950.59728		220.86200		875.00000 
 43692.65567		 305.27265			43387.38302		69.64400		324.00000 
 43692.65567		 742.05839			42950.59728		220.86200		875.00000 
 43692.65567		 305.27265			43387.38302		69.64400		324.00000 
 43692.65567		 742.05839			42950.59728		220.86200		875.00000 
 43692.65567		 305.27265			43387.38302		69.64400		324.00000 
 43692.65567		 742.05839			42950.59728		220.86200		875.00000 
 43692.65567		 305.27265			43387.38302		69.64400		324.00000 
 43692.65567		 742.05839			42950.59728		220.86200		875.00000 
 43692.65567		 305.27265			43387.38302		69.64400		324.00000 
 43692.65567		 742.05839			42950.59728		220.86200		875.00000 
 43692.65567		 305.27265			43387.38302		69.64400		324.00000 
 43692.65567		 742.05839			42950.59728		220.86200		875.00000 
 43692.65567		 305.27265			43387.38302		69.64400		324.00000 
 43692.65567		 742.05839			42950.59728		220.86200		875.00000 
 43692.65567		 305.27265			43387.38302		69.64400		324.00000 
 43692.65567		 742.05839			42950.59728		220.86200		875.00000 
 43692.65567		 305.27265			43387.38302		69.64400		324.00000 
 43692.65567		 742.05839			42950.59728		220.86200		875.00000 
 43692.65567		 305.27265			43387.38302		69.64400		324.00000 
 43692.65567		 742.05839			42950.59728		220.86200		875.00000 
 43692.65567		 305.27265			43387.38302		69.64400		324.00000 
 43692.65567		 742.05839			42950.59728		220.86200		875.00000 
 43692.65567		 305.27265			43387.38302		69.64400		324.00000 
 43692.65567		 742.05839			42950.59728		220.86200		875.00000 
 43692.65567		 305.27265			43387.38302		69.64400		324.00000 
 43692.65567		 742.05839			42950.59728		220.86200		875.00000 
 43692.65567		 305.27265			43387.38302		69.64400		324.00000 
 43692.65567		 742.05839			42950.59728		220.86200		875.00000 
 43692.65567		 305.27265			43387.38302		69.64400		324.00000 
 43692.65567		 742.05839			42950.59728		220.86200		875.00000 
 43692.65567		 305.27265			43387.38302		69.64400		324.00000 
 43692.65567		 742.05839			42950.59728		220.86200		875.00000 
 43692.65567		 305.27265			43387.38302		69.64400		324.00000 
 43692.65567		 742.05839			42950.59728		220.86200		875.00000 
 43692.65567		 305.27265			43387.38302		69.64400		324.00000 
 43692.65567		 742.05839			42950.59728		220.86200		875.00000 
 43692.65567		 305.27265			43387.38302		69.64400		324.00000 
 43692.65567		 742.05839			42950.59728		220.86200		875.00000 
 43692.65567		 305.27265			43387.38302		69.64400		324.00000 
 43692.65567		 742.05839			42950.59728		220.86200		875.00000 
 43692.65567		 305.27265			43387.38302		69.64400		324.00000 
 43692.65567		 742.05839			42950.59728		220.86200		875.00000 
 43692.65567		 305.27265			43387.38302		69.64400		324.00000 
 43692.65567		 742.05839			42950.59728		220.86200		875.00000 
 43692.65567		 305.27265			43387.38302		69.64400		324.00000 
 43692.65567		 742.05839			42950.59728		220.86200		875.00000 
 43692.65567		 305.27265			43387.38302		69.64400		324.00000 
 43692.65567		 742.05839			42950.59728		220.86200		875.00000 
 43692.65567		 305.27265			43387.38302		69.64400		324.00000 
 43692.65567		 742.05839			42950.59728		220.86200		875.00000 
 43692.65567		 305.27265			43387.38302		69.64400		324.00000 
 43692.65567		 742.05839			42950.59728		220.86200		875.00000 
 43692.65567		 305.27265			43387.38302		69.64400		324.00000 
 43692.65567		 742.05839			42950.59728		220.86200		875.00000 
 43692.65567		 305.27265			43387.38302		69.64400		324.00000 
 43692.65567		 742.05839			42950.59728		220.86200		875.00000 
 43692.65567		 305.27265			43387.38302		69.64400		324.00000 
 43692.65567		 742.05839			42950.59728		220.86200		875.00000 
 43692.65567		 305.27265			43387.38302		69.64400		324.00000 
 43692.65567		 742.05839			42950.59728		220.86200		875.00000 
 43692.65567		 305.27265			43387.38302		69.64400		324.00000 
 43692.65567		 742.05839			42950.59728		220.86200		875.00000 
 43692.65567		 305.27265			43387.38302		69.64400		324.00000 
 43692.65567		 742.05839			42950.59728		220.86200		875.00000 
 43692.65567		 305.27265			43387.38302		69.64400		324.00000 
 43692.65567		 742.05839			42950.59728		220.86200		875.00000 
 43692.65567		 305.27265			43387.38302		69.64400		324.00000 
 43692.65567		 742.05839			42950.59728		220.86200		875.00000 
 43692.65567		 305.27265			43387.38302		69.64400		324.00000 
 43692.65567		 742.05839			42950.59728		220.86200		875.00000 
 43692.65567		 305.27265			43387.38302		69.64400		324.00000 
 43692.65567		 742.05839			42950.59728		220.86200		875.00000 
 43692.65567		 305.27265			43387.38302		69.64400		324.00000 
 43692.65567		 742.05839			42950.59728		220.86200		875.00000 
 43692.65567		 305.27265			43387.38302		69.64400		324.00000 
 43692.65567		 742.05839			42950.59728		220.86200		875.00000 
 43692.65567		 305.27265			43387.38302		69.64400		324.00000 
 43692.65567		 742.05839			42950.59728		220.86200		875.00000 
 43692.65567		 305.27265			43387.38302		69.64400		324.00000 
 43692.65567		 742.05839			42950.59728		221.46000		875.00000 
 43692.65567		 305.27265			43387.38302		69.64400		324.00000 
 43692.65567		 742.05839			42950.59728		221.46000		875.00000 
 43692.65567		 305.27265			43387.38302		69.64400		324.00000 
 43692.65567		 742.05839			42950.59728		221.46000		875.00000 
 43692.65567		 305.27265			43387.38302		69.64400		324.00000 
 43692.65567		 742.05839			42950.59728		221.46000		875.00000 
 43692.65567		 305.27265			43387.38302		69.64400		324.00000 
 43692.65567		 742.05839			42950.59728		221.46000		875.00000 
 43692.65567		 305.27265			43387.38302		69.64400		324.00000 
 43692.65567		 742.05839			42950.59728		221.46000		875.00000 
 43692.65567		 305.27265			43387.38302		69.64400		324.00000 
 43692.65567		 742.05839			42950.59728		221.46000		875.00000 
 43692.65567		 305.27265			43387.38302		69.64400		324.00000 
 43692.65567		 742.05839			42950.59728		221.46000		875.00000 
 43692.65567		 305.27265			43387.38302		69.64400		324.00000 
 43692.65567		 742.05839			42950.59728		221.46000		875.00000 
 43692.65567		 305.27265			43387.38302		69.64400		324.00000 
 43692.65567		 742.05839			42950.59728		221.46000		875.00000 
 43692.65567		 305.27265			43387.38302		69.64400		324.00000 
 43692.65567		 742.05839			42950.59728		221.46000		875.00000 
 43692.65567		 305.27265			43387.38302		69.64400		324.00000 
 43692.65567		 742.05839			42950.59728		221.46000		875.00000 
 43692.65567		 305.27265			43387.38302		69.64400		324.00000 
 43692.65567		 742.05839			42950.59728		221.46000		875.00000 
 43692.65567		 305.27265			43387.38302		69.64400		324.00000 
 43692.65567		 742.05839			42950.59728		221.46000		875.00000 
 43692.65567		 305.27265			43387.38302		69.64400		324.00000 
 43692.65567		 742.05839			42950.59728		221.46000		875.00000 
 43692.65567		 305.27265			43387.38302		69.64400		324.00000 
 43692.65567		 742.05839			42950.59728		221.46000		875.00000 
 43692.65567		 305.27265			43387.38302		69.64400		324.00000 
 43692.65567		 742.05839			42950.59728		221.46000		875.00000 
 43692.65567		 305.27265			43387.38302		69.64400		324.00000 
 43692.65567		 742.05839			42950.59728		221.46000		875.00000 
 43692.65567		 305.27265			43387.38302		69.64400		324.00000 
 43692.65567		 742.05839			42950.59728		221.46000		875.00000 
 43692.65567		 305.27265			43387.38302		69.64400		324.00000 
 43692.65567		 742.05839			42950.59728		221.46000		875.00000 
 43692.65567		 305.27265			43387.38302		69.64400		324.00000 
 43692.65567		 742.05839			42950.59728		221.46000		875.00000 
 43692.65567		 305.27265			43387.38302		69.64400		324.00000 
 43692.65567		 742.05839			42950.59728		221.46000		875.00000 
 43692.65567		 305.27265			43387.38302		69.64400		324.00000 
 43692.65567		 742.05839			42950.59728		221.46000		875.00000 
 43692.65567		 305.27265			43387.38302		69.64400		324.00000 
 43692.65567		 742.05839			42950.59728		221.46000		875.00000 
 43692.65567		 305.27265			43387.38302		69.64400		324.00000 
 43692.65567		 742.05839			42950.59728		221.46000		875.00000 
 43692.65567		 305.27265			43387.38302		69.64400		324.00000 
 43692.65567		 742.05839			42950.59728		221.46000		875.00000 
 43692.65567		 305.27265			43387.38302		69.64400		324.00000 
 43692.65567		 742.05839			42950.59728		221.46000		875.00000 
 43692.65567		 305.27265			43387.38302		69.64400		324.00000 
 43692.65567		 742.05839			42950.59728		221.46000		875.00000 
 43692.65567		 305.27265			43387.38302		69.64400		324.00000 
 43692.65567		 742.05839			42950.59728		221.46000		875.00000 
 43692.65567		 305.27265			43387.38302		69.64400		324.00000 
 43692.65567		 742.05839			42950.59728		221.46000		875.00000 
 43692.65567		 305.27265			43387.38302		69.64400		324.00000 
 43692.65567		 742.05839			42950.59728		221.46000		875.00000 
 43692.65567		 305.27265			43387.38302		69.64400		324.00000 
 43692.65567		 742.05839			42950.59728		221.46000		875.00000 
 43692.65567		 305.27265			43387.38302		69.64400		324.00000 
 43692.65567		 742.05839			42950.59728		221.46000		875.00000 
 43692.65567		 305.27265			43387.38302		69.64400		324.00000 
 43692.65567		 742.05839			42950.59728		221.46000		875.00000 
 43692.65567		 305.27265			43387.38302		69.64400		324.00000 
 43692.65567		 742.05839			42950.59728		221.46000		875.00000 
 43692.65567		 305.27265			43387.38302		69.64400		324.00000 
 43692.65567		 742.05839			42950.59728		221.46000		875.00000 
 43692.65567		 305.27265			43387.38302		69.64400		324.00000 
 43692.65567		 742.05839			42950.59728		221.46000		875.00000 
 43692.65567		 305.27265			43387.38302		69.64400		324.00000 
 43692.65567		 742.05839			42950.59728		221.46000		875.00000 
 43692.65567		 305.27265			43387.38302		69.64400		324.00000 
 43692.65567		 742.05839			42950.59728		221.46000		875.00000 
 43692.65567		 305.27265			43387.38302		69.64400		324.00000 
 43692.65567		 742.05839			42950.59728		221.46000		875.00000 
 43692.65567		 305.27265			43387.38302		69.64400		324.00000 
 43692.65567		 742.05839			42950.59728		221.46000		875.00000 
 43692.65567		 305.27265			43387.38302		69.64400		324.00000 
 43692.65567		 742.05839			42950.59728		221.46000		875.00000 
 43692.65567		 305.27265			43387.38302		69.64400		324.00000 
 43692.65567		 742.05839			42950.59728		221.46000		875.00000 
 43692.65567		 305.27265			43387.38302		69.64400		324.00000 
 43692.65567		 742.05839			42950.59728		221.46000		875.00000 
 43692.65567		 305.27265			43387.38302		69.64400		324.00000 
 43692.65567		 742.05839			42950.59728		221.46000		875.00000 
 43692.65567		 305.27265			43387.38302		69.64400		324.00000 
 43692.65567		 742.05839			42950.59728		221.46000		875.00000 
 43692.65567		 305.27265			43387.38302		69.64400		324.00000 
 43692.65567		 742.05839			42950.59728		221.46000		875.00000 
 43692.65567		 305.27265			43387.38302		69.64400		324.00000 
 43692.65567		 742.05839			42950.59728		221.46000		875.00000 
 43692.65567		 305.27265			43387.38302		69.64400		324.00000 
 43692.65567		 742.05839			42950.59728		221.46000		875.00000 
 43692.65567		 305.27265			43387.38302		69.64400		324.00000 
 43692.65567		 742.05839			42950.59728		221.46000		875.00000 
 43692.65567		 305.27265			43387.38302		69.64400		324.00000 
 43692.65567		 742.05839			42950.59728		221.46000		875.00000 
 43692.65567		 305.27265			43387.38302		69.64400		324.00000 
 43692.65567		 742.05839			42950.59728		221.46000		875.00000 
 43692.65567		 305.27265			43387.38302		69.64400		324.00000 
 43692.65567		 742.05839			42950.59728		221.46000		875.00000 
 43692.65567		 305.27265			43387.38302		69.64400		324.00000 
 43692.65567		 742.05839			42950.59728		221.46000		875.00000 
 43692.65567		 305.27265			43387.38302		69.64400		324.00000 
 43692.65567		 742.05839			42950.59728		221.46000		875.00000 
 43692.65567		 305.27265			43387.38302		69.64400		324.00000 
 43692.65567		 742.05839			42950.59728		221.46000		875.00000 
 43692.65567		 305.27265			43387.38302		69.64400		324.00000 
 43692.65567		 742.05839			42950.59728		221.46000		875.00000 
 43692.65567		 305.27265			43387.38302		69.64400		324.00000 
 43692.65567		 742.05839			42950.59728		221.46000		875.00000 
 43692.65567		 305.27265			43387.38302		69.64400		324.00000 
 43692.65567		 742.05839			42950.59728		221.46000		875.00000 
 43692.65567		 305.27265			43387.38302		69.64400		324.00000 
 43692.65567		 742.05839			42950.59728		221.46000		875.00000 
 43692.65567		 305.27265			43387.38302		69.64400		324.00000 
 43692.65567		 742.05839			42950.59728		221.46000		875.00000 
 43692.65567		 305.27265			43387.38302		69.64400		324.00000 
 43692.65567		 742.05839			42950.59728		221.46000		875.00000 
 43692.65567		 305.27265			43387.38302		69.64400		324.00000 
 43692.65567		 742.05839			42950.59728		221.46000		875.00000 
 43692.65567		 305.27265			43387.38302		69.64400		324.00000 
 43692.65567		 742.05839			42950.59728		221.46000		875.00000 
 43692.65567		 305.27265			43387.38302		69.64400		324.00000 
 43692.65567		 742.05839			42950.59728		221.46000		875.00000 
 43692.65567		 305.27265			43387.38302		69.64400		324.00000 
 43692.65567		 742.05839			42950.59728		220.86200		875.00000 
 43692.65567		 305.27265			43387.38302		69.64400		324.00000 
 43692.65567		 742.05839			42950.59728		220.86200		875.00000 
 43692.65567		 305.27265			43387.38302		69.64400		324.00000 
 43692.65567		 742.05839			42950.59728		220.86200		875.00000 
 43692.65567		 305.27265			43387.38302		69.64400		324.00000 
 43692.65567		 742.05839			42950.59728		220.86200		875.00000 
 43692.65567		 305.27265			43387.38302		69.64400		324.00000 
 43692.65567		 742.05839			42950.59728		220.86200		875.00000 
 43692.65567		 305.27265			43387.38302		69.64400		324.00000 
 43692.65567		 742.05839			42950.59728		220.86200		875.00000 
 43692.65567		 305.27265			43387.38302		69.64400		324.00000 
 43692.65567		 742.05839			42950.59728		220.86200		875.00000 
 43692.65567		 305.27265			43387.38302		69.64400		324.00000 
 43692.65567		 742.05839			42950.59728		220.86200		875.00000 
 43692.65567		 305.27265			43387.38302		69.64400		324.00000 
 43692.65567		 742.05839			42950.59728		220.86200		875.00000 
 43692.65567		 305.27265			43387.38302		69.64400		324.00000 
 43692.65567		 742.05839			42950.59728		220.86200		875.00000 
 43692.65567		 305.27265			43387.38302		69.64400		324.00000 
 43692.65567		 742.05839			42950.59728		220.86200		875.00000 
 43692.65567		 305.27265			43387.38302		69.64400		324.00000 
 43692.65567		 742.05839			42950.59728		220.86200		875.00000 
 43692.65567		 305.27265			43387.38302		69.64400		324.00000 
 43692.65567		 742.05839			42950.59728		220.86200		875.00000 
 43692.65567		 305.27265			43387.38302		69.64400		324.00000 
 43692.65567		 742.05839			42950.59728		220.86200		875.00000 
 43692.65567		 305.27265			43387.38302		69.64400		324.00000 
 43692.65567		 742.05839			42950.59728		220.86200		875.00000 
 43692.65567		 305.27265			43387.38302		69.64400		324.00000 
 43692.65567		 742.05839			42950.59728		220.86200		875.00000 
 43692.65567		 305.27265			43387.38302		69.64400		324.00000 
 43692.65567		 742.05839			42950.59728		220.86200		875.00000 
 43692.65567		 305.27265			43387.38302		69.64400		324.00000 
 43692.65567		 742.05839			42950.59728		220.86200		875.00000 
 43692.65567		 305.27265			43387.38302		69.64400		324.00000 
 43692.65567		 742.05839			42950.59728		220.86200		875.00000 
 43692.65567		 305.27265			43387.38302		69.64400		324.00000 
 43692.65567		 742.05839			42950.59728		220.86200		875.00000 
 43692.65567		 305.27265			43387.38302		69.64400		324.00000 
 43692.65567		 742.05839			42950.59728		220.86200		875.00000 
 43692.65567		 305.27265			43387.38302		69.64400		324.00000 
 43692.65567		 742.05839			42950.59728		220.86200		875.00000 
 43692.65567		 305.27265			43387.38302		69.64400		324.00000 
 43692.65567		 742.05839			42950.59728		220.86200		875.00000 
 43692.65567		 305.27265			43387.38302		69.64400		324.00000 
 43692.65567		 742.05839			42950.59728		220.86200		875.00000 
 43692.65567		 305.27265			43387.38302		69.64400		324.00000 
 43692.65567		 742.05839			42950.59728		220.86200		875.00000 
 43692.65567		 305.27265			43387.38302		69.64400		324.00000 
 43692.65567		 742.05839			42950.59728		220.86200		875.00000 
 43692.65567		 305.27265			43387.38302		69.64400		324.00000 
 43692.65567		 742.05839			42950.59728		220.86200		875.00000 
 43692.65567		 305.27265			43387.38302		69.64400		324.00000 
 43692.65567		 742.05839			42950.59728		220.86200		875.00000 
 43692.65567		 305.27265			43387.38302		69.64400		324.00000 
 43692.65567		 742.05839			42950.59728		220.86200		875.00000 
 43692.65567		 305.27265			43387.38302		69.64400		324.00000 
 43692.65567		 742.05839			42950.59728		220.86200		875.00000 
 43692.65567		 305.27265			43387.38302		69.64400		324.00000 
 43692.65567		 742.05839			42950.59728		220.86200		875.00000 
 43692.65567		 305.27265			43387.38302		69.64400		324.00000 
 43692.65567		 742.05839			42950.59728		220.86200		875.00000 
 43692.65567		 305.27265			43387.38302		69.64400		324.00000 
 43692.65567		 742.05839			42950.59728		220.86200		875.00000 
 43692.65567		 305.27265			43387.38302		69.64400		324.00000 
 43692.65567		 742.05839			42950.59728		220.86200		875.00000 
 43692.65567		 305.27265			43387.38302		69.64400		324.00000 
 43692.65567		 742.05839			42950.59728		220.86200		875.00000 
 43692.65567		 305.27265			43387.38302		69.64400		324.00000 
 43692.65567		 742.05839			42950.59728		220.86200		875.00000 
 43692.65567		 305.27265			43387.38302		69.64400		324.00000 
 43692.65567		 742.05839			42950.59728		220.86200		875.00000 
 43692.65567		 305.27265			43387.38302		69.64400		324.00000 
 43692.65567		 742.05839			42950.59728		220.86200		875.00000 
 43692.65567		 305.27265			43387.38302		69.64400		324.00000 
 43692.65567		 742.05839			42950.59728		220.86200		875.00000 
 43692.65567		 305.27265			43387.38302		69.64400		324.00000 
 43692.65567		 742.05839			42950.59728		220.86200		875.00000 
 43692.65567		 305.27265			43387.38302		69.64400		324.00000 
 43692.65567		 742.05839			42950.59728		220.86200		875.00000 
 43692.65567		 305.27265			43387.38302		69.64400		324.00000 
 43692.65567		 742.05839			42950.59728		220.86200		875.00000 
 43692.65567		 305.27265			43387.38302		69.64400		324.00000 
 43692.65567		 742.05839			42950.59728		220.86200		875.00000 
 43692.65567		 305.27265			43387.38302		69.64400		324.00000 
 43692.65567		 742.05839			42950.59728		220.86200		875.00000 
 43692.65567		 305.27265			43387.38302		69.64400		324.00000 
 43692.65567		 742.05839			42950.59728		220.86200		875.00000 
 43692.65567		 305.27265			43387.38302		69.64400		324.00000 
 43692.65567		 673.79570			43018.85997		220.86200		875.00000 
 43692.65567		 305.27265			43387.38302		69.64400		324.00000 
 43692.65567		 605.53301			43087.12266		220.86200		875.00000 
 43692.65567		 305.27265			43387.38302		69.64400		324.00000 
 43692.65567		 537.27032			43155.38535		220.86200		875.00000 
 43692.65567		 305.27265			43387.38302		69.64400		324.00000 
 43692.65567		 537.27032			43155.38535		220.86200		875.00000 
 43692.65567		 305.27265			43387.38302		69.64400		324.00000 
 43692.65567		 537.27032			43155.38535		220.86200		875.00000 
 43692.65567		 305.27265			43387.38302		69.64400		324.00000 
 43692.65567		 537.27032			43155.38535		220.86200		875.00000 
 43692.65567		 305.27265			43387.38302		69.64400		324.00000 
 43692.65567		 537.27032			43155.38535		220.86200		875.00000 
 43692.65567		 305.27265			43387.38302		69.64400		324.00000 
 43692.65567		 537.27032			43155.38535		220.86200		875.00000 
 43692.65567		 305.27265			43387.38302		69.64400		324.00000 
 43692.65567		 537.27032			43155.38535		220.86200		875.00000 
 43692.65567		 305.27265			43387.38302		69.64400		324.00000 
 43692.65567		 537.27032			43155.38535		220.86200		875.00000 
 43692.65567		 305.27265			43387.38302		69.64400		324.00000 
 43692.65567		 537.27032			43155.38535		220.86200		875.00000 
 43692.65567		 305.27265			43387.38302		69.64400		324.00000 
 43692.65567		 537.27032			43155.38535		220.86200		875.00000 
 43692.65567		 305.27265			43387.38302		69.64400		324.00000 
 43692.65567		 537.27032			43155.38535		220.86200		875.00000 
 43692.65567		 305.27265			43387.38302		69.64400		324.00000 
 43692.65567		 537.27032			43155.38535		220.86200		875.00000 
 43692.65567		 305.27265			43387.38302		69.64400		324.00000 
 43692.65567		 537.27032			43155.38535		220.86200		875.00000 
 43692.65567		 305.27265			43387.38302		69.64400		324.00000 
 43692.65567		 537.27032			43155.38535		199.11400		875.00000 
 43692.65567		 305.27265			43387.38302		69.64400		324.00000 
 43692.65567		 537.27032			43155.38535		199.11400		875.00000 
 43692.65567		 305.27265			43387.38302		69.64400		324.00000 
 43692.65567		 537.27032			43155.38535		199.11400		875.00000 
 43692.65567		 305.27265			43387.38302		69.64400		324.00000 
 43692.65567		 537.27032			43155.38535		199.11400		875.00000 
 43692.65567		 305.27265			43387.38302		69.64400		324.00000 
 43692.65567		 537.27032			43155.38535		199.11400		875.00000 
 43692.65567		 305.27265			43387.38302		69.64400		324.00000 
 43692.65567		 537.27032			43155.38535		199.11400		875.00000 
 43692.65567		 305.27265			43387.38302		69.64400		324.00000 
 43692.65567		 537.27032			43155.38535		199.11400		875.00000 
 43692.65567		 305.27265			43387.38302		69.64400		324.00000 
 43692.65567		 537.27032			43155.38535		199.11400		875.00000 
 43692.65567		 305.27265			43387.38302		69.64400		324.00000 
 43692.65567		 525.81365			43166.84203		199.11400		875.00000 
 43692.65567		 305.27265			43387.38302		69.64400		324.00000 
 43692.65567		 525.81365			43166.84203		199.11400		875.00000 
 43692.65567		 261.35540			43431.30027		69.64400		324.00000 
 43692.65567		 261.35540			43431.30027		199.11400		875.00000 
 43692.65567		 261.35540			43431.30027		69.64400		324.00000 
