Memory Total (MiB) 	 Memory Used (MiB) 	    Memory Free (MiB) 	 Power Drawed (W) 	 Clocks (Mhz) 	 
 43692.65567		 261.35540			43431.30027		196.25200		875.00000 
 43692.65567		 261.35540			43431.30027		67.17200		324.00000 
 43692.65567		 261.35540			43431.30027		196.25200		875.00000 
 43692.65567		 261.35540			43431.30027		67.17200		324.00000 
 43692.65567		 261.35540			43431.30027		196.25200		875.00000 
 43692.65567		 261.35540			43431.30027		67.17200		324.00000 
 43692.65567		 261.35540			43431.30027		196.25200		875.00000 
 43692.65567		 261.35540			43431.30027		67.17200		324.00000 
 43692.65567		 261.35540			43431.30027		196.25200		875.00000 
 43692.65567		 261.35540			43431.30027		67.17200		324.00000 
 43692.65567		 261.35540			43431.30027		196.25200		875.00000 
 43692.65567		 261.35540			43431.30027		67.17200		324.00000 
 43692.65567		 261.35540			43431.30027		196.25200		875.00000 
 43692.65567		 261.35540			43431.30027		67.17200		324.00000 
 43692.65567		 261.35540			43431.30027		196.25200		875.00000 
 43692.65567		 261.35540			43431.30027		67.17200		324.00000 
 43692.65567		 261.35540			43431.30027		196.25200		875.00000 
 43692.65567		 261.35540			43431.30027		67.17200		324.00000 
 43692.65567		 261.35540			43431.30027		196.25200		875.00000 
 43692.65567		 261.35540			43431.30027		67.17200		324.00000 
 43692.65567		 261.35540			43431.30027		196.25200		875.00000 
 43692.65567		 261.35540			43431.30027		67.17200		324.00000 
 43692.65567		 261.35540			43431.30027		196.25200		875.00000 
 43692.65567		 261.35540			43431.30027		67.17200		324.00000 
 43692.65567		 261.35540			43431.30027		196.25200		875.00000 
 43692.65567		 261.35540			43431.30027		67.17200		324.00000 
 43692.65567		 261.35540			43431.30027		196.25200		875.00000 
 43692.65567		 261.35540			43431.30027		67.17200		324.00000 
 43692.65567		 261.35540			43431.30027		196.25200		875.00000 
 43692.65567		 261.35540			43431.30027		67.17200		324.00000 
 43692.65567		 261.35540			43431.30027		196.25200		875.00000 
 43692.65567		 261.35540			43431.30027		67.17200		324.00000 
 43692.65567		 261.35540			43431.30027		196.25200		875.00000 
 43692.65567		 261.35540			43431.30027		67.17200		324.00000 
 43692.65567		 261.35540			43431.30027		196.25200		875.00000 
 43692.65567		 261.35540			43431.30027		67.17200		324.00000 
 43692.65567		 265.17429			43427.48138		196.25200		875.00000 
 43692.65567		 261.35540			43431.30027		67.17200		324.00000 
 43692.65567		 265.17429			43427.48138		196.25200		875.00000 
 43692.65567		 261.35540			43431.30027		67.17200		324.00000 
 43692.65567		 272.81207			43419.84360		156.32800		875.00000 
 43692.65567		 261.35540			43431.30027		67.17200		324.00000 
 43692.65567		 272.81207			43419.84360		156.32800		875.00000 
 43692.65567		 261.35540			43431.30027		67.17200		324.00000 
 43692.65567		 272.81207			43419.84360		156.32800		875.00000 
 43692.65567		 265.17429			43427.48138		67.17200		324.00000 
 43692.65567		 272.81207			43419.84360		156.32800		875.00000 
 43692.65567		 265.17429			43427.48138		67.17200		324.00000 
 43692.65567		 272.81207			43419.84360		156.32800		875.00000 
 43692.65567		 272.81207			43419.84360		67.17200		324.00000 
 43692.65567		 272.81207			43419.84360		156.32800		875.00000 
 43692.65567		 272.81207			43419.84360		67.17200		324.00000 
 43692.65567		 272.81207			43419.84360		156.32800		875.00000 
 43692.65567		 272.81207			43419.84360		67.17200		324.00000 
 43692.65567		 272.81207			43419.84360		156.32800		875.00000 
 43692.65567		 272.81207			43419.84360		67.17200		324.00000 
 43692.65567		 305.27265			43387.38302		156.32800		875.00000 
 43692.65567		 305.27265			43387.38302		67.17200		324.00000 
 43692.65567		 305.27265			43387.38302		156.32800		875.00000 
 43692.65567		 305.27265			43387.38302		67.17200		324.00000 
 43692.65567		 305.27265			43387.38302		156.32800		875.00000 
 43692.65567		 305.27265			43387.38302		67.17200		324.00000 
 43692.65567		 305.27265			43387.38302		156.32800		875.00000 
 43692.65567		 305.27265			43387.38302		67.17200		324.00000 
 43692.65567		 305.27265			43387.38302		156.32800		875.00000 
 43692.65567		 305.27265			43387.38302		67.17200		324.00000 
 43692.65567		 309.56891			43383.08677		156.32800		875.00000 
 43692.65567		 305.27265			43387.38302		67.17200		324.00000 
 43692.65567		 311.00099			43381.65468		156.32800		875.00000 
 43692.65567		 305.27265			43387.38302		67.17200		324.00000 
 43692.65567		 311.00099			43381.65468		156.32800		875.00000 
 43692.65567		 305.27265			43387.38302		67.17200		324.00000 
 43692.65567		 311.00099			43381.65468		156.32800		875.00000 
 43692.65567		 305.27265			43387.38302		67.17200		324.00000 
 43692.65567		 311.00099			43381.65468		156.32800		875.00000 
 43692.65567		 305.27265			43387.38302		67.17200		324.00000 
 43692.65567		 311.00099			43381.65468		156.32800		875.00000 
 43692.65567		 305.27265			43387.38302		67.17200		324.00000 
 43692.65567		 311.00099			43381.65468		156.32800		875.00000 
 43692.65567		 305.27265			43387.38302		67.17200		324.00000 
 43692.65567		 311.00099			43381.65468		156.32800		875.00000 
 43692.65567		 305.27265			43387.38302		67.17200		324.00000 
 43692.65567		 311.00099			43381.65468		156.32800		875.00000 
 43692.65567		 305.27265			43387.38302		67.17200		324.00000 
 43692.65567		 311.00099			43381.65468		156.32800		875.00000 
 43692.65567		 305.27265			43387.38302		67.17200		324.00000 
 43692.65567		 311.00099			43381.65468		156.32800		875.00000 
 43692.65567		 305.27265			43387.38302		67.17200		324.00000 
 43692.65567		 311.00099			43381.65468		156.32800		875.00000 
 43692.65567		 305.27265			43387.38302		67.17200		324.00000 
 43692.65567		 311.00099			43381.65468		156.32800		875.00000 
 43692.65567		 305.27265			43387.38302		67.17200		324.00000 
 43692.65567		 311.00099			43381.65468		156.32800		875.00000 
 43692.65567		 305.27265			43387.38302		67.17200		324.00000 
 43692.65567		 311.00099			43381.65468		156.32800		875.00000 
 43692.65567		 305.27265			43387.38302		67.17200		324.00000 
 43692.65567		 311.00099			43381.65468		156.32800		875.00000 
 43692.65567		 305.27265			43387.38302		67.17200		324.00000 
 43692.65567		 311.00099			43381.65468		156.32800		875.00000 
 43692.65567		 305.27265			43387.38302		67.17200		324.00000 
 43692.65567		 311.00099			43381.65468		156.32800		875.00000 
 43692.65567		 305.27265			43387.38302		67.17200		324.00000 
 43692.65567		 311.00099			43381.65468		156.32800		875.00000 
 43692.65567		 305.27265			43387.38302		67.17200		324.00000 
 43692.65567		 311.00099			43381.65468		156.32800		875.00000 
 43692.65567		 305.27265			43387.38302		67.17200		324.00000 
 43692.65567		 311.00099			43381.65468		140.32600		875.00000 
 43692.65567		 305.27265			43387.38302		67.17200		324.00000 
 43692.65567		 311.00099			43381.65468		140.32600		875.00000 
 43692.65567		 305.27265			43387.38302		67.17200		324.00000 
 43692.65567		 311.00099			43381.65468		140.32600		875.00000 
 43692.65567		 305.27265			43387.38302		67.17200		324.00000 
 43692.65567		 311.00099			43381.65468		140.32600		875.00000 
 43692.65567		 305.27265			43387.38302		67.17200		324.00000 
 43692.65567		 311.00099			43381.65468		140.32600		875.00000 
 43692.65567		 305.27265			43387.38302		67.17200		324.00000 
 43692.65567		 311.00099			43381.65468		140.32600		875.00000 
 43692.65567		 305.27265			43387.38302		67.17200		324.00000 
 43692.65567		 311.00099			43381.65468		140.32600		875.00000 
 43692.65567		 305.27265			43387.38302		67.17200		324.00000 
 43692.65567		 311.00099			43381.65468		140.32600		875.00000 
 43692.65567		 305.27265			43387.38302		67.17200		324.00000 
 43692.65567		 311.00099			43381.65468		140.32600		875.00000 
 43692.65567		 305.27265			43387.38302		67.17200		324.00000 
 43692.65567		 311.00099			43381.65468		140.32600		875.00000 
 43692.65567		 305.27265			43387.38302		67.17200		324.00000 
 43692.65567		 311.00099			43381.65468		140.32600		875.00000 
 43692.65567		 305.27265			43387.38302		67.17200		324.00000 
 43692.65567		 311.00099			43381.65468		140.32600		875.00000 
 43692.65567		 305.27265			43387.38302		67.17200		324.00000 
 43692.65567		 311.00099			43381.65468		140.32600		875.00000 
 43692.65567		 305.27265			43387.38302		67.17200		324.00000 
 43692.65567		 311.00099			43381.65468		140.32600		875.00000 
 43692.65567		 305.27265			43387.38302		67.17200		324.00000 
 43692.65567		 311.00099			43381.65468		140.32600		875.00000 
 43692.65567		 305.27265			43387.38302		67.17200		324.00000 
 43692.65567		 311.00099			43381.65468		140.32600		875.00000 
 43692.65567		 305.27265			43387.38302		67.17200		324.00000 
 43692.65567		 311.00099			43381.65468		140.32600		875.00000 
 43692.65567		 305.27265			43387.38302		67.17200		324.00000 
 43692.65567		 311.00099			43381.65468		140.32600		875.00000 
 43692.65567		 305.27265			43387.38302		67.17200		324.00000 
 43692.65567		 311.00099			43381.65468		140.32600		875.00000 
 43692.65567		 305.27265			43387.38302		67.17200		324.00000 
 43692.65567		 311.00099			43381.65468		140.32600		875.00000 
 43692.65567		 305.27265			43387.38302		67.17200		324.00000 
 43692.65567		 311.00099			43381.65468		140.32600		875.00000 
 43692.65567		 305.27265			43387.38302		67.17200		324.00000 
 43692.65567		 311.00099			43381.65468		140.32600		875.00000 
 43692.65567		 305.27265			43387.38302		67.17200		324.00000 
 43692.65567		 311.00099			43381.65468		140.32600		875.00000 
 43692.65567		 305.27265			43387.38302		67.17200		324.00000 
 43692.65567		 311.00099			43381.65468		140.32600		875.00000 
 43692.65567		 305.27265			43387.38302		67.17200		324.00000 
 43692.65567		 311.00099			43381.65468		140.32600		875.00000 
 43692.65567		 305.27265			43387.38302		67.17200		324.00000 
 43692.65567		 311.00099			43381.65468		140.32600		875.00000 
 43692.65567		 305.27265			43387.38302		64.65000		324.00000 
 43692.65567		 311.00099			43381.65468		140.32600		875.00000 
 43692.65567		 305.27265			43387.38302		64.65000		324.00000 
 43692.65567		 311.00099			43381.65468		140.32600		875.00000 
 43692.65567		 305.27265			43387.38302		64.65000		324.00000 
 43692.65567		 311.00099			43381.65468		140.32600		875.00000 
 43692.65567		 305.27265			43387.38302		64.65000		324.00000 
 43692.65567		 311.00099			43381.65468		134.93600		875.00000 
 43692.65567		 305.27265			43387.38302		64.65000		324.00000 
 43692.65567		 311.00099			43381.65468		134.93600		875.00000 
 43692.65567		 305.27265			43387.38302		64.65000		324.00000 
 43692.65567		 314.81988			43377.83579		134.93600		875.00000 
 43692.65567		 305.27265			43387.38302		64.65000		324.00000 
 43692.65567		 314.81988			43377.83579		134.93600		875.00000 
 43692.65567		 305.27265			43387.38302		64.65000		324.00000 
 43692.65567		 314.81988			43377.83579		134.93600		875.00000 
 43692.65567		 305.27265			43387.38302		64.65000		324.00000 
 43692.65567		 318.63877			43374.01690		134.93600		875.00000 
 43692.65567		 305.27265			43387.38302		64.65000		324.00000 
 43692.65567		 322.45767			43370.19801		134.93600		875.00000 
 43692.65567		 305.27265			43387.38302		64.65000		324.00000 
 43692.65567		 326.27656			43366.37912		134.93600		875.00000 
 43692.65567		 305.27265			43387.38302		64.65000		324.00000 
 43692.65567		 326.27656			43366.37912		134.93600		875.00000 
 43692.65567		 305.27265			43387.38302		64.65000		324.00000 
 43692.65567		 326.27656			43366.37912		134.93600		875.00000 
 43692.65567		 305.27265			43387.38302		64.65000		324.00000 
 43692.65567		 537.27032			43155.38535		134.93600		875.00000 
 43692.65567		 305.27265			43387.38302		64.65000		324.00000 
 43692.65567		 589.78008			43102.87559		134.93600		875.00000 
 43692.65567		 305.27265			43387.38302		64.65000		324.00000 
 43692.65567		 616.03496			43076.62071		134.93600		875.00000 
 43692.65567		 305.27265			43387.38302		64.65000		324.00000 
 43692.65567		 616.03496			43076.62071		134.93600		875.00000 
 43692.65567		 305.27265			43387.38302		64.65000		324.00000 
 43692.65567		 616.03496			43076.62071		134.93600		875.00000 
 43692.65567		 305.27265			43387.38302		64.65000		324.00000 
 43692.65567		 616.03496			43076.62071		134.93600		875.00000 
 43692.65567		 305.27265			43387.38302		64.65000		324.00000 
 43692.65567		 616.03496			43076.62071		134.93600		875.00000 
 43692.65567		 305.27265			43387.38302		64.65000		324.00000 
 43692.65567		 616.03496			43076.62071		134.93600		875.00000 
 43692.65567		 305.27265			43387.38302		64.65000		324.00000 
 43692.65567		 616.03496			43076.62071		134.93600		875.00000 
 43692.65567		 305.27265			43387.38302		64.65000		324.00000 
 43692.65567		 616.03496			43076.62071		134.93600		875.00000 
 43692.65567		 305.27265			43387.38302		64.65000		324.00000 
 43692.65567		 616.03496			43076.62071		134.93600		875.00000 
 43692.65567		 305.27265			43387.38302		64.65000		324.00000 
 43692.65567		 616.03496			43076.62071		134.93600		875.00000 
 43692.65567		 305.27265			43387.38302		64.65000		324.00000 
 43692.65567		 616.03496			43076.62071		134.93600		875.00000 
 43692.65567		 305.27265			43387.38302		64.65000		324.00000 
 43692.65567		 616.03496			43076.62071		134.93600		875.00000 
 43692.65567		 305.27265			43387.38302		64.65000		324.00000 
 43692.65567		 616.03496			43076.62071		134.93600		875.00000 
 43692.65567		 305.27265			43387.38302		64.65000		324.00000 
 43692.65567		 616.03496			43076.62071		134.93600		875.00000 
 43692.65567		 305.27265			43387.38302		64.65000		324.00000 
 43692.65567		 616.03496			43076.62071		134.93600		875.00000 
 43692.65567		 305.27265			43387.38302		64.65000		324.00000 
 43692.65567		 616.03496			43076.62071		134.93600		875.00000 
 43692.65567		 305.27265			43387.38302		64.65000		324.00000 
 43692.65567		 616.03496			43076.62071		134.93600		875.00000 
 43692.65567		 305.27265			43387.38302		64.65000		324.00000 
 43692.65567		 616.03496			43076.62071		134.93600		875.00000 
 43692.65567		 305.27265			43387.38302		64.65000		324.00000 
 43692.65567		 616.03496			43076.62071		134.93600		875.00000 
 43692.65567		 305.27265			43387.38302		64.65000		324.00000 
 43692.65567		 616.03496			43076.62071		134.93600		875.00000 
 43692.65567		 305.27265			43387.38302		64.65000		324.00000 
 43692.65567		 616.03496			43076.62071		134.93600		875.00000 
 43692.65567		 305.27265			43387.38302		64.65000		324.00000 
 43692.65567		 616.03496			43076.62071		134.93600		875.00000 
 43692.65567		 305.27265			43387.38302		64.65000		324.00000 
 43692.65567		 616.03496			43076.62071		134.93600		875.00000 
 43692.65567		 305.27265			43387.38302		64.65000		324.00000 
 43692.65567		 616.03496			43076.62071		134.93600		875.00000 
 43692.65567		 305.27265			43387.38302		64.65000		324.00000 
 43692.65567		 616.03496			43076.62071		134.93600		875.00000 
 43692.65567		 305.27265			43387.38302		64.65000		324.00000 
 43692.65567		 616.03496			43076.62071		134.93600		875.00000 
 43692.65567		 305.27265			43387.38302		64.65000		324.00000 
 43692.65567		 616.03496			43076.62071		134.93600		875.00000 
 43692.65567		 305.27265			43387.38302		64.65000		324.00000 
 43692.65567		 616.03496			43076.62071		134.93600		875.00000 
 43692.65567		 305.27265			43387.38302		64.65000		324.00000 
 43692.65567		 616.03496			43076.62071		134.93600		875.00000 
 43692.65567		 305.27265			43387.38302		64.65000		324.00000 
 43692.65567		 616.03496			43076.62071		134.93600		875.00000 
 43692.65567		 305.27265			43387.38302		64.65000		324.00000 
 43692.65567		 616.03496			43076.62071		134.93600		875.00000 
 43692.65567		 305.27265			43387.38302		64.65000		324.00000 
 43692.65567		 616.03496			43076.62071		134.93600		875.00000 
 43692.65567		 305.27265			43387.38302		64.65000		324.00000 
 43692.65567		 616.03496			43076.62071		134.93600		875.00000 
 43692.65567		 305.27265			43387.38302		64.65000		324.00000 
 43692.65567		 616.03496			43076.62071		134.93600		875.00000 
 43692.65567		 305.27265			43387.38302		64.65000		324.00000 
 43692.65567		 616.03496			43076.62071		134.93600		875.00000 
 43692.65567		 305.27265			43387.38302		64.65000		324.00000 
 43692.65567		 616.03496			43076.62071		134.93600		875.00000 
 43692.65567		 305.27265			43387.38302		64.65000		324.00000 
 43692.65567		 616.03496			43076.62071		134.93600		875.00000 
 43692.65567		 305.27265			43387.38302		64.65000		324.00000 
 43692.65567		 616.03496			43076.62071		134.93600		875.00000 
 43692.65567		 305.27265			43387.38302		64.65000		324.00000 
 43692.65567		 616.03496			43076.62071		134.93600		875.00000 
 43692.65567		 305.27265			43387.38302		64.65000		324.00000 
 43692.65567		 616.03496			43076.62071		134.93600		875.00000 
 43692.65567		 305.27265			43387.38302		64.65000		324.00000 
 43692.65567		 616.03496			43076.62071		134.93600		875.00000 
 43692.65567		 305.27265			43387.38302		64.65000		324.00000 
 43692.65567		 616.03496			43076.62071		134.93600		875.00000 
 43692.65567		 305.27265			43387.38302		64.65000		324.00000 
 43692.65567		 616.03496			43076.62071		134.93600		875.00000 
 43692.65567		 305.27265			43387.38302		64.65000		324.00000 
 43692.65567		 616.03496			43076.62071		134.93600		875.00000 
 43692.65567		 305.27265			43387.38302		64.65000		324.00000 
 43692.65567		 616.03496			43076.62071		134.93600		875.00000 
 43692.65567		 305.27265			43387.38302		64.65000		324.00000 
 43692.65567		 616.03496			43076.62071		134.93600		875.00000 
 43692.65567		 305.27265			43387.38302		64.65000		324.00000 
 43692.65567		 616.03496			43076.62071		174.65000		875.00000 
 43692.65567		 305.27265			43387.38302		64.65000		324.00000 
 43692.65567		 616.03496			43076.62071		174.65000		875.00000 
 43692.65567		 305.27265			43387.38302		64.65000		324.00000 
 43692.65567		 616.03496			43076.62071		174.65000		875.00000 
 43692.65567		 305.27265			43387.38302		64.65000		324.00000 
 43692.65567		 616.03496			43076.62071		174.65000		875.00000 
 43692.65567		 305.27265			43387.38302		64.65000		324.00000 
 43692.65567		 616.03496			43076.62071		174.65000		875.00000 
 43692.65567		 305.27265			43387.38302		64.65000		324.00000 
 43692.65567		 616.03496			43076.62071		174.65000		875.00000 
 43692.65567		 305.27265			43387.38302		64.65000		324.00000 
 43692.65567		 616.03496			43076.62071		174.65000		875.00000 
 43692.65567		 305.27265			43387.38302		64.65000		324.00000 
 43692.65567		 616.03496			43076.62071		174.65000		875.00000 
 43692.65567		 305.27265			43387.38302		64.65000		324.00000 
 43692.65567		 616.03496			43076.62071		174.65000		875.00000 
 43692.65567		 305.27265			43387.38302		64.65000		324.00000 
 43692.65567		 616.03496			43076.62071		174.65000		875.00000 
 43692.65567		 305.27265			43387.38302		64.65000		324.00000 
 43692.65567		 616.03496			43076.62071		174.65000		875.00000 
 43692.65567		 305.27265			43387.38302		64.65000		324.00000 
 43692.65567		 616.03496			43076.62071		174.65000		875.00000 
 43692.65567		 305.27265			43387.38302		64.65000		324.00000 
 43692.65567		 616.03496			43076.62071		174.65000		875.00000 
 43692.65567		 305.27265			43387.38302		64.65000		324.00000 
 43692.65567		 616.03496			43076.62071		174.65000		875.00000 
 43692.65567		 305.27265			43387.38302		64.65000		324.00000 
 43692.65567		 616.03496			43076.62071		174.65000		875.00000 
 43692.65567		 305.27265			43387.38302		64.65000		324.00000 
 43692.65567		 616.03496			43076.62071		174.65000		875.00000 
 43692.65567		 305.27265			43387.38302		64.65000		324.00000 
 43692.65567		 616.03496			43076.62071		174.65000		875.00000 
 43692.65567		 305.27265			43387.38302		64.65000		324.00000 
 43692.65567		 616.03496			43076.62071		174.65000		875.00000 
 43692.65567		 305.27265			43387.38302		64.65000		324.00000 
 43692.65567		 616.03496			43076.62071		174.65000		875.00000 
 43692.65567		 305.27265			43387.38302		64.65000		324.00000 
 43692.65567		 616.03496			43076.62071		174.65000		875.00000 
 43692.65567		 305.27265			43387.38302		64.65000		324.00000 
 43692.65567		 616.03496			43076.62071		174.65000		875.00000 
 43692.65567		 305.27265			43387.38302		64.65000		324.00000 
 43692.65567		 616.03496			43076.62071		174.65000		875.00000 
 43692.65567		 305.27265			43387.38302		64.65000		324.00000 
 43692.65567		 616.03496			43076.62071		174.65000		875.00000 
 43692.65567		 305.27265			43387.38302		64.65000		324.00000 
 43692.65567		 616.03496			43076.62071		174.65000		875.00000 
 43692.65567		 305.27265			43387.38302		64.65000		324.00000 
 43692.65567		 616.03496			43076.62071		174.65000		875.00000 
 43692.65567		 305.27265			43387.38302		64.65000		324.00000 
 43692.65567		 616.03496			43076.62071		174.65000		875.00000 
 43692.65567		 305.27265			43387.38302		64.65000		324.00000 
 43692.65567		 616.03496			43076.62071		174.65000		875.00000 
 43692.65567		 305.27265			43387.38302		64.65000		324.00000 
 43692.65567		 616.03496			43076.62071		174.65000		875.00000 
 43692.65567		 305.27265			43387.38302		64.65000		324.00000 
 43692.65567		 616.03496			43076.62071		174.65000		875.00000 
 43692.65567		 305.27265			43387.38302		64.65000		324.00000 
 43692.65567		 616.03496			43076.62071		174.65000		875.00000 
 43692.65567		 305.27265			43387.38302		64.65000		324.00000 
 43692.65567		 616.03496			43076.62071		174.65000		875.00000 
 43692.65567		 305.27265			43387.38302		64.65000		324.00000 
 43692.65567		 616.03496			43076.62071		174.65000		875.00000 
 43692.65567		 305.27265			43387.38302		64.65000		324.00000 
 43692.65567		 616.03496			43076.62071		174.65000		875.00000 
 43692.65567		 305.27265			43387.38302		64.65000		324.00000 
 43692.65567		 616.03496			43076.62071		174.65000		875.00000 
 43692.65567		 305.27265			43387.38302		64.65000		324.00000 
 43692.65567		 616.03496			43076.62071		174.65000		875.00000 
 43692.65567		 305.27265			43387.38302		64.65000		324.00000 
 43692.65567		 616.03496			43076.62071		174.65000		875.00000 
 43692.65567		 305.27265			43387.38302		64.65000		324.00000 
 43692.65567		 616.03496			43076.62071		174.65000		875.00000 
 43692.65567		 305.27265			43387.38302		64.65000		324.00000 
 43692.65567		 616.03496			43076.62071		174.65000		875.00000 
 43692.65567		 305.27265			43387.38302		64.65000		324.00000 
 43692.65567		 616.03496			43076.62071		174.65000		875.00000 
 43692.65567		 305.27265			43387.38302		64.65000		324.00000 
 43692.65567		 616.03496			43076.62071		174.65000		875.00000 
 43692.65567		 305.27265			43387.38302		64.65000		324.00000 
 43692.65567		 616.03496			43076.62071		174.65000		875.00000 
 43692.65567		 305.27265			43387.38302		64.65000		324.00000 
 43692.65567		 616.03496			43076.62071		174.65000		875.00000 
 43692.65567		 305.27265			43387.38302		64.65000		324.00000 
 43692.65567		 616.03496			43076.62071		174.65000		875.00000 
 43692.65567		 305.27265			43387.38302		64.65000		324.00000 
 43692.65567		 616.03496			43076.62071		174.65000		875.00000 
 43692.65567		 305.27265			43387.38302		64.65000		324.00000 
 43692.65567		 616.03496			43076.62071		174.65000		875.00000 
 43692.65567		 305.27265			43387.38302		64.65000		324.00000 
 43692.65567		 616.03496			43076.62071		174.65000		875.00000 
 43692.65567		 305.27265			43387.38302		64.65000		324.00000 
 43692.65567		 616.03496			43076.62071		174.65000		875.00000 
 43692.65567		 305.27265			43387.38302		64.65000		324.00000 
 43692.65567		 616.03496			43076.62071		174.65000		875.00000 
 43692.65567		 305.27265			43387.38302		64.65000		324.00000 
 43692.65567		 616.03496			43076.62071		174.65000		875.00000 
 43692.65567		 305.27265			43387.38302		64.65000		324.00000 
 43692.65567		 616.03496			43076.62071		174.65000		875.00000 
 43692.65567		 305.27265			43387.38302		64.65000		324.00000 
 43692.65567		 616.03496			43076.62071		174.65000		875.00000 
 43692.65567		 305.27265			43387.38302		64.65000		324.00000 
 43692.65567		 616.03496			43076.62071		174.65000		875.00000 
 43692.65567		 305.27265			43387.38302		64.65000		324.00000 
 43692.65567		 616.03496			43076.62071		174.65000		875.00000 
 43692.65567		 305.27265			43387.38302		64.65000		324.00000 
 43692.65567		 616.03496			43076.62071		174.65000		875.00000 
 43692.65567		 305.27265			43387.38302		64.65000		324.00000 
 43692.65567		 616.03496			43076.62071		174.65000		875.00000 
 43692.65567		 305.27265			43387.38302		64.65000		324.00000 
 43692.65567		 616.03496			43076.62071		174.65000		875.00000 
 43692.65567		 305.27265			43387.38302		64.65000		324.00000 
 43692.65567		 616.03496			43076.62071		174.65000		875.00000 
 43692.65567		 305.27265			43387.38302		64.65000		324.00000 
 43692.65567		 616.03496			43076.62071		174.65000		875.00000 
 43692.65567		 305.27265			43387.38302		64.65000		324.00000 
 43692.65567		 616.03496			43076.62071		174.65000		875.00000 
 43692.65567		 305.27265			43387.38302		64.65000		324.00000 
 43692.65567		 616.03496			43076.62071		174.65000		875.00000 
 43692.65567		 305.27265			43387.38302		64.65000		324.00000 
 43692.65567		 616.03496			43076.62071		174.65000		875.00000 
 43692.65567		 305.27265			43387.38302		64.65000		324.00000 
 43692.65567		 616.03496			43076.62071		174.65000		875.00000 
 43692.65567		 305.27265			43387.38302		64.65000		324.00000 
 43692.65567		 616.03496			43076.62071		174.65000		875.00000 
 43692.65567		 305.27265			43387.38302		64.65000		324.00000 
 43692.65567		 616.03496			43076.62071		174.65000		875.00000 
 43692.65567		 305.27265			43387.38302		64.65000		324.00000 
 43692.65567		 616.03496			43076.62071		200.25400		875.00000 
 43692.65567		 305.27265			43387.38302		64.65000		324.00000 
 43692.65567		 616.03496			43076.62071		200.25400		875.00000 
 43692.65567		 305.27265			43387.38302		64.65000		324.00000 
 43692.65567		 616.03496			43076.62071		200.25400		875.00000 
 43692.65567		 305.27265			43387.38302		64.65000		324.00000 
 43692.65567		 616.03496			43076.62071		200.25400		875.00000 
 43692.65567		 305.27265			43387.38302		64.65000		324.00000 
 43692.65567		 616.03496			43076.62071		200.25400		875.00000 
 43692.65567		 305.27265			43387.38302		64.65000		324.00000 
 43692.65567		 616.03496			43076.62071		200.25400		875.00000 
 43692.65567		 305.27265			43387.38302		64.65000		324.00000 
 43692.65567		 616.03496			43076.62071		200.25400		875.00000 
 43692.65567		 305.27265			43387.38302		64.65000		324.00000 
 43692.65567		 616.03496			43076.62071		200.25400		875.00000 
 43692.65567		 305.27265			43387.38302		64.65000		324.00000 
 43692.65567		 616.03496			43076.62071		200.25400		875.00000 
 43692.65567		 305.27265			43387.38302		64.65000		324.00000 
 43692.65567		 616.03496			43076.62071		200.25400		875.00000 
 43692.65567		 305.27265			43387.38302		64.65000		324.00000 
 43692.65567		 616.03496			43076.62071		200.25400		875.00000 
 43692.65567		 305.27265			43387.38302		64.65000		324.00000 
 43692.65567		 616.03496			43076.62071		200.25400		875.00000 
 43692.65567		 305.27265			43387.38302		64.65000		324.00000 
 43692.65567		 616.03496			43076.62071		200.25400		875.00000 
 43692.65567		 305.27265			43387.38302		64.65000		324.00000 
 43692.65567		 616.03496			43076.62071		200.25400		875.00000 
 43692.65567		 305.27265			43387.38302		64.65000		324.00000 
 43692.65567		 616.03496			43076.62071		200.25400		875.00000 
 43692.65567		 305.27265			43387.38302		64.65000		324.00000 
 43692.65567		 616.03496			43076.62071		200.25400		875.00000 
 43692.65567		 305.27265			43387.38302		64.65000		324.00000 
 43692.65567		 616.03496			43076.62071		200.25400		875.00000 
 43692.65567		 305.27265			43387.38302		64.65000		324.00000 
 43692.65567		 616.03496			43076.62071		200.25400		875.00000 
 43692.65567		 305.27265			43387.38302		64.65000		324.00000 
 43692.65567		 616.03496			43076.62071		200.25400		875.00000 
 43692.65567		 305.27265			43387.38302		64.65000		324.00000 
 43692.65567		 616.03496			43076.62071		200.25400		875.00000 
 43692.65567		 305.27265			43387.38302		64.65000		324.00000 
 43692.65567		 616.03496			43076.62071		200.25400		875.00000 
 43692.65567		 305.27265			43387.38302		64.65000		324.00000 
 43692.65567		 616.03496			43076.62071		200.25400		875.00000 
 43692.65567		 305.27265			43387.38302		64.65000		324.00000 
 43692.65567		 616.03496			43076.62071		200.25400		875.00000 
 43692.65567		 305.27265			43387.38302		64.65000		324.00000 
 43692.65567		 616.03496			43076.62071		200.25400		875.00000 
 43692.65567		 305.27265			43387.38302		64.65000		324.00000 
 43692.65567		 616.03496			43076.62071		200.25400		875.00000 
 43692.65567		 305.27265			43387.38302		64.65000		324.00000 
 43692.65567		 616.03496			43076.62071		200.25400		875.00000 
 43692.65567		 305.27265			43387.38302		64.65000		324.00000 
 43692.65567		 616.03496			43076.62071		200.25400		875.00000 
 43692.65567		 305.27265			43387.38302		64.65000		324.00000 
 43692.65567		 616.03496			43076.62071		200.25400		875.00000 
 43692.65567		 305.27265			43387.38302		64.65000		324.00000 
 43692.65567		 616.03496			43076.62071		200.25400		875.00000 
 43692.65567		 305.27265			43387.38302		64.65000		324.00000 
 43692.65567		 616.03496			43076.62071		200.25400		875.00000 
 43692.65567		 305.27265			43387.38302		64.65000		324.00000 
 43692.65567		 616.03496			43076.62071		200.25400		875.00000 
 43692.65567		 305.27265			43387.38302		64.65000		324.00000 
 43692.65567		 616.03496			43076.62071		200.25400		875.00000 
 43692.65567		 305.27265			43387.38302		64.65000		324.00000 
 43692.65567		 616.03496			43076.62071		200.25400		875.00000 
 43692.65567		 305.27265			43387.38302		64.65000		324.00000 
 43692.65567		 616.03496			43076.62071		200.25400		875.00000 
 43692.65567		 305.27265			43387.38302		64.65000		324.00000 
 43692.65567		 616.03496			43076.62071		200.25400		875.00000 
 43692.65567		 305.27265			43387.38302		64.65000		324.00000 
 43692.65567		 616.03496			43076.62071		200.25400		875.00000 
 43692.65567		 305.27265			43387.38302		64.65000		324.00000 
 43692.65567		 616.03496			43076.62071		200.25400		875.00000 
 43692.65567		 305.27265			43387.38302		64.65000		324.00000 
 43692.65567		 616.03496			43076.62071		200.25400		875.00000 
 43692.65567		 305.27265			43387.38302		64.65000		324.00000 
 43692.65567		 616.03496			43076.62071		200.25400		875.00000 
 43692.65567		 305.27265			43387.38302		64.65000		324.00000 
 43692.65567		 616.03496			43076.62071		200.25400		875.00000 
 43692.65567		 305.27265			43387.38302		64.65000		324.00000 
 43692.65567		 616.03496			43076.62071		200.25400		875.00000 
 43692.65567		 305.27265			43387.38302		64.65000		324.00000 
 43692.65567		 616.03496			43076.62071		200.25400		875.00000 
 43692.65567		 305.27265			43387.38302		64.65000		324.00000 
 43692.65567		 616.03496			43076.62071		200.25400		875.00000 
 43692.65567		 305.27265			43387.38302		64.65000		324.00000 
 43692.65567		 616.03496			43076.62071		200.25400		875.00000 
 43692.65567		 305.27265			43387.38302		64.65000		324.00000 
 43692.65567		 616.03496			43076.62071		200.25400		875.00000 
 43692.65567		 305.27265			43387.38302		64.65000		324.00000 
 43692.65567		 616.03496			43076.62071		200.25400		875.00000 
 43692.65567		 305.27265			43387.38302		64.65000		324.00000 
 43692.65567		 616.03496			43076.62071		200.25400		875.00000 
 43692.65567		 305.27265			43387.38302		64.65000		324.00000 
 43692.65567		 616.03496			43076.62071		200.25400		875.00000 
 43692.65567		 305.27265			43387.38302		64.65000		324.00000 
 43692.65567		 616.03496			43076.62071		200.25400		875.00000 
 43692.65567		 305.27265			43387.38302		64.65000		324.00000 
 43692.65567		 616.03496			43076.62071		200.25400		875.00000 
 43692.65567		 305.27265			43387.38302		64.65000		324.00000 
 43692.65567		 616.03496			43076.62071		200.25400		875.00000 
 43692.65567		 305.27265			43387.38302		64.65000		324.00000 
 43692.65567		 616.03496			43076.62071		200.25400		875.00000 
 43692.65567		 305.27265			43387.38302		64.65000		324.00000 
 43692.65567		 616.03496			43076.62071		200.25400		875.00000 
 43692.65567		 305.27265			43387.38302		64.65000		324.00000 
 43692.65567		 616.03496			43076.62071		200.25400		875.00000 
 43692.65567		 305.27265			43387.38302		64.65000		324.00000 
 43692.65567		 616.03496			43076.62071		200.25400		875.00000 
 43692.65567		 305.27265			43387.38302		64.65000		324.00000 
 43692.65567		 616.03496			43076.62071		200.25400		875.00000 
 43692.65567		 305.27265			43387.38302		64.65000		324.00000 
 43692.65567		 616.03496			43076.62071		200.25400		875.00000 
 43692.65567		 305.27265			43387.38302		64.65000		324.00000 
 43692.65567		 616.03496			43076.62071		200.25400		875.00000 
 43692.65567		 305.27265			43387.38302		64.65000		324.00000 
 43692.65567		 616.03496			43076.62071		200.25400		875.00000 
 43692.65567		 305.27265			43387.38302		64.65000		324.00000 
 43692.65567		 616.03496			43076.62071		200.25400		875.00000 
 43692.65567		 305.27265			43387.38302		64.65000		324.00000 
 43692.65567		 616.03496			43076.62071		200.25400		875.00000 
 43692.65567		 305.27265			43387.38302		64.65000		324.00000 
 43692.65567		 616.03496			43076.62071		200.25400		875.00000 
 43692.65567		 305.27265			43387.38302		64.65000		324.00000 
 43692.65567		 616.03496			43076.62071		200.25400		875.00000 
 43692.65567		 305.27265			43387.38302		64.65000		324.00000 
 43692.65567		 616.03496			43076.62071		200.25400		875.00000 
 43692.65567		 305.27265			43387.38302		64.65000		324.00000 
 43692.65567		 616.03496			43076.62071		210.60800		875.00000 
 43692.65567		 305.27265			43387.38302		64.65000		324.00000 
 43692.65567		 616.03496			43076.62071		210.60800		875.00000 
 43692.65567		 305.27265			43387.38302		64.65000		324.00000 
 43692.65567		 616.03496			43076.62071		210.60800		875.00000 
 43692.65567		 305.27265			43387.38302		64.65000		324.00000 
 43692.65567		 616.03496			43076.62071		210.60800		875.00000 
 43692.65567		 305.27265			43387.38302		64.65000		324.00000 
 43692.65567		 616.03496			43076.62071		210.60800		875.00000 
 43692.65567		 305.27265			43387.38302		64.65000		324.00000 
 43692.65567		 616.03496			43076.62071		210.60800		875.00000 
 43692.65567		 305.27265			43387.38302		64.65000		324.00000 
 43692.65567		 616.03496			43076.62071		210.60800		875.00000 
 43692.65567		 305.27265			43387.38302		64.65000		324.00000 
 43692.65567		 616.03496			43076.62071		210.60800		875.00000 
 43692.65567		 305.27265			43387.38302		64.65000		324.00000 
 43692.65567		 616.03496			43076.62071		210.60800		875.00000 
 43692.65567		 305.27265			43387.38302		64.65000		324.00000 
 43692.65567		 616.03496			43076.62071		210.60800		875.00000 
 43692.65567		 305.27265			43387.38302		64.65000		324.00000 
 43692.65567		 616.03496			43076.62071		210.60800		875.00000 
 43692.65567		 305.27265			43387.38302		64.65000		324.00000 
 43692.65567		 616.03496			43076.62071		210.60800		875.00000 
 43692.65567		 305.27265			43387.38302		64.65000		324.00000 
 43692.65567		 616.03496			43076.62071		210.60800		875.00000 
 43692.65567		 305.27265			43387.38302		64.65000		324.00000 
 43692.65567		 616.03496			43076.62071		210.60800		875.00000 
 43692.65567		 305.27265			43387.38302		64.65000		324.00000 
 43692.65567		 616.03496			43076.62071		210.60800		875.00000 
 43692.65567		 305.27265			43387.38302		64.65000		324.00000 
 43692.65567		 616.03496			43076.62071		210.60800		875.00000 
 43692.65567		 305.27265			43387.38302		64.65000		324.00000 
 43692.65567		 616.03496			43076.62071		210.60800		875.00000 
 43692.65567		 305.27265			43387.38302		64.65000		324.00000 
 43692.65567		 616.03496			43076.62071		210.60800		875.00000 
 43692.65567		 305.27265			43387.38302		64.65000		324.00000 
 43692.65567		 616.03496			43076.62071		210.60800		875.00000 
 43692.65567		 305.27265			43387.38302		64.65000		324.00000 
 43692.65567		 616.03496			43076.62071		210.60800		875.00000 
 43692.65567		 305.27265			43387.38302		64.65000		324.00000 
 43692.65567		 616.03496			43076.62071		210.60800		875.00000 
 43692.65567		 305.27265			43387.38302		64.65000		324.00000 
 43692.65567		 616.03496			43076.62071		210.60800		875.00000 
 43692.65567		 305.27265			43387.38302		64.65000		324.00000 
 43692.65567		 616.03496			43076.62071		210.60800		875.00000 
 43692.65567		 305.27265			43387.38302		64.65000		324.00000 
 43692.65567		 616.03496			43076.62071		210.60800		875.00000 
 43692.65567		 305.27265			43387.38302		64.65000		324.00000 
 43692.65567		 616.03496			43076.62071		210.60800		875.00000 
 43692.65567		 305.27265			43387.38302		64.65000		324.00000 
 43692.65567		 616.03496			43076.62071		210.60800		875.00000 
 43692.65567		 305.27265			43387.38302		64.65000		324.00000 
 43692.65567		 616.03496			43076.62071		210.60800		875.00000 
 43692.65567		 305.27265			43387.38302		64.65000		324.00000 
 43692.65567		 616.03496			43076.62071		210.60800		875.00000 
 43692.65567		 305.27265			43387.38302		64.65000		324.00000 
 43692.65567		 616.03496			43076.62071		210.60800		875.00000 
 43692.65567		 305.27265			43387.38302		64.65000		324.00000 
 43692.65567		 616.03496			43076.62071		210.60800		875.00000 
 43692.65567		 305.27265			43387.38302		64.65000		324.00000 
 43692.65567		 616.03496			43076.62071		210.60800		875.00000 
 43692.65567		 305.27265			43387.38302		64.65000		324.00000 
 43692.65567		 616.03496			43076.62071		210.60800		875.00000 
 43692.65567		 305.27265			43387.38302		64.65000		324.00000 
 43692.65567		 616.03496			43076.62071		210.60800		875.00000 
 43692.65567		 305.27265			43387.38302		64.65000		324.00000 
 43692.65567		 616.03496			43076.62071		210.60800		875.00000 
 43692.65567		 305.27265			43387.38302		64.65000		324.00000 
 43692.65567		 616.03496			43076.62071		210.60800		875.00000 
 43692.65567		 305.27265			43387.38302		64.65000		324.00000 
 43692.65567		 616.03496			43076.62071		210.60800		875.00000 
 43692.65567		 305.27265			43387.38302		64.65000		324.00000 
 43692.65567		 616.03496			43076.62071		210.60800		875.00000 
 43692.65567		 305.27265			43387.38302		64.65000		324.00000 
 43692.65567		 616.03496			43076.62071		210.60800		875.00000 
 43692.65567		 305.27265			43387.38302		64.65000		324.00000 
 43692.65567		 616.03496			43076.62071		210.60800		875.00000 
 43692.65567		 305.27265			43387.38302		64.65000		324.00000 
 43692.65567		 616.03496			43076.62071		210.60800		875.00000 
 43692.65567		 305.27265			43387.38302		64.65000		324.00000 
 43692.65567		 616.03496			43076.62071		210.60800		875.00000 
 43692.65567		 305.27265			43387.38302		64.65000		324.00000 
 43692.65567		 616.03496			43076.62071		210.60800		875.00000 
 43692.65567		 305.27265			43387.38302		64.65000		324.00000 
 43692.65567		 616.03496			43076.62071		210.60800		875.00000 
 43692.65567		 305.27265			43387.38302		64.65000		324.00000 
 43692.65567		 616.03496			43076.62071		210.60800		875.00000 
 43692.65567		 305.27265			43387.38302		64.65000		324.00000 
 43692.65567		 616.03496			43076.62071		210.60800		875.00000 
 43692.65567		 305.27265			43387.38302		64.65000		324.00000 
 43692.65567		 616.03496			43076.62071		210.60800		875.00000 
 43692.65567		 305.27265			43387.38302		64.65000		324.00000 
 43692.65567		 616.03496			43076.62071		210.60800		875.00000 
 43692.65567		 305.27265			43387.38302		64.65000		324.00000 
 43692.65567		 616.03496			43076.62071		210.60800		875.00000 
 43692.65567		 305.27265			43387.38302		64.65000		324.00000 
 43692.65567		 616.03496			43076.62071		210.60800		875.00000 
 43692.65567		 305.27265			43387.38302		64.65000		324.00000 
 43692.65567		 616.03496			43076.62071		210.60800		875.00000 
 43692.65567		 305.27265			43387.38302		64.65000		324.00000 
 43692.65567		 616.03496			43076.62071		210.60800		875.00000 
 43692.65567		 305.27265			43387.38302		64.65000		324.00000 
 43692.65567		 616.03496			43076.62071		210.60800		875.00000 
 43692.65567		 305.27265			43387.38302		64.65000		324.00000 
 43692.65567		 616.03496			43076.62071		210.60800		875.00000 
 43692.65567		 305.27265			43387.38302		64.65000		324.00000 
 43692.65567		 616.03496			43076.62071		210.60800		875.00000 
 43692.65567		 305.27265			43387.38302		64.65000		324.00000 
 43692.65567		 616.03496			43076.62071		210.60800		875.00000 
 43692.65567		 305.27265			43387.38302		64.65000		324.00000 
 43692.65567		 616.03496			43076.62071		210.60800		875.00000 
 43692.65567		 305.27265			43387.38302		64.65000		324.00000 
 43692.65567		 616.03496			43076.62071		210.60800		875.00000 
 43692.65567		 305.27265			43387.38302		64.65000		324.00000 
 43692.65567		 616.03496			43076.62071		210.60800		875.00000 
 43692.65567		 305.27265			43387.38302		64.65000		324.00000 
 43692.65567		 616.03496			43076.62071		210.60800		875.00000 
 43692.65567		 305.27265			43387.38302		64.65000		324.00000 
 43692.65567		 616.03496			43076.62071		210.60800		875.00000 
 43692.65567		 305.27265			43387.38302		64.65000		324.00000 
 43692.65567		 616.03496			43076.62071		210.60800		875.00000 
 43692.65567		 305.27265			43387.38302		64.65000		324.00000 
 43692.65567		 616.03496			43076.62071		210.60800		875.00000 
 43692.65567		 305.27265			43387.38302		64.65000		324.00000 
 43692.65567		 616.03496			43076.62071		210.60800		875.00000 
 43692.65567		 305.27265			43387.38302		64.65000		324.00000 
 43692.65567		 616.03496			43076.62071		210.60800		875.00000 
 43692.65567		 305.27265			43387.38302		64.65000		324.00000 
 43692.65567		 616.03496			43076.62071		214.62000		875.00000 
 43692.65567		 305.27265			43387.38302		64.65000		324.00000 
 43692.65567		 616.03496			43076.62071		214.62000		875.00000 
 43692.65567		 305.27265			43387.38302		64.65000		324.00000 
 43692.65567		 616.03496			43076.62071		214.62000		875.00000 
 43692.65567		 305.27265			43387.38302		64.65000		324.00000 
 43692.65567		 616.03496			43076.62071		214.62000		875.00000 
 43692.65567		 305.27265			43387.38302		64.65000		324.00000 
 43692.65567		 616.03496			43076.62071		214.62000		875.00000 
 43692.65567		 305.27265			43387.38302		64.65000		324.00000 
 43692.65567		 616.03496			43076.62071		214.62000		875.00000 
 43692.65567		 305.27265			43387.38302		64.65000		324.00000 
 43692.65567		 616.03496			43076.62071		214.62000		875.00000 
 43692.65567		 305.27265			43387.38302		64.65000		324.00000 
 43692.65567		 616.03496			43076.62071		214.62000		875.00000 
 43692.65567		 305.27265			43387.38302		64.65000		324.00000 
 43692.65567		 616.03496			43076.62071		214.62000		875.00000 
 43692.65567		 305.27265			43387.38302		64.65000		324.00000 
 43692.65567		 616.03496			43076.62071		214.62000		875.00000 
 43692.65567		 305.27265			43387.38302		64.65000		324.00000 
 43692.65567		 616.03496			43076.62071		214.62000		875.00000 
 43692.65567		 305.27265			43387.38302		64.65000		324.00000 
 43692.65567		 616.03496			43076.62071		214.62000		875.00000 
 43692.65567		 305.27265			43387.38302		64.65000		324.00000 
 43692.65567		 616.03496			43076.62071		214.62000		875.00000 
 43692.65567		 305.27265			43387.38302		64.65000		324.00000 
 43692.65567		 616.03496			43076.62071		214.62000		875.00000 
 43692.65567		 305.27265			43387.38302		64.65000		324.00000 
 43692.65567		 616.03496			43076.62071		214.62000		875.00000 
 43692.65567		 305.27265			43387.38302		64.65000		324.00000 
 43692.65567		 616.03496			43076.62071		214.62000		875.00000 
 43692.65567		 305.27265			43387.38302		64.65000		324.00000 
 43692.65567		 616.03496			43076.62071		214.62000		875.00000 
 43692.65567		 305.27265			43387.38302		64.65000		324.00000 
 43692.65567		 616.03496			43076.62071		214.62000		875.00000 
 43692.65567		 305.27265			43387.38302		64.65000		324.00000 
 43692.65567		 616.03496			43076.62071		214.62000		875.00000 
 43692.65567		 305.27265			43387.38302		64.65000		324.00000 
 43692.65567		 616.03496			43076.62071		214.62000		875.00000 
 43692.65567		 305.27265			43387.38302		64.65000		324.00000 
 43692.65567		 616.03496			43076.62071		214.62000		875.00000 
 43692.65567		 305.27265			43387.38302		64.65000		324.00000 
 43692.65567		 616.03496			43076.62071		214.62000		875.00000 
 43692.65567		 305.27265			43387.38302		64.65000		324.00000 
 43692.65567		 616.03496			43076.62071		214.62000		875.00000 
 43692.65567		 305.27265			43387.38302		64.65000		324.00000 
 43692.65567		 616.03496			43076.62071		214.62000		875.00000 
 43692.65567		 305.27265			43387.38302		64.65000		324.00000 
 43692.65567		 616.03496			43076.62071		214.62000		875.00000 
 43692.65567		 305.27265			43387.38302		64.65000		324.00000 
 43692.65567		 616.03496			43076.62071		214.62000		875.00000 
 43692.65567		 305.27265			43387.38302		64.65000		324.00000 
 43692.65567		 616.03496			43076.62071		214.62000		875.00000 
 43692.65567		 305.27265			43387.38302		64.65000		324.00000 
 43692.65567		 616.03496			43076.62071		214.62000		875.00000 
 43692.65567		 305.27265			43387.38302		64.65000		324.00000 
 43692.65567		 616.03496			43076.62071		214.62000		875.00000 
 43692.65567		 305.27265			43387.38302		64.65000		324.00000 
 43692.65567		 616.03496			43076.62071		214.62000		875.00000 
 43692.65567		 305.27265			43387.38302		64.65000		324.00000 
 43692.65567		 616.03496			43076.62071		214.62000		875.00000 
 43692.65567		 305.27265			43387.38302		64.65000		324.00000 
 43692.65567		 616.03496			43076.62071		214.62000		875.00000 
 43692.65567		 305.27265			43387.38302		64.65000		324.00000 
 43692.65567		 616.03496			43076.62071		214.62000		875.00000 
 43692.65567		 305.27265			43387.38302		64.65000		324.00000 
 43692.65567		 616.03496			43076.62071		214.62000		875.00000 
 43692.65567		 305.27265			43387.38302		64.65000		324.00000 
 43692.65567		 616.03496			43076.62071		214.62000		875.00000 
 43692.65567		 305.27265			43387.38302		64.65000		324.00000 
 43692.65567		 616.03496			43076.62071		214.62000		875.00000 
 43692.65567		 305.27265			43387.38302		64.65000		324.00000 
 43692.65567		 616.03496			43076.62071		214.62000		875.00000 
 43692.65567		 305.27265			43387.38302		64.65000		324.00000 
 43692.65567		 616.03496			43076.62071		214.62000		875.00000 
 43692.65567		 305.27265			43387.38302		64.65000		324.00000 
 43692.65567		 616.03496			43076.62071		214.62000		875.00000 
 43692.65567		 305.27265			43387.38302		64.65000		324.00000 
 43692.65567		 616.03496			43076.62071		214.62000		875.00000 
 43692.65567		 305.27265			43387.38302		64.65000		324.00000 
 43692.65567		 616.03496			43076.62071		214.62000		875.00000 
 43692.65567		 305.27265			43387.38302		64.65000		324.00000 
 43692.65567		 616.03496			43076.62071		214.62000		875.00000 
 43692.65567		 305.27265			43387.38302		64.65000		324.00000 
 43692.65567		 616.03496			43076.62071		214.62000		875.00000 
 43692.65567		 305.27265			43387.38302		64.65000		324.00000 
 43692.65567		 616.03496			43076.62071		214.62000		875.00000 
 43692.65567		 305.27265			43387.38302		64.65000		324.00000 
 43692.65567		 616.03496			43076.62071		214.62000		875.00000 
 43692.65567		 305.27265			43387.38302		64.65000		324.00000 
 43692.65567		 616.03496			43076.62071		214.62000		875.00000 
 43692.65567		 305.27265			43387.38302		64.65000		324.00000 
 43692.65567		 616.03496			43076.62071		214.62000		875.00000 
 43692.65567		 305.27265			43387.38302		64.65000		324.00000 
 43692.65567		 616.03496			43076.62071		214.62000		875.00000 
 43692.65567		 305.27265			43387.38302		64.65000		324.00000 
 43692.65567		 616.03496			43076.62071		214.62000		875.00000 
 43692.65567		 305.27265			43387.38302		64.65000		324.00000 
 43692.65567		 616.03496			43076.62071		214.62000		875.00000 
 43692.65567		 305.27265			43387.38302		64.65000		324.00000 
 43692.65567		 616.03496			43076.62071		214.62000		875.00000 
 43692.65567		 305.27265			43387.38302		64.65000		324.00000 
 43692.65567		 616.03496			43076.62071		214.62000		875.00000 
 43692.65567		 305.27265			43387.38302		64.65000		324.00000 
 43692.65567		 616.03496			43076.62071		214.62000		875.00000 
 43692.65567		 305.27265			43387.38302		64.65000		324.00000 
 43692.65567		 616.03496			43076.62071		214.62000		875.00000 
 43692.65567		 305.27265			43387.38302		64.65000		324.00000 
 43692.65567		 616.03496			43076.62071		214.62000		875.00000 
 43692.65567		 305.27265			43387.38302		64.65000		324.00000 
 43692.65567		 616.03496			43076.62071		214.62000		875.00000 
 43692.65567		 305.27265			43387.38302		64.65000		324.00000 
 43692.65567		 616.03496			43076.62071		214.62000		875.00000 
 43692.65567		 305.27265			43387.38302		64.65000		324.00000 
 43692.65567		 616.03496			43076.62071		214.62000		875.00000 
 43692.65567		 305.27265			43387.38302		64.65000		324.00000 
 43692.65567		 616.03496			43076.62071		214.62000		875.00000 
 43692.65567		 305.27265			43387.38302		64.65000		324.00000 
 43692.65567		 616.03496			43076.62071		214.62000		875.00000 
 43692.65567		 305.27265			43387.38302		64.65000		324.00000 
 43692.65567		 616.03496			43076.62071		214.62000		875.00000 
 43692.65567		 305.27265			43387.38302		64.65000		324.00000 
 43692.65567		 616.03496			43076.62071		214.62000		875.00000 
 43692.65567		 305.27265			43387.38302		64.65000		324.00000 
 43692.65567		 616.03496			43076.62071		214.62000		875.00000 
 43692.65567		 305.27265			43387.38302		64.65000		324.00000 
 43692.65567		 616.03496			43076.62071		214.62000		875.00000 
 43692.65567		 305.27265			43387.38302		64.65000		324.00000 
 43692.65567		 616.03496			43076.62071		215.95600		875.00000 
 43692.65567		 305.27265			43387.38302		64.65000		324.00000 
 43692.65567		 616.03496			43076.62071		215.95600		875.00000 
 43692.65567		 305.27265			43387.38302		64.65000		324.00000 
 43692.65567		 537.27032			43155.38535		215.95600		875.00000 
 43692.65567		 305.27265			43387.38302		64.65000		324.00000 
 43692.65567		 537.27032			43155.38535		215.95600		875.00000 
 43692.65567		 305.27265			43387.38302		64.65000		324.00000 
 43692.65567		 537.27032			43155.38535		215.95600		875.00000 
 43692.65567		 305.27265			43387.38302		64.65000		324.00000 
 43692.65567		 537.27032			43155.38535		215.95600		875.00000 
 43692.65567		 305.27265			43387.38302		64.65000		324.00000 
 43692.65567		 537.27032			43155.38535		215.95600		875.00000 
 43692.65567		 305.27265			43387.38302		64.65000		324.00000 
 43692.65567		 537.27032			43155.38535		215.95600		875.00000 
 43692.65567		 305.27265			43387.38302		64.65000		324.00000 
 43692.65567		 537.27032			43155.38535		215.95600		875.00000 
 43692.65567		 305.27265			43387.38302		64.65000		324.00000 
 43692.65567		 537.27032			43155.38535		215.95600		875.00000 
 43692.65567		 305.27265			43387.38302		64.65000		324.00000 
 43692.65567		 537.27032			43155.38535		215.95600		875.00000 
 43692.65567		 305.27265			43387.38302		64.65000		324.00000 
 43692.65567		 537.27032			43155.38535		215.95600		875.00000 
 43692.65567		 305.27265			43387.38302		64.65000		324.00000 
 43692.65567		 537.27032			43155.38535		215.95600		875.00000 
 43692.65567		 305.27265			43387.38302		64.65000		324.00000 
 43692.65567		 537.27032			43155.38535		215.95600		875.00000 
 43692.65567		 305.27265			43387.38302		64.65000		324.00000 
 43692.65567		 537.27032			43155.38535		215.95600		875.00000 
 43692.65567		 305.27265			43387.38302		64.65000		324.00000 
 43692.65567		 537.27032			43155.38535		215.95600		875.00000 
 43692.65567		 305.27265			43387.38302		64.65000		324.00000 
 43692.65567		 537.27032			43155.38535		215.95600		875.00000 
 43692.65567		 305.27265			43387.38302		64.65000		324.00000 
 43692.65567		 537.27032			43155.38535		215.95600		875.00000 
 43692.65567		 305.27265			43387.38302		64.65000		324.00000 
 43692.65567		 537.27032			43155.38535		215.95600		875.00000 
 43692.65567		 305.27265			43387.38302		64.65000		324.00000 
 43692.65567		 537.27032			43155.38535		215.95600		875.00000 
 43692.65567		 305.27265			43387.38302		64.65000		324.00000 
 43692.65567		 537.27032			43155.38535		215.95600		875.00000 
 43692.65567		 305.27265			43387.38302		64.65000		324.00000 
 43692.65567		 537.27032			43155.38535		215.95600		875.00000 
 43692.65567		 305.27265			43387.38302		64.65000		324.00000 
 43692.65567		 537.27032			43155.38535		215.95600		875.00000 
 43692.65567		 305.27265			43387.38302		64.65000		324.00000 
 43692.65567		 529.63254			43163.02313		215.95600		875.00000 
 43692.65567		 305.27265			43387.38302		64.65000		324.00000 
 43692.65567		 525.81365			43166.84203		215.95600		875.00000 
 43692.65567		 305.27265			43387.38302		64.65000		324.00000 
 43692.65567		 525.81365			43166.84203		215.95600		875.00000 
 43692.65567		 261.35540			43431.30027		64.65000		324.00000 
