Memory Total (MiB) 	 Memory Used (MiB) 	    Memory Free (MiB) 	 Power Drawed (W) 	 Clocks (Mhz) 	 
 43692.65567		 261.35540			43431.30027		171.87800		875.00000 
 43692.65567		 261.35540			43431.30027		65.13400		324.00000 
 43692.65567		 261.35540			43431.30027		171.87800		875.00000 
 43692.65567		 261.35540			43431.30027		65.13400		324.00000 
 43692.65567		 261.35540			43431.30027		171.87800		875.00000 
 43692.65567		 261.35540			43431.30027		65.13400		324.00000 
 43692.65567		 261.35540			43431.30027		171.87800		875.00000 
 43692.65567		 261.35540			43431.30027		65.13400		324.00000 
 43692.65567		 261.35540			43431.30027		171.87800		875.00000 
 43692.65567		 261.35540			43431.30027		65.13400		324.00000 
 43692.65567		 261.35540			43431.30027		171.87800		875.00000 
 43692.65567		 261.35540			43431.30027		65.13400		324.00000 
 43692.65567		 261.35540			43431.30027		171.87800		875.00000 
 43692.65567		 261.35540			43431.30027		65.13400		324.00000 
 43692.65567		 261.35540			43431.30027		171.87800		875.00000 
 43692.65567		 261.35540			43431.30027		65.13400		324.00000 
 43692.65567		 261.35540			43431.30027		171.87800		875.00000 
 43692.65567		 261.35540			43431.30027		65.13400		324.00000 
 43692.65567		 261.35540			43431.30027		171.87800		875.00000 
 43692.65567		 261.35540			43431.30027		65.13400		324.00000 
 43692.65567		 261.35540			43431.30027		171.87800		875.00000 
 43692.65567		 261.35540			43431.30027		65.13400		324.00000 
 43692.65567		 261.35540			43431.30027		171.87800		875.00000 
 43692.65567		 261.35540			43431.30027		65.13400		324.00000 
 43692.65567		 261.35540			43431.30027		171.87800		875.00000 
 43692.65567		 261.35540			43431.30027		65.13400		324.00000 
 43692.65567		 261.35540			43431.30027		171.87800		875.00000 
 43692.65567		 261.35540			43431.30027		65.13400		324.00000 
 43692.65567		 261.35540			43431.30027		171.87800		875.00000 
 43692.65567		 261.35540			43431.30027		65.13400		324.00000 
 43692.65567		 261.35540			43431.30027		171.87800		875.00000 
 43692.65567		 261.35540			43431.30027		65.13400		324.00000 
 43692.65567		 261.35540			43431.30027		171.87800		875.00000 
 43692.65567		 261.35540			43431.30027		65.13400		324.00000 
 43692.65567		 261.35540			43431.30027		171.87800		875.00000 
 43692.65567		 261.35540			43431.30027		65.13400		324.00000 
 43692.65567		 265.17429			43427.48138		171.87800		875.00000 
 43692.65567		 261.35540			43431.30027		65.13400		324.00000 
 43692.65567		 265.17429			43427.48138		171.87800		875.00000 
 43692.65567		 261.35540			43431.30027		65.13400		324.00000 
 43692.65567		 272.81207			43419.84360		171.87800		875.00000 
 43692.65567		 261.35540			43431.30027		65.13400		324.00000 
 43692.65567		 272.81207			43419.84360		171.87800		875.00000 
 43692.65567		 261.35540			43431.30027		65.13400		324.00000 
 43692.65567		 272.81207			43419.84360		171.87800		875.00000 
 43692.65567		 265.17429			43427.48138		65.13400		324.00000 
 43692.65567		 272.81207			43419.84360		171.87800		875.00000 
 43692.65567		 265.17429			43427.48138		65.13400		324.00000 
 43692.65567		 272.81207			43419.84360		171.87800		875.00000 
 43692.65567		 265.17429			43427.48138		65.13400		324.00000 
 43692.65567		 272.81207			43419.84360		171.87800		875.00000 
 43692.65567		 272.81207			43419.84360		65.13400		324.00000 
 43692.65567		 272.81207			43419.84360		171.87800		875.00000 
 43692.65567		 272.81207			43419.84360		65.13400		324.00000 
 43692.65567		 272.81207			43419.84360		171.87800		875.00000 
 43692.65567		 272.81207			43419.84360		65.13400		324.00000 
 43692.65567		 305.27265			43387.38302		171.87800		875.00000 
 43692.65567		 305.27265			43387.38302		65.13400		324.00000 
 43692.65567		 305.27265			43387.38302		171.87800		875.00000 
 43692.65567		 305.27265			43387.38302		65.13400		324.00000 
 43692.65567		 305.27265			43387.38302		171.87800		875.00000 
 43692.65567		 305.27265			43387.38302		65.13400		324.00000 
 43692.65567		 305.27265			43387.38302		171.87800		875.00000 
 43692.65567		 305.27265			43387.38302		65.13400		324.00000 
 43692.65567		 305.27265			43387.38302		171.87800		875.00000 
 43692.65567		 305.27265			43387.38302		65.13400		324.00000 
 43692.65567		 309.56891			43383.08677		146.90200		875.00000 
 43692.65567		 305.27265			43387.38302		65.13400		324.00000 
 43692.65567		 311.00099			43381.65468		146.90200		875.00000 
 43692.65567		 305.27265			43387.38302		65.13400		324.00000 
 43692.65567		 311.00099			43381.65468		146.90200		875.00000 
 43692.65567		 305.27265			43387.38302		65.13400		324.00000 
 43692.65567		 311.00099			43381.65468		146.90200		875.00000 
 43692.65567		 305.27265			43387.38302		65.13400		324.00000 
 43692.65567		 311.00099			43381.65468		146.90200		875.00000 
 43692.65567		 305.27265			43387.38302		65.13400		324.00000 
 43692.65567		 311.00099			43381.65468		146.90200		875.00000 
 43692.65567		 305.27265			43387.38302		65.13400		324.00000 
 43692.65567		 311.00099			43381.65468		146.90200		875.00000 
 43692.65567		 305.27265			43387.38302		65.13400		324.00000 
 43692.65567		 311.00099			43381.65468		146.90200		875.00000 
 43692.65567		 305.27265			43387.38302		65.13400		324.00000 
 43692.65567		 311.00099			43381.65468		146.90200		875.00000 
 43692.65567		 305.27265			43387.38302		65.13400		324.00000 
 43692.65567		 311.00099			43381.65468		146.90200		875.00000 
 43692.65567		 305.27265			43387.38302		65.13400		324.00000 
 43692.65567		 311.00099			43381.65468		146.90200		875.00000 
 43692.65567		 305.27265			43387.38302		65.13400		324.00000 
 43692.65567		 311.00099			43381.65468		146.90200		875.00000 
 43692.65567		 305.27265			43387.38302		65.13400		324.00000 
 43692.65567		 311.00099			43381.65468		146.90200		875.00000 
 43692.65567		 305.27265			43387.38302		65.13400		324.00000 
 43692.65567		 311.00099			43381.65468		146.90200		875.00000 
 43692.65567		 305.27265			43387.38302		65.13400		324.00000 
 43692.65567		 311.00099			43381.65468		146.90200		875.00000 
 43692.65567		 305.27265			43387.38302		65.13400		324.00000 
 43692.65567		 311.00099			43381.65468		146.90200		875.00000 
 43692.65567		 305.27265			43387.38302		65.13400		324.00000 
 43692.65567		 311.00099			43381.65468		146.90200		875.00000 
 43692.65567		 305.27265			43387.38302		65.13400		324.00000 
 43692.65567		 311.00099			43381.65468		146.90200		875.00000 
 43692.65567		 305.27265			43387.38302		65.13400		324.00000 
 43692.65567		 311.00099			43381.65468		146.90200		875.00000 
 43692.65567		 305.27265			43387.38302		65.13400		324.00000 
 43692.65567		 311.00099			43381.65468		146.90200		875.00000 
 43692.65567		 305.27265			43387.38302		65.13400		324.00000 
 43692.65567		 311.00099			43381.65468		146.90200		875.00000 
 43692.65567		 305.27265			43387.38302		65.13400		324.00000 
 43692.65567		 311.00099			43381.65468		146.90200		875.00000 
 43692.65567		 305.27265			43387.38302		65.13400		324.00000 
 43692.65567		 311.00099			43381.65468		146.90200		875.00000 
 43692.65567		 305.27265			43387.38302		65.13400		324.00000 
 43692.65567		 311.00099			43381.65468		146.90200		875.00000 
 43692.65567		 305.27265			43387.38302		65.13400		324.00000 
 43692.65567		 311.00099			43381.65468		146.90200		875.00000 
 43692.65567		 305.27265			43387.38302		65.13400		324.00000 
 43692.65567		 311.00099			43381.65468		146.90200		875.00000 
 43692.65567		 305.27265			43387.38302		65.13400		324.00000 
 43692.65567		 311.00099			43381.65468		146.90200		875.00000 
 43692.65567		 305.27265			43387.38302		65.13400		324.00000 
 43692.65567		 311.00099			43381.65468		146.90200		875.00000 
 43692.65567		 305.27265			43387.38302		65.13400		324.00000 
 43692.65567		 311.00099			43381.65468		146.90200		875.00000 
 43692.65567		 305.27265			43387.38302		65.13400		324.00000 
 43692.65567		 311.00099			43381.65468		146.90200		875.00000 
 43692.65567		 305.27265			43387.38302		65.13400		324.00000 
 43692.65567		 311.00099			43381.65468		146.90200		875.00000 
 43692.65567		 305.27265			43387.38302		65.13400		324.00000 
 43692.65567		 311.00099			43381.65468		136.53400		875.00000 
 43692.65567		 305.27265			43387.38302		65.13400		324.00000 
 43692.65567		 311.00099			43381.65468		136.53400		875.00000 
 43692.65567		 305.27265			43387.38302		65.13400		324.00000 
 43692.65567		 311.00099			43381.65468		136.53400		875.00000 
 43692.65567		 305.27265			43387.38302		65.13400		324.00000 
 43692.65567		 311.00099			43381.65468		136.53400		875.00000 
 43692.65567		 305.27265			43387.38302		65.13400		324.00000 
 43692.65567		 311.00099			43381.65468		136.53400		875.00000 
 43692.65567		 305.27265			43387.38302		65.13400		324.00000 
 43692.65567		 311.00099			43381.65468		136.53400		875.00000 
 43692.65567		 305.27265			43387.38302		65.13400		324.00000 
 43692.65567		 311.00099			43381.65468		136.53400		875.00000 
 43692.65567		 305.27265			43387.38302		65.13400		324.00000 
 43692.65567		 311.00099			43381.65468		136.53400		875.00000 
 43692.65567		 305.27265			43387.38302		65.13400		324.00000 
 43692.65567		 311.00099			43381.65468		136.53400		875.00000 
 43692.65567		 305.27265			43387.38302		65.13400		324.00000 
 43692.65567		 311.00099			43381.65468		136.53400		875.00000 
 43692.65567		 305.27265			43387.38302		65.13400		324.00000 
 43692.65567		 311.00099			43381.65468		136.53400		875.00000 
 43692.65567		 305.27265			43387.38302		65.13400		324.00000 
 43692.65567		 311.00099			43381.65468		136.53400		875.00000 
 43692.65567		 305.27265			43387.38302		65.13400		324.00000 
 43692.65567		 311.00099			43381.65468		136.53400		875.00000 
 43692.65567		 305.27265			43387.38302		65.13400		324.00000 
 43692.65567		 311.00099			43381.65468		136.53400		875.00000 
 43692.65567		 305.27265			43387.38302		65.13400		324.00000 
 43692.65567		 311.00099			43381.65468		136.53400		875.00000 
 43692.65567		 305.27265			43387.38302		65.13400		324.00000 
 43692.65567		 311.00099			43381.65468		136.53400		875.00000 
 43692.65567		 305.27265			43387.38302		65.13400		324.00000 
 43692.65567		 311.00099			43381.65468		136.53400		875.00000 
 43692.65567		 305.27265			43387.38302		65.13400		324.00000 
 43692.65567		 311.00099			43381.65468		136.53400		875.00000 
 43692.65567		 305.27265			43387.38302		65.13400		324.00000 
 43692.65567		 311.00099			43381.65468		136.53400		875.00000 
 43692.65567		 305.27265			43387.38302		65.13400		324.00000 
 43692.65567		 311.00099			43381.65468		136.53400		875.00000 
 43692.65567		 305.27265			43387.38302		65.13400		324.00000 
 43692.65567		 311.00099			43381.65468		136.53400		875.00000 
 43692.65567		 305.27265			43387.38302		65.13400		324.00000 
 43692.65567		 314.81988			43377.83579		136.53400		875.00000 
 43692.65567		 305.27265			43387.38302		65.13400		324.00000 
 43692.65567		 314.81988			43377.83579		136.53400		875.00000 
 43692.65567		 305.27265			43387.38302		65.13400		324.00000 
 43692.65567		 314.81988			43377.83579		136.53400		875.00000 
 43692.65567		 305.27265			43387.38302		64.65000		324.00000 
 43692.65567		 318.63877			43374.01690		136.53400		875.00000 
 43692.65567		 305.27265			43387.38302		64.65000		324.00000 
 43692.65567		 322.45767			43370.19801		136.53400		875.00000 
 43692.65567		 305.27265			43387.38302		64.65000		324.00000 
 43692.65567		 326.27656			43366.37912		136.53400		875.00000 
 43692.65567		 305.27265			43387.38302		64.65000		324.00000 
 43692.65567		 326.27656			43366.37912		136.53400		875.00000 
 43692.65567		 305.27265			43387.38302		64.65000		324.00000 
 43692.65567		 326.27656			43366.37912		136.53400		875.00000 
 43692.65567		 305.27265			43387.38302		64.65000		324.00000 
 43692.65567		 537.27032			43155.38535		136.53400		875.00000 
 43692.65567		 305.27265			43387.38302		64.65000		324.00000 
 43692.65567		 574.02715			43118.62852		136.53400		875.00000 
 43692.65567		 305.27265			43387.38302		64.65000		324.00000 
 43692.65567		 647.54082			43045.11485		132.89400		875.00000 
 43692.65567		 305.27265			43387.38302		64.65000		324.00000 
 43692.65567		 647.54082			43045.11485		132.89400		875.00000 
 43692.65567		 305.27265			43387.38302		64.65000		324.00000 
 43692.65567		 647.54082			43045.11485		132.89400		875.00000 
 43692.65567		 305.27265			43387.38302		64.65000		324.00000 
 43692.65567		 647.54082			43045.11485		132.89400		875.00000 
 43692.65567		 305.27265			43387.38302		64.65000		324.00000 
 43692.65567		 647.54082			43045.11485		132.89400		875.00000 
 43692.65567		 305.27265			43387.38302		64.65000		324.00000 
 43692.65567		 647.54082			43045.11485		132.89400		875.00000 
 43692.65567		 305.27265			43387.38302		64.65000		324.00000 
 43692.65567		 647.54082			43045.11485		132.89400		875.00000 
 43692.65567		 305.27265			43387.38302		64.65000		324.00000 
 43692.65567		 647.54082			43045.11485		132.89400		875.00000 
 43692.65567		 305.27265			43387.38302		64.65000		324.00000 
 43692.65567		 647.54082			43045.11485		132.89400		875.00000 
 43692.65567		 305.27265			43387.38302		64.65000		324.00000 
 43692.65567		 647.54082			43045.11485		132.89400		875.00000 
 43692.65567		 305.27265			43387.38302		64.65000		324.00000 
 43692.65567		 647.54082			43045.11485		132.89400		875.00000 
 43692.65567		 305.27265			43387.38302		64.65000		324.00000 
 43692.65567		 647.54082			43045.11485		132.89400		875.00000 
 43692.65567		 305.27265			43387.38302		64.65000		324.00000 
 43692.65567		 647.54082			43045.11485		132.89400		875.00000 
 43692.65567		 305.27265			43387.38302		64.65000		324.00000 
 43692.65567		 647.54082			43045.11485		132.89400		875.00000 
 43692.65567		 305.27265			43387.38302		64.65000		324.00000 
 43692.65567		 647.54082			43045.11485		132.89400		875.00000 
 43692.65567		 305.27265			43387.38302		64.65000		324.00000 
 43692.65567		 647.54082			43045.11485		132.89400		875.00000 
 43692.65567		 305.27265			43387.38302		64.65000		324.00000 
 43692.65567		 647.54082			43045.11485		132.89400		875.00000 
 43692.65567		 305.27265			43387.38302		64.65000		324.00000 
 43692.65567		 647.54082			43045.11485		132.89400		875.00000 
 43692.65567		 305.27265			43387.38302		64.65000		324.00000 
 43692.65567		 647.54082			43045.11485		132.89400		875.00000 
 43692.65567		 305.27265			43387.38302		64.65000		324.00000 
 43692.65567		 647.54082			43045.11485		132.89400		875.00000 
 43692.65567		 305.27265			43387.38302		64.65000		324.00000 
 43692.65567		 647.54082			43045.11485		132.89400		875.00000 
 43692.65567		 305.27265			43387.38302		64.65000		324.00000 
 43692.65567		 647.54082			43045.11485		132.89400		875.00000 
 43692.65567		 305.27265			43387.38302		64.65000		324.00000 
 43692.65567		 647.54082			43045.11485		132.89400		875.00000 
 43692.65567		 305.27265			43387.38302		64.65000		324.00000 
 43692.65567		 647.54082			43045.11485		132.89400		875.00000 
 43692.65567		 305.27265			43387.38302		64.65000		324.00000 
 43692.65567		 647.54082			43045.11485		132.89400		875.00000 
 43692.65567		 305.27265			43387.38302		64.65000		324.00000 
 43692.65567		 647.54082			43045.11485		132.89400		875.00000 
 43692.65567		 305.27265			43387.38302		64.65000		324.00000 
 43692.65567		 647.54082			43045.11485		132.89400		875.00000 
 43692.65567		 305.27265			43387.38302		64.65000		324.00000 
 43692.65567		 647.54082			43045.11485		132.89400		875.00000 
 43692.65567		 305.27265			43387.38302		64.65000		324.00000 
 43692.65567		 647.54082			43045.11485		132.89400		875.00000 
 43692.65567		 305.27265			43387.38302		64.65000		324.00000 
 43692.65567		 647.54082			43045.11485		132.89400		875.00000 
 43692.65567		 305.27265			43387.38302		64.65000		324.00000 
 43692.65567		 647.54082			43045.11485		132.89400		875.00000 
 43692.65567		 305.27265			43387.38302		64.65000		324.00000 
 43692.65567		 647.54082			43045.11485		132.89400		875.00000 
 43692.65567		 305.27265			43387.38302		64.65000		324.00000 
 43692.65567		 647.54082			43045.11485		132.89400		875.00000 
 43692.65567		 305.27265			43387.38302		64.65000		324.00000 
 43692.65567		 647.54082			43045.11485		132.89400		875.00000 
 43692.65567		 305.27265			43387.38302		64.65000		324.00000 
 43692.65567		 647.54082			43045.11485		132.89400		875.00000 
 43692.65567		 305.27265			43387.38302		64.65000		324.00000 
 43692.65567		 647.54082			43045.11485		132.89400		875.00000 
 43692.65567		 305.27265			43387.38302		64.65000		324.00000 
 43692.65567		 647.54082			43045.11485		132.89400		875.00000 
 43692.65567		 305.27265			43387.38302		64.65000		324.00000 
 43692.65567		 647.54082			43045.11485		132.89400		875.00000 
 43692.65567		 305.27265			43387.38302		64.65000		324.00000 
 43692.65567		 647.54082			43045.11485		132.89400		875.00000 
 43692.65567		 305.27265			43387.38302		64.65000		324.00000 
 43692.65567		 647.54082			43045.11485		132.89400		875.00000 
 43692.65567		 305.27265			43387.38302		64.65000		324.00000 
 43692.65567		 647.54082			43045.11485		132.89400		875.00000 
 43692.65567		 305.27265			43387.38302		64.65000		324.00000 
 43692.65567		 647.54082			43045.11485		132.89400		875.00000 
 43692.65567		 305.27265			43387.38302		64.65000		324.00000 
 43692.65567		 647.54082			43045.11485		132.89400		875.00000 
 43692.65567		 305.27265			43387.38302		64.65000		324.00000 
 43692.65567		 647.54082			43045.11485		132.89400		875.00000 
 43692.65567		 305.27265			43387.38302		64.65000		324.00000 
 43692.65567		 647.54082			43045.11485		132.89400		875.00000 
 43692.65567		 305.27265			43387.38302		64.65000		324.00000 
 43692.65567		 647.54082			43045.11485		132.89400		875.00000 
 43692.65567		 305.27265			43387.38302		64.65000		324.00000 
 43692.65567		 647.54082			43045.11485		132.89400		875.00000 
 43692.65567		 305.27265			43387.38302		64.65000		324.00000 
 43692.65567		 647.54082			43045.11485		132.89400		875.00000 
 43692.65567		 305.27265			43387.38302		64.65000		324.00000 
 43692.65567		 647.54082			43045.11485		132.89400		875.00000 
 43692.65567		 305.27265			43387.38302		64.65000		324.00000 
 43692.65567		 647.54082			43045.11485		132.89400		875.00000 
 43692.65567		 305.27265			43387.38302		64.65000		324.00000 
 43692.65567		 647.54082			43045.11485		132.89400		875.00000 
 43692.65567		 305.27265			43387.38302		64.65000		324.00000 
 43692.65567		 647.54082			43045.11485		132.89400		875.00000 
 43692.65567		 305.27265			43387.38302		64.65000		324.00000 
 43692.65567		 647.54082			43045.11485		132.89400		875.00000 
 43692.65567		 305.27265			43387.38302		64.65000		324.00000 
 43692.65567		 647.54082			43045.11485		132.89400		875.00000 
 43692.65567		 305.27265			43387.38302		64.65000		324.00000 
 43692.65567		 647.54082			43045.11485		132.89400		875.00000 
 43692.65567		 305.27265			43387.38302		64.65000		324.00000 
 43692.65567		 647.54082			43045.11485		132.89400		875.00000 
 43692.65567		 305.27265			43387.38302		64.65000		324.00000 
 43692.65567		 647.54082			43045.11485		132.89400		875.00000 
 43692.65567		 305.27265			43387.38302		64.65000		324.00000 
 43692.65567		 647.54082			43045.11485		132.89400		875.00000 
 43692.65567		 305.27265			43387.38302		64.65000		324.00000 
 43692.65567		 647.54082			43045.11485		132.89400		875.00000 
 43692.65567		 305.27265			43387.38302		64.65000		324.00000 
 43692.65567		 647.54082			43045.11485		132.89400		875.00000 
 43692.65567		 305.27265			43387.38302		64.65000		324.00000 
 43692.65567		 647.54082			43045.11485		132.89400		875.00000 
 43692.65567		 305.27265			43387.38302		64.65000		324.00000 
 43692.65567		 647.54082			43045.11485		132.89400		875.00000 
 43692.65567		 305.27265			43387.38302		64.65000		324.00000 
 43692.65567		 647.54082			43045.11485		132.89400		875.00000 
 43692.65567		 305.27265			43387.38302		64.65000		324.00000 
 43692.65567		 647.54082			43045.11485		132.89400		875.00000 
 43692.65567		 305.27265			43387.38302		64.65000		324.00000 
 43692.65567		 647.54082			43045.11485		184.66200		875.00000 
 43692.65567		 305.27265			43387.38302		64.65000		324.00000 
 43692.65567		 647.54082			43045.11485		184.66200		875.00000 
 43692.65567		 305.27265			43387.38302		64.65000		324.00000 
 43692.65567		 647.54082			43045.11485		184.66200		875.00000 
 43692.65567		 305.27265			43387.38302		64.65000		324.00000 
 43692.65567		 647.54082			43045.11485		184.66200		875.00000 
 43692.65567		 305.27265			43387.38302		64.65000		324.00000 
 43692.65567		 647.54082			43045.11485		184.66200		875.00000 
 43692.65567		 305.27265			43387.38302		64.65000		324.00000 
 43692.65567		 647.54082			43045.11485		184.66200		875.00000 
 43692.65567		 305.27265			43387.38302		64.65000		324.00000 
 43692.65567		 647.54082			43045.11485		184.66200		875.00000 
 43692.65567		 305.27265			43387.38302		64.65000		324.00000 
 43692.65567		 647.54082			43045.11485		184.66200		875.00000 
 43692.65567		 305.27265			43387.38302		64.65000		324.00000 
 43692.65567		 647.54082			43045.11485		184.66200		875.00000 
 43692.65567		 305.27265			43387.38302		64.65000		324.00000 
 43692.65567		 647.54082			43045.11485		184.66200		875.00000 
 43692.65567		 305.27265			43387.38302		64.65000		324.00000 
 43692.65567		 647.54082			43045.11485		184.66200		875.00000 
 43692.65567		 305.27265			43387.38302		64.65000		324.00000 
 43692.65567		 647.54082			43045.11485		184.66200		875.00000 
 43692.65567		 305.27265			43387.38302		64.65000		324.00000 
 43692.65567		 647.54082			43045.11485		184.66200		875.00000 
 43692.65567		 305.27265			43387.38302		64.65000		324.00000 
 43692.65567		 647.54082			43045.11485		184.66200		875.00000 
 43692.65567		 305.27265			43387.38302		64.65000		324.00000 
 43692.65567		 647.54082			43045.11485		184.66200		875.00000 
 43692.65567		 305.27265			43387.38302		64.65000		324.00000 
 43692.65567		 647.54082			43045.11485		184.66200		875.00000 
 43692.65567		 305.27265			43387.38302		64.65000		324.00000 
 43692.65567		 647.54082			43045.11485		184.66200		875.00000 
 43692.65567		 305.27265			43387.38302		64.65000		324.00000 
 43692.65567		 647.54082			43045.11485		184.66200		875.00000 
 43692.65567		 305.27265			43387.38302		64.65000		324.00000 
 43692.65567		 647.54082			43045.11485		184.66200		875.00000 
 43692.65567		 305.27265			43387.38302		64.65000		324.00000 
 43692.65567		 647.54082			43045.11485		184.66200		875.00000 
 43692.65567		 305.27265			43387.38302		64.65000		324.00000 
 43692.65567		 647.54082			43045.11485		184.66200		875.00000 
 43692.65567		 305.27265			43387.38302		64.65000		324.00000 
 43692.65567		 647.54082			43045.11485		184.66200		875.00000 
 43692.65567		 305.27265			43387.38302		64.65000		324.00000 
 43692.65567		 647.54082			43045.11485		184.66200		875.00000 
 43692.65567		 305.27265			43387.38302		64.65000		324.00000 
 43692.65567		 647.54082			43045.11485		184.66200		875.00000 
 43692.65567		 305.27265			43387.38302		64.65000		324.00000 
 43692.65567		 647.54082			43045.11485		184.66200		875.00000 
 43692.65567		 305.27265			43387.38302		64.65000		324.00000 
 43692.65567		 647.54082			43045.11485		184.66200		875.00000 
 43692.65567		 305.27265			43387.38302		64.65000		324.00000 
 43692.65567		 647.54082			43045.11485		184.66200		875.00000 
 43692.65567		 305.27265			43387.38302		64.65000		324.00000 
 43692.65567		 647.54082			43045.11485		184.66200		875.00000 
 43692.65567		 305.27265			43387.38302		64.65000		324.00000 
 43692.65567		 647.54082			43045.11485		184.66200		875.00000 
 43692.65567		 305.27265			43387.38302		64.65000		324.00000 
 43692.65567		 647.54082			43045.11485		184.66200		875.00000 
 43692.65567		 305.27265			43387.38302		64.65000		324.00000 
 43692.65567		 647.54082			43045.11485		184.66200		875.00000 
 43692.65567		 305.27265			43387.38302		64.65000		324.00000 
 43692.65567		 647.54082			43045.11485		184.66200		875.00000 
 43692.65567		 305.27265			43387.38302		64.65000		324.00000 
 43692.65567		 647.54082			43045.11485		184.66200		875.00000 
 43692.65567		 305.27265			43387.38302		64.65000		324.00000 
 43692.65567		 647.54082			43045.11485		184.66200		875.00000 
 43692.65567		 305.27265			43387.38302		64.65000		324.00000 
 43692.65567		 647.54082			43045.11485		184.66200		875.00000 
 43692.65567		 305.27265			43387.38302		64.65000		324.00000 
 43692.65567		 647.54082			43045.11485		184.66200		875.00000 
 43692.65567		 305.27265			43387.38302		64.65000		324.00000 
 43692.65567		 647.54082			43045.11485		184.66200		875.00000 
 43692.65567		 305.27265			43387.38302		64.65000		324.00000 
 43692.65567		 647.54082			43045.11485		184.66200		875.00000 
 43692.65567		 305.27265			43387.38302		64.65000		324.00000 
 43692.65567		 647.54082			43045.11485		184.66200		875.00000 
 43692.65567		 305.27265			43387.38302		64.65000		324.00000 
 43692.65567		 647.54082			43045.11485		184.66200		875.00000 
 43692.65567		 305.27265			43387.38302		64.65000		324.00000 
 43692.65567		 647.54082			43045.11485		184.66200		875.00000 
 43692.65567		 305.27265			43387.38302		64.65000		324.00000 
 43692.65567		 647.54082			43045.11485		184.66200		875.00000 
 43692.65567		 305.27265			43387.38302		64.65000		324.00000 
 43692.65567		 647.54082			43045.11485		184.66200		875.00000 
 43692.65567		 305.27265			43387.38302		64.65000		324.00000 
 43692.65567		 647.54082			43045.11485		184.66200		875.00000 
 43692.65567		 305.27265			43387.38302		64.65000		324.00000 
 43692.65567		 647.54082			43045.11485		184.66200		875.00000 
 43692.65567		 305.27265			43387.38302		64.65000		324.00000 
 43692.65567		 647.54082			43045.11485		184.66200		875.00000 
 43692.65567		 305.27265			43387.38302		64.65000		324.00000 
 43692.65567		 647.54082			43045.11485		184.66200		875.00000 
 43692.65567		 305.27265			43387.38302		64.65000		324.00000 
 43692.65567		 647.54082			43045.11485		184.66200		875.00000 
 43692.65567		 305.27265			43387.38302		64.65000		324.00000 
 43692.65567		 647.54082			43045.11485		184.66200		875.00000 
 43692.65567		 305.27265			43387.38302		64.65000		324.00000 
 43692.65567		 647.54082			43045.11485		184.66200		875.00000 
 43692.65567		 305.27265			43387.38302		64.65000		324.00000 
 43692.65567		 647.54082			43045.11485		184.66200		875.00000 
 43692.65567		 305.27265			43387.38302		64.65000		324.00000 
 43692.65567		 647.54082			43045.11485		184.66200		875.00000 
 43692.65567		 305.27265			43387.38302		64.65000		324.00000 
 43692.65567		 647.54082			43045.11485		184.66200		875.00000 
 43692.65567		 305.27265			43387.38302		64.65000		324.00000 
 43692.65567		 647.54082			43045.11485		184.66200		875.00000 
 43692.65567		 305.27265			43387.38302		64.65000		324.00000 
 43692.65567		 647.54082			43045.11485		184.66200		875.00000 
 43692.65567		 305.27265			43387.38302		64.65000		324.00000 
 43692.65567		 647.54082			43045.11485		184.66200		875.00000 
 43692.65567		 305.27265			43387.38302		64.65000		324.00000 
 43692.65567		 647.54082			43045.11485		184.66200		875.00000 
 43692.65567		 305.27265			43387.38302		64.65000		324.00000 
 43692.65567		 647.54082			43045.11485		184.66200		875.00000 
 43692.65567		 305.27265			43387.38302		64.65000		324.00000 
 43692.65567		 647.54082			43045.11485		184.66200		875.00000 
 43692.65567		 305.27265			43387.38302		64.65000		324.00000 
 43692.65567		 647.54082			43045.11485		184.66200		875.00000 
 43692.65567		 305.27265			43387.38302		64.65000		324.00000 
 43692.65567		 647.54082			43045.11485		184.66200		875.00000 
 43692.65567		 305.27265			43387.38302		64.65000		324.00000 
 43692.65567		 647.54082			43045.11485		184.66200		875.00000 
 43692.65567		 305.27265			43387.38302		64.65000		324.00000 
 43692.65567		 647.54082			43045.11485		184.66200		875.00000 
 43692.65567		 305.27265			43387.38302		64.65000		324.00000 
 43692.65567		 647.54082			43045.11485		184.66200		875.00000 
 43692.65567		 305.27265			43387.38302		64.65000		324.00000 
 43692.65567		 647.54082			43045.11485		184.66200		875.00000 
 43692.65567		 305.27265			43387.38302		64.65000		324.00000 
 43692.65567		 647.54082			43045.11485		204.89200		875.00000 
 43692.65567		 305.27265			43387.38302		64.65000		324.00000 
 43692.65567		 647.54082			43045.11485		204.89200		875.00000 
 43692.65567		 305.27265			43387.38302		64.65000		324.00000 
 43692.65567		 647.54082			43045.11485		204.89200		875.00000 
 43692.65567		 305.27265			43387.38302		64.65000		324.00000 
 43692.65567		 647.54082			43045.11485		204.89200		875.00000 
 43692.65567		 305.27265			43387.38302		64.65000		324.00000 
 43692.65567		 647.54082			43045.11485		204.89200		875.00000 
 43692.65567		 305.27265			43387.38302		64.65000		324.00000 
 43692.65567		 647.54082			43045.11485		204.89200		875.00000 
 43692.65567		 305.27265			43387.38302		64.65000		324.00000 
 43692.65567		 647.54082			43045.11485		204.89200		875.00000 
 43692.65567		 305.27265			43387.38302		64.65000		324.00000 
 43692.65567		 647.54082			43045.11485		204.89200		875.00000 
 43692.65567		 305.27265			43387.38302		64.65000		324.00000 
 43692.65567		 647.54082			43045.11485		204.89200		875.00000 
 43692.65567		 305.27265			43387.38302		64.65000		324.00000 
 43692.65567		 647.54082			43045.11485		204.89200		875.00000 
 43692.65567		 305.27265			43387.38302		64.65000		324.00000 
 43692.65567		 647.54082			43045.11485		204.89200		875.00000 
 43692.65567		 305.27265			43387.38302		64.65000		324.00000 
 43692.65567		 647.54082			43045.11485		204.89200		875.00000 
 43692.65567		 305.27265			43387.38302		64.65000		324.00000 
 43692.65567		 647.54082			43045.11485		204.89200		875.00000 
 43692.65567		 305.27265			43387.38302		64.65000		324.00000 
 43692.65567		 647.54082			43045.11485		204.89200		875.00000 
 43692.65567		 305.27265			43387.38302		64.65000		324.00000 
 43692.65567		 647.54082			43045.11485		204.89200		875.00000 
 43692.65567		 305.27265			43387.38302		64.65000		324.00000 
 43692.65567		 647.54082			43045.11485		204.89200		875.00000 
 43692.65567		 305.27265			43387.38302		64.65000		324.00000 
 43692.65567		 647.54082			43045.11485		204.89200		875.00000 
 43692.65567		 305.27265			43387.38302		64.65000		324.00000 
 43692.65567		 647.54082			43045.11485		204.89200		875.00000 
 43692.65567		 305.27265			43387.38302		64.65000		324.00000 
 43692.65567		 647.54082			43045.11485		204.89200		875.00000 
 43692.65567		 305.27265			43387.38302		64.65000		324.00000 
 43692.65567		 647.54082			43045.11485		204.89200		875.00000 
 43692.65567		 305.27265			43387.38302		64.65000		324.00000 
 43692.65567		 647.54082			43045.11485		204.89200		875.00000 
 43692.65567		 305.27265			43387.38302		64.65000		324.00000 
 43692.65567		 647.54082			43045.11485		204.89200		875.00000 
 43692.65567		 305.27265			43387.38302		64.65000		324.00000 
 43692.65567		 647.54082			43045.11485		204.89200		875.00000 
 43692.65567		 305.27265			43387.38302		64.65000		324.00000 
 43692.65567		 647.54082			43045.11485		204.89200		875.00000 
 43692.65567		 305.27265			43387.38302		64.65000		324.00000 
 43692.65567		 647.54082			43045.11485		204.89200		875.00000 
 43692.65567		 305.27265			43387.38302		64.65000		324.00000 
 43692.65567		 647.54082			43045.11485		204.89200		875.00000 
 43692.65567		 305.27265			43387.38302		64.65000		324.00000 
 43692.65567		 647.54082			43045.11485		204.89200		875.00000 
 43692.65567		 305.27265			43387.38302		64.65000		324.00000 
 43692.65567		 647.54082			43045.11485		204.89200		875.00000 
 43692.65567		 305.27265			43387.38302		64.65000		324.00000 
 43692.65567		 647.54082			43045.11485		204.89200		875.00000 
 43692.65567		 305.27265			43387.38302		64.65000		324.00000 
 43692.65567		 647.54082			43045.11485		204.89200		875.00000 
 43692.65567		 305.27265			43387.38302		64.65000		324.00000 
 43692.65567		 647.54082			43045.11485		204.89200		875.00000 
 43692.65567		 305.27265			43387.38302		64.65000		324.00000 
 43692.65567		 647.54082			43045.11485		204.89200		875.00000 
 43692.65567		 305.27265			43387.38302		64.65000		324.00000 
 43692.65567		 647.54082			43045.11485		204.89200		875.00000 
 43692.65567		 305.27265			43387.38302		64.65000		324.00000 
 43692.65567		 647.54082			43045.11485		204.89200		875.00000 
 43692.65567		 305.27265			43387.38302		64.65000		324.00000 
 43692.65567		 647.54082			43045.11485		204.89200		875.00000 
 43692.65567		 305.27265			43387.38302		64.65000		324.00000 
 43692.65567		 647.54082			43045.11485		204.89200		875.00000 
 43692.65567		 305.27265			43387.38302		64.65000		324.00000 
 43692.65567		 647.54082			43045.11485		204.89200		875.00000 
 43692.65567		 305.27265			43387.38302		64.65000		324.00000 
 43692.65567		 647.54082			43045.11485		204.89200		875.00000 
 43692.65567		 305.27265			43387.38302		64.65000		324.00000 
 43692.65567		 647.54082			43045.11485		204.89200		875.00000 
 43692.65567		 305.27265			43387.38302		64.65000		324.00000 
 43692.65567		 647.54082			43045.11485		204.89200		875.00000 
 43692.65567		 305.27265			43387.38302		64.65000		324.00000 
 43692.65567		 647.54082			43045.11485		204.89200		875.00000 
 43692.65567		 305.27265			43387.38302		64.65000		324.00000 
 43692.65567		 647.54082			43045.11485		204.89200		875.00000 
 43692.65567		 305.27265			43387.38302		64.65000		324.00000 
 43692.65567		 647.54082			43045.11485		204.89200		875.00000 
 43692.65567		 305.27265			43387.38302		64.65000		324.00000 
 43692.65567		 647.54082			43045.11485		204.89200		875.00000 
 43692.65567		 305.27265			43387.38302		64.65000		324.00000 
 43692.65567		 647.54082			43045.11485		204.89200		875.00000 
 43692.65567		 305.27265			43387.38302		64.65000		324.00000 
 43692.65567		 647.54082			43045.11485		204.89200		875.00000 
 43692.65567		 305.27265			43387.38302		64.65000		324.00000 
 43692.65567		 647.54082			43045.11485		204.89200		875.00000 
 43692.65567		 305.27265			43387.38302		64.65000		324.00000 
 43692.65567		 647.54082			43045.11485		204.89200		875.00000 
 43692.65567		 305.27265			43387.38302		64.65000		324.00000 
 43692.65567		 647.54082			43045.11485		204.89200		875.00000 
 43692.65567		 305.27265			43387.38302		64.65000		324.00000 
 43692.65567		 647.54082			43045.11485		204.89200		875.00000 
 43692.65567		 305.27265			43387.38302		64.65000		324.00000 
 43692.65567		 647.54082			43045.11485		204.89200		875.00000 
 43692.65567		 305.27265			43387.38302		64.65000		324.00000 
 43692.65567		 647.54082			43045.11485		204.89200		875.00000 
 43692.65567		 305.27265			43387.38302		64.65000		324.00000 
 43692.65567		 647.54082			43045.11485		204.89200		875.00000 
 43692.65567		 305.27265			43387.38302		64.65000		324.00000 
 43692.65567		 647.54082			43045.11485		204.89200		875.00000 
 43692.65567		 305.27265			43387.38302		64.65000		324.00000 
 43692.65567		 647.54082			43045.11485		204.89200		875.00000 
 43692.65567		 305.27265			43387.38302		64.65000		324.00000 
 43692.65567		 647.54082			43045.11485		204.89200		875.00000 
 43692.65567		 305.27265			43387.38302		64.65000		324.00000 
 43692.65567		 647.54082			43045.11485		204.89200		875.00000 
 43692.65567		 305.27265			43387.38302		64.65000		324.00000 
 43692.65567		 647.54082			43045.11485		204.89200		875.00000 
 43692.65567		 305.27265			43387.38302		64.65000		324.00000 
 43692.65567		 647.54082			43045.11485		204.89200		875.00000 
 43692.65567		 305.27265			43387.38302		64.65000		324.00000 
 43692.65567		 647.54082			43045.11485		204.89200		875.00000 
 43692.65567		 305.27265			43387.38302		64.65000		324.00000 
 43692.65567		 647.54082			43045.11485		204.89200		875.00000 
 43692.65567		 305.27265			43387.38302		64.65000		324.00000 
 43692.65567		 647.54082			43045.11485		204.89200		875.00000 
 43692.65567		 305.27265			43387.38302		64.65000		324.00000 
 43692.65567		 647.54082			43045.11485		204.89200		875.00000 
 43692.65567		 305.27265			43387.38302		64.65000		324.00000 
 43692.65567		 647.54082			43045.11485		204.89200		875.00000 
 43692.65567		 305.27265			43387.38302		64.65000		324.00000 
 43692.65567		 647.54082			43045.11485		212.65400		875.00000 
 43692.65567		 305.27265			43387.38302		64.65000		324.00000 
 43692.65567		 647.54082			43045.11485		212.65400		875.00000 
 43692.65567		 305.27265			43387.38302		64.65000		324.00000 
 43692.65567		 647.54082			43045.11485		212.65400		875.00000 
 43692.65567		 305.27265			43387.38302		64.65000		324.00000 
 43692.65567		 647.54082			43045.11485		212.65400		875.00000 
 43692.65567		 305.27265			43387.38302		64.65000		324.00000 
 43692.65567		 647.54082			43045.11485		212.65400		875.00000 
 43692.65567		 305.27265			43387.38302		64.65000		324.00000 
 43692.65567		 647.54082			43045.11485		212.65400		875.00000 
 43692.65567		 305.27265			43387.38302		64.65000		324.00000 
 43692.65567		 647.54082			43045.11485		212.65400		875.00000 
 43692.65567		 305.27265			43387.38302		64.65000		324.00000 
 43692.65567		 647.54082			43045.11485		212.65400		875.00000 
 43692.65567		 305.27265			43387.38302		64.65000		324.00000 
 43692.65567		 647.54082			43045.11485		212.65400		875.00000 
 43692.65567		 305.27265			43387.38302		64.65000		324.00000 
 43692.65567		 647.54082			43045.11485		212.65400		875.00000 
 43692.65567		 305.27265			43387.38302		64.65000		324.00000 
 43692.65567		 647.54082			43045.11485		212.65400		875.00000 
 43692.65567		 305.27265			43387.38302		64.65000		324.00000 
 43692.65567		 647.54082			43045.11485		212.65400		875.00000 
 43692.65567		 305.27265			43387.38302		64.65000		324.00000 
 43692.65567		 647.54082			43045.11485		212.65400		875.00000 
 43692.65567		 305.27265			43387.38302		64.65000		324.00000 
 43692.65567		 647.54082			43045.11485		212.65400		875.00000 
 43692.65567		 305.27265			43387.38302		64.65000		324.00000 
 43692.65567		 647.54082			43045.11485		212.65400		875.00000 
 43692.65567		 305.27265			43387.38302		64.65000		324.00000 
 43692.65567		 647.54082			43045.11485		212.65400		875.00000 
 43692.65567		 305.27265			43387.38302		64.65000		324.00000 
 43692.65567		 647.54082			43045.11485		212.65400		875.00000 
 43692.65567		 305.27265			43387.38302		64.65000		324.00000 
 43692.65567		 647.54082			43045.11485		212.65400		875.00000 
 43692.65567		 305.27265			43387.38302		64.65000		324.00000 
 43692.65567		 647.54082			43045.11485		212.65400		875.00000 
 43692.65567		 305.27265			43387.38302		64.65000		324.00000 
 43692.65567		 647.54082			43045.11485		212.65400		875.00000 
 43692.65567		 305.27265			43387.38302		64.65000		324.00000 
 43692.65567		 647.54082			43045.11485		212.65400		875.00000 
 43692.65567		 305.27265			43387.38302		64.65000		324.00000 
 43692.65567		 647.54082			43045.11485		212.65400		875.00000 
 43692.65567		 305.27265			43387.38302		64.65000		324.00000 
 43692.65567		 647.54082			43045.11485		212.65400		875.00000 
 43692.65567		 305.27265			43387.38302		64.65000		324.00000 
 43692.65567		 647.54082			43045.11485		212.65400		875.00000 
 43692.65567		 305.27265			43387.38302		64.65000		324.00000 
 43692.65567		 647.54082			43045.11485		212.65400		875.00000 
 43692.65567		 305.27265			43387.38302		64.65000		324.00000 
 43692.65567		 647.54082			43045.11485		212.65400		875.00000 
 43692.65567		 305.27265			43387.38302		64.65000		324.00000 
 43692.65567		 647.54082			43045.11485		212.65400		875.00000 
 43692.65567		 305.27265			43387.38302		64.65000		324.00000 
 43692.65567		 647.54082			43045.11485		212.65400		875.00000 
 43692.65567		 305.27265			43387.38302		64.65000		324.00000 
 43692.65567		 647.54082			43045.11485		212.65400		875.00000 
 43692.65567		 305.27265			43387.38302		64.65000		324.00000 
 43692.65567		 647.54082			43045.11485		212.65400		875.00000 
 43692.65567		 305.27265			43387.38302		64.65000		324.00000 
 43692.65567		 647.54082			43045.11485		212.65400		875.00000 
 43692.65567		 305.27265			43387.38302		64.65000		324.00000 
 43692.65567		 647.54082			43045.11485		212.65400		875.00000 
 43692.65567		 305.27265			43387.38302		64.65000		324.00000 
 43692.65567		 647.54082			43045.11485		212.65400		875.00000 
 43692.65567		 305.27265			43387.38302		64.65000		324.00000 
 43692.65567		 647.54082			43045.11485		212.65400		875.00000 
 43692.65567		 305.27265			43387.38302		64.65000		324.00000 
 43692.65567		 647.54082			43045.11485		212.65400		875.00000 
 43692.65567		 305.27265			43387.38302		64.65000		324.00000 
 43692.65567		 647.54082			43045.11485		212.65400		875.00000 
 43692.65567		 305.27265			43387.38302		64.65000		324.00000 
 43692.65567		 647.54082			43045.11485		212.65400		875.00000 
 43692.65567		 305.27265			43387.38302		64.65000		324.00000 
 43692.65567		 647.54082			43045.11485		212.65400		875.00000 
 43692.65567		 305.27265			43387.38302		64.65000		324.00000 
 43692.65567		 647.54082			43045.11485		212.65400		875.00000 
 43692.65567		 305.27265			43387.38302		64.65000		324.00000 
 43692.65567		 647.54082			43045.11485		212.65400		875.00000 
 43692.65567		 305.27265			43387.38302		64.65000		324.00000 
 43692.65567		 647.54082			43045.11485		212.65400		875.00000 
 43692.65567		 305.27265			43387.38302		64.65000		324.00000 
 43692.65567		 647.54082			43045.11485		212.65400		875.00000 
 43692.65567		 305.27265			43387.38302		64.65000		324.00000 
 43692.65567		 647.54082			43045.11485		212.65400		875.00000 
 43692.65567		 305.27265			43387.38302		64.65000		324.00000 
 43692.65567		 647.54082			43045.11485		212.65400		875.00000 
 43692.65567		 305.27265			43387.38302		64.65000		324.00000 
 43692.65567		 647.54082			43045.11485		212.65400		875.00000 
 43692.65567		 305.27265			43387.38302		64.65000		324.00000 
 43692.65567		 647.54082			43045.11485		212.65400		875.00000 
 43692.65567		 305.27265			43387.38302		64.65000		324.00000 
 43692.65567		 647.54082			43045.11485		212.65400		875.00000 
 43692.65567		 305.27265			43387.38302		64.65000		324.00000 
 43692.65567		 647.54082			43045.11485		212.65400		875.00000 
 43692.65567		 305.27265			43387.38302		64.65000		324.00000 
 43692.65567		 647.54082			43045.11485		212.65400		875.00000 
 43692.65567		 305.27265			43387.38302		64.65000		324.00000 
 43692.65567		 647.54082			43045.11485		212.65400		875.00000 
 43692.65567		 305.27265			43387.38302		64.65000		324.00000 
 43692.65567		 647.54082			43045.11485		212.65400		875.00000 
 43692.65567		 305.27265			43387.38302		64.65000		324.00000 
 43692.65567		 647.54082			43045.11485		212.65400		875.00000 
 43692.65567		 305.27265			43387.38302		64.65000		324.00000 
 43692.65567		 647.54082			43045.11485		212.65400		875.00000 
 43692.65567		 305.27265			43387.38302		64.65000		324.00000 
 43692.65567		 647.54082			43045.11485		212.65400		875.00000 
 43692.65567		 305.27265			43387.38302		64.65000		324.00000 
 43692.65567		 647.54082			43045.11485		212.65400		875.00000 
 43692.65567		 305.27265			43387.38302		64.65000		324.00000 
 43692.65567		 647.54082			43045.11485		212.65400		875.00000 
 43692.65567		 305.27265			43387.38302		64.65000		324.00000 
 43692.65567		 647.54082			43045.11485		212.65400		875.00000 
 43692.65567		 305.27265			43387.38302		64.65000		324.00000 
 43692.65567		 647.54082			43045.11485		212.65400		875.00000 
 43692.65567		 305.27265			43387.38302		64.65000		324.00000 
 43692.65567		 647.54082			43045.11485		212.65400		875.00000 
 43692.65567		 305.27265			43387.38302		64.65000		324.00000 
 43692.65567		 647.54082			43045.11485		212.65400		875.00000 
 43692.65567		 305.27265			43387.38302		64.65000		324.00000 
 43692.65567		 647.54082			43045.11485		212.65400		875.00000 
 43692.65567		 305.27265			43387.38302		64.65000		324.00000 
 43692.65567		 647.54082			43045.11485		212.65400		875.00000 
 43692.65567		 305.27265			43387.38302		64.65000		324.00000 
 43692.65567		 647.54082			43045.11485		212.65400		875.00000 
 43692.65567		 305.27265			43387.38302		64.65000		324.00000 
 43692.65567		 647.54082			43045.11485		212.65400		875.00000 
 43692.65567		 305.27265			43387.38302		64.65000		324.00000 
 43692.65567		 647.54082			43045.11485		215.55000		875.00000 
 43692.65567		 305.27265			43387.38302		64.65000		324.00000 
 43692.65567		 647.54082			43045.11485		215.55000		875.00000 
 43692.65567		 305.27265			43387.38302		64.65000		324.00000 
 43692.65567		 647.54082			43045.11485		215.55000		875.00000 
 43692.65567		 305.27265			43387.38302		64.65000		324.00000 
 43692.65567		 647.54082			43045.11485		215.55000		875.00000 
 43692.65567		 305.27265			43387.38302		64.65000		324.00000 
 43692.65567		 647.54082			43045.11485		215.55000		875.00000 
 43692.65567		 305.27265			43387.38302		64.65000		324.00000 
 43692.65567		 647.54082			43045.11485		215.55000		875.00000 
 43692.65567		 305.27265			43387.38302		64.65000		324.00000 
 43692.65567		 647.54082			43045.11485		215.55000		875.00000 
 43692.65567		 305.27265			43387.38302		64.65000		324.00000 
 43692.65567		 647.54082			43045.11485		215.55000		875.00000 
 43692.65567		 305.27265			43387.38302		64.65000		324.00000 
 43692.65567		 647.54082			43045.11485		215.55000		875.00000 
 43692.65567		 305.27265			43387.38302		64.65000		324.00000 
 43692.65567		 647.54082			43045.11485		215.55000		875.00000 
 43692.65567		 305.27265			43387.38302		64.65000		324.00000 
 43692.65567		 647.54082			43045.11485		215.55000		875.00000 
 43692.65567		 305.27265			43387.38302		64.65000		324.00000 
 43692.65567		 647.54082			43045.11485		215.55000		875.00000 
 43692.65567		 305.27265			43387.38302		64.65000		324.00000 
 43692.65567		 647.54082			43045.11485		215.55000		875.00000 
 43692.65567		 305.27265			43387.38302		64.65000		324.00000 
 43692.65567		 647.54082			43045.11485		215.55000		875.00000 
 43692.65567		 305.27265			43387.38302		64.65000		324.00000 
 43692.65567		 647.54082			43045.11485		215.55000		875.00000 
 43692.65567		 305.27265			43387.38302		64.65000		324.00000 
 43692.65567		 647.54082			43045.11485		215.55000		875.00000 
 43692.65567		 305.27265			43387.38302		64.65000		324.00000 
 43692.65567		 647.54082			43045.11485		215.55000		875.00000 
 43692.65567		 305.27265			43387.38302		64.65000		324.00000 
 43692.65567		 647.54082			43045.11485		215.55000		875.00000 
 43692.65567		 305.27265			43387.38302		64.65000		324.00000 
 43692.65567		 647.54082			43045.11485		215.55000		875.00000 
 43692.65567		 305.27265			43387.38302		64.65000		324.00000 
 43692.65567		 647.54082			43045.11485		215.55000		875.00000 
 43692.65567		 305.27265			43387.38302		64.65000		324.00000 
 43692.65567		 647.54082			43045.11485		215.55000		875.00000 
 43692.65567		 305.27265			43387.38302		64.65000		324.00000 
 43692.65567		 647.54082			43045.11485		215.55000		875.00000 
 43692.65567		 305.27265			43387.38302		64.65000		324.00000 
 43692.65567		 647.54082			43045.11485		215.55000		875.00000 
 43692.65567		 305.27265			43387.38302		64.65000		324.00000 
 43692.65567		 647.54082			43045.11485		215.55000		875.00000 
 43692.65567		 305.27265			43387.38302		64.65000		324.00000 
 43692.65567		 647.54082			43045.11485		215.55000		875.00000 
 43692.65567		 305.27265			43387.38302		64.65000		324.00000 
 43692.65567		 647.54082			43045.11485		215.55000		875.00000 
 43692.65567		 305.27265			43387.38302		64.65000		324.00000 
 43692.65567		 647.54082			43045.11485		215.55000		875.00000 
 43692.65567		 305.27265			43387.38302		64.65000		324.00000 
 43692.65567		 647.54082			43045.11485		215.55000		875.00000 
 43692.65567		 305.27265			43387.38302		64.65000		324.00000 
 43692.65567		 647.54082			43045.11485		215.55000		875.00000 
 43692.65567		 305.27265			43387.38302		64.65000		324.00000 
 43692.65567		 647.54082			43045.11485		215.55000		875.00000 
 43692.65567		 305.27265			43387.38302		64.65000		324.00000 
 43692.65567		 647.54082			43045.11485		215.55000		875.00000 
 43692.65567		 305.27265			43387.38302		64.65000		324.00000 
 43692.65567		 647.54082			43045.11485		215.55000		875.00000 
 43692.65567		 305.27265			43387.38302		64.65000		324.00000 
 43692.65567		 647.54082			43045.11485		215.55000		875.00000 
 43692.65567		 305.27265			43387.38302		64.65000		324.00000 
 43692.65567		 647.54082			43045.11485		215.55000		875.00000 
 43692.65567		 305.27265			43387.38302		64.65000		324.00000 
 43692.65567		 647.54082			43045.11485		215.55000		875.00000 
 43692.65567		 305.27265			43387.38302		64.65000		324.00000 
 43692.65567		 647.54082			43045.11485		215.55000		875.00000 
 43692.65567		 305.27265			43387.38302		64.65000		324.00000 
 43692.65567		 647.54082			43045.11485		215.55000		875.00000 
 43692.65567		 305.27265			43387.38302		64.65000		324.00000 
 43692.65567		 647.54082			43045.11485		215.55000		875.00000 
 43692.65567		 305.27265			43387.38302		64.65000		324.00000 
 43692.65567		 647.54082			43045.11485		215.55000		875.00000 
 43692.65567		 305.27265			43387.38302		64.65000		324.00000 
 43692.65567		 647.54082			43045.11485		215.55000		875.00000 
 43692.65567		 305.27265			43387.38302		64.65000		324.00000 
 43692.65567		 647.54082			43045.11485		215.55000		875.00000 
 43692.65567		 305.27265			43387.38302		64.65000		324.00000 
 43692.65567		 647.54082			43045.11485		215.55000		875.00000 
 43692.65567		 305.27265			43387.38302		64.65000		324.00000 
 43692.65567		 647.54082			43045.11485		215.55000		875.00000 
 43692.65567		 305.27265			43387.38302		64.65000		324.00000 
 43692.65567		 647.54082			43045.11485		215.55000		875.00000 
 43692.65567		 305.27265			43387.38302		64.65000		324.00000 
 43692.65567		 647.54082			43045.11485		215.55000		875.00000 
 43692.65567		 305.27265			43387.38302		64.65000		324.00000 
 43692.65567		 647.54082			43045.11485		215.55000		875.00000 
 43692.65567		 305.27265			43387.38302		64.65000		324.00000 
 43692.65567		 647.54082			43045.11485		215.55000		875.00000 
 43692.65567		 305.27265			43387.38302		64.65000		324.00000 
 43692.65567		 647.54082			43045.11485		215.55000		875.00000 
 43692.65567		 305.27265			43387.38302		64.65000		324.00000 
 43692.65567		 647.54082			43045.11485		215.55000		875.00000 
 43692.65567		 305.27265			43387.38302		64.65000		324.00000 
 43692.65567		 647.54082			43045.11485		215.55000		875.00000 
 43692.65567		 305.27265			43387.38302		64.65000		324.00000 
 43692.65567		 647.54082			43045.11485		215.55000		875.00000 
 43692.65567		 305.27265			43387.38302		64.65000		324.00000 
 43692.65567		 647.54082			43045.11485		215.55000		875.00000 
 43692.65567		 305.27265			43387.38302		64.65000		324.00000 
 43692.65567		 647.54082			43045.11485		215.55000		875.00000 
 43692.65567		 305.27265			43387.38302		64.65000		324.00000 
 43692.65567		 647.54082			43045.11485		215.55000		875.00000 
 43692.65567		 305.27265			43387.38302		64.65000		324.00000 
 43692.65567		 647.54082			43045.11485		215.55000		875.00000 
 43692.65567		 305.27265			43387.38302		64.65000		324.00000 
 43692.65567		 647.54082			43045.11485		215.55000		875.00000 
 43692.65567		 305.27265			43387.38302		64.65000		324.00000 
 43692.65567		 647.54082			43045.11485		215.55000		875.00000 
 43692.65567		 305.27265			43387.38302		64.65000		324.00000 
 43692.65567		 647.54082			43045.11485		215.55000		875.00000 
 43692.65567		 305.27265			43387.38302		64.65000		324.00000 
 43692.65567		 647.54082			43045.11485		215.55000		875.00000 
 43692.65567		 305.27265			43387.38302		64.65000		324.00000 
 43692.65567		 647.54082			43045.11485		215.55000		875.00000 
 43692.65567		 305.27265			43387.38302		64.65000		324.00000 
 43692.65567		 647.54082			43045.11485		215.55000		875.00000 
 43692.65567		 305.27265			43387.38302		64.65000		324.00000 
 43692.65567		 647.54082			43045.11485		215.55000		875.00000 
 43692.65567		 305.27265			43387.38302		64.65000		324.00000 
 43692.65567		 647.54082			43045.11485		215.55000		875.00000 
 43692.65567		 305.27265			43387.38302		64.65000		324.00000 
 43692.65567		 647.54082			43045.11485		215.55000		875.00000 
 43692.65567		 305.27265			43387.38302		64.65000		324.00000 
 43692.65567		 647.54082			43045.11485		215.70400		875.00000 
 43692.65567		 305.27265			43387.38302		64.65000		324.00000 
 43692.65567		 647.54082			43045.11485		215.70400		875.00000 
 43692.65567		 305.27265			43387.38302		64.65000		324.00000 
 43692.65567		 647.54082			43045.11485		215.70400		875.00000 
 43692.65567		 305.27265			43387.38302		64.65000		324.00000 
 43692.65567		 647.54082			43045.11485		215.70400		875.00000 
 43692.65567		 305.27265			43387.38302		64.65000		324.00000 
 43692.65567		 647.54082			43045.11485		215.70400		875.00000 
 43692.65567		 305.27265			43387.38302		64.65000		324.00000 
 43692.65567		 647.54082			43045.11485		215.70400		875.00000 
 43692.65567		 305.27265			43387.38302		64.65000		324.00000 
 43692.65567		 647.54082			43045.11485		215.70400		875.00000 
 43692.65567		 305.27265			43387.38302		64.65000		324.00000 
 43692.65567		 647.54082			43045.11485		215.70400		875.00000 
 43692.65567		 305.27265			43387.38302		64.65000		324.00000 
 43692.65567		 647.54082			43045.11485		215.70400		875.00000 
 43692.65567		 305.27265			43387.38302		64.65000		324.00000 
 43692.65567		 647.54082			43045.11485		215.70400		875.00000 
 43692.65567		 305.27265			43387.38302		64.65000		324.00000 
 43692.65567		 647.54082			43045.11485		215.70400		875.00000 
 43692.65567		 305.27265			43387.38302		64.65000		324.00000 
 43692.65567		 647.54082			43045.11485		215.70400		875.00000 
 43692.65567		 305.27265			43387.38302		64.65000		324.00000 
 43692.65567		 647.54082			43045.11485		215.70400		875.00000 
 43692.65567		 305.27265			43387.38302		64.65000		324.00000 
 43692.65567		 647.54082			43045.11485		215.70400		875.00000 
 43692.65567		 305.27265			43387.38302		64.65000		324.00000 
 43692.65567		 647.54082			43045.11485		215.70400		875.00000 
 43692.65567		 305.27265			43387.38302		64.65000		324.00000 
 43692.65567		 647.54082			43045.11485		215.70400		875.00000 
 43692.65567		 305.27265			43387.38302		64.65000		324.00000 
 43692.65567		 647.54082			43045.11485		215.70400		875.00000 
 43692.65567		 305.27265			43387.38302		64.65000		324.00000 
 43692.65567		 647.54082			43045.11485		215.70400		875.00000 
 43692.65567		 305.27265			43387.38302		64.65000		324.00000 
 43692.65567		 647.54082			43045.11485		215.70400		875.00000 
 43692.65567		 305.27265			43387.38302		64.65000		324.00000 
 43692.65567		 647.54082			43045.11485		215.70400		875.00000 
 43692.65567		 305.27265			43387.38302		64.65000		324.00000 
 43692.65567		 647.54082			43045.11485		215.70400		875.00000 
 43692.65567		 305.27265			43387.38302		64.65000		324.00000 
 43692.65567		 647.54082			43045.11485		215.70400		875.00000 
 43692.65567		 305.27265			43387.38302		64.65000		324.00000 
 43692.65567		 647.54082			43045.11485		215.70400		875.00000 
 43692.65567		 305.27265			43387.38302		64.65000		324.00000 
 43692.65567		 647.54082			43045.11485		215.70400		875.00000 
 43692.65567		 305.27265			43387.38302		64.65000		324.00000 
 43692.65567		 647.54082			43045.11485		215.70400		875.00000 
 43692.65567		 305.27265			43387.38302		64.65000		324.00000 
 43692.65567		 647.54082			43045.11485		215.70400		875.00000 
 43692.65567		 305.27265			43387.38302		64.65000		324.00000 
 43692.65567		 647.54082			43045.11485		215.70400		875.00000 
 43692.65567		 305.27265			43387.38302		64.65000		324.00000 
 43692.65567		 647.54082			43045.11485		215.70400		875.00000 
 43692.65567		 305.27265			43387.38302		64.65000		324.00000 
 43692.65567		 647.54082			43045.11485		215.70400		875.00000 
 43692.65567		 305.27265			43387.38302		64.65000		324.00000 
 43692.65567		 647.54082			43045.11485		215.70400		875.00000 
 43692.65567		 305.27265			43387.38302		64.65000		324.00000 
 43692.65567		 647.54082			43045.11485		215.70400		875.00000 
 43692.65567		 305.27265			43387.38302		64.65000		324.00000 
 43692.65567		 647.54082			43045.11485		215.70400		875.00000 
 43692.65567		 305.27265			43387.38302		64.65000		324.00000 
 43692.65567		 647.54082			43045.11485		215.70400		875.00000 
 43692.65567		 305.27265			43387.38302		64.65000		324.00000 
 43692.65567		 647.54082			43045.11485		215.70400		875.00000 
 43692.65567		 305.27265			43387.38302		64.65000		324.00000 
 43692.65567		 647.54082			43045.11485		215.70400		875.00000 
 43692.65567		 305.27265			43387.38302		64.65000		324.00000 
 43692.65567		 647.54082			43045.11485		215.70400		875.00000 
 43692.65567		 305.27265			43387.38302		64.65000		324.00000 
 43692.65567		 647.54082			43045.11485		215.70400		875.00000 
 43692.65567		 305.27265			43387.38302		64.65000		324.00000 
 43692.65567		 647.54082			43045.11485		215.70400		875.00000 
 43692.65567		 305.27265			43387.38302		64.65000		324.00000 
 43692.65567		 647.54082			43045.11485		215.70400		875.00000 
 43692.65567		 305.27265			43387.38302		64.65000		324.00000 
 43692.65567		 647.54082			43045.11485		215.70400		875.00000 
 43692.65567		 305.27265			43387.38302		64.65000		324.00000 
 43692.65567		 647.54082			43045.11485		215.70400		875.00000 
 43692.65567		 305.27265			43387.38302		64.65000		324.00000 
 43692.65567		 647.54082			43045.11485		215.70400		875.00000 
 43692.65567		 305.27265			43387.38302		64.65000		324.00000 
 43692.65567		 647.54082			43045.11485		215.70400		875.00000 
 43692.65567		 305.27265			43387.38302		64.65000		324.00000 
 43692.65567		 647.54082			43045.11485		215.70400		875.00000 
 43692.65567		 305.27265			43387.38302		64.65000		324.00000 
 43692.65567		 647.54082			43045.11485		215.70400		875.00000 
 43692.65567		 305.27265			43387.38302		64.65000		324.00000 
 43692.65567		 647.54082			43045.11485		215.70400		875.00000 
 43692.65567		 305.27265			43387.38302		64.65000		324.00000 
 43692.65567		 647.54082			43045.11485		215.70400		875.00000 
 43692.65567		 305.27265			43387.38302		64.65000		324.00000 
 43692.65567		 647.54082			43045.11485		215.70400		875.00000 
 43692.65567		 305.27265			43387.38302		64.65000		324.00000 
 43692.65567		 647.54082			43045.11485		215.70400		875.00000 
 43692.65567		 305.27265			43387.38302		64.65000		324.00000 
 43692.65567		 647.54082			43045.11485		215.70400		875.00000 
 43692.65567		 305.27265			43387.38302		64.65000		324.00000 
 43692.65567		 647.54082			43045.11485		215.70400		875.00000 
 43692.65567		 305.27265			43387.38302		64.65000		324.00000 
 43692.65567		 647.54082			43045.11485		215.70400		875.00000 
 43692.65567		 305.27265			43387.38302		64.65000		324.00000 
 43692.65567		 647.54082			43045.11485		215.70400		875.00000 
 43692.65567		 305.27265			43387.38302		64.65000		324.00000 
 43692.65567		 647.54082			43045.11485		215.70400		875.00000 
 43692.65567		 305.27265			43387.38302		64.65000		324.00000 
 43692.65567		 647.54082			43045.11485		215.70400		875.00000 
 43692.65567		 305.27265			43387.38302		64.65000		324.00000 
 43692.65567		 647.54082			43045.11485		215.70400		875.00000 
 43692.65567		 305.27265			43387.38302		64.65000		324.00000 
 43692.65567		 647.54082			43045.11485		215.70400		875.00000 
 43692.65567		 305.27265			43387.38302		64.65000		324.00000 
 43692.65567		 647.54082			43045.11485		215.70400		875.00000 
 43692.65567		 305.27265			43387.38302		64.65000		324.00000 
 43692.65567		 647.54082			43045.11485		215.70400		875.00000 
 43692.65567		 305.27265			43387.38302		64.65000		324.00000 
 43692.65567		 647.54082			43045.11485		215.70400		875.00000 
 43692.65567		 305.27265			43387.38302		64.65000		324.00000 
 43692.65567		 647.54082			43045.11485		215.70400		875.00000 
 43692.65567		 305.27265			43387.38302		64.65000		324.00000 
 43692.65567		 647.54082			43045.11485		215.70400		875.00000 
 43692.65567		 305.27265			43387.38302		64.65000		324.00000 
 43692.65567		 647.54082			43045.11485		215.70400		875.00000 
 43692.65567		 305.27265			43387.38302		64.65000		324.00000 
 43692.65567		 647.54082			43045.11485		215.70400		875.00000 
 43692.65567		 305.27265			43387.38302		64.65000		324.00000 
 43692.65567		 647.54082			43045.11485		215.70400		875.00000 
 43692.65567		 305.27265			43387.38302		64.65000		324.00000 
 43692.65567		 647.54082			43045.11485		215.70400		875.00000 
 43692.65567		 305.27265			43387.38302		64.65000		324.00000 
 43692.65567		 647.54082			43045.11485		215.70400		875.00000 
 43692.65567		 305.27265			43387.38302		64.65000		324.00000 
 43692.65567		 647.54082			43045.11485		215.70400		875.00000 
 43692.65567		 305.27265			43387.38302		64.65000		324.00000 
 43692.65567		 647.54082			43045.11485		215.70400		875.00000 
 43692.65567		 305.27265			43387.38302		64.65000		324.00000 
 43692.65567		 647.54082			43045.11485		215.70400		875.00000 
 43692.65567		 305.27265			43387.38302		64.65000		324.00000 
 43692.65567		 647.54082			43045.11485		215.70400		875.00000 
 43692.65567		 305.27265			43387.38302		64.65000		324.00000 
 43692.65567		 647.54082			43045.11485		215.70400		875.00000 
 43692.65567		 305.27265			43387.38302		64.65000		324.00000 
 43692.65567		 647.54082			43045.11485		215.70400		875.00000 
 43692.65567		 305.27265			43387.38302		64.65000		324.00000 
 43692.65567		 647.54082			43045.11485		215.70400		875.00000 
 43692.65567		 305.27265			43387.38302		64.65000		324.00000 
 43692.65567		 647.54082			43045.11485		215.70400		875.00000 
 43692.65567		 305.27265			43387.38302		64.65000		324.00000 
 43692.65567		 647.54082			43045.11485		215.70400		875.00000 
 43692.65567		 305.27265			43387.38302		64.65000		324.00000 
 43692.65567		 647.54082			43045.11485		215.70400		875.00000 
 43692.65567		 305.27265			43387.38302		64.65000		324.00000 
 43692.65567		 647.54082			43045.11485		215.70400		875.00000 
 43692.65567		 305.27265			43387.38302		64.65000		324.00000 
 43692.65567		 647.54082			43045.11485		215.70400		875.00000 
 43692.65567		 305.27265			43387.38302		64.65000		324.00000 
 43692.65567		 647.54082			43045.11485		215.70400		875.00000 
 43692.65567		 305.27265			43387.38302		64.65000		324.00000 
 43692.65567		 647.54082			43045.11485		215.70400		875.00000 
 43692.65567		 305.27265			43387.38302		64.65000		324.00000 
 43692.65567		 647.54082			43045.11485		215.70400		875.00000 
 43692.65567		 305.27265			43387.38302		64.65000		324.00000 
 43692.65567		 647.54082			43045.11485		215.70400		875.00000 
 43692.65567		 305.27265			43387.38302		64.65000		324.00000 
 43692.65567		 647.54082			43045.11485		215.70400		875.00000 
 43692.65567		 305.27265			43387.38302		64.65000		324.00000 
 43692.65567		 647.54082			43045.11485		215.70400		875.00000 
 43692.65567		 305.27265			43387.38302		64.65000		324.00000 
 43692.65567		 647.54082			43045.11485		215.70400		875.00000 
 43692.65567		 305.27265			43387.38302		64.65000		324.00000 
 43692.65567		 647.54082			43045.11485		215.70400		875.00000 
 43692.65567		 305.27265			43387.38302		64.65000		324.00000 
 43692.65567		 647.54082			43045.11485		215.70400		875.00000 
 43692.65567		 305.27265			43387.38302		64.65000		324.00000 
 43692.65567		 647.54082			43045.11485		215.70400		875.00000 
 43692.65567		 305.27265			43387.38302		64.65000		324.00000 
 43692.65567		 647.54082			43045.11485		215.70400		875.00000 
 43692.65567		 305.27265			43387.38302		64.65000		324.00000 
 43692.65567		 647.54082			43045.11485		215.70400		875.00000 
 43692.65567		 305.27265			43387.38302		64.65000		324.00000 
 43692.65567		 647.54082			43045.11485		215.70400		875.00000 
 43692.65567		 305.27265			43387.38302		64.65000		324.00000 
 43692.65567		 647.54082			43045.11485		215.70400		875.00000 
 43692.65567		 305.27265			43387.38302		64.65000		324.00000 
 43692.65567		 647.54082			43045.11485		215.70400		875.00000 
 43692.65567		 305.27265			43387.38302		64.65000		324.00000 
 43692.65567		 610.78399			43081.87169		215.70400		875.00000 
 43692.65567		 305.27265			43387.38302		64.65000		324.00000 
 43692.65567		 574.02715			43118.62852		215.70400		875.00000 
 43692.65567		 305.27265			43387.38302		64.65000		324.00000 
 43692.65567		 537.27032			43155.38535		215.70400		875.00000 
 43692.65567		 305.27265			43387.38302		64.65000		324.00000 
 43692.65567		 537.27032			43155.38535		215.70400		875.00000 
 43692.65567		 305.27265			43387.38302		64.65000		324.00000 
 43692.65567		 537.27032			43155.38535		215.70400		875.00000 
 43692.65567		 305.27265			43387.38302		64.65000		324.00000 
 43692.65567		 537.27032			43155.38535		215.70400		875.00000 
 43692.65567		 305.27265			43387.38302		64.65000		324.00000 
 43692.65567		 537.27032			43155.38535		215.70400		875.00000 
 43692.65567		 305.27265			43387.38302		64.65000		324.00000 
 43692.65567		 537.27032			43155.38535		215.70400		875.00000 
 43692.65567		 305.27265			43387.38302		64.65000		324.00000 
 43692.65567		 537.27032			43155.38535		215.70400		875.00000 
 43692.65567		 305.27265			43387.38302		64.65000		324.00000 
 43692.65567		 537.27032			43155.38535		215.70400		875.00000 
 43692.65567		 305.27265			43387.38302		64.65000		324.00000 
 43692.65567		 537.27032			43155.38535		215.70400		875.00000 
 43692.65567		 305.27265			43387.38302		64.65000		324.00000 
 43692.65567		 537.27032			43155.38535		215.70400		875.00000 
 43692.65567		 305.27265			43387.38302		64.65000		324.00000 
 43692.65567		 537.27032			43155.38535		215.70400		875.00000 
 43692.65567		 305.27265			43387.38302		64.65000		324.00000 
 43692.65567		 537.27032			43155.38535		215.70400		875.00000 
 43692.65567		 305.27265			43387.38302		64.65000		324.00000 
 43692.65567		 537.27032			43155.38535		215.70400		875.00000 
 43692.65567		 305.27265			43387.38302		64.65000		324.00000 
 43692.65567		 537.27032			43155.38535		215.70400		875.00000 
 43692.65567		 305.27265			43387.38302		64.65000		324.00000 
 43692.65567		 537.27032			43155.38535		215.70400		875.00000 
 43692.65567		 305.27265			43387.38302		64.65000		324.00000 
 43692.65567		 537.27032			43155.38535		215.70400		875.00000 
 43692.65567		 305.27265			43387.38302		64.65000		324.00000 
 43692.65567		 537.27032			43155.38535		215.70400		875.00000 
 43692.65567		 305.27265			43387.38302		64.65000		324.00000 
 43692.65567		 537.27032			43155.38535		215.70400		875.00000 
 43692.65567		 305.27265			43387.38302		64.65000		324.00000 
 43692.65567		 537.27032			43155.38535		215.70400		875.00000 
 43692.65567		 305.27265			43387.38302		64.65000		324.00000 
 43692.65567		 537.27032			43155.38535		215.70400		875.00000 
 43692.65567		 305.27265			43387.38302		64.65000		324.00000 
 43692.65567		 525.81365			43166.84203		185.80600		875.00000 
 43692.65567		 305.27265			43387.38302		64.65000		324.00000 
 43692.65567		 261.35540			43431.30027		185.80600		875.00000 
 43692.65567		 261.35540			43431.30027		64.65000		324.00000 
