Memory Total (MiB) 	 Memory Used (MiB) 	    Memory Free (MiB) 	 Power Drawed (W) 	 Clocks (Mhz) 	 
 43692.65567		 261.35540			43431.30027		208.54800		875.00000 
 43692.65567		 261.35540			43431.30027		67.64400		324.00000 
 43692.65567		 261.35540			43431.30027		208.54800		875.00000 
 43692.65567		 261.35540			43431.30027		67.64400		324.00000 
 43692.65567		 261.35540			43431.30027		208.54800		875.00000 
 43692.65567		 261.35540			43431.30027		67.64400		324.00000 
 43692.65567		 261.35540			43431.30027		208.54800		875.00000 
 43692.65567		 261.35540			43431.30027		67.64400		324.00000 
 43692.65567		 261.35540			43431.30027		208.54800		875.00000 
 43692.65567		 261.35540			43431.30027		67.64400		324.00000 
 43692.65567		 261.35540			43431.30027		208.54800		875.00000 
 43692.65567		 261.35540			43431.30027		67.64400		324.00000 
 43692.65567		 261.35540			43431.30027		208.54800		875.00000 
 43692.65567		 261.35540			43431.30027		67.64400		324.00000 
 43692.65567		 261.35540			43431.30027		208.54800		875.00000 
 43692.65567		 261.35540			43431.30027		67.64400		324.00000 
 43692.65567		 261.35540			43431.30027		208.54800		875.00000 
 43692.65567		 261.35540			43431.30027		67.64400		324.00000 
 43692.65567		 261.35540			43431.30027		160.75600		875.00000 
 43692.65567		 261.35540			43431.30027		67.64400		324.00000 
 43692.65567		 261.35540			43431.30027		160.75600		875.00000 
 43692.65567		 261.35540			43431.30027		67.64400		324.00000 
 43692.65567		 261.35540			43431.30027		160.75600		875.00000 
 43692.65567		 261.35540			43431.30027		67.64400		324.00000 
 43692.65567		 261.35540			43431.30027		160.75600		875.00000 
 43692.65567		 261.35540			43431.30027		67.64400		324.00000 
 43692.65567		 261.35540			43431.30027		160.75600		875.00000 
 43692.65567		 261.35540			43431.30027		67.64400		324.00000 
 43692.65567		 261.35540			43431.30027		160.75600		875.00000 
 43692.65567		 261.35540			43431.30027		67.64400		324.00000 
 43692.65567		 261.35540			43431.30027		160.75600		875.00000 
 43692.65567		 261.35540			43431.30027		67.64400		324.00000 
 43692.65567		 261.35540			43431.30027		160.75600		875.00000 
 43692.65567		 261.35540			43431.30027		67.64400		324.00000 
 43692.65567		 261.35540			43431.30027		160.75600		875.00000 
 43692.65567		 261.35540			43431.30027		67.64400		324.00000 
 43692.65567		 265.17429			43427.48138		160.75600		875.00000 
 43692.65567		 261.35540			43431.30027		67.64400		324.00000 
 43692.65567		 265.17429			43427.48138		160.75600		875.00000 
 43692.65567		 261.35540			43431.30027		67.64400		324.00000 
 43692.65567		 272.81207			43419.84360		160.75600		875.00000 
 43692.65567		 261.35540			43431.30027		67.64400		324.00000 
 43692.65567		 272.81207			43419.84360		160.75600		875.00000 
 43692.65567		 261.35540			43431.30027		67.64400		324.00000 
 43692.65567		 272.81207			43419.84360		160.75600		875.00000 
 43692.65567		 265.17429			43427.48138		67.64400		324.00000 
 43692.65567		 272.81207			43419.84360		160.75600		875.00000 
 43692.65567		 265.17429			43427.48138		67.64400		324.00000 
 43692.65567		 272.81207			43419.84360		160.75600		875.00000 
 43692.65567		 272.81207			43419.84360		67.64400		324.00000 
 43692.65567		 272.81207			43419.84360		160.75600		875.00000 
 43692.65567		 272.81207			43419.84360		67.64400		324.00000 
 43692.65567		 272.81207			43419.84360		160.75600		875.00000 
 43692.65567		 272.81207			43419.84360		67.64400		324.00000 
 43692.65567		 272.81207			43419.84360		160.75600		875.00000 
 43692.65567		 272.81207			43419.84360		67.64400		324.00000 
 43692.65567		 305.27265			43387.38302		160.75600		875.00000 
 43692.65567		 305.27265			43387.38302		67.64400		324.00000 
 43692.65567		 305.27265			43387.38302		160.75600		875.00000 
 43692.65567		 305.27265			43387.38302		67.64400		324.00000 
 43692.65567		 305.27265			43387.38302		160.75600		875.00000 
 43692.65567		 305.27265			43387.38302		67.64400		324.00000 
 43692.65567		 305.27265			43387.38302		160.75600		875.00000 
 43692.65567		 305.27265			43387.38302		67.64400		324.00000 
 43692.65567		 305.27265			43387.38302		160.75600		875.00000 
 43692.65567		 305.27265			43387.38302		67.64400		324.00000 
 43692.65567		 310.04627			43382.60941		160.75600		875.00000 
 43692.65567		 305.27265			43387.38302		67.64400		324.00000 
 43692.65567		 311.00099			43381.65468		160.75600		875.00000 
 43692.65567		 305.27265			43387.38302		67.64400		324.00000 
 43692.65567		 311.00099			43381.65468		160.75600		875.00000 
 43692.65567		 305.27265			43387.38302		67.64400		324.00000 
 43692.65567		 311.00099			43381.65468		160.75600		875.00000 
 43692.65567		 305.27265			43387.38302		67.64400		324.00000 
 43692.65567		 311.00099			43381.65468		160.75600		875.00000 
 43692.65567		 305.27265			43387.38302		67.64400		324.00000 
 43692.65567		 311.00099			43381.65468		160.75600		875.00000 
 43692.65567		 305.27265			43387.38302		67.64400		324.00000 
 43692.65567		 311.00099			43381.65468		160.75600		875.00000 
 43692.65567		 305.27265			43387.38302		67.64400		324.00000 
 43692.65567		 311.00099			43381.65468		160.75600		875.00000 
 43692.65567		 305.27265			43387.38302		67.64400		324.00000 
 43692.65567		 311.00099			43381.65468		160.75600		875.00000 
 43692.65567		 305.27265			43387.38302		67.64400		324.00000 
 43692.65567		 311.00099			43381.65468		160.75600		875.00000 
 43692.65567		 305.27265			43387.38302		67.64400		324.00000 
 43692.65567		 311.00099			43381.65468		141.99800		875.00000 
 43692.65567		 305.27265			43387.38302		67.64400		324.00000 
 43692.65567		 311.00099			43381.65468		141.99800		875.00000 
 43692.65567		 305.27265			43387.38302		67.64400		324.00000 
 43692.65567		 311.00099			43381.65468		141.99800		875.00000 
 43692.65567		 305.27265			43387.38302		67.64400		324.00000 
 43692.65567		 311.00099			43381.65468		141.99800		875.00000 
 43692.65567		 305.27265			43387.38302		67.64400		324.00000 
 43692.65567		 311.00099			43381.65468		141.99800		875.00000 
 43692.65567		 305.27265			43387.38302		67.64400		324.00000 
 43692.65567		 311.00099			43381.65468		141.99800		875.00000 
 43692.65567		 305.27265			43387.38302		67.64400		324.00000 
 43692.65567		 311.00099			43381.65468		141.99800		875.00000 
 43692.65567		 305.27265			43387.38302		67.64400		324.00000 
 43692.65567		 311.00099			43381.65468		141.99800		875.00000 
 43692.65567		 305.27265			43387.38302		67.64400		324.00000 
 43692.65567		 311.00099			43381.65468		141.99800		875.00000 
 43692.65567		 305.27265			43387.38302		67.64400		324.00000 
 43692.65567		 311.00099			43381.65468		141.99800		875.00000 
 43692.65567		 305.27265			43387.38302		67.64400		324.00000 
 43692.65567		 311.00099			43381.65468		141.99800		875.00000 
 43692.65567		 305.27265			43387.38302		66.09000		324.00000 
 43692.65567		 311.00099			43381.65468		141.99800		875.00000 
 43692.65567		 305.27265			43387.38302		66.09000		324.00000 
 43692.65567		 311.00099			43381.65468		141.99800		875.00000 
 43692.65567		 305.27265			43387.38302		66.09000		324.00000 
 43692.65567		 311.00099			43381.65468		141.99800		875.00000 
 43692.65567		 305.27265			43387.38302		66.09000		324.00000 
 43692.65567		 311.00099			43381.65468		141.99800		875.00000 
 43692.65567		 305.27265			43387.38302		66.09000		324.00000 
 43692.65567		 311.00099			43381.65468		141.99800		875.00000 
 43692.65567		 305.27265			43387.38302		66.09000		324.00000 
 43692.65567		 311.00099			43381.65468		141.99800		875.00000 
 43692.65567		 305.27265			43387.38302		66.09000		324.00000 
 43692.65567		 311.00099			43381.65468		141.99800		875.00000 
 43692.65567		 305.27265			43387.38302		66.09000		324.00000 
 43692.65567		 311.00099			43381.65468		141.99800		875.00000 
 43692.65567		 305.27265			43387.38302		66.09000		324.00000 
 43692.65567		 311.00099			43381.65468		141.99800		875.00000 
 43692.65567		 305.27265			43387.38302		66.09000		324.00000 
 43692.65567		 311.00099			43381.65468		141.99800		875.00000 
 43692.65567		 305.27265			43387.38302		66.09000		324.00000 
 43692.65567		 311.00099			43381.65468		141.99800		875.00000 
 43692.65567		 305.27265			43387.38302		66.09000		324.00000 
 43692.65567		 311.00099			43381.65468		141.99800		875.00000 
 43692.65567		 305.27265			43387.38302		66.09000		324.00000 
 43692.65567		 311.00099			43381.65468		141.99800		875.00000 
 43692.65567		 305.27265			43387.38302		66.09000		324.00000 
 43692.65567		 311.00099			43381.65468		141.99800		875.00000 
 43692.65567		 305.27265			43387.38302		66.09000		324.00000 
 43692.65567		 311.00099			43381.65468		141.99800		875.00000 
 43692.65567		 305.27265			43387.38302		66.09000		324.00000 
 43692.65567		 311.00099			43381.65468		141.99800		875.00000 
 43692.65567		 305.27265			43387.38302		66.09000		324.00000 
 43692.65567		 311.00099			43381.65468		141.99800		875.00000 
 43692.65567		 305.27265			43387.38302		66.09000		324.00000 
 43692.65567		 311.00099			43381.65468		141.99800		875.00000 
 43692.65567		 305.27265			43387.38302		66.09000		324.00000 
 43692.65567		 311.00099			43381.65468		135.03600		875.00000 
 43692.65567		 305.27265			43387.38302		66.09000		324.00000 
 43692.65567		 311.00099			43381.65468		135.03600		875.00000 
 43692.65567		 305.27265			43387.38302		66.09000		324.00000 
 43692.65567		 311.00099			43381.65468		135.03600		875.00000 
 43692.65567		 305.27265			43387.38302		66.09000		324.00000 
 43692.65567		 311.00099			43381.65468		135.03600		875.00000 
 43692.65567		 305.27265			43387.38302		66.09000		324.00000 
 43692.65567		 311.00099			43381.65468		135.03600		875.00000 
 43692.65567		 305.27265			43387.38302		66.09000		324.00000 
 43692.65567		 311.00099			43381.65468		135.03600		875.00000 
 43692.65567		 305.27265			43387.38302		66.09000		324.00000 
 43692.65567		 311.00099			43381.65468		135.03600		875.00000 
 43692.65567		 305.27265			43387.38302		66.09000		324.00000 
 43692.65567		 311.00099			43381.65468		135.03600		875.00000 
 43692.65567		 305.27265			43387.38302		66.09000		324.00000 
 43692.65567		 311.00099			43381.65468		135.03600		875.00000 
 43692.65567		 305.27265			43387.38302		66.09000		324.00000 
 43692.65567		 311.00099			43381.65468		135.03600		875.00000 
 43692.65567		 305.27265			43387.38302		66.09000		324.00000 
 43692.65567		 311.00099			43381.65468		135.03600		875.00000 
 43692.65567		 305.27265			43387.38302		66.09000		324.00000 
 43692.65567		 314.81988			43377.83579		135.03600		875.00000 
 43692.65567		 305.27265			43387.38302		66.09000		324.00000 
 43692.65567		 314.81988			43377.83579		135.03600		875.00000 
 43692.65567		 305.27265			43387.38302		66.09000		324.00000 
 43692.65567		 314.81988			43377.83579		135.03600		875.00000 
 43692.65567		 305.27265			43387.38302		66.09000		324.00000 
 43692.65567		 318.63877			43374.01690		135.03600		875.00000 
 43692.65567		 305.27265			43387.38302		66.09000		324.00000 
 43692.65567		 322.45767			43370.19801		135.03600		875.00000 
 43692.65567		 305.27265			43387.38302		66.09000		324.00000 
 43692.65567		 326.27656			43366.37912		135.03600		875.00000 
 43692.65567		 305.27265			43387.38302		66.09000		324.00000 
 43692.65567		 326.27656			43366.37912		135.03600		875.00000 
 43692.65567		 305.27265			43387.38302		66.09000		324.00000 
 43692.65567		 326.27656			43366.37912		135.03600		875.00000 
 43692.65567		 305.27265			43387.38302		66.09000		324.00000 
 43692.65567		 537.27032			43155.38535		135.03600		875.00000 
 43692.65567		 305.27265			43387.38302		66.09000		324.00000 
 43692.65567		 595.50842			43097.14725		135.03600		875.00000 
 43692.65567		 305.27265			43387.38302		66.09000		324.00000 
 43692.65567		 624.62747			43068.02820		135.03600		875.00000 
 43692.65567		 305.27265			43387.38302		66.09000		324.00000 
 43692.65567		 624.62747			43068.02820		135.03600		875.00000 
 43692.65567		 305.27265			43387.38302		66.09000		324.00000 
 43692.65567		 624.62747			43068.02820		135.03600		875.00000 
 43692.65567		 305.27265			43387.38302		66.09000		324.00000 
 43692.65567		 624.62747			43068.02820		135.03600		875.00000 
 43692.65567		 305.27265			43387.38302		66.09000		324.00000 
 43692.65567		 624.62747			43068.02820		135.03600		875.00000 
 43692.65567		 305.27265			43387.38302		66.09000		324.00000 
 43692.65567		 624.62747			43068.02820		135.03600		875.00000 
 43692.65567		 305.27265			43387.38302		66.09000		324.00000 
 43692.65567		 624.62747			43068.02820		135.03600		875.00000 
 43692.65567		 305.27265			43387.38302		66.09000		324.00000 
 43692.65567		 624.62747			43068.02820		135.03600		875.00000 
 43692.65567		 305.27265			43387.38302		66.09000		324.00000 
 43692.65567		 624.62747			43068.02820		135.03600		875.00000 
 43692.65567		 305.27265			43387.38302		66.09000		324.00000 
 43692.65567		 624.62747			43068.02820		135.03600		875.00000 
 43692.65567		 305.27265			43387.38302		66.09000		324.00000 
 43692.65567		 624.62747			43068.02820		135.03600		875.00000 
 43692.65567		 305.27265			43387.38302		66.09000		324.00000 
 43692.65567		 624.62747			43068.02820		135.03600		875.00000 
 43692.65567		 305.27265			43387.38302		66.09000		324.00000 
 43692.65567		 624.62747			43068.02820		135.03600		875.00000 
 43692.65567		 305.27265			43387.38302		66.09000		324.00000 
 43692.65567		 624.62747			43068.02820		135.03600		875.00000 
 43692.65567		 305.27265			43387.38302		66.09000		324.00000 
 43692.65567		 624.62747			43068.02820		135.03600		875.00000 
 43692.65567		 305.27265			43387.38302		66.09000		324.00000 
 43692.65567		 624.62747			43068.02820		135.03600		875.00000 
 43692.65567		 305.27265			43387.38302		66.09000		324.00000 
 43692.65567		 624.62747			43068.02820		135.03600		875.00000 
 43692.65567		 305.27265			43387.38302		66.09000		324.00000 
 43692.65567		 624.62747			43068.02820		135.03600		875.00000 
 43692.65567		 305.27265			43387.38302		66.09000		324.00000 
 43692.65567		 624.62747			43068.02820		135.03600		875.00000 
 43692.65567		 305.27265			43387.38302		66.09000		324.00000 
 43692.65567		 624.62747			43068.02820		135.03600		875.00000 
 43692.65567		 305.27265			43387.38302		66.09000		324.00000 
 43692.65567		 624.62747			43068.02820		135.03600		875.00000 
 43692.65567		 305.27265			43387.38302		66.09000		324.00000 
 43692.65567		 624.62747			43068.02820		135.03600		875.00000 
 43692.65567		 305.27265			43387.38302		66.09000		324.00000 
 43692.65567		 624.62747			43068.02820		135.03600		875.00000 
 43692.65567		 305.27265			43387.38302		66.09000		324.00000 
 43692.65567		 624.62747			43068.02820		135.03600		875.00000 
 43692.65567		 305.27265			43387.38302		66.09000		324.00000 
 43692.65567		 624.62747			43068.02820		135.03600		875.00000 
 43692.65567		 305.27265			43387.38302		66.09000		324.00000 
 43692.65567		 624.62747			43068.02820		135.03600		875.00000 
 43692.65567		 305.27265			43387.38302		66.09000		324.00000 
 43692.65567		 624.62747			43068.02820		135.03600		875.00000 
 43692.65567		 305.27265			43387.38302		66.09000		324.00000 
 43692.65567		 624.62747			43068.02820		164.47600		875.00000 
 43692.65567		 305.27265			43387.38302		66.09000		324.00000 
 43692.65567		 624.62747			43068.02820		164.47600		875.00000 
 43692.65567		 305.27265			43387.38302		66.09000		324.00000 
 43692.65567		 624.62747			43068.02820		164.47600		875.00000 
 43692.65567		 305.27265			43387.38302		66.09000		324.00000 
 43692.65567		 624.62747			43068.02820		164.47600		875.00000 
 43692.65567		 305.27265			43387.38302		66.09000		324.00000 
 43692.65567		 624.62747			43068.02820		164.47600		875.00000 
 43692.65567		 305.27265			43387.38302		66.09000		324.00000 
 43692.65567		 624.62747			43068.02820		164.47600		875.00000 
 43692.65567		 305.27265			43387.38302		66.09000		324.00000 
 43692.65567		 624.62747			43068.02820		164.47600		875.00000 
 43692.65567		 305.27265			43387.38302		66.09000		324.00000 
 43692.65567		 624.62747			43068.02820		164.47600		875.00000 
 43692.65567		 305.27265			43387.38302		66.09000		324.00000 
 43692.65567		 624.62747			43068.02820		164.47600		875.00000 
 43692.65567		 305.27265			43387.38302		66.09000		324.00000 
 43692.65567		 624.62747			43068.02820		164.47600		875.00000 
 43692.65567		 305.27265			43387.38302		66.09000		324.00000 
 43692.65567		 624.62747			43068.02820		164.47600		875.00000 
 43692.65567		 305.27265			43387.38302		66.09000		324.00000 
 43692.65567		 624.62747			43068.02820		164.47600		875.00000 
 43692.65567		 305.27265			43387.38302		66.09000		324.00000 
 43692.65567		 624.62747			43068.02820		164.47600		875.00000 
 43692.65567		 305.27265			43387.38302		66.09000		324.00000 
 43692.65567		 624.62747			43068.02820		164.47600		875.00000 
 43692.65567		 305.27265			43387.38302		66.09000		324.00000 
 43692.65567		 624.62747			43068.02820		164.47600		875.00000 
 43692.65567		 305.27265			43387.38302		66.09000		324.00000 
 43692.65567		 624.62747			43068.02820		164.47600		875.00000 
 43692.65567		 305.27265			43387.38302		66.09000		324.00000 
 43692.65567		 624.62747			43068.02820		164.47600		875.00000 
 43692.65567		 305.27265			43387.38302		66.09000		324.00000 
 43692.65567		 624.62747			43068.02820		164.47600		875.00000 
 43692.65567		 305.27265			43387.38302		66.09000		324.00000 
 43692.65567		 624.62747			43068.02820		164.47600		875.00000 
 43692.65567		 305.27265			43387.38302		66.09000		324.00000 
 43692.65567		 624.62747			43068.02820		164.47600		875.00000 
 43692.65567		 305.27265			43387.38302		66.09000		324.00000 
 43692.65567		 624.62747			43068.02820		164.47600		875.00000 
 43692.65567		 305.27265			43387.38302		66.09000		324.00000 
 43692.65567		 624.62747			43068.02820		164.47600		875.00000 
 43692.65567		 305.27265			43387.38302		66.09000		324.00000 
 43692.65567		 624.62747			43068.02820		164.47600		875.00000 
 43692.65567		 305.27265			43387.38302		66.09000		324.00000 
 43692.65567		 624.62747			43068.02820		164.47600		875.00000 
 43692.65567		 305.27265			43387.38302		66.09000		324.00000 
 43692.65567		 624.62747			43068.02820		164.47600		875.00000 
 43692.65567		 305.27265			43387.38302		66.09000		324.00000 
 43692.65567		 624.62747			43068.02820		164.47600		875.00000 
 43692.65567		 305.27265			43387.38302		66.09000		324.00000 
 43692.65567		 624.62747			43068.02820		164.47600		875.00000 
 43692.65567		 305.27265			43387.38302		66.09000		324.00000 
 43692.65567		 624.62747			43068.02820		164.47600		875.00000 
 43692.65567		 305.27265			43387.38302		66.09000		324.00000 
 43692.65567		 624.62747			43068.02820		164.47600		875.00000 
 43692.65567		 305.27265			43387.38302		66.09000		324.00000 
 43692.65567		 624.62747			43068.02820		164.47600		875.00000 
 43692.65567		 305.27265			43387.38302		66.09000		324.00000 
 43692.65567		 624.62747			43068.02820		164.47600		875.00000 
 43692.65567		 305.27265			43387.38302		66.09000		324.00000 
 43692.65567		 624.62747			43068.02820		164.47600		875.00000 
 43692.65567		 305.27265			43387.38302		66.09000		324.00000 
 43692.65567		 624.62747			43068.02820		164.47600		875.00000 
 43692.65567		 305.27265			43387.38302		66.09000		324.00000 
 43692.65567		 624.62747			43068.02820		164.47600		875.00000 
 43692.65567		 305.27265			43387.38302		66.09000		324.00000 
 43692.65567		 624.62747			43068.02820		164.47600		875.00000 
 43692.65567		 305.27265			43387.38302		66.09000		324.00000 
 43692.65567		 624.62747			43068.02820		164.47600		875.00000 
 43692.65567		 305.27265			43387.38302		66.09000		324.00000 
 43692.65567		 624.62747			43068.02820		164.47600		875.00000 
 43692.65567		 305.27265			43387.38302		66.09000		324.00000 
 43692.65567		 624.62747			43068.02820		164.47600		875.00000 
 43692.65567		 305.27265			43387.38302		66.09000		324.00000 
 43692.65567		 624.62747			43068.02820		164.47600		875.00000 
 43692.65567		 305.27265			43387.38302		66.09000		324.00000 
 43692.65567		 624.62747			43068.02820		164.47600		875.00000 
 43692.65567		 305.27265			43387.38302		66.09000		324.00000 
 43692.65567		 624.62747			43068.02820		164.47600		875.00000 
 43692.65567		 305.27265			43387.38302		66.09000		324.00000 
 43692.65567		 624.62747			43068.02820		164.47600		875.00000 
 43692.65567		 305.27265			43387.38302		66.09000		324.00000 
 43692.65567		 624.62747			43068.02820		164.47600		875.00000 
 43692.65567		 305.27265			43387.38302		66.09000		324.00000 
 43692.65567		 624.62747			43068.02820		164.47600		875.00000 
 43692.65567		 305.27265			43387.38302		66.09000		324.00000 
 43692.65567		 624.62747			43068.02820		164.47600		875.00000 
 43692.65567		 305.27265			43387.38302		66.09000		324.00000 
 43692.65567		 624.62747			43068.02820		164.47600		875.00000 
 43692.65567		 305.27265			43387.38302		66.09000		324.00000 
 43692.65567		 624.62747			43068.02820		164.47600		875.00000 
 43692.65567		 305.27265			43387.38302		66.09000		324.00000 
 43692.65567		 624.62747			43068.02820		164.47600		875.00000 
 43692.65567		 305.27265			43387.38302		66.09000		324.00000 
 43692.65567		 624.62747			43068.02820		164.47600		875.00000 
 43692.65567		 305.27265			43387.38302		66.09000		324.00000 
 43692.65567		 624.62747			43068.02820		164.47600		875.00000 
 43692.65567		 305.27265			43387.38302		66.09000		324.00000 
 43692.65567		 624.62747			43068.02820		164.47600		875.00000 
 43692.65567		 305.27265			43387.38302		66.09000		324.00000 
 43692.65567		 624.62747			43068.02820		164.47600		875.00000 
 43692.65567		 305.27265			43387.38302		66.09000		324.00000 
 43692.65567		 624.62747			43068.02820		164.47600		875.00000 
 43692.65567		 305.27265			43387.38302		66.09000		324.00000 
 43692.65567		 624.62747			43068.02820		164.47600		875.00000 
 43692.65567		 305.27265			43387.38302		66.09000		324.00000 
 43692.65567		 624.62747			43068.02820		164.47600		875.00000 
 43692.65567		 305.27265			43387.38302		66.09000		324.00000 
 43692.65567		 624.62747			43068.02820		164.47600		875.00000 
 43692.65567		 305.27265			43387.38302		66.09000		324.00000 
 43692.65567		 624.62747			43068.02820		164.47600		875.00000 
 43692.65567		 305.27265			43387.38302		66.09000		324.00000 
 43692.65567		 624.62747			43068.02820		164.47600		875.00000 
 43692.65567		 305.27265			43387.38302		66.09000		324.00000 
 43692.65567		 624.62747			43068.02820		164.47600		875.00000 
 43692.65567		 305.27265			43387.38302		66.09000		324.00000 
 43692.65567		 624.62747			43068.02820		164.47600		875.00000 
 43692.65567		 305.27265			43387.38302		66.09000		324.00000 
 43692.65567		 624.62747			43068.02820		164.47600		875.00000 
 43692.65567		 305.27265			43387.38302		66.09000		324.00000 
 43692.65567		 624.62747			43068.02820		164.47600		875.00000 
 43692.65567		 305.27265			43387.38302		66.09000		324.00000 
 43692.65567		 624.62747			43068.02820		164.47600		875.00000 
 43692.65567		 305.27265			43387.38302		66.09000		324.00000 
 43692.65567		 624.62747			43068.02820		164.47600		875.00000 
 43692.65567		 305.27265			43387.38302		66.09000		324.00000 
 43692.65567		 624.62747			43068.02820		200.09200		875.00000 
 43692.65567		 305.27265			43387.38302		66.09000		324.00000 
 43692.65567		 624.62747			43068.02820		200.09200		875.00000 
 43692.65567		 305.27265			43387.38302		66.09000		324.00000 
 43692.65567		 624.62747			43068.02820		200.09200		875.00000 
 43692.65567		 305.27265			43387.38302		66.09000		324.00000 
 43692.65567		 624.62747			43068.02820		200.09200		875.00000 
 43692.65567		 305.27265			43387.38302		66.09000		324.00000 
 43692.65567		 624.62747			43068.02820		200.09200		875.00000 
 43692.65567		 305.27265			43387.38302		66.09000		324.00000 
 43692.65567		 624.62747			43068.02820		200.09200		875.00000 
 43692.65567		 305.27265			43387.38302		66.09000		324.00000 
 43692.65567		 624.62747			43068.02820		200.09200		875.00000 
 43692.65567		 305.27265			43387.38302		66.09000		324.00000 
 43692.65567		 624.62747			43068.02820		200.09200		875.00000 
 43692.65567		 305.27265			43387.38302		66.09000		324.00000 
 43692.65567		 624.62747			43068.02820		200.09200		875.00000 
 43692.65567		 305.27265			43387.38302		66.09000		324.00000 
 43692.65567		 624.62747			43068.02820		200.09200		875.00000 
 43692.65567		 305.27265			43387.38302		66.09000		324.00000 
 43692.65567		 624.62747			43068.02820		200.09200		875.00000 
 43692.65567		 305.27265			43387.38302		66.09000		324.00000 
 43692.65567		 624.62747			43068.02820		200.09200		875.00000 
 43692.65567		 305.27265			43387.38302		66.09000		324.00000 
 43692.65567		 624.62747			43068.02820		200.09200		875.00000 
 43692.65567		 305.27265			43387.38302		66.09000		324.00000 
 43692.65567		 624.62747			43068.02820		200.09200		875.00000 
 43692.65567		 305.27265			43387.38302		66.09000		324.00000 
 43692.65567		 624.62747			43068.02820		200.09200		875.00000 
 43692.65567		 305.27265			43387.38302		66.09000		324.00000 
 43692.65567		 624.62747			43068.02820		200.09200		875.00000 
 43692.65567		 305.27265			43387.38302		66.09000		324.00000 
 43692.65567		 624.62747			43068.02820		200.09200		875.00000 
 43692.65567		 305.27265			43387.38302		66.09000		324.00000 
 43692.65567		 624.62747			43068.02820		200.09200		875.00000 
 43692.65567		 305.27265			43387.38302		66.09000		324.00000 
 43692.65567		 624.62747			43068.02820		200.09200		875.00000 
 43692.65567		 305.27265			43387.38302		66.09000		324.00000 
 43692.65567		 624.62747			43068.02820		200.09200		875.00000 
 43692.65567		 305.27265			43387.38302		66.09000		324.00000 
 43692.65567		 624.62747			43068.02820		200.09200		875.00000 
 43692.65567		 305.27265			43387.38302		66.09000		324.00000 
 43692.65567		 624.62747			43068.02820		200.09200		875.00000 
 43692.65567		 305.27265			43387.38302		66.09000		324.00000 
 43692.65567		 624.62747			43068.02820		200.09200		875.00000 
 43692.65567		 305.27265			43387.38302		66.09000		324.00000 
 43692.65567		 624.62747			43068.02820		200.09200		875.00000 
 43692.65567		 305.27265			43387.38302		66.09000		324.00000 
 43692.65567		 624.62747			43068.02820		200.09200		875.00000 
 43692.65567		 305.27265			43387.38302		66.09000		324.00000 
 43692.65567		 624.62747			43068.02820		200.09200		875.00000 
 43692.65567		 305.27265			43387.38302		66.09000		324.00000 
 43692.65567		 624.62747			43068.02820		200.09200		875.00000 
 43692.65567		 305.27265			43387.38302		66.09000		324.00000 
 43692.65567		 624.62747			43068.02820		200.09200		875.00000 
 43692.65567		 305.27265			43387.38302		66.09000		324.00000 
 43692.65567		 624.62747			43068.02820		200.09200		875.00000 
 43692.65567		 305.27265			43387.38302		66.09000		324.00000 
 43692.65567		 624.62747			43068.02820		200.09200		875.00000 
 43692.65567		 305.27265			43387.38302		66.09000		324.00000 
 43692.65567		 624.62747			43068.02820		200.09200		875.00000 
 43692.65567		 305.27265			43387.38302		66.09000		324.00000 
 43692.65567		 624.62747			43068.02820		200.09200		875.00000 
 43692.65567		 305.27265			43387.38302		66.09000		324.00000 
 43692.65567		 624.62747			43068.02820		200.09200		875.00000 
 43692.65567		 305.27265			43387.38302		66.09000		324.00000 
 43692.65567		 624.62747			43068.02820		200.09200		875.00000 
 43692.65567		 305.27265			43387.38302		66.09000		324.00000 
 43692.65567		 624.62747			43068.02820		200.09200		875.00000 
 43692.65567		 305.27265			43387.38302		66.09000		324.00000 
 43692.65567		 624.62747			43068.02820		200.09200		875.00000 
 43692.65567		 305.27265			43387.38302		66.09000		324.00000 
 43692.65567		 624.62747			43068.02820		200.09200		875.00000 
 43692.65567		 305.27265			43387.38302		66.09000		324.00000 
 43692.65567		 624.62747			43068.02820		200.09200		875.00000 
 43692.65567		 305.27265			43387.38302		66.09000		324.00000 
 43692.65567		 624.62747			43068.02820		200.09200		875.00000 
 43692.65567		 305.27265			43387.38302		66.09000		324.00000 
 43692.65567		 624.62747			43068.02820		200.09200		875.00000 
 43692.65567		 305.27265			43387.38302		66.09000		324.00000 
 43692.65567		 624.62747			43068.02820		200.09200		875.00000 
 43692.65567		 305.27265			43387.38302		66.09000		324.00000 
 43692.65567		 624.62747			43068.02820		200.09200		875.00000 
 43692.65567		 305.27265			43387.38302		66.09000		324.00000 
 43692.65567		 624.62747			43068.02820		200.09200		875.00000 
 43692.65567		 305.27265			43387.38302		66.09000		324.00000 
 43692.65567		 624.62747			43068.02820		200.09200		875.00000 
 43692.65567		 305.27265			43387.38302		66.09000		324.00000 
 43692.65567		 624.62747			43068.02820		200.09200		875.00000 
 43692.65567		 305.27265			43387.38302		66.09000		324.00000 
 43692.65567		 624.62747			43068.02820		200.09200		875.00000 
 43692.65567		 305.27265			43387.38302		66.09000		324.00000 
 43692.65567		 624.62747			43068.02820		200.09200		875.00000 
 43692.65567		 305.27265			43387.38302		66.09000		324.00000 
 43692.65567		 624.62747			43068.02820		200.09200		875.00000 
 43692.65567		 305.27265			43387.38302		66.09000		324.00000 
 43692.65567		 624.62747			43068.02820		200.09200		875.00000 
 43692.65567		 305.27265			43387.38302		66.09000		324.00000 
 43692.65567		 624.62747			43068.02820		200.09200		875.00000 
 43692.65567		 305.27265			43387.38302		66.09000		324.00000 
 43692.65567		 624.62747			43068.02820		200.09200		875.00000 
 43692.65567		 305.27265			43387.38302		66.09000		324.00000 
 43692.65567		 624.62747			43068.02820		200.09200		875.00000 
 43692.65567		 305.27265			43387.38302		66.09000		324.00000 
 43692.65567		 624.62747			43068.02820		200.09200		875.00000 
 43692.65567		 305.27265			43387.38302		66.09000		324.00000 
 43692.65567		 624.62747			43068.02820		200.09200		875.00000 
 43692.65567		 305.27265			43387.38302		66.09000		324.00000 
 43692.65567		 624.62747			43068.02820		200.09200		875.00000 
 43692.65567		 305.27265			43387.38302		66.09000		324.00000 
 43692.65567		 624.62747			43068.02820		200.09200		875.00000 
 43692.65567		 305.27265			43387.38302		66.09000		324.00000 
 43692.65567		 624.62747			43068.02820		200.09200		875.00000 
 43692.65567		 305.27265			43387.38302		66.09000		324.00000 
 43692.65567		 624.62747			43068.02820		200.09200		875.00000 
 43692.65567		 305.27265			43387.38302		66.09000		324.00000 
 43692.65567		 624.62747			43068.02820		200.09200		875.00000 
 43692.65567		 305.27265			43387.38302		66.09000		324.00000 
 43692.65567		 624.62747			43068.02820		200.09200		875.00000 
 43692.65567		 305.27265			43387.38302		66.09000		324.00000 
 43692.65567		 624.62747			43068.02820		200.09200		875.00000 
 43692.65567		 305.27265			43387.38302		66.09000		324.00000 
 43692.65567		 624.62747			43068.02820		200.09200		875.00000 
 43692.65567		 305.27265			43387.38302		66.09000		324.00000 
 43692.65567		 624.62747			43068.02820		200.09200		875.00000 
 43692.65567		 305.27265			43387.38302		66.09000		324.00000 
 43692.65567		 624.62747			43068.02820		200.09200		875.00000 
 43692.65567		 305.27265			43387.38302		66.09000		324.00000 
 43692.65567		 624.62747			43068.02820		214.33800		875.00000 
 43692.65567		 305.27265			43387.38302		66.09000		324.00000 
 43692.65567		 624.62747			43068.02820		214.33800		875.00000 
 43692.65567		 305.27265			43387.38302		66.09000		324.00000 
 43692.65567		 624.62747			43068.02820		214.33800		875.00000 
 43692.65567		 305.27265			43387.38302		66.09000		324.00000 
 43692.65567		 624.62747			43068.02820		214.33800		875.00000 
 43692.65567		 305.27265			43387.38302		66.09000		324.00000 
 43692.65567		 624.62747			43068.02820		214.33800		875.00000 
 43692.65567		 305.27265			43387.38302		66.09000		324.00000 
 43692.65567		 624.62747			43068.02820		214.33800		875.00000 
 43692.65567		 305.27265			43387.38302		66.09000		324.00000 
 43692.65567		 624.62747			43068.02820		214.33800		875.00000 
 43692.65567		 305.27265			43387.38302		66.09000		324.00000 
 43692.65567		 624.62747			43068.02820		214.33800		875.00000 
 43692.65567		 305.27265			43387.38302		66.09000		324.00000 
 43692.65567		 624.62747			43068.02820		214.33800		875.00000 
 43692.65567		 305.27265			43387.38302		66.09000		324.00000 
 43692.65567		 624.62747			43068.02820		214.33800		875.00000 
 43692.65567		 305.27265			43387.38302		66.09000		324.00000 
 43692.65567		 624.62747			43068.02820		214.33800		875.00000 
 43692.65567		 305.27265			43387.38302		66.09000		324.00000 
 43692.65567		 624.62747			43068.02820		214.33800		875.00000 
 43692.65567		 305.27265			43387.38302		66.09000		324.00000 
 43692.65567		 624.62747			43068.02820		214.33800		875.00000 
 43692.65567		 305.27265			43387.38302		66.09000		324.00000 
 43692.65567		 624.62747			43068.02820		214.33800		875.00000 
 43692.65567		 305.27265			43387.38302		66.09000		324.00000 
 43692.65567		 624.62747			43068.02820		214.33800		875.00000 
 43692.65567		 305.27265			43387.38302		66.09000		324.00000 
 43692.65567		 624.62747			43068.02820		214.33800		875.00000 
 43692.65567		 305.27265			43387.38302		66.09000		324.00000 
 43692.65567		 624.62747			43068.02820		214.33800		875.00000 
 43692.65567		 305.27265			43387.38302		66.09000		324.00000 
 43692.65567		 624.62747			43068.02820		214.33800		875.00000 
 43692.65567		 305.27265			43387.38302		66.09000		324.00000 
 43692.65567		 624.62747			43068.02820		214.33800		875.00000 
 43692.65567		 305.27265			43387.38302		66.09000		324.00000 
 43692.65567		 624.62747			43068.02820		214.33800		875.00000 
 43692.65567		 305.27265			43387.38302		66.09000		324.00000 
 43692.65567		 624.62747			43068.02820		214.33800		875.00000 
 43692.65567		 305.27265			43387.38302		66.09000		324.00000 
 43692.65567		 624.62747			43068.02820		214.33800		875.00000 
 43692.65567		 305.27265			43387.38302		66.09000		324.00000 
 43692.65567		 624.62747			43068.02820		214.33800		875.00000 
 43692.65567		 305.27265			43387.38302		66.09000		324.00000 
 43692.65567		 624.62747			43068.02820		214.33800		875.00000 
 43692.65567		 305.27265			43387.38302		66.09000		324.00000 
 43692.65567		 624.62747			43068.02820		214.33800		875.00000 
 43692.65567		 305.27265			43387.38302		66.09000		324.00000 
 43692.65567		 624.62747			43068.02820		214.33800		875.00000 
 43692.65567		 305.27265			43387.38302		66.09000		324.00000 
 43692.65567		 624.62747			43068.02820		214.33800		875.00000 
 43692.65567		 305.27265			43387.38302		66.09000		324.00000 
 43692.65567		 624.62747			43068.02820		214.33800		875.00000 
 43692.65567		 305.27265			43387.38302		66.09000		324.00000 
 43692.65567		 624.62747			43068.02820		214.33800		875.00000 
 43692.65567		 305.27265			43387.38302		66.09000		324.00000 
 43692.65567		 624.62747			43068.02820		214.33800		875.00000 
 43692.65567		 305.27265			43387.38302		66.09000		324.00000 
 43692.65567		 624.62747			43068.02820		214.33800		875.00000 
 43692.65567		 305.27265			43387.38302		66.09000		324.00000 
 43692.65567		 624.62747			43068.02820		214.33800		875.00000 
 43692.65567		 305.27265			43387.38302		66.09000		324.00000 
 43692.65567		 624.62747			43068.02820		214.33800		875.00000 
 43692.65567		 305.27265			43387.38302		66.09000		324.00000 
 43692.65567		 624.62747			43068.02820		214.33800		875.00000 
 43692.65567		 305.27265			43387.38302		66.09000		324.00000 
 43692.65567		 624.62747			43068.02820		214.33800		875.00000 
 43692.65567		 305.27265			43387.38302		66.09000		324.00000 
 43692.65567		 624.62747			43068.02820		214.33800		875.00000 
 43692.65567		 305.27265			43387.38302		66.09000		324.00000 
 43692.65567		 624.62747			43068.02820		214.33800		875.00000 
 43692.65567		 305.27265			43387.38302		66.09000		324.00000 
 43692.65567		 624.62747			43068.02820		214.33800		875.00000 
 43692.65567		 305.27265			43387.38302		66.09000		324.00000 
 43692.65567		 624.62747			43068.02820		214.33800		875.00000 
 43692.65567		 305.27265			43387.38302		66.09000		324.00000 
 43692.65567		 624.62747			43068.02820		214.33800		875.00000 
 43692.65567		 305.27265			43387.38302		66.09000		324.00000 
 43692.65567		 624.62747			43068.02820		214.33800		875.00000 
 43692.65567		 305.27265			43387.38302		66.09000		324.00000 
 43692.65567		 624.62747			43068.02820		214.33800		875.00000 
 43692.65567		 305.27265			43387.38302		66.09000		324.00000 
 43692.65567		 624.62747			43068.02820		214.33800		875.00000 
 43692.65567		 305.27265			43387.38302		66.09000		324.00000 
 43692.65567		 624.62747			43068.02820		214.33800		875.00000 
 43692.65567		 305.27265			43387.38302		66.09000		324.00000 
 43692.65567		 624.62747			43068.02820		214.33800		875.00000 
 43692.65567		 305.27265			43387.38302		66.09000		324.00000 
 43692.65567		 624.62747			43068.02820		214.33800		875.00000 
 43692.65567		 305.27265			43387.38302		66.09000		324.00000 
 43692.65567		 624.62747			43068.02820		214.33800		875.00000 
 43692.65567		 305.27265			43387.38302		66.09000		324.00000 
 43692.65567		 624.62747			43068.02820		214.33800		875.00000 
 43692.65567		 305.27265			43387.38302		66.09000		324.00000 
 43692.65567		 624.62747			43068.02820		214.33800		875.00000 
 43692.65567		 305.27265			43387.38302		66.09000		324.00000 
 43692.65567		 624.62747			43068.02820		214.33800		875.00000 
 43692.65567		 305.27265			43387.38302		66.09000		324.00000 
 43692.65567		 624.62747			43068.02820		214.33800		875.00000 
 43692.65567		 305.27265			43387.38302		66.09000		324.00000 
 43692.65567		 624.62747			43068.02820		214.33800		875.00000 
 43692.65567		 305.27265			43387.38302		66.09000		324.00000 
 43692.65567		 624.62747			43068.02820		214.33800		875.00000 
 43692.65567		 305.27265			43387.38302		66.09000		324.00000 
 43692.65567		 624.62747			43068.02820		214.33800		875.00000 
 43692.65567		 305.27265			43387.38302		66.09000		324.00000 
 43692.65567		 624.62747			43068.02820		214.33800		875.00000 
 43692.65567		 305.27265			43387.38302		66.09000		324.00000 
 43692.65567		 624.62747			43068.02820		214.33800		875.00000 
 43692.65567		 305.27265			43387.38302		66.09000		324.00000 
 43692.65567		 624.62747			43068.02820		214.33800		875.00000 
 43692.65567		 305.27265			43387.38302		66.09000		324.00000 
 43692.65567		 624.62747			43068.02820		214.33800		875.00000 
 43692.65567		 305.27265			43387.38302		66.09000		324.00000 
 43692.65567		 624.62747			43068.02820		214.33800		875.00000 
 43692.65567		 305.27265			43387.38302		66.09000		324.00000 
 43692.65567		 624.62747			43068.02820		214.33800		875.00000 
 43692.65567		 305.27265			43387.38302		66.09000		324.00000 
 43692.65567		 624.62747			43068.02820		214.33800		875.00000 
 43692.65567		 305.27265			43387.38302		66.09000		324.00000 
 43692.65567		 624.62747			43068.02820		214.33800		875.00000 
 43692.65567		 305.27265			43387.38302		66.09000		324.00000 
 43692.65567		 624.62747			43068.02820		214.33800		875.00000 
 43692.65567		 305.27265			43387.38302		66.09000		324.00000 
 43692.65567		 624.62747			43068.02820		214.33800		875.00000 
 43692.65567		 305.27265			43387.38302		66.09000		324.00000 
 43692.65567		 624.62747			43068.02820		214.33800		875.00000 
 43692.65567		 305.27265			43387.38302		66.09000		324.00000 
 43692.65567		 624.62747			43068.02820		218.89600		875.00000 
 43692.65567		 305.27265			43387.38302		66.09000		324.00000 
 43692.65567		 624.62747			43068.02820		218.89600		875.00000 
 43692.65567		 305.27265			43387.38302		66.09000		324.00000 
 43692.65567		 624.62747			43068.02820		218.89600		875.00000 
 43692.65567		 305.27265			43387.38302		66.09000		324.00000 
 43692.65567		 624.62747			43068.02820		218.89600		875.00000 
 43692.65567		 305.27265			43387.38302		66.09000		324.00000 
 43692.65567		 624.62747			43068.02820		218.89600		875.00000 
 43692.65567		 305.27265			43387.38302		66.09000		324.00000 
 43692.65567		 624.62747			43068.02820		218.89600		875.00000 
 43692.65567		 305.27265			43387.38302		66.09000		324.00000 
 43692.65567		 624.62747			43068.02820		218.89600		875.00000 
 43692.65567		 305.27265			43387.38302		66.09000		324.00000 
 43692.65567		 624.62747			43068.02820		218.89600		875.00000 
 43692.65567		 305.27265			43387.38302		66.09000		324.00000 
 43692.65567		 624.62747			43068.02820		218.89600		875.00000 
 43692.65567		 305.27265			43387.38302		66.09000		324.00000 
 43692.65567		 624.62747			43068.02820		218.89600		875.00000 
 43692.65567		 305.27265			43387.38302		66.09000		324.00000 
 43692.65567		 624.62747			43068.02820		218.89600		875.00000 
 43692.65567		 305.27265			43387.38302		66.09000		324.00000 
 43692.65567		 624.62747			43068.02820		218.89600		875.00000 
 43692.65567		 305.27265			43387.38302		66.09000		324.00000 
 43692.65567		 624.62747			43068.02820		218.89600		875.00000 
 43692.65567		 305.27265			43387.38302		66.09000		324.00000 
 43692.65567		 624.62747			43068.02820		218.89600		875.00000 
 43692.65567		 305.27265			43387.38302		66.09000		324.00000 
 43692.65567		 624.62747			43068.02820		218.89600		875.00000 
 43692.65567		 305.27265			43387.38302		66.09000		324.00000 
 43692.65567		 624.62747			43068.02820		218.89600		875.00000 
 43692.65567		 305.27265			43387.38302		66.09000		324.00000 
 43692.65567		 624.62747			43068.02820		218.89600		875.00000 
 43692.65567		 305.27265			43387.38302		66.09000		324.00000 
 43692.65567		 624.62747			43068.02820		218.89600		875.00000 
 43692.65567		 305.27265			43387.38302		66.09000		324.00000 
 43692.65567		 624.62747			43068.02820		218.89600		875.00000 
 43692.65567		 305.27265			43387.38302		66.09000		324.00000 
 43692.65567		 624.62747			43068.02820		218.89600		875.00000 
 43692.65567		 305.27265			43387.38302		66.09000		324.00000 
 43692.65567		 624.62747			43068.02820		218.89600		875.00000 
 43692.65567		 305.27265			43387.38302		66.09000		324.00000 
 43692.65567		 624.62747			43068.02820		218.89600		875.00000 
 43692.65567		 305.27265			43387.38302		66.09000		324.00000 
 43692.65567		 624.62747			43068.02820		218.89600		875.00000 
 43692.65567		 305.27265			43387.38302		66.09000		324.00000 
 43692.65567		 624.62747			43068.02820		218.89600		875.00000 
 43692.65567		 305.27265			43387.38302		66.09000		324.00000 
 43692.65567		 624.62747			43068.02820		218.89600		875.00000 
 43692.65567		 305.27265			43387.38302		66.09000		324.00000 
 43692.65567		 624.62747			43068.02820		218.89600		875.00000 
 43692.65567		 305.27265			43387.38302		66.09000		324.00000 
 43692.65567		 624.62747			43068.02820		218.89600		875.00000 
 43692.65567		 305.27265			43387.38302		66.09000		324.00000 
 43692.65567		 624.62747			43068.02820		218.89600		875.00000 
 43692.65567		 305.27265			43387.38302		66.09000		324.00000 
 43692.65567		 624.62747			43068.02820		218.89600		875.00000 
 43692.65567		 305.27265			43387.38302		66.09000		324.00000 
 43692.65567		 624.62747			43068.02820		218.89600		875.00000 
 43692.65567		 305.27265			43387.38302		66.09000		324.00000 
 43692.65567		 624.62747			43068.02820		218.89600		875.00000 
 43692.65567		 305.27265			43387.38302		66.09000		324.00000 
 43692.65567		 624.62747			43068.02820		218.89600		875.00000 
 43692.65567		 305.27265			43387.38302		66.09000		324.00000 
 43692.65567		 624.62747			43068.02820		218.89600		875.00000 
 43692.65567		 305.27265			43387.38302		66.09000		324.00000 
 43692.65567		 624.62747			43068.02820		218.89600		875.00000 
 43692.65567		 305.27265			43387.38302		66.09000		324.00000 
 43692.65567		 624.62747			43068.02820		218.89600		875.00000 
 43692.65567		 305.27265			43387.38302		66.09000		324.00000 
 43692.65567		 624.62747			43068.02820		218.89600		875.00000 
 43692.65567		 305.27265			43387.38302		66.09000		324.00000 
 43692.65567		 624.62747			43068.02820		218.89600		875.00000 
 43692.65567		 305.27265			43387.38302		66.09000		324.00000 
 43692.65567		 624.62747			43068.02820		218.89600		875.00000 
 43692.65567		 305.27265			43387.38302		66.09000		324.00000 
 43692.65567		 624.62747			43068.02820		218.89600		875.00000 
 43692.65567		 305.27265			43387.38302		66.09000		324.00000 
 43692.65567		 624.62747			43068.02820		218.89600		875.00000 
 43692.65567		 305.27265			43387.38302		66.09000		324.00000 
 43692.65567		 624.62747			43068.02820		218.89600		875.00000 
 43692.65567		 305.27265			43387.38302		66.09000		324.00000 
 43692.65567		 624.62747			43068.02820		218.89600		875.00000 
 43692.65567		 305.27265			43387.38302		66.09000		324.00000 
 43692.65567		 624.62747			43068.02820		218.89600		875.00000 
 43692.65567		 305.27265			43387.38302		66.09000		324.00000 
 43692.65567		 624.62747			43068.02820		218.89600		875.00000 
 43692.65567		 305.27265			43387.38302		66.09000		324.00000 
 43692.65567		 624.62747			43068.02820		218.89600		875.00000 
 43692.65567		 305.27265			43387.38302		66.09000		324.00000 
 43692.65567		 624.62747			43068.02820		218.89600		875.00000 
 43692.65567		 305.27265			43387.38302		66.09000		324.00000 
 43692.65567		 624.62747			43068.02820		218.89600		875.00000 
 43692.65567		 305.27265			43387.38302		66.09000		324.00000 
 43692.65567		 624.62747			43068.02820		218.89600		875.00000 
 43692.65567		 305.27265			43387.38302		66.09000		324.00000 
 43692.65567		 624.62747			43068.02820		218.89600		875.00000 
 43692.65567		 305.27265			43387.38302		66.09000		324.00000 
 43692.65567		 624.62747			43068.02820		218.89600		875.00000 
 43692.65567		 305.27265			43387.38302		66.09000		324.00000 
 43692.65567		 624.62747			43068.02820		218.89600		875.00000 
 43692.65567		 305.27265			43387.38302		66.09000		324.00000 
 43692.65567		 624.62747			43068.02820		218.89600		875.00000 
 43692.65567		 305.27265			43387.38302		66.09000		324.00000 
 43692.65567		 624.62747			43068.02820		218.89600		875.00000 
 43692.65567		 305.27265			43387.38302		66.09000		324.00000 
 43692.65567		 624.62747			43068.02820		218.89600		875.00000 
 43692.65567		 305.27265			43387.38302		66.09000		324.00000 
 43692.65567		 624.62747			43068.02820		218.89600		875.00000 
 43692.65567		 305.27265			43387.38302		66.09000		324.00000 
 43692.65567		 624.62747			43068.02820		218.89600		875.00000 
 43692.65567		 305.27265			43387.38302		66.09000		324.00000 
 43692.65567		 624.62747			43068.02820		218.89600		875.00000 
 43692.65567		 305.27265			43387.38302		66.09000		324.00000 
 43692.65567		 624.62747			43068.02820		218.89600		875.00000 
 43692.65567		 305.27265			43387.38302		66.09000		324.00000 
 43692.65567		 624.62747			43068.02820		218.89600		875.00000 
 43692.65567		 305.27265			43387.38302		66.09000		324.00000 
 43692.65567		 624.62747			43068.02820		218.89600		875.00000 
 43692.65567		 305.27265			43387.38302		66.09000		324.00000 
 43692.65567		 624.62747			43068.02820		218.89600		875.00000 
 43692.65567		 305.27265			43387.38302		66.09000		324.00000 
 43692.65567		 624.62747			43068.02820		218.89600		875.00000 
 43692.65567		 305.27265			43387.38302		66.09000		324.00000 
 43692.65567		 624.62747			43068.02820		218.89600		875.00000 
 43692.65567		 305.27265			43387.38302		66.09000		324.00000 
 43692.65567		 624.62747			43068.02820		218.89600		875.00000 
 43692.65567		 305.27265			43387.38302		66.09000		324.00000 
 43692.65567		 624.62747			43068.02820		218.89600		875.00000 
 43692.65567		 305.27265			43387.38302		66.09000		324.00000 
 43692.65567		 624.62747			43068.02820		221.22600		875.00000 
 43692.65567		 305.27265			43387.38302		66.09000		324.00000 
 43692.65567		 624.62747			43068.02820		221.22600		875.00000 
 43692.65567		 305.27265			43387.38302		66.09000		324.00000 
 43692.65567		 624.62747			43068.02820		221.22600		875.00000 
 43692.65567		 305.27265			43387.38302		66.09000		324.00000 
 43692.65567		 624.62747			43068.02820		221.22600		875.00000 
 43692.65567		 305.27265			43387.38302		66.09000		324.00000 
 43692.65567		 624.62747			43068.02820		221.22600		875.00000 
 43692.65567		 305.27265			43387.38302		66.09000		324.00000 
 43692.65567		 624.62747			43068.02820		221.22600		875.00000 
 43692.65567		 305.27265			43387.38302		66.09000		324.00000 
 43692.65567		 624.62747			43068.02820		221.22600		875.00000 
 43692.65567		 305.27265			43387.38302		66.09000		324.00000 
 43692.65567		 624.62747			43068.02820		221.22600		875.00000 
 43692.65567		 305.27265			43387.38302		66.09000		324.00000 
 43692.65567		 624.62747			43068.02820		221.22600		875.00000 
 43692.65567		 305.27265			43387.38302		66.09000		324.00000 
 43692.65567		 624.62747			43068.02820		221.22600		875.00000 
 43692.65567		 305.27265			43387.38302		66.09000		324.00000 
 43692.65567		 624.62747			43068.02820		221.22600		875.00000 
 43692.65567		 305.27265			43387.38302		66.09000		324.00000 
 43692.65567		 624.62747			43068.02820		221.22600		875.00000 
 43692.65567		 305.27265			43387.38302		66.09000		324.00000 
 43692.65567		 624.62747			43068.02820		221.22600		875.00000 
 43692.65567		 305.27265			43387.38302		66.09000		324.00000 
 43692.65567		 624.62747			43068.02820		221.22600		875.00000 
 43692.65567		 305.27265			43387.38302		66.09000		324.00000 
 43692.65567		 624.62747			43068.02820		221.22600		875.00000 
 43692.65567		 305.27265			43387.38302		66.09000		324.00000 
 43692.65567		 624.62747			43068.02820		221.22600		875.00000 
 43692.65567		 305.27265			43387.38302		66.09000		324.00000 
 43692.65567		 624.62747			43068.02820		221.22600		875.00000 
 43692.65567		 305.27265			43387.38302		66.09000		324.00000 
 43692.65567		 624.62747			43068.02820		221.22600		875.00000 
 43692.65567		 305.27265			43387.38302		66.09000		324.00000 
 43692.65567		 624.62747			43068.02820		221.22600		875.00000 
 43692.65567		 305.27265			43387.38302		66.09000		324.00000 
 43692.65567		 624.62747			43068.02820		221.22600		875.00000 
 43692.65567		 305.27265			43387.38302		66.09000		324.00000 
 43692.65567		 624.62747			43068.02820		221.22600		875.00000 
 43692.65567		 305.27265			43387.38302		66.09000		324.00000 
 43692.65567		 624.62747			43068.02820		221.22600		875.00000 
 43692.65567		 305.27265			43387.38302		66.09000		324.00000 
 43692.65567		 624.62747			43068.02820		221.22600		875.00000 
 43692.65567		 305.27265			43387.38302		66.09000		324.00000 
 43692.65567		 624.62747			43068.02820		221.22600		875.00000 
 43692.65567		 305.27265			43387.38302		66.09000		324.00000 
 43692.65567		 624.62747			43068.02820		221.22600		875.00000 
 43692.65567		 305.27265			43387.38302		66.09000		324.00000 
 43692.65567		 624.62747			43068.02820		221.22600		875.00000 
 43692.65567		 305.27265			43387.38302		66.09000		324.00000 
 43692.65567		 624.62747			43068.02820		221.22600		875.00000 
 43692.65567		 305.27265			43387.38302		66.09000		324.00000 
 43692.65567		 624.62747			43068.02820		221.22600		875.00000 
 43692.65567		 305.27265			43387.38302		66.09000		324.00000 
 43692.65567		 624.62747			43068.02820		221.22600		875.00000 
 43692.65567		 305.27265			43387.38302		66.09000		324.00000 
 43692.65567		 624.62747			43068.02820		221.22600		875.00000 
 43692.65567		 305.27265			43387.38302		66.09000		324.00000 
 43692.65567		 624.62747			43068.02820		221.22600		875.00000 
 43692.65567		 305.27265			43387.38302		66.09000		324.00000 
 43692.65567		 624.62747			43068.02820		221.22600		875.00000 
 43692.65567		 305.27265			43387.38302		66.09000		324.00000 
 43692.65567		 624.62747			43068.02820		221.22600		875.00000 
 43692.65567		 305.27265			43387.38302		66.09000		324.00000 
 43692.65567		 624.62747			43068.02820		221.22600		875.00000 
 43692.65567		 305.27265			43387.38302		66.09000		324.00000 
 43692.65567		 624.62747			43068.02820		221.22600		875.00000 
 43692.65567		 305.27265			43387.38302		66.09000		324.00000 
 43692.65567		 624.62747			43068.02820		221.22600		875.00000 
 43692.65567		 305.27265			43387.38302		66.09000		324.00000 
 43692.65567		 624.62747			43068.02820		221.22600		875.00000 
 43692.65567		 305.27265			43387.38302		66.09000		324.00000 
 43692.65567		 624.62747			43068.02820		221.22600		875.00000 
 43692.65567		 305.27265			43387.38302		66.09000		324.00000 
 43692.65567		 624.62747			43068.02820		221.22600		875.00000 
 43692.65567		 305.27265			43387.38302		66.09000		324.00000 
 43692.65567		 624.62747			43068.02820		221.22600		875.00000 
 43692.65567		 305.27265			43387.38302		66.09000		324.00000 
 43692.65567		 624.62747			43068.02820		221.22600		875.00000 
 43692.65567		 305.27265			43387.38302		66.09000		324.00000 
 43692.65567		 566.38937			43126.26630		221.22600		875.00000 
 43692.65567		 305.27265			43387.38302		66.09000		324.00000 
 43692.65567		 537.27032			43155.38535		221.22600		875.00000 
 43692.65567		 305.27265			43387.38302		66.09000		324.00000 
 43692.65567		 537.27032			43155.38535		221.22600		875.00000 
 43692.65567		 305.27265			43387.38302		66.09000		324.00000 
 43692.65567		 537.27032			43155.38535		221.22600		875.00000 
 43692.65567		 305.27265			43387.38302		66.09000		324.00000 
 43692.65567		 537.27032			43155.38535		221.22600		875.00000 
 43692.65567		 305.27265			43387.38302		66.09000		324.00000 
 43692.65567		 537.27032			43155.38535		221.22600		875.00000 
 43692.65567		 305.27265			43387.38302		66.09000		324.00000 
 43692.65567		 537.27032			43155.38535		221.22600		875.00000 
 43692.65567		 305.27265			43387.38302		66.09000		324.00000 
 43692.65567		 537.27032			43155.38535		221.22600		875.00000 
 43692.65567		 305.27265			43387.38302		66.09000		324.00000 
 43692.65567		 537.27032			43155.38535		221.22600		875.00000 
 43692.65567		 305.27265			43387.38302		66.09000		324.00000 
 43692.65567		 537.27032			43155.38535		221.22600		875.00000 
 43692.65567		 305.27265			43387.38302		66.09000		324.00000 
 43692.65567		 537.27032			43155.38535		221.22600		875.00000 
 43692.65567		 305.27265			43387.38302		66.09000		324.00000 
 43692.65567		 537.27032			43155.38535		221.22600		875.00000 
 43692.65567		 305.27265			43387.38302		66.09000		324.00000 
 43692.65567		 537.27032			43155.38535		221.22600		875.00000 
 43692.65567		 305.27265			43387.38302		66.09000		324.00000 
 43692.65567		 537.27032			43155.38535		221.22600		875.00000 
 43692.65567		 305.27265			43387.38302		66.09000		324.00000 
 43692.65567		 537.27032			43155.38535		221.22600		875.00000 
 43692.65567		 305.27265			43387.38302		66.09000		324.00000 
 43692.65567		 537.27032			43155.38535		221.22600		875.00000 
 43692.65567		 305.27265			43387.38302		66.09000		324.00000 
 43692.65567		 537.27032			43155.38535		221.22600		875.00000 
 43692.65567		 305.27265			43387.38302		66.09000		324.00000 
 43692.65567		 537.27032			43155.38535		221.22600		875.00000 
 43692.65567		 305.27265			43387.38302		66.09000		324.00000 
 43692.65567		 537.27032			43155.38535		221.22600		875.00000 
 43692.65567		 305.27265			43387.38302		66.09000		324.00000 
 43692.65567		 537.27032			43155.38535		195.33800		875.00000 
 43692.65567		 305.27265			43387.38302		66.09000		324.00000 
 43692.65567		 537.27032			43155.38535		195.33800		875.00000 
 43692.65567		 305.27265			43387.38302		66.09000		324.00000 
 43692.65567		 529.63254			43163.02313		195.33800		875.00000 
 43692.65567		 305.27265			43387.38302		66.09000		324.00000 
 43692.65567		 525.81365			43166.84203		195.33800		875.00000 
 43692.65567		 297.63487			43395.02080		66.09000		324.00000 
 43692.65567		 261.35540			43431.30027		195.33800		875.00000 
 43692.65567		 261.35540			43431.30027		66.09000		324.00000 
