Memory Total (MiB) 	 Memory Used (MiB) 	    Memory Free (MiB) 	 Power Drawed (W) 	 Clocks (Mhz) 	 
 43692.65567		 261.35540			43431.30027		174.55200		875.00000 
 43692.65567		 261.35540			43431.30027		69.19000		324.00000 
 43692.65567		 261.35540			43431.30027		174.55200		875.00000 
 43692.65567		 261.35540			43431.30027		69.19000		324.00000 
 43692.65567		 261.35540			43431.30027		174.55200		875.00000 
 43692.65567		 261.35540			43431.30027		69.19000		324.00000 
 43692.65567		 261.35540			43431.30027		174.55200		875.00000 
 43692.65567		 261.35540			43431.30027		69.19000		324.00000 
 43692.65567		 261.35540			43431.30027		174.55200		875.00000 
 43692.65567		 261.35540			43431.30027		69.19000		324.00000 
 43692.65567		 261.35540			43431.30027		174.55200		875.00000 
 43692.65567		 261.35540			43431.30027		69.19000		324.00000 
 43692.65567		 261.35540			43431.30027		174.55200		875.00000 
 43692.65567		 261.35540			43431.30027		69.19000		324.00000 
 43692.65567		 261.35540			43431.30027		174.55200		875.00000 
 43692.65567		 261.35540			43431.30027		69.19000		324.00000 
 43692.65567		 261.35540			43431.30027		174.55200		875.00000 
 43692.65567		 261.35540			43431.30027		69.19000		324.00000 
 43692.65567		 261.35540			43431.30027		174.55200		875.00000 
 43692.65567		 261.35540			43431.30027		69.19000		324.00000 
 43692.65567		 261.35540			43431.30027		174.55200		875.00000 
 43692.65567		 261.35540			43431.30027		69.19000		324.00000 
 43692.65567		 261.35540			43431.30027		174.55200		875.00000 
 43692.65567		 261.35540			43431.30027		69.19000		324.00000 
 43692.65567		 261.35540			43431.30027		174.55200		875.00000 
 43692.65567		 261.35540			43431.30027		69.19000		324.00000 
 43692.65567		 261.35540			43431.30027		174.55200		875.00000 
 43692.65567		 261.35540			43431.30027		69.19000		324.00000 
 43692.65567		 261.35540			43431.30027		174.55200		875.00000 
 43692.65567		 261.35540			43431.30027		69.19000		324.00000 
 43692.65567		 261.35540			43431.30027		174.55200		875.00000 
 43692.65567		 261.35540			43431.30027		69.19000		324.00000 
 43692.65567		 261.35540			43431.30027		174.55200		875.00000 
 43692.65567		 261.35540			43431.30027		69.19000		324.00000 
 43692.65567		 261.35540			43431.30027		174.55200		875.00000 
 43692.65567		 261.35540			43431.30027		69.19000		324.00000 
 43692.65567		 265.17429			43427.48138		174.55200		875.00000 
 43692.65567		 261.35540			43431.30027		69.19000		324.00000 
 43692.65567		 265.17429			43427.48138		174.55200		875.00000 
 43692.65567		 261.35540			43431.30027		69.19000		324.00000 
 43692.65567		 272.81207			43419.84360		174.55200		875.00000 
 43692.65567		 261.35540			43431.30027		69.19000		324.00000 
 43692.65567		 272.81207			43419.84360		174.55200		875.00000 
 43692.65567		 261.35540			43431.30027		69.19000		324.00000 
 43692.65567		 272.81207			43419.84360		174.55200		875.00000 
 43692.65567		 265.17429			43427.48138		69.19000		324.00000 
 43692.65567		 272.81207			43419.84360		174.55200		875.00000 
 43692.65567		 265.17429			43427.48138		69.19000		324.00000 
 43692.65567		 272.81207			43419.84360		174.55200		875.00000 
 43692.65567		 272.81207			43419.84360		69.19000		324.00000 
 43692.65567		 272.81207			43419.84360		174.55200		875.00000 
 43692.65567		 272.81207			43419.84360		69.19000		324.00000 
 43692.65567		 272.81207			43419.84360		174.55200		875.00000 
 43692.65567		 272.81207			43419.84360		69.19000		324.00000 
 43692.65567		 272.81207			43419.84360		174.55200		875.00000 
 43692.65567		 272.81207			43419.84360		69.19000		324.00000 
 43692.65567		 305.27265			43387.38302		174.55200		875.00000 
 43692.65567		 305.27265			43387.38302		69.19000		324.00000 
 43692.65567		 305.27265			43387.38302		174.55200		875.00000 
 43692.65567		 305.27265			43387.38302		69.19000		324.00000 
 43692.65567		 305.27265			43387.38302		174.55200		875.00000 
 43692.65567		 305.27265			43387.38302		69.19000		324.00000 
 43692.65567		 305.27265			43387.38302		174.55200		875.00000 
 43692.65567		 305.27265			43387.38302		69.19000		324.00000 
 43692.65567		 305.27265			43387.38302		147.50000		875.00000 
 43692.65567		 305.27265			43387.38302		69.19000		324.00000 
 43692.65567		 310.04627			43382.60941		147.50000		875.00000 
 43692.65567		 305.27265			43387.38302		69.19000		324.00000 
 43692.65567		 311.00099			43381.65468		147.50000		875.00000 
 43692.65567		 305.27265			43387.38302		69.19000		324.00000 
 43692.65567		 311.00099			43381.65468		147.50000		875.00000 
 43692.65567		 305.27265			43387.38302		69.19000		324.00000 
 43692.65567		 311.00099			43381.65468		147.50000		875.00000 
 43692.65567		 305.27265			43387.38302		69.19000		324.00000 
 43692.65567		 311.00099			43381.65468		147.50000		875.00000 
 43692.65567		 305.27265			43387.38302		69.19000		324.00000 
 43692.65567		 311.00099			43381.65468		147.50000		875.00000 
 43692.65567		 305.27265			43387.38302		69.19000		324.00000 
 43692.65567		 311.00099			43381.65468		147.50000		875.00000 
 43692.65567		 305.27265			43387.38302		69.19000		324.00000 
 43692.65567		 311.00099			43381.65468		147.50000		875.00000 
 43692.65567		 305.27265			43387.38302		69.19000		324.00000 
 43692.65567		 311.00099			43381.65468		147.50000		875.00000 
 43692.65567		 305.27265			43387.38302		69.19000		324.00000 
 43692.65567		 311.00099			43381.65468		147.50000		875.00000 
 43692.65567		 305.27265			43387.38302		69.19000		324.00000 
 43692.65567		 311.00099			43381.65468		147.50000		875.00000 
 43692.65567		 305.27265			43387.38302		69.19000		324.00000 
 43692.65567		 311.00099			43381.65468		147.50000		875.00000 
 43692.65567		 305.27265			43387.38302		69.19000		324.00000 
 43692.65567		 311.00099			43381.65468		147.50000		875.00000 
 43692.65567		 305.27265			43387.38302		69.19000		324.00000 
 43692.65567		 311.00099			43381.65468		147.50000		875.00000 
 43692.65567		 305.27265			43387.38302		69.19000		324.00000 
 43692.65567		 311.00099			43381.65468		147.50000		875.00000 
 43692.65567		 305.27265			43387.38302		69.19000		324.00000 
 43692.65567		 311.00099			43381.65468		147.50000		875.00000 
 43692.65567		 305.27265			43387.38302		69.19000		324.00000 
 43692.65567		 311.00099			43381.65468		147.50000		875.00000 
 43692.65567		 305.27265			43387.38302		69.19000		324.00000 
 43692.65567		 311.00099			43381.65468		147.50000		875.00000 
 43692.65567		 305.27265			43387.38302		69.19000		324.00000 
 43692.65567		 311.00099			43381.65468		147.50000		875.00000 
 43692.65567		 305.27265			43387.38302		69.19000		324.00000 
 43692.65567		 311.00099			43381.65468		147.50000		875.00000 
 43692.65567		 305.27265			43387.38302		69.19000		324.00000 
 43692.65567		 311.00099			43381.65468		147.50000		875.00000 
 43692.65567		 305.27265			43387.38302		69.19000		324.00000 
 43692.65567		 311.00099			43381.65468		147.50000		875.00000 
 43692.65567		 305.27265			43387.38302		69.19000		324.00000 
 43692.65567		 311.00099			43381.65468		147.50000		875.00000 
 43692.65567		 305.27265			43387.38302		69.19000		324.00000 
 43692.65567		 311.00099			43381.65468		147.50000		875.00000 
 43692.65567		 305.27265			43387.38302		69.19000		324.00000 
 43692.65567		 311.00099			43381.65468		147.50000		875.00000 
 43692.65567		 305.27265			43387.38302		69.19000		324.00000 
 43692.65567		 311.00099			43381.65468		147.50000		875.00000 
 43692.65567		 305.27265			43387.38302		69.19000		324.00000 
 43692.65567		 311.00099			43381.65468		147.50000		875.00000 
 43692.65567		 305.27265			43387.38302		69.19000		324.00000 
 43692.65567		 311.00099			43381.65468		147.50000		875.00000 
 43692.65567		 305.27265			43387.38302		69.19000		324.00000 
 43692.65567		 311.00099			43381.65468		147.50000		875.00000 
 43692.65567		 305.27265			43387.38302		69.19000		324.00000 
 43692.65567		 311.00099			43381.65468		147.50000		875.00000 
 43692.65567		 305.27265			43387.38302		69.19000		324.00000 
 43692.65567		 311.00099			43381.65468		147.50000		875.00000 
 43692.65567		 305.27265			43387.38302		69.19000		324.00000 
 43692.65567		 311.00099			43381.65468		137.12600		875.00000 
 43692.65567		 305.27265			43387.38302		69.19000		324.00000 
 43692.65567		 311.00099			43381.65468		137.12600		875.00000 
 43692.65567		 305.27265			43387.38302		69.19000		324.00000 
 43692.65567		 311.00099			43381.65468		137.12600		875.00000 
 43692.65567		 305.27265			43387.38302		69.19000		324.00000 
 43692.65567		 311.00099			43381.65468		137.12600		875.00000 
 43692.65567		 305.27265			43387.38302		69.19000		324.00000 
 43692.65567		 311.00099			43381.65468		137.12600		875.00000 
 43692.65567		 305.27265			43387.38302		69.19000		324.00000 
 43692.65567		 311.00099			43381.65468		137.12600		875.00000 
 43692.65567		 305.27265			43387.38302		69.19000		324.00000 
 43692.65567		 311.00099			43381.65468		137.12600		875.00000 
 43692.65567		 305.27265			43387.38302		69.19000		324.00000 
 43692.65567		 311.00099			43381.65468		137.12600		875.00000 
 43692.65567		 305.27265			43387.38302		69.19000		324.00000 
 43692.65567		 311.00099			43381.65468		137.12600		875.00000 
 43692.65567		 305.27265			43387.38302		69.19000		324.00000 
 43692.65567		 311.00099			43381.65468		137.12600		875.00000 
 43692.65567		 305.27265			43387.38302		69.19000		324.00000 
 43692.65567		 311.00099			43381.65468		137.12600		875.00000 
 43692.65567		 305.27265			43387.38302		69.19000		324.00000 
 43692.65567		 311.00099			43381.65468		137.12600		875.00000 
 43692.65567		 305.27265			43387.38302		69.19000		324.00000 
 43692.65567		 311.00099			43381.65468		137.12600		875.00000 
 43692.65567		 305.27265			43387.38302		69.19000		324.00000 
 43692.65567		 311.00099			43381.65468		137.12600		875.00000 
 43692.65567		 305.27265			43387.38302		69.19000		324.00000 
 43692.65567		 311.00099			43381.65468		137.12600		875.00000 
 43692.65567		 305.27265			43387.38302		69.19000		324.00000 
 43692.65567		 311.00099			43381.65468		137.12600		875.00000 
 43692.65567		 305.27265			43387.38302		69.19000		324.00000 
 43692.65567		 311.00099			43381.65468		137.12600		875.00000 
 43692.65567		 305.27265			43387.38302		69.19000		324.00000 
 43692.65567		 311.00099			43381.65468		137.12600		875.00000 
 43692.65567		 305.27265			43387.38302		69.19000		324.00000 
 43692.65567		 311.00099			43381.65468		137.12600		875.00000 
 43692.65567		 305.27265			43387.38302		69.19000		324.00000 
 43692.65567		 311.00099			43381.65468		137.12600		875.00000 
 43692.65567		 305.27265			43387.38302		69.19000		324.00000 
 43692.65567		 311.00099			43381.65468		137.12600		875.00000 
 43692.65567		 305.27265			43387.38302		69.19000		324.00000 
 43692.65567		 314.81988			43377.83579		137.12600		875.00000 
 43692.65567		 305.27265			43387.38302		69.19000		324.00000 
 43692.65567		 314.81988			43377.83579		137.12600		875.00000 
 43692.65567		 305.27265			43387.38302		69.19000		324.00000 
 43692.65567		 318.63877			43374.01690		137.12600		875.00000 
 43692.65567		 305.27265			43387.38302		69.19000		324.00000 
 43692.65567		 322.45767			43370.19801		137.12600		875.00000 
 43692.65567		 305.27265			43387.38302		69.19000		324.00000 
 43692.65567		 326.27656			43366.37912		137.12600		875.00000 
 43692.65567		 305.27265			43387.38302		69.19000		324.00000 
 43692.65567		 326.27656			43366.37912		137.12600		875.00000 
 43692.65567		 305.27265			43387.38302		69.19000		324.00000 
 43692.65567		 326.27656			43366.37912		137.12600		875.00000 
 43692.65567		 305.27265			43387.38302		69.19000		324.00000 
 43692.65567		 537.27032			43155.38535		137.12600		875.00000 
 43692.65567		 305.27265			43387.38302		69.19000		324.00000 
 43692.65567		 608.87454			43083.78113		137.12600		875.00000 
 43692.65567		 305.27265			43387.38302		69.19000		324.00000 
 43692.65567		 752.08298			42940.57269		137.12600		875.00000 
 43692.65567		 305.27265			43387.38302		69.19000		324.00000 
 43692.65567		 752.08298			42940.57269		137.12600		875.00000 
 43692.65567		 305.27265			43387.38302		69.19000		324.00000 
 43692.65567		 752.08298			42940.57269		137.12600		875.00000 
 43692.65567		 305.27265			43387.38302		69.19000		324.00000 
 43692.65567		 752.08298			42940.57269		137.12600		875.00000 
 43692.65567		 305.27265			43387.38302		69.19000		324.00000 
 43692.65567		 752.08298			42940.57269		137.12600		875.00000 
 43692.65567		 305.27265			43387.38302		69.19000		324.00000 
 43692.65567		 752.08298			42940.57269		137.12600		875.00000 
 43692.65567		 305.27265			43387.38302		69.19000		324.00000 
 43692.65567		 752.08298			42940.57269		137.12600		875.00000 
 43692.65567		 305.27265			43387.38302		69.19000		324.00000 
 43692.65567		 752.08298			42940.57269		137.12600		875.00000 
 43692.65567		 305.27265			43387.38302		69.19000		324.00000 
 43692.65567		 752.08298			42940.57269		144.97400		875.00000 
 43692.65567		 305.27265			43387.38302		69.19000		324.00000 
 43692.65567		 752.08298			42940.57269		144.97400		875.00000 
 43692.65567		 305.27265			43387.38302		69.19000		324.00000 
 43692.65567		 752.08298			42940.57269		144.97400		875.00000 
 43692.65567		 305.27265			43387.38302		69.19000		324.00000 
 43692.65567		 752.08298			42940.57269		144.97400		875.00000 
 43692.65567		 305.27265			43387.38302		69.19000		324.00000 
 43692.65567		 752.08298			42940.57269		144.97400		875.00000 
 43692.65567		 305.27265			43387.38302		69.19000		324.00000 
 43692.65567		 752.08298			42940.57269		144.97400		875.00000 
 43692.65567		 305.27265			43387.38302		69.19000		324.00000 
 43692.65567		 752.08298			42940.57269		144.97400		875.00000 
 43692.65567		 305.27265			43387.38302		69.19000		324.00000 
 43692.65567		 752.08298			42940.57269		144.97400		875.00000 
 43692.65567		 305.27265			43387.38302		69.19000		324.00000 
 43692.65567		 752.08298			42940.57269		144.97400		875.00000 
 43692.65567		 305.27265			43387.38302		69.19000		324.00000 
 43692.65567		 752.08298			42940.57269		144.97400		875.00000 
 43692.65567		 305.27265			43387.38302		69.19000		324.00000 
 43692.65567		 752.08298			42940.57269		144.97400		875.00000 
 43692.65567		 305.27265			43387.38302		69.19000		324.00000 
 43692.65567		 752.08298			42940.57269		144.97400		875.00000 
 43692.65567		 305.27265			43387.38302		69.19000		324.00000 
 43692.65567		 752.08298			42940.57269		144.97400		875.00000 
 43692.65567		 305.27265			43387.38302		69.19000		324.00000 
 43692.65567		 752.08298			42940.57269		144.97400		875.00000 
 43692.65567		 305.27265			43387.38302		69.19000		324.00000 
 43692.65567		 752.08298			42940.57269		144.97400		875.00000 
 43692.65567		 305.27265			43387.38302		69.19000		324.00000 
 43692.65567		 752.08298			42940.57269		144.97400		875.00000 
 43692.65567		 305.27265			43387.38302		69.19000		324.00000 
 43692.65567		 752.08298			42940.57269		144.97400		875.00000 
 43692.65567		 305.27265			43387.38302		69.19000		324.00000 
 43692.65567		 752.08298			42940.57269		144.97400		875.00000 
 43692.65567		 305.27265			43387.38302		69.19000		324.00000 
 43692.65567		 752.08298			42940.57269		144.97400		875.00000 
 43692.65567		 305.27265			43387.38302		69.19000		324.00000 
 43692.65567		 752.08298			42940.57269		144.97400		875.00000 
 43692.65567		 305.27265			43387.38302		69.19000		324.00000 
 43692.65567		 752.08298			42940.57269		144.97400		875.00000 
 43692.65567		 305.27265			43387.38302		69.19000		324.00000 
 43692.65567		 752.08298			42940.57269		144.97400		875.00000 
 43692.65567		 305.27265			43387.38302		69.19000		324.00000 
 43692.65567		 752.08298			42940.57269		144.97400		875.00000 
 43692.65567		 305.27265			43387.38302		69.19000		324.00000 
 43692.65567		 752.08298			42940.57269		144.97400		875.00000 
 43692.65567		 305.27265			43387.38302		69.19000		324.00000 
 43692.65567		 752.08298			42940.57269		144.97400		875.00000 
 43692.65567		 305.27265			43387.38302		69.19000		324.00000 
 43692.65567		 752.08298			42940.57269		144.97400		875.00000 
 43692.65567		 305.27265			43387.38302		69.19000		324.00000 
 43692.65567		 752.08298			42940.57269		144.97400		875.00000 
 43692.65567		 305.27265			43387.38302		69.19000		324.00000 
 43692.65567		 752.08298			42940.57269		144.97400		875.00000 
 43692.65567		 305.27265			43387.38302		69.19000		324.00000 
 43692.65567		 752.08298			42940.57269		144.97400		875.00000 
 43692.65567		 305.27265			43387.38302		69.19000		324.00000 
 43692.65567		 752.08298			42940.57269		144.97400		875.00000 
 43692.65567		 305.27265			43387.38302		69.19000		324.00000 
 43692.65567		 752.08298			42940.57269		144.97400		875.00000 
 43692.65567		 305.27265			43387.38302		69.19000		324.00000 
 43692.65567		 752.08298			42940.57269		144.97400		875.00000 
 43692.65567		 305.27265			43387.38302		69.19000		324.00000 
 43692.65567		 752.08298			42940.57269		144.97400		875.00000 
 43692.65567		 305.27265			43387.38302		69.19000		324.00000 
 43692.65567		 752.08298			42940.57269		144.97400		875.00000 
 43692.65567		 305.27265			43387.38302		69.19000		324.00000 
 43692.65567		 752.08298			42940.57269		144.97400		875.00000 
 43692.65567		 305.27265			43387.38302		69.19000		324.00000 
 43692.65567		 752.08298			42940.57269		144.97400		875.00000 
 43692.65567		 305.27265			43387.38302		69.19000		324.00000 
 43692.65567		 752.08298			42940.57269		144.97400		875.00000 
 43692.65567		 305.27265			43387.38302		69.19000		324.00000 
 43692.65567		 752.08298			42940.57269		144.97400		875.00000 
 43692.65567		 305.27265			43387.38302		69.19000		324.00000 
 43692.65567		 752.08298			42940.57269		144.97400		875.00000 
 43692.65567		 305.27265			43387.38302		69.19000		324.00000 
 43692.65567		 752.08298			42940.57269		144.97400		875.00000 
 43692.65567		 305.27265			43387.38302		69.19000		324.00000 
 43692.65567		 752.08298			42940.57269		144.97400		875.00000 
 43692.65567		 305.27265			43387.38302		69.19000		324.00000 
 43692.65567		 752.08298			42940.57269		144.97400		875.00000 
 43692.65567		 305.27265			43387.38302		69.19000		324.00000 
 43692.65567		 752.08298			42940.57269		144.97400		875.00000 
 43692.65567		 305.27265			43387.38302		69.19000		324.00000 
 43692.65567		 752.08298			42940.57269		144.97400		875.00000 
 43692.65567		 305.27265			43387.38302		69.19000		324.00000 
 43692.65567		 752.08298			42940.57269		144.97400		875.00000 
 43692.65567		 305.27265			43387.38302		69.19000		324.00000 
 43692.65567		 752.08298			42940.57269		144.97400		875.00000 
 43692.65567		 305.27265			43387.38302		69.19000		324.00000 
 43692.65567		 752.08298			42940.57269		144.97400		875.00000 
 43692.65567		 305.27265			43387.38302		69.19000		324.00000 
 43692.65567		 752.08298			42940.57269		144.97400		875.00000 
 43692.65567		 305.27265			43387.38302		69.19000		324.00000 
 43692.65567		 752.08298			42940.57269		144.97400		875.00000 
 43692.65567		 305.27265			43387.38302		69.19000		324.00000 
 43692.65567		 752.08298			42940.57269		144.97400		875.00000 
 43692.65567		 305.27265			43387.38302		69.19000		324.00000 
 43692.65567		 752.08298			42940.57269		144.97400		875.00000 
 43692.65567		 305.27265			43387.38302		69.19000		324.00000 
 43692.65567		 752.08298			42940.57269		144.97400		875.00000 
 43692.65567		 305.27265			43387.38302		69.19000		324.00000 
 43692.65567		 752.08298			42940.57269		144.97400		875.00000 
 43692.65567		 305.27265			43387.38302		69.19000		324.00000 
 43692.65567		 752.08298			42940.57269		144.97400		875.00000 
 43692.65567		 305.27265			43387.38302		69.19000		324.00000 
 43692.65567		 752.08298			42940.57269		144.97400		875.00000 
 43692.65567		 305.27265			43387.38302		69.19000		324.00000 
 43692.65567		 752.08298			42940.57269		144.97400		875.00000 
 43692.65567		 305.27265			43387.38302		69.19000		324.00000 
 43692.65567		 752.08298			42940.57269		144.97400		875.00000 
 43692.65567		 305.27265			43387.38302		69.19000		324.00000 
 43692.65567		 752.08298			42940.57269		144.97400		875.00000 
 43692.65567		 305.27265			43387.38302		69.19000		324.00000 
 43692.65567		 752.08298			42940.57269		144.97400		875.00000 
 43692.65567		 305.27265			43387.38302		69.19000		324.00000 
 43692.65567		 752.08298			42940.57269		144.97400		875.00000 
 43692.65567		 305.27265			43387.38302		69.19000		324.00000 
 43692.65567		 752.08298			42940.57269		144.97400		875.00000 
 43692.65567		 305.27265			43387.38302		69.19000		324.00000 
 43692.65567		 752.08298			42940.57269		144.97400		875.00000 
 43692.65567		 305.27265			43387.38302		69.19000		324.00000 
 43692.65567		 752.08298			42940.57269		144.97400		875.00000 
 43692.65567		 305.27265			43387.38302		69.19000		324.00000 
 43692.65567		 752.08298			42940.57269		144.97400		875.00000 
 43692.65567		 305.27265			43387.38302		69.19000		324.00000 
 43692.65567		 752.08298			42940.57269		194.02200		875.00000 
 43692.65567		 305.27265			43387.38302		69.19000		324.00000 
 43692.65567		 752.08298			42940.57269		194.02200		875.00000 
 43692.65567		 305.27265			43387.38302		69.19000		324.00000 
 43692.65567		 752.08298			42940.57269		194.02200		875.00000 
 43692.65567		 305.27265			43387.38302		69.19000		324.00000 
 43692.65567		 752.08298			42940.57269		194.02200		875.00000 
 43692.65567		 305.27265			43387.38302		69.19000		324.00000 
 43692.65567		 752.08298			42940.57269		194.02200		875.00000 
 43692.65567		 305.27265			43387.38302		69.19000		324.00000 
 43692.65567		 752.08298			42940.57269		194.02200		875.00000 
 43692.65567		 305.27265			43387.38302		69.19000		324.00000 
 43692.65567		 752.08298			42940.57269		194.02200		875.00000 
 43692.65567		 305.27265			43387.38302		69.19000		324.00000 
 43692.65567		 752.08298			42940.57269		194.02200		875.00000 
 43692.65567		 305.27265			43387.38302		69.19000		324.00000 
 43692.65567		 752.08298			42940.57269		194.02200		875.00000 
 43692.65567		 305.27265			43387.38302		69.19000		324.00000 
 43692.65567		 752.08298			42940.57269		194.02200		875.00000 
 43692.65567		 305.27265			43387.38302		69.19000		324.00000 
 43692.65567		 752.08298			42940.57269		194.02200		875.00000 
 43692.65567		 305.27265			43387.38302		69.19000		324.00000 
 43692.65567		 752.08298			42940.57269		194.02200		875.00000 
 43692.65567		 305.27265			43387.38302		69.19000		324.00000 
 43692.65567		 752.08298			42940.57269		194.02200		875.00000 
 43692.65567		 305.27265			43387.38302		69.19000		324.00000 
 43692.65567		 752.08298			42940.57269		194.02200		875.00000 
 43692.65567		 305.27265			43387.38302		69.19000		324.00000 
 43692.65567		 752.08298			42940.57269		194.02200		875.00000 
 43692.65567		 305.27265			43387.38302		69.19000		324.00000 
 43692.65567		 752.08298			42940.57269		194.02200		875.00000 
 43692.65567		 305.27265			43387.38302		69.19000		324.00000 
 43692.65567		 752.08298			42940.57269		194.02200		875.00000 
 43692.65567		 305.27265			43387.38302		69.19000		324.00000 
 43692.65567		 752.08298			42940.57269		194.02200		875.00000 
 43692.65567		 305.27265			43387.38302		69.19000		324.00000 
 43692.65567		 752.08298			42940.57269		194.02200		875.00000 
 43692.65567		 305.27265			43387.38302		69.19000		324.00000 
 43692.65567		 752.08298			42940.57269		194.02200		875.00000 
 43692.65567		 305.27265			43387.38302		69.19000		324.00000 
 43692.65567		 752.08298			42940.57269		194.02200		875.00000 
 43692.65567		 305.27265			43387.38302		69.19000		324.00000 
 43692.65567		 752.08298			42940.57269		194.02200		875.00000 
 43692.65567		 305.27265			43387.38302		69.19000		324.00000 
 43692.65567		 752.08298			42940.57269		194.02200		875.00000 
 43692.65567		 305.27265			43387.38302		69.19000		324.00000 
 43692.65567		 752.08298			42940.57269		194.02200		875.00000 
 43692.65567		 305.27265			43387.38302		69.19000		324.00000 
 43692.65567		 752.08298			42940.57269		194.02200		875.00000 
 43692.65567		 305.27265			43387.38302		69.19000		324.00000 
 43692.65567		 752.08298			42940.57269		194.02200		875.00000 
 43692.65567		 305.27265			43387.38302		69.19000		324.00000 
 43692.65567		 752.08298			42940.57269		194.02200		875.00000 
 43692.65567		 305.27265			43387.38302		69.19000		324.00000 
 43692.65567		 752.08298			42940.57269		194.02200		875.00000 
 43692.65567		 305.27265			43387.38302		69.19000		324.00000 
 43692.65567		 752.08298			42940.57269		194.02200		875.00000 
 43692.65567		 305.27265			43387.38302		69.19000		324.00000 
 43692.65567		 752.08298			42940.57269		194.02200		875.00000 
 43692.65567		 305.27265			43387.38302		69.19000		324.00000 
 43692.65567		 752.08298			42940.57269		194.02200		875.00000 
 43692.65567		 305.27265			43387.38302		69.19000		324.00000 
 43692.65567		 752.08298			42940.57269		194.02200		875.00000 
 43692.65567		 305.27265			43387.38302		69.19000		324.00000 
 43692.65567		 752.08298			42940.57269		194.02200		875.00000 
 43692.65567		 305.27265			43387.38302		69.19000		324.00000 
 43692.65567		 752.08298			42940.57269		194.02200		875.00000 
 43692.65567		 305.27265			43387.38302		69.19000		324.00000 
 43692.65567		 752.08298			42940.57269		194.02200		875.00000 
 43692.65567		 305.27265			43387.38302		69.19000		324.00000 
 43692.65567		 752.08298			42940.57269		194.02200		875.00000 
 43692.65567		 305.27265			43387.38302		69.19000		324.00000 
 43692.65567		 752.08298			42940.57269		194.02200		875.00000 
 43692.65567		 305.27265			43387.38302		69.19000		324.00000 
 43692.65567		 752.08298			42940.57269		194.02200		875.00000 
 43692.65567		 305.27265			43387.38302		69.19000		324.00000 
 43692.65567		 752.08298			42940.57269		194.02200		875.00000 
 43692.65567		 305.27265			43387.38302		69.19000		324.00000 
 43692.65567		 752.08298			42940.57269		194.02200		875.00000 
 43692.65567		 305.27265			43387.38302		69.19000		324.00000 
 43692.65567		 752.08298			42940.57269		194.02200		875.00000 
 43692.65567		 305.27265			43387.38302		69.19000		324.00000 
 43692.65567		 752.08298			42940.57269		194.02200		875.00000 
 43692.65567		 305.27265			43387.38302		69.19000		324.00000 
 43692.65567		 752.08298			42940.57269		194.02200		875.00000 
 43692.65567		 305.27265			43387.38302		69.19000		324.00000 
 43692.65567		 752.08298			42940.57269		194.02200		875.00000 
 43692.65567		 305.27265			43387.38302		69.19000		324.00000 
 43692.65567		 752.08298			42940.57269		194.02200		875.00000 
 43692.65567		 305.27265			43387.38302		69.19000		324.00000 
 43692.65567		 752.08298			42940.57269		194.02200		875.00000 
 43692.65567		 305.27265			43387.38302		69.19000		324.00000 
 43692.65567		 752.08298			42940.57269		194.02200		875.00000 
 43692.65567		 305.27265			43387.38302		69.19000		324.00000 
 43692.65567		 752.08298			42940.57269		194.02200		875.00000 
 43692.65567		 305.27265			43387.38302		69.19000		324.00000 
 43692.65567		 752.08298			42940.57269		194.02200		875.00000 
 43692.65567		 305.27265			43387.38302		69.19000		324.00000 
 43692.65567		 752.08298			42940.57269		194.02200		875.00000 
 43692.65567		 305.27265			43387.38302		69.19000		324.00000 
 43692.65567		 752.08298			42940.57269		194.02200		875.00000 
 43692.65567		 305.27265			43387.38302		69.19000		324.00000 
 43692.65567		 752.08298			42940.57269		194.02200		875.00000 
 43692.65567		 305.27265			43387.38302		69.19000		324.00000 
 43692.65567		 752.08298			42940.57269		194.02200		875.00000 
 43692.65567		 305.27265			43387.38302		69.19000		324.00000 
 43692.65567		 752.08298			42940.57269		194.02200		875.00000 
 43692.65567		 305.27265			43387.38302		69.19000		324.00000 
 43692.65567		 752.08298			42940.57269		194.02200		875.00000 
 43692.65567		 305.27265			43387.38302		69.19000		324.00000 
 43692.65567		 752.08298			42940.57269		194.02200		875.00000 
 43692.65567		 305.27265			43387.38302		69.19000		324.00000 
 43692.65567		 752.08298			42940.57269		194.02200		875.00000 
 43692.65567		 305.27265			43387.38302		69.19000		324.00000 
 43692.65567		 752.08298			42940.57269		194.02200		875.00000 
 43692.65567		 305.27265			43387.38302		69.19000		324.00000 
 43692.65567		 752.08298			42940.57269		194.02200		875.00000 
 43692.65567		 305.27265			43387.38302		69.19000		324.00000 
 43692.65567		 752.08298			42940.57269		194.02200		875.00000 
 43692.65567		 305.27265			43387.38302		69.19000		324.00000 
 43692.65567		 752.08298			42940.57269		194.02200		875.00000 
 43692.65567		 305.27265			43387.38302		69.19000		324.00000 
 43692.65567		 752.08298			42940.57269		194.02200		875.00000 
 43692.65567		 305.27265			43387.38302		69.19000		324.00000 
 43692.65567		 752.08298			42940.57269		194.02200		875.00000 
 43692.65567		 305.27265			43387.38302		69.19000		324.00000 
 43692.65567		 752.08298			42940.57269		194.02200		875.00000 
 43692.65567		 305.27265			43387.38302		69.19000		324.00000 
 43692.65567		 752.08298			42940.57269		194.02200		875.00000 
 43692.65567		 305.27265			43387.38302		69.19000		324.00000 
 43692.65567		 752.08298			42940.57269		211.55400		875.00000 
 43692.65567		 305.27265			43387.38302		69.19000		324.00000 
 43692.65567		 752.08298			42940.57269		211.55400		875.00000 
 43692.65567		 305.27265			43387.38302		69.19000		324.00000 
 43692.65567		 752.08298			42940.57269		211.55400		875.00000 
 43692.65567		 305.27265			43387.38302		69.19000		324.00000 
 43692.65567		 752.08298			42940.57269		211.55400		875.00000 
 43692.65567		 305.27265			43387.38302		69.19000		324.00000 
 43692.65567		 752.08298			42940.57269		211.55400		875.00000 
 43692.65567		 305.27265			43387.38302		69.19000		324.00000 
 43692.65567		 752.08298			42940.57269		211.55400		875.00000 
 43692.65567		 305.27265			43387.38302		69.19000		324.00000 
 43692.65567		 752.08298			42940.57269		211.55400		875.00000 
 43692.65567		 305.27265			43387.38302		69.19000		324.00000 
 43692.65567		 752.08298			42940.57269		211.55400		875.00000 
 43692.65567		 305.27265			43387.38302		69.19000		324.00000 
 43692.65567		 752.08298			42940.57269		211.55400		875.00000 
 43692.65567		 305.27265			43387.38302		69.19000		324.00000 
 43692.65567		 752.08298			42940.57269		211.55400		875.00000 
 43692.65567		 305.27265			43387.38302		69.19000		324.00000 
 43692.65567		 752.08298			42940.57269		211.55400		875.00000 
 43692.65567		 305.27265			43387.38302		69.19000		324.00000 
 43692.65567		 752.08298			42940.57269		211.55400		875.00000 
 43692.65567		 305.27265			43387.38302		69.19000		324.00000 
 43692.65567		 752.08298			42940.57269		211.55400		875.00000 
 43692.65567		 305.27265			43387.38302		69.19000		324.00000 
 43692.65567		 752.08298			42940.57269		211.55400		875.00000 
 43692.65567		 305.27265			43387.38302		69.19000		324.00000 
 43692.65567		 752.08298			42940.57269		211.55400		875.00000 
 43692.65567		 305.27265			43387.38302		69.19000		324.00000 
 43692.65567		 752.08298			42940.57269		211.55400		875.00000 
 43692.65567		 305.27265			43387.38302		69.19000		324.00000 
 43692.65567		 752.08298			42940.57269		211.55400		875.00000 
 43692.65567		 305.27265			43387.38302		69.19000		324.00000 
 43692.65567		 752.08298			42940.57269		211.55400		875.00000 
 43692.65567		 305.27265			43387.38302		69.19000		324.00000 
 43692.65567		 752.08298			42940.57269		211.55400		875.00000 
 43692.65567		 305.27265			43387.38302		69.19000		324.00000 
 43692.65567		 752.08298			42940.57269		211.55400		875.00000 
 43692.65567		 305.27265			43387.38302		69.19000		324.00000 
 43692.65567		 752.08298			42940.57269		211.55400		875.00000 
 43692.65567		 305.27265			43387.38302		69.19000		324.00000 
 43692.65567		 752.08298			42940.57269		211.55400		875.00000 
 43692.65567		 305.27265			43387.38302		69.19000		324.00000 
 43692.65567		 752.08298			42940.57269		211.55400		875.00000 
 43692.65567		 305.27265			43387.38302		69.19000		324.00000 
 43692.65567		 752.08298			42940.57269		211.55400		875.00000 
 43692.65567		 305.27265			43387.38302		69.19000		324.00000 
 43692.65567		 752.08298			42940.57269		211.55400		875.00000 
 43692.65567		 305.27265			43387.38302		69.19000		324.00000 
 43692.65567		 752.08298			42940.57269		211.55400		875.00000 
 43692.65567		 305.27265			43387.38302		69.19000		324.00000 
 43692.65567		 752.08298			42940.57269		211.55400		875.00000 
 43692.65567		 305.27265			43387.38302		69.19000		324.00000 
 43692.65567		 752.08298			42940.57269		211.55400		875.00000 
 43692.65567		 305.27265			43387.38302		69.19000		324.00000 
 43692.65567		 752.08298			42940.57269		211.55400		875.00000 
 43692.65567		 305.27265			43387.38302		69.19000		324.00000 
 43692.65567		 752.08298			42940.57269		211.55400		875.00000 
 43692.65567		 305.27265			43387.38302		69.19000		324.00000 
 43692.65567		 752.08298			42940.57269		211.55400		875.00000 
 43692.65567		 305.27265			43387.38302		69.19000		324.00000 
 43692.65567		 752.08298			42940.57269		211.55400		875.00000 
 43692.65567		 305.27265			43387.38302		69.19000		324.00000 
 43692.65567		 752.08298			42940.57269		211.55400		875.00000 
 43692.65567		 305.27265			43387.38302		69.19000		324.00000 
 43692.65567		 752.08298			42940.57269		211.55400		875.00000 
 43692.65567		 305.27265			43387.38302		69.19000		324.00000 
 43692.65567		 752.08298			42940.57269		211.55400		875.00000 
 43692.65567		 305.27265			43387.38302		69.19000		324.00000 
 43692.65567		 752.08298			42940.57269		211.55400		875.00000 
 43692.65567		 305.27265			43387.38302		69.19000		324.00000 
 43692.65567		 752.08298			42940.57269		211.55400		875.00000 
 43692.65567		 305.27265			43387.38302		69.19000		324.00000 
 43692.65567		 752.08298			42940.57269		211.55400		875.00000 
 43692.65567		 305.27265			43387.38302		69.19000		324.00000 
 43692.65567		 752.08298			42940.57269		211.55400		875.00000 
 43692.65567		 305.27265			43387.38302		69.19000		324.00000 
 43692.65567		 752.08298			42940.57269		211.55400		875.00000 
 43692.65567		 305.27265			43387.38302		69.19000		324.00000 
 43692.65567		 752.08298			42940.57269		211.55400		875.00000 
 43692.65567		 305.27265			43387.38302		69.19000		324.00000 
 43692.65567		 752.08298			42940.57269		211.55400		875.00000 
 43692.65567		 305.27265			43387.38302		69.19000		324.00000 
 43692.65567		 752.08298			42940.57269		211.55400		875.00000 
 43692.65567		 305.27265			43387.38302		69.19000		324.00000 
 43692.65567		 752.08298			42940.57269		211.55400		875.00000 
 43692.65567		 305.27265			43387.38302		69.19000		324.00000 
 43692.65567		 752.08298			42940.57269		211.55400		875.00000 
 43692.65567		 305.27265			43387.38302		69.19000		324.00000 
 43692.65567		 752.08298			42940.57269		211.55400		875.00000 
 43692.65567		 305.27265			43387.38302		69.19000		324.00000 
 43692.65567		 752.08298			42940.57269		211.55400		875.00000 
 43692.65567		 305.27265			43387.38302		69.19000		324.00000 
 43692.65567		 752.08298			42940.57269		211.55400		875.00000 
 43692.65567		 305.27265			43387.38302		69.19000		324.00000 
 43692.65567		 752.08298			42940.57269		211.55400		875.00000 
 43692.65567		 305.27265			43387.38302		69.19000		324.00000 
 43692.65567		 752.08298			42940.57269		211.55400		875.00000 
 43692.65567		 305.27265			43387.38302		69.19000		324.00000 
 43692.65567		 752.08298			42940.57269		211.55400		875.00000 
 43692.65567		 305.27265			43387.38302		69.19000		324.00000 
 43692.65567		 752.08298			42940.57269		211.55400		875.00000 
 43692.65567		 305.27265			43387.38302		69.19000		324.00000 
 43692.65567		 752.08298			42940.57269		211.55400		875.00000 
 43692.65567		 305.27265			43387.38302		69.19000		324.00000 
 43692.65567		 752.08298			42940.57269		211.55400		875.00000 
 43692.65567		 305.27265			43387.38302		69.19000		324.00000 
 43692.65567		 752.08298			42940.57269		211.55400		875.00000 
 43692.65567		 305.27265			43387.38302		69.19000		324.00000 
 43692.65567		 752.08298			42940.57269		211.55400		875.00000 
 43692.65567		 305.27265			43387.38302		69.19000		324.00000 
 43692.65567		 752.08298			42940.57269		211.55400		875.00000 
 43692.65567		 305.27265			43387.38302		69.19000		324.00000 
 43692.65567		 752.08298			42940.57269		211.55400		875.00000 
 43692.65567		 305.27265			43387.38302		69.19000		324.00000 
 43692.65567		 752.08298			42940.57269		211.55400		875.00000 
 43692.65567		 305.27265			43387.38302		69.19000		324.00000 
 43692.65567		 752.08298			42940.57269		211.55400		875.00000 
 43692.65567		 305.27265			43387.38302		69.19000		324.00000 
 43692.65567		 752.08298			42940.57269		211.55400		875.00000 
 43692.65567		 305.27265			43387.38302		69.19000		324.00000 
 43692.65567		 752.08298			42940.57269		211.55400		875.00000 
 43692.65567		 305.27265			43387.38302		69.19000		324.00000 
 43692.65567		 752.08298			42940.57269		211.55400		875.00000 
 43692.65567		 305.27265			43387.38302		69.19000		324.00000 
 43692.65567		 752.08298			42940.57269		211.55400		875.00000 
 43692.65567		 305.27265			43387.38302		69.19000		324.00000 
 43692.65567		 752.08298			42940.57269		218.93400		875.00000 
 43692.65567		 305.27265			43387.38302		69.19000		324.00000 
 43692.65567		 752.08298			42940.57269		218.93400		875.00000 
 43692.65567		 305.27265			43387.38302		69.19000		324.00000 
 43692.65567		 752.08298			42940.57269		218.93400		875.00000 
 43692.65567		 305.27265			43387.38302		69.19000		324.00000 
 43692.65567		 752.08298			42940.57269		218.93400		875.00000 
 43692.65567		 305.27265			43387.38302		69.19000		324.00000 
 43692.65567		 752.08298			42940.57269		218.93400		875.00000 
 43692.65567		 305.27265			43387.38302		69.19000		324.00000 
 43692.65567		 752.08298			42940.57269		218.93400		875.00000 
 43692.65567		 305.27265			43387.38302		69.19000		324.00000 
 43692.65567		 752.08298			42940.57269		218.93400		875.00000 
 43692.65567		 305.27265			43387.38302		69.19000		324.00000 
 43692.65567		 752.08298			42940.57269		218.93400		875.00000 
 43692.65567		 305.27265			43387.38302		69.19000		324.00000 
 43692.65567		 752.08298			42940.57269		218.93400		875.00000 
 43692.65567		 305.27265			43387.38302		69.19000		324.00000 
 43692.65567		 752.08298			42940.57269		218.93400		875.00000 
 43692.65567		 305.27265			43387.38302		69.19000		324.00000 
 43692.65567		 752.08298			42940.57269		218.93400		875.00000 
 43692.65567		 305.27265			43387.38302		69.19000		324.00000 
 43692.65567		 752.08298			42940.57269		218.93400		875.00000 
 43692.65567		 305.27265			43387.38302		69.19000		324.00000 
 43692.65567		 752.08298			42940.57269		218.93400		875.00000 
 43692.65567		 305.27265			43387.38302		69.19000		324.00000 
 43692.65567		 752.08298			42940.57269		218.93400		875.00000 
 43692.65567		 305.27265			43387.38302		69.19000		324.00000 
 43692.65567		 752.08298			42940.57269		218.93400		875.00000 
 43692.65567		 305.27265			43387.38302		69.19000		324.00000 
 43692.65567		 752.08298			42940.57269		218.93400		875.00000 
 43692.65567		 305.27265			43387.38302		69.19000		324.00000 
 43692.65567		 752.08298			42940.57269		218.93400		875.00000 
 43692.65567		 305.27265			43387.38302		69.19000		324.00000 
 43692.65567		 752.08298			42940.57269		218.93400		875.00000 
 43692.65567		 305.27265			43387.38302		69.19000		324.00000 
 43692.65567		 752.08298			42940.57269		218.93400		875.00000 
 43692.65567		 305.27265			43387.38302		69.19000		324.00000 
 43692.65567		 752.08298			42940.57269		218.93400		875.00000 
 43692.65567		 305.27265			43387.38302		69.19000		324.00000 
 43692.65567		 752.08298			42940.57269		218.93400		875.00000 
 43692.65567		 305.27265			43387.38302		69.19000		324.00000 
 43692.65567		 752.08298			42940.57269		218.93400		875.00000 
 43692.65567		 305.27265			43387.38302		69.19000		324.00000 
 43692.65567		 752.08298			42940.57269		218.93400		875.00000 
 43692.65567		 305.27265			43387.38302		69.19000		324.00000 
 43692.65567		 752.08298			42940.57269		218.93400		875.00000 
 43692.65567		 305.27265			43387.38302		69.19000		324.00000 
 43692.65567		 752.08298			42940.57269		218.93400		875.00000 
 43692.65567		 305.27265			43387.38302		69.19000		324.00000 
 43692.65567		 752.08298			42940.57269		218.93400		875.00000 
 43692.65567		 305.27265			43387.38302		69.19000		324.00000 
 43692.65567		 752.08298			42940.57269		218.93400		875.00000 
 43692.65567		 305.27265			43387.38302		69.19000		324.00000 
 43692.65567		 752.08298			42940.57269		218.93400		875.00000 
 43692.65567		 305.27265			43387.38302		69.19000		324.00000 
 43692.65567		 752.08298			42940.57269		218.93400		875.00000 
 43692.65567		 305.27265			43387.38302		69.19000		324.00000 
 43692.65567		 752.08298			42940.57269		218.93400		875.00000 
 43692.65567		 305.27265			43387.38302		69.19000		324.00000 
 43692.65567		 752.08298			42940.57269		218.93400		875.00000 
 43692.65567		 305.27265			43387.38302		69.19000		324.00000 
 43692.65567		 752.08298			42940.57269		218.93400		875.00000 
 43692.65567		 305.27265			43387.38302		69.19000		324.00000 
 43692.65567		 752.08298			42940.57269		218.93400		875.00000 
 43692.65567		 305.27265			43387.38302		69.19000		324.00000 
 43692.65567		 752.08298			42940.57269		218.93400		875.00000 
 43692.65567		 305.27265			43387.38302		69.19000		324.00000 
 43692.65567		 752.08298			42940.57269		218.93400		875.00000 
 43692.65567		 305.27265			43387.38302		69.19000		324.00000 
 43692.65567		 752.08298			42940.57269		218.93400		875.00000 
 43692.65567		 305.27265			43387.38302		69.19000		324.00000 
 43692.65567		 752.08298			42940.57269		218.93400		875.00000 
 43692.65567		 305.27265			43387.38302		69.19000		324.00000 
 43692.65567		 752.08298			42940.57269		218.93400		875.00000 
 43692.65567		 305.27265			43387.38302		69.19000		324.00000 
 43692.65567		 752.08298			42940.57269		218.93400		875.00000 
 43692.65567		 305.27265			43387.38302		69.19000		324.00000 
 43692.65567		 752.08298			42940.57269		218.93400		875.00000 
 43692.65567		 305.27265			43387.38302		69.19000		324.00000 
 43692.65567		 752.08298			42940.57269		218.93400		875.00000 
 43692.65567		 305.27265			43387.38302		69.19000		324.00000 
 43692.65567		 752.08298			42940.57269		218.93400		875.00000 
 43692.65567		 305.27265			43387.38302		69.19000		324.00000 
 43692.65567		 752.08298			42940.57269		218.93400		875.00000 
 43692.65567		 305.27265			43387.38302		69.19000		324.00000 
 43692.65567		 752.08298			42940.57269		218.93400		875.00000 
 43692.65567		 305.27265			43387.38302		69.19000		324.00000 
 43692.65567		 752.08298			42940.57269		218.93400		875.00000 
 43692.65567		 305.27265			43387.38302		69.19000		324.00000 
 43692.65567		 752.08298			42940.57269		218.93400		875.00000 
 43692.65567		 305.27265			43387.38302		69.19000		324.00000 
 43692.65567		 752.08298			42940.57269		218.93400		875.00000 
 43692.65567		 305.27265			43387.38302		69.19000		324.00000 
 43692.65567		 752.08298			42940.57269		218.93400		875.00000 
 43692.65567		 305.27265			43387.38302		69.19000		324.00000 
 43692.65567		 752.08298			42940.57269		218.93400		875.00000 
 43692.65567		 305.27265			43387.38302		69.19000		324.00000 
 43692.65567		 752.08298			42940.57269		218.93400		875.00000 
 43692.65567		 305.27265			43387.38302		69.19000		324.00000 
 43692.65567		 752.08298			42940.57269		218.93400		875.00000 
 43692.65567		 305.27265			43387.38302		69.19000		324.00000 
 43692.65567		 752.08298			42940.57269		218.93400		875.00000 
 43692.65567		 305.27265			43387.38302		69.19000		324.00000 
 43692.65567		 752.08298			42940.57269		218.93400		875.00000 
 43692.65567		 305.27265			43387.38302		69.19000		324.00000 
 43692.65567		 752.08298			42940.57269		218.93400		875.00000 
 43692.65567		 305.27265			43387.38302		69.19000		324.00000 
 43692.65567		 752.08298			42940.57269		218.93400		875.00000 
 43692.65567		 305.27265			43387.38302		69.19000		324.00000 
 43692.65567		 752.08298			42940.57269		218.93400		875.00000 
 43692.65567		 305.27265			43387.38302		69.19000		324.00000 
 43692.65567		 752.08298			42940.57269		218.93400		875.00000 
 43692.65567		 305.27265			43387.38302		69.19000		324.00000 
 43692.65567		 752.08298			42940.57269		218.93400		875.00000 
 43692.65567		 305.27265			43387.38302		69.19000		324.00000 
 43692.65567		 752.08298			42940.57269		218.93400		875.00000 
 43692.65567		 305.27265			43387.38302		69.19000		324.00000 
 43692.65567		 752.08298			42940.57269		218.93400		875.00000 
 43692.65567		 305.27265			43387.38302		69.19000		324.00000 
 43692.65567		 752.08298			42940.57269		218.93400		875.00000 
 43692.65567		 305.27265			43387.38302		69.19000		324.00000 
 43692.65567		 752.08298			42940.57269		218.93400		875.00000 
 43692.65567		 305.27265			43387.38302		69.19000		324.00000 
 43692.65567		 752.08298			42940.57269		218.93400		875.00000 
 43692.65567		 305.27265			43387.38302		69.19000		324.00000 
 43692.65567		 752.08298			42940.57269		218.93400		875.00000 
 43692.65567		 305.27265			43387.38302		69.19000		324.00000 
 43692.65567		 752.08298			42940.57269		221.27200		875.00000 
 43692.65567		 305.27265			43387.38302		69.19000		324.00000 
 43692.65567		 752.08298			42940.57269		221.27200		875.00000 
 43692.65567		 305.27265			43387.38302		69.19000		324.00000 
 43692.65567		 752.08298			42940.57269		221.27200		875.00000 
 43692.65567		 305.27265			43387.38302		69.19000		324.00000 
 43692.65567		 752.08298			42940.57269		221.27200		875.00000 
 43692.65567		 305.27265			43387.38302		69.19000		324.00000 
 43692.65567		 752.08298			42940.57269		221.27200		875.00000 
 43692.65567		 305.27265			43387.38302		69.19000		324.00000 
 43692.65567		 752.08298			42940.57269		221.27200		875.00000 
 43692.65567		 305.27265			43387.38302		69.19000		324.00000 
 43692.65567		 752.08298			42940.57269		221.27200		875.00000 
 43692.65567		 305.27265			43387.38302		69.19000		324.00000 
 43692.65567		 752.08298			42940.57269		221.27200		875.00000 
 43692.65567		 305.27265			43387.38302		69.19000		324.00000 
 43692.65567		 752.08298			42940.57269		221.27200		875.00000 
 43692.65567		 305.27265			43387.38302		69.19000		324.00000 
 43692.65567		 752.08298			42940.57269		221.27200		875.00000 
 43692.65567		 305.27265			43387.38302		69.19000		324.00000 
 43692.65567		 752.08298			42940.57269		221.27200		875.00000 
 43692.65567		 305.27265			43387.38302		69.19000		324.00000 
 43692.65567		 752.08298			42940.57269		221.27200		875.00000 
 43692.65567		 305.27265			43387.38302		69.19000		324.00000 
 43692.65567		 752.08298			42940.57269		221.27200		875.00000 
 43692.65567		 305.27265			43387.38302		69.19000		324.00000 
 43692.65567		 752.08298			42940.57269		221.27200		875.00000 
 43692.65567		 305.27265			43387.38302		69.19000		324.00000 
 43692.65567		 752.08298			42940.57269		221.27200		875.00000 
 43692.65567		 305.27265			43387.38302		69.19000		324.00000 
 43692.65567		 752.08298			42940.57269		221.27200		875.00000 
 43692.65567		 305.27265			43387.38302		69.19000		324.00000 
 43692.65567		 752.08298			42940.57269		221.27200		875.00000 
 43692.65567		 305.27265			43387.38302		69.19000		324.00000 
 43692.65567		 752.08298			42940.57269		221.27200		875.00000 
 43692.65567		 305.27265			43387.38302		69.19000		324.00000 
 43692.65567		 752.08298			42940.57269		221.27200		875.00000 
 43692.65567		 305.27265			43387.38302		69.19000		324.00000 
 43692.65567		 752.08298			42940.57269		221.27200		875.00000 
 43692.65567		 305.27265			43387.38302		69.19000		324.00000 
 43692.65567		 752.08298			42940.57269		221.27200		875.00000 
 43692.65567		 305.27265			43387.38302		69.19000		324.00000 
 43692.65567		 752.08298			42940.57269		221.27200		875.00000 
 43692.65567		 305.27265			43387.38302		69.19000		324.00000 
 43692.65567		 752.08298			42940.57269		221.27200		875.00000 
 43692.65567		 305.27265			43387.38302		69.19000		324.00000 
 43692.65567		 752.08298			42940.57269		221.27200		875.00000 
 43692.65567		 305.27265			43387.38302		69.19000		324.00000 
 43692.65567		 752.08298			42940.57269		221.27200		875.00000 
 43692.65567		 305.27265			43387.38302		69.19000		324.00000 
 43692.65567		 752.08298			42940.57269		221.27200		875.00000 
 43692.65567		 305.27265			43387.38302		69.19000		324.00000 
 43692.65567		 752.08298			42940.57269		221.27200		875.00000 
 43692.65567		 305.27265			43387.38302		69.19000		324.00000 
 43692.65567		 752.08298			42940.57269		221.27200		875.00000 
 43692.65567		 305.27265			43387.38302		69.19000		324.00000 
 43692.65567		 752.08298			42940.57269		221.27200		875.00000 
 43692.65567		 305.27265			43387.38302		69.19000		324.00000 
 43692.65567		 752.08298			42940.57269		221.27200		875.00000 
 43692.65567		 305.27265			43387.38302		69.19000		324.00000 
 43692.65567		 752.08298			42940.57269		221.27200		875.00000 
 43692.65567		 305.27265			43387.38302		69.19000		324.00000 
 43692.65567		 752.08298			42940.57269		221.27200		875.00000 
 43692.65567		 305.27265			43387.38302		69.19000		324.00000 
 43692.65567		 752.08298			42940.57269		221.27200		875.00000 
 43692.65567		 305.27265			43387.38302		69.19000		324.00000 
 43692.65567		 752.08298			42940.57269		221.27200		875.00000 
 43692.65567		 305.27265			43387.38302		69.19000		324.00000 
 43692.65567		 752.08298			42940.57269		221.27200		875.00000 
 43692.65567		 305.27265			43387.38302		69.19000		324.00000 
 43692.65567		 752.08298			42940.57269		221.27200		875.00000 
 43692.65567		 305.27265			43387.38302		69.19000		324.00000 
 43692.65567		 752.08298			42940.57269		221.27200		875.00000 
 43692.65567		 305.27265			43387.38302		69.19000		324.00000 
 43692.65567		 752.08298			42940.57269		221.27200		875.00000 
 43692.65567		 305.27265			43387.38302		69.19000		324.00000 
 43692.65567		 752.08298			42940.57269		221.27200		875.00000 
 43692.65567		 305.27265			43387.38302		69.19000		324.00000 
 43692.65567		 752.08298			42940.57269		221.27200		875.00000 
 43692.65567		 305.27265			43387.38302		69.19000		324.00000 
 43692.65567		 752.08298			42940.57269		221.27200		875.00000 
 43692.65567		 305.27265			43387.38302		69.19000		324.00000 
 43692.65567		 752.08298			42940.57269		221.27200		875.00000 
 43692.65567		 305.27265			43387.38302		69.19000		324.00000 
 43692.65567		 752.08298			42940.57269		221.27200		875.00000 
 43692.65567		 305.27265			43387.38302		69.19000		324.00000 
 43692.65567		 752.08298			42940.57269		221.27200		875.00000 
 43692.65567		 305.27265			43387.38302		69.19000		324.00000 
 43692.65567		 752.08298			42940.57269		221.27200		875.00000 
 43692.65567		 305.27265			43387.38302		69.19000		324.00000 
 43692.65567		 752.08298			42940.57269		221.27200		875.00000 
 43692.65567		 305.27265			43387.38302		69.19000		324.00000 
 43692.65567		 752.08298			42940.57269		221.27200		875.00000 
 43692.65567		 305.27265			43387.38302		69.19000		324.00000 
 43692.65567		 752.08298			42940.57269		221.27200		875.00000 
 43692.65567		 305.27265			43387.38302		69.19000		324.00000 
 43692.65567		 752.08298			42940.57269		221.27200		875.00000 
 43692.65567		 305.27265			43387.38302		69.19000		324.00000 
 43692.65567		 752.08298			42940.57269		221.27200		875.00000 
 43692.65567		 305.27265			43387.38302		69.19000		324.00000 
 43692.65567		 752.08298			42940.57269		221.27200		875.00000 
 43692.65567		 305.27265			43387.38302		69.19000		324.00000 
 43692.65567		 752.08298			42940.57269		221.27200		875.00000 
 43692.65567		 305.27265			43387.38302		69.19000		324.00000 
 43692.65567		 752.08298			42940.57269		221.27200		875.00000 
 43692.65567		 305.27265			43387.38302		69.19000		324.00000 
 43692.65567		 752.08298			42940.57269		221.27200		875.00000 
 43692.65567		 305.27265			43387.38302		69.19000		324.00000 
 43692.65567		 752.08298			42940.57269		221.27200		875.00000 
 43692.65567		 305.27265			43387.38302		69.19000		324.00000 
 43692.65567		 752.08298			42940.57269		221.27200		875.00000 
 43692.65567		 305.27265			43387.38302		69.19000		324.00000 
 43692.65567		 752.08298			42940.57269		221.27200		875.00000 
 43692.65567		 305.27265			43387.38302		69.19000		324.00000 
 43692.65567		 752.08298			42940.57269		221.27200		875.00000 
 43692.65567		 305.27265			43387.38302		69.19000		324.00000 
 43692.65567		 752.08298			42940.57269		221.27200		875.00000 
 43692.65567		 305.27265			43387.38302		69.19000		324.00000 
 43692.65567		 752.08298			42940.57269		221.27200		875.00000 
 43692.65567		 305.27265			43387.38302		69.19000		324.00000 
 43692.65567		 752.08298			42940.57269		221.27200		875.00000 
 43692.65567		 305.27265			43387.38302		69.19000		324.00000 
 43692.65567		 752.08298			42940.57269		221.27200		875.00000 
 43692.65567		 305.27265			43387.38302		69.19000		324.00000 
 43692.65567		 752.08298			42940.57269		221.27200		875.00000 
 43692.65567		 305.27265			43387.38302		69.19000		324.00000 
 43692.65567		 752.08298			42940.57269		221.27200		875.00000 
 43692.65567		 305.27265			43387.38302		69.19000		324.00000 
 43692.65567		 752.08298			42940.57269		221.46000		875.00000 
 43692.65567		 305.27265			43387.38302		69.19000		324.00000 
 43692.65567		 752.08298			42940.57269		221.46000		875.00000 
 43692.65567		 305.27265			43387.38302		69.19000		324.00000 
 43692.65567		 752.08298			42940.57269		221.46000		875.00000 
 43692.65567		 305.27265			43387.38302		69.19000		324.00000 
 43692.65567		 752.08298			42940.57269		221.46000		875.00000 
 43692.65567		 305.27265			43387.38302		69.19000		324.00000 
 43692.65567		 752.08298			42940.57269		221.46000		875.00000 
 43692.65567		 305.27265			43387.38302		69.19000		324.00000 
 43692.65567		 752.08298			42940.57269		221.46000		875.00000 
 43692.65567		 305.27265			43387.38302		69.19000		324.00000 
 43692.65567		 752.08298			42940.57269		221.46000		875.00000 
 43692.65567		 305.27265			43387.38302		69.19000		324.00000 
 43692.65567		 752.08298			42940.57269		221.46000		875.00000 
 43692.65567		 305.27265			43387.38302		69.19000		324.00000 
 43692.65567		 752.08298			42940.57269		221.46000		875.00000 
 43692.65567		 305.27265			43387.38302		69.19000		324.00000 
 43692.65567		 752.08298			42940.57269		221.46000		875.00000 
 43692.65567		 305.27265			43387.38302		69.19000		324.00000 
 43692.65567		 752.08298			42940.57269		221.46000		875.00000 
 43692.65567		 305.27265			43387.38302		69.19000		324.00000 
 43692.65567		 752.08298			42940.57269		221.46000		875.00000 
 43692.65567		 305.27265			43387.38302		69.19000		324.00000 
 43692.65567		 752.08298			42940.57269		221.46000		875.00000 
 43692.65567		 305.27265			43387.38302		69.19000		324.00000 
 43692.65567		 752.08298			42940.57269		221.46000		875.00000 
 43692.65567		 305.27265			43387.38302		69.19000		324.00000 
 43692.65567		 752.08298			42940.57269		221.46000		875.00000 
 43692.65567		 305.27265			43387.38302		69.19000		324.00000 
 43692.65567		 752.08298			42940.57269		221.46000		875.00000 
 43692.65567		 305.27265			43387.38302		69.19000		324.00000 
 43692.65567		 752.08298			42940.57269		221.46000		875.00000 
 43692.65567		 305.27265			43387.38302		69.19000		324.00000 
 43692.65567		 752.08298			42940.57269		221.46000		875.00000 
 43692.65567		 305.27265			43387.38302		69.19000		324.00000 
 43692.65567		 752.08298			42940.57269		221.46000		875.00000 
 43692.65567		 305.27265			43387.38302		69.19000		324.00000 
 43692.65567		 752.08298			42940.57269		221.46000		875.00000 
 43692.65567		 305.27265			43387.38302		69.19000		324.00000 
 43692.65567		 752.08298			42940.57269		221.46000		875.00000 
 43692.65567		 305.27265			43387.38302		69.19000		324.00000 
 43692.65567		 752.08298			42940.57269		221.46000		875.00000 
 43692.65567		 305.27265			43387.38302		69.19000		324.00000 
 43692.65567		 752.08298			42940.57269		221.46000		875.00000 
 43692.65567		 305.27265			43387.38302		69.19000		324.00000 
 43692.65567		 752.08298			42940.57269		221.46000		875.00000 
 43692.65567		 305.27265			43387.38302		69.19000		324.00000 
 43692.65567		 752.08298			42940.57269		221.46000		875.00000 
 43692.65567		 305.27265			43387.38302		69.19000		324.00000 
 43692.65567		 752.08298			42940.57269		221.46000		875.00000 
 43692.65567		 305.27265			43387.38302		69.19000		324.00000 
 43692.65567		 752.08298			42940.57269		221.46000		875.00000 
 43692.65567		 305.27265			43387.38302		69.19000		324.00000 
 43692.65567		 752.08298			42940.57269		221.46000		875.00000 
 43692.65567		 305.27265			43387.38302		69.19000		324.00000 
 43692.65567		 752.08298			42940.57269		221.46000		875.00000 
 43692.65567		 305.27265			43387.38302		69.19000		324.00000 
 43692.65567		 752.08298			42940.57269		221.46000		875.00000 
 43692.65567		 305.27265			43387.38302		69.19000		324.00000 
 43692.65567		 752.08298			42940.57269		221.46000		875.00000 
 43692.65567		 305.27265			43387.38302		69.19000		324.00000 
 43692.65567		 752.08298			42940.57269		221.46000		875.00000 
 43692.65567		 305.27265			43387.38302		69.19000		324.00000 
 43692.65567		 752.08298			42940.57269		221.46000		875.00000 
 43692.65567		 305.27265			43387.38302		69.19000		324.00000 
 43692.65567		 752.08298			42940.57269		221.46000		875.00000 
 43692.65567		 305.27265			43387.38302		69.19000		324.00000 
 43692.65567		 752.08298			42940.57269		221.46000		875.00000 
 43692.65567		 305.27265			43387.38302		69.19000		324.00000 
 43692.65567		 752.08298			42940.57269		221.46000		875.00000 
 43692.65567		 305.27265			43387.38302		69.19000		324.00000 
 43692.65567		 752.08298			42940.57269		221.46000		875.00000 
 43692.65567		 305.27265			43387.38302		69.19000		324.00000 
 43692.65567		 752.08298			42940.57269		221.46000		875.00000 
 43692.65567		 305.27265			43387.38302		69.19000		324.00000 
 43692.65567		 752.08298			42940.57269		221.46000		875.00000 
 43692.65567		 305.27265			43387.38302		69.19000		324.00000 
 43692.65567		 752.08298			42940.57269		221.46000		875.00000 
 43692.65567		 305.27265			43387.38302		69.19000		324.00000 
 43692.65567		 752.08298			42940.57269		221.46000		875.00000 
 43692.65567		 305.27265			43387.38302		69.19000		324.00000 
 43692.65567		 752.08298			42940.57269		221.46000		875.00000 
 43692.65567		 305.27265			43387.38302		69.19000		324.00000 
 43692.65567		 752.08298			42940.57269		221.46000		875.00000 
 43692.65567		 305.27265			43387.38302		69.19000		324.00000 
 43692.65567		 752.08298			42940.57269		221.46000		875.00000 
 43692.65567		 305.27265			43387.38302		69.19000		324.00000 
 43692.65567		 752.08298			42940.57269		221.46000		875.00000 
 43692.65567		 305.27265			43387.38302		69.19000		324.00000 
 43692.65567		 752.08298			42940.57269		221.46000		875.00000 
 43692.65567		 305.27265			43387.38302		69.19000		324.00000 
 43692.65567		 752.08298			42940.57269		221.46000		875.00000 
 43692.65567		 305.27265			43387.38302		69.19000		324.00000 
 43692.65567		 752.08298			42940.57269		221.46000		875.00000 
 43692.65567		 305.27265			43387.38302		69.19000		324.00000 
 43692.65567		 752.08298			42940.57269		221.46000		875.00000 
 43692.65567		 305.27265			43387.38302		69.19000		324.00000 
 43692.65567		 752.08298			42940.57269		221.46000		875.00000 
 43692.65567		 305.27265			43387.38302		69.19000		324.00000 
 43692.65567		 752.08298			42940.57269		221.46000		875.00000 
 43692.65567		 305.27265			43387.38302		69.19000		324.00000 
 43692.65567		 752.08298			42940.57269		221.46000		875.00000 
 43692.65567		 305.27265			43387.38302		69.19000		324.00000 
 43692.65567		 752.08298			42940.57269		221.46000		875.00000 
 43692.65567		 305.27265			43387.38302		69.19000		324.00000 
 43692.65567		 752.08298			42940.57269		221.46000		875.00000 
 43692.65567		 305.27265			43387.38302		69.19000		324.00000 
 43692.65567		 752.08298			42940.57269		221.46000		875.00000 
 43692.65567		 305.27265			43387.38302		69.19000		324.00000 
 43692.65567		 752.08298			42940.57269		221.46000		875.00000 
 43692.65567		 305.27265			43387.38302		69.19000		324.00000 
 43692.65567		 752.08298			42940.57269		221.46000		875.00000 
 43692.65567		 305.27265			43387.38302		69.19000		324.00000 
 43692.65567		 752.08298			42940.57269		221.46000		875.00000 
 43692.65567		 305.27265			43387.38302		69.19000		324.00000 
 43692.65567		 752.08298			42940.57269		221.46000		875.00000 
 43692.65567		 305.27265			43387.38302		69.19000		324.00000 
 43692.65567		 752.08298			42940.57269		221.46000		875.00000 
 43692.65567		 305.27265			43387.38302		69.19000		324.00000 
 43692.65567		 752.08298			42940.57269		221.46000		875.00000 
 43692.65567		 305.27265			43387.38302		69.19000		324.00000 
 43692.65567		 752.08298			42940.57269		221.46000		875.00000 
 43692.65567		 305.27265			43387.38302		69.19000		324.00000 
 43692.65567		 752.08298			42940.57269		221.46000		875.00000 
 43692.65567		 305.27265			43387.38302		69.19000		324.00000 
 43692.65567		 752.08298			42940.57269		221.46000		875.00000 
 43692.65567		 305.27265			43387.38302		69.19000		324.00000 
 43692.65567		 752.08298			42940.57269		221.46000		875.00000 
 43692.65567		 305.27265			43387.38302		69.19000		324.00000 
 43692.65567		 752.08298			42940.57269		221.46000		875.00000 
 43692.65567		 305.27265			43387.38302		69.19000		324.00000 
 43692.65567		 752.08298			42940.57269		221.46000		875.00000 
 43692.65567		 305.27265			43387.38302		69.19000		324.00000 
 43692.65567		 752.08298			42940.57269		221.46000		875.00000 
 43692.65567		 305.27265			43387.38302		69.19000		324.00000 
 43692.65567		 752.08298			42940.57269		221.46000		875.00000 
 43692.65567		 305.27265			43387.38302		69.19000		324.00000 
 43692.65567		 752.08298			42940.57269		221.46000		875.00000 
 43692.65567		 305.27265			43387.38302		69.19000		324.00000 
 43692.65567		 752.08298			42940.57269		221.46000		875.00000 
 43692.65567		 305.27265			43387.38302		69.19000		324.00000 
 43692.65567		 752.08298			42940.57269		221.46000		875.00000 
 43692.65567		 305.27265			43387.38302		69.19000		324.00000 
 43692.65567		 752.08298			42940.57269		221.46000		875.00000 
 43692.65567		 305.27265			43387.38302		69.19000		324.00000 
 43692.65567		 752.08298			42940.57269		221.46000		875.00000 
 43692.65567		 305.27265			43387.38302		69.19000		324.00000 
 43692.65567		 752.08298			42940.57269		221.46000		875.00000 
 43692.65567		 305.27265			43387.38302		69.19000		324.00000 
 43692.65567		 752.08298			42940.57269		221.46000		875.00000 
 43692.65567		 305.27265			43387.38302		69.19000		324.00000 
 43692.65567		 752.08298			42940.57269		221.46000		875.00000 
 43692.65567		 305.27265			43387.38302		69.19000		324.00000 
 43692.65567		 752.08298			42940.57269		221.46000		875.00000 
 43692.65567		 305.27265			43387.38302		69.19000		324.00000 
 43692.65567		 752.08298			42940.57269		221.46000		875.00000 
 43692.65567		 305.27265			43387.38302		69.19000		324.00000 
 43692.65567		 752.08298			42940.57269		221.46000		875.00000 
 43692.65567		 305.27265			43387.38302		69.19000		324.00000 
 43692.65567		 752.08298			42940.57269		221.46000		875.00000 
 43692.65567		 305.27265			43387.38302		69.19000		324.00000 
 43692.65567		 752.08298			42940.57269		221.46000		875.00000 
 43692.65567		 305.27265			43387.38302		69.19000		324.00000 
 43692.65567		 752.08298			42940.57269		221.46000		875.00000 
 43692.65567		 305.27265			43387.38302		69.19000		324.00000 
 43692.65567		 752.08298			42940.57269		221.46000		875.00000 
 43692.65567		 305.27265			43387.38302		69.19000		324.00000 
 43692.65567		 752.08298			42940.57269		221.46000		875.00000 
 43692.65567		 305.27265			43387.38302		69.19000		324.00000 
 43692.65567		 752.08298			42940.57269		221.46000		875.00000 
 43692.65567		 305.27265			43387.38302		69.19000		324.00000 
 43692.65567		 752.08298			42940.57269		221.46000		875.00000 
 43692.65567		 305.27265			43387.38302		69.19000		324.00000 
 43692.65567		 752.08298			42940.57269		221.46000		875.00000 
 43692.65567		 305.27265			43387.38302		69.19000		324.00000 
 43692.65567		 752.08298			42940.57269		221.46000		875.00000 
 43692.65567		 305.27265			43387.38302		69.19000		324.00000 
 43692.65567		 752.08298			42940.57269		221.46000		875.00000 
 43692.65567		 305.27265			43387.38302		69.19000		324.00000 
 43692.65567		 752.08298			42940.57269		221.46000		875.00000 
 43692.65567		 305.27265			43387.38302		69.19000		324.00000 
 43692.65567		 752.08298			42940.57269		221.46000		875.00000 
 43692.65567		 305.27265			43387.38302		69.19000		324.00000 
 43692.65567		 752.08298			42940.57269		221.46000		875.00000 
 43692.65567		 305.27265			43387.38302		69.19000		324.00000 
 43692.65567		 752.08298			42940.57269		221.46000		875.00000 
 43692.65567		 305.27265			43387.38302		69.19000		324.00000 
 43692.65567		 752.08298			42940.57269		221.46000		875.00000 
 43692.65567		 305.27265			43387.38302		69.19000		324.00000 
 43692.65567		 752.08298			42940.57269		221.46000		875.00000 
 43692.65567		 305.27265			43387.38302		69.19000		324.00000 
 43692.65567		 752.08298			42940.57269		221.46000		875.00000 
 43692.65567		 305.27265			43387.38302		69.19000		324.00000 
 43692.65567		 752.08298			42940.57269		221.46000		875.00000 
 43692.65567		 305.27265			43387.38302		69.19000		324.00000 
 43692.65567		 752.08298			42940.57269		221.46000		875.00000 
 43692.65567		 305.27265			43387.38302		69.19000		324.00000 
 43692.65567		 752.08298			42940.57269		221.46000		875.00000 
 43692.65567		 305.27265			43387.38302		69.19000		324.00000 
 43692.65567		 752.08298			42940.57269		221.46000		875.00000 
 43692.65567		 305.27265			43387.38302		69.19000		324.00000 
 43692.65567		 752.08298			42940.57269		221.46000		875.00000 
 43692.65567		 305.27265			43387.38302		69.19000		324.00000 
 43692.65567		 752.08298			42940.57269		221.46000		875.00000 
 43692.65567		 305.27265			43387.38302		69.19000		324.00000 
 43692.65567		 752.08298			42940.57269		221.46000		875.00000 
 43692.65567		 305.27265			43387.38302		69.19000		324.00000 
 43692.65567		 752.08298			42940.57269		221.46000		875.00000 
 43692.65567		 305.27265			43387.38302		69.19000		324.00000 
 43692.65567		 752.08298			42940.57269		221.46000		875.00000 
 43692.65567		 305.27265			43387.38302		69.19000		324.00000 
 43692.65567		 752.08298			42940.57269		221.46000		875.00000 
 43692.65567		 305.27265			43387.38302		69.19000		324.00000 
 43692.65567		 752.08298			42940.57269		221.46000		875.00000 
 43692.65567		 305.27265			43387.38302		69.19000		324.00000 
 43692.65567		 752.08298			42940.57269		221.46000		875.00000 
 43692.65567		 305.27265			43387.38302		69.19000		324.00000 
 43692.65567		 752.08298			42940.57269		221.46000		875.00000 
 43692.65567		 305.27265			43387.38302		69.19000		324.00000 
 43692.65567		 752.08298			42940.57269		221.46000		875.00000 
 43692.65567		 305.27265			43387.38302		69.19000		324.00000 
 43692.65567		 752.08298			42940.57269		221.46000		875.00000 
 43692.65567		 305.27265			43387.38302		69.19000		324.00000 
 43692.65567		 752.08298			42940.57269		221.46000		875.00000 
 43692.65567		 305.27265			43387.38302		69.19000		324.00000 
 43692.65567		 752.08298			42940.57269		221.46000		875.00000 
 43692.65567		 305.27265			43387.38302		69.19000		324.00000 
 43692.65567		 752.08298			42940.57269		221.46000		875.00000 
 43692.65567		 305.27265			43387.38302		69.19000		324.00000 
 43692.65567		 752.08298			42940.57269		221.46000		875.00000 
 43692.65567		 305.27265			43387.38302		69.19000		324.00000 
 43692.65567		 752.08298			42940.57269		221.46000		875.00000 
 43692.65567		 305.27265			43387.38302		69.19000		324.00000 
 43692.65567		 752.08298			42940.57269		221.46000		875.00000 
 43692.65567		 305.27265			43387.38302		71.21000		324.00000 
 43692.65567		 752.08298			42940.57269		221.46000		875.00000 
 43692.65567		 305.27265			43387.38302		71.21000		324.00000 
 43692.65567		 752.08298			42940.57269		221.46000		875.00000 
 43692.65567		 305.27265			43387.38302		71.21000		324.00000 
 43692.65567		 752.08298			42940.57269		221.46000		875.00000 
 43692.65567		 305.27265			43387.38302		71.21000		324.00000 
 43692.65567		 752.08298			42940.57269		221.46000		875.00000 
 43692.65567		 305.27265			43387.38302		71.21000		324.00000 
 43692.65567		 752.08298			42940.57269		221.46000		875.00000 
 43692.65567		 305.27265			43387.38302		71.21000		324.00000 
 43692.65567		 752.08298			42940.57269		221.46000		875.00000 
 43692.65567		 305.27265			43387.38302		71.21000		324.00000 
 43692.65567		 752.08298			42940.57269		221.46000		875.00000 
 43692.65567		 305.27265			43387.38302		71.21000		324.00000 
 43692.65567		 752.08298			42940.57269		221.46000		875.00000 
 43692.65567		 305.27265			43387.38302		71.21000		324.00000 
 43692.65567		 752.08298			42940.57269		221.46000		875.00000 
 43692.65567		 305.27265			43387.38302		71.21000		324.00000 
 43692.65567		 752.08298			42940.57269		221.46000		875.00000 
 43692.65567		 305.27265			43387.38302		71.21000		324.00000 
 43692.65567		 752.08298			42940.57269		221.46000		875.00000 
 43692.65567		 305.27265			43387.38302		71.21000		324.00000 
 43692.65567		 752.08298			42940.57269		221.46000		875.00000 
 43692.65567		 305.27265			43387.38302		71.21000		324.00000 
 43692.65567		 752.08298			42940.57269		221.46000		875.00000 
 43692.65567		 305.27265			43387.38302		71.21000		324.00000 
 43692.65567		 752.08298			42940.57269		221.46000		875.00000 
 43692.65567		 305.27265			43387.38302		71.21000		324.00000 
 43692.65567		 752.08298			42940.57269		221.46000		875.00000 
 43692.65567		 305.27265			43387.38302		71.21000		324.00000 
 43692.65567		 752.08298			42940.57269		221.46000		875.00000 
 43692.65567		 305.27265			43387.38302		71.21000		324.00000 
 43692.65567		 752.08298			42940.57269		221.46000		875.00000 
 43692.65567		 305.27265			43387.38302		71.21000		324.00000 
 43692.65567		 752.08298			42940.57269		221.46000		875.00000 
 43692.65567		 305.27265			43387.38302		71.21000		324.00000 
 43692.65567		 752.08298			42940.57269		221.46000		875.00000 
 43692.65567		 305.27265			43387.38302		71.21000		324.00000 
 43692.65567		 752.08298			42940.57269		221.46000		875.00000 
 43692.65567		 305.27265			43387.38302		71.21000		324.00000 
 43692.65567		 752.08298			42940.57269		221.46000		875.00000 
 43692.65567		 305.27265			43387.38302		71.21000		324.00000 
 43692.65567		 752.08298			42940.57269		221.46000		875.00000 
 43692.65567		 305.27265			43387.38302		71.21000		324.00000 
 43692.65567		 752.08298			42940.57269		221.46000		875.00000 
 43692.65567		 305.27265			43387.38302		71.21000		324.00000 
 43692.65567		 752.08298			42940.57269		221.46000		875.00000 
 43692.65567		 305.27265			43387.38302		71.21000		324.00000 
 43692.65567		 752.08298			42940.57269		221.46000		875.00000 
 43692.65567		 305.27265			43387.38302		71.21000		324.00000 
 43692.65567		 752.08298			42940.57269		221.46000		875.00000 
 43692.65567		 305.27265			43387.38302		71.21000		324.00000 
 43692.65567		 752.08298			42940.57269		221.46000		875.00000 
 43692.65567		 305.27265			43387.38302		71.21000		324.00000 
 43692.65567		 752.08298			42940.57269		221.46000		875.00000 
 43692.65567		 305.27265			43387.38302		71.21000		324.00000 
 43692.65567		 752.08298			42940.57269		221.46000		875.00000 
 43692.65567		 305.27265			43387.38302		71.21000		324.00000 
 43692.65567		 752.08298			42940.57269		221.46000		875.00000 
 43692.65567		 305.27265			43387.38302		71.21000		324.00000 
 43692.65567		 752.08298			42940.57269		221.46000		875.00000 
 43692.65567		 305.27265			43387.38302		71.21000		324.00000 
 43692.65567		 752.08298			42940.57269		221.46000		875.00000 
 43692.65567		 305.27265			43387.38302		71.21000		324.00000 
 43692.65567		 752.08298			42940.57269		221.46000		875.00000 
 43692.65567		 305.27265			43387.38302		71.21000		324.00000 
 43692.65567		 752.08298			42940.57269		221.46000		875.00000 
 43692.65567		 305.27265			43387.38302		71.21000		324.00000 
 43692.65567		 752.08298			42940.57269		221.46000		875.00000 
 43692.65567		 305.27265			43387.38302		71.21000		324.00000 
 43692.65567		 752.08298			42940.57269		221.46000		875.00000 
 43692.65567		 305.27265			43387.38302		71.21000		324.00000 
 43692.65567		 752.08298			42940.57269		221.46000		875.00000 
 43692.65567		 305.27265			43387.38302		71.21000		324.00000 
 43692.65567		 752.08298			42940.57269		221.46000		875.00000 
 43692.65567		 305.27265			43387.38302		71.21000		324.00000 
 43692.65567		 752.08298			42940.57269		221.46000		875.00000 
 43692.65567		 305.27265			43387.38302		71.21000		324.00000 
 43692.65567		 752.08298			42940.57269		221.46000		875.00000 
 43692.65567		 305.27265			43387.38302		71.21000		324.00000 
 43692.65567		 752.08298			42940.57269		221.46000		875.00000 
 43692.65567		 305.27265			43387.38302		71.21000		324.00000 
 43692.65567		 752.08298			42940.57269		221.46000		875.00000 
 43692.65567		 305.27265			43387.38302		71.21000		324.00000 
 43692.65567		 752.08298			42940.57269		221.46000		875.00000 
 43692.65567		 305.27265			43387.38302		71.21000		324.00000 
 43692.65567		 752.08298			42940.57269		221.46000		875.00000 
 43692.65567		 305.27265			43387.38302		71.21000		324.00000 
 43692.65567		 752.08298			42940.57269		221.46000		875.00000 
 43692.65567		 305.27265			43387.38302		71.21000		324.00000 
 43692.65567		 752.08298			42940.57269		221.46000		875.00000 
 43692.65567		 305.27265			43387.38302		71.21000		324.00000 
 43692.65567		 752.08298			42940.57269		221.46000		875.00000 
 43692.65567		 305.27265			43387.38302		71.21000		324.00000 
 43692.65567		 752.08298			42940.57269		221.46000		875.00000 
 43692.65567		 305.27265			43387.38302		71.21000		324.00000 
 43692.65567		 752.08298			42940.57269		221.46000		875.00000 
 43692.65567		 305.27265			43387.38302		71.21000		324.00000 
 43692.65567		 752.08298			42940.57269		221.46000		875.00000 
 43692.65567		 305.27265			43387.38302		71.21000		324.00000 
 43692.65567		 752.08298			42940.57269		221.46000		875.00000 
 43692.65567		 305.27265			43387.38302		71.21000		324.00000 
 43692.65567		 752.08298			42940.57269		221.46000		875.00000 
 43692.65567		 305.27265			43387.38302		71.21000		324.00000 
 43692.65567		 752.08298			42940.57269		221.46000		875.00000 
 43692.65567		 305.27265			43387.38302		71.21000		324.00000 
 43692.65567		 752.08298			42940.57269		221.46000		875.00000 
 43692.65567		 305.27265			43387.38302		71.21000		324.00000 
 43692.65567		 752.08298			42940.57269		221.46000		875.00000 
 43692.65567		 305.27265			43387.38302		71.21000		324.00000 
 43692.65567		 752.08298			42940.57269		221.46000		875.00000 
 43692.65567		 305.27265			43387.38302		71.21000		324.00000 
 43692.65567		 752.08298			42940.57269		221.46000		875.00000 
 43692.65567		 305.27265			43387.38302		71.21000		324.00000 
 43692.65567		 752.08298			42940.57269		221.46000		875.00000 
 43692.65567		 305.27265			43387.38302		71.21000		324.00000 
 43692.65567		 752.08298			42940.57269		221.46000		875.00000 
 43692.65567		 305.27265			43387.38302		71.21000		324.00000 
 43692.65567		 752.08298			42940.57269		221.46000		875.00000 
 43692.65567		 305.27265			43387.38302		71.21000		324.00000 
 43692.65567		 752.08298			42940.57269		221.46000		875.00000 
 43692.65567		 305.27265			43387.38302		71.21000		324.00000 
 43692.65567		 752.08298			42940.57269		221.46000		875.00000 
 43692.65567		 305.27265			43387.38302		71.21000		324.00000 
 43692.65567		 752.08298			42940.57269		221.46000		875.00000 
 43692.65567		 305.27265			43387.38302		71.21000		324.00000 
 43692.65567		 752.08298			42940.57269		221.46000		875.00000 
 43692.65567		 305.27265			43387.38302		71.21000		324.00000 
 43692.65567		 752.08298			42940.57269		221.46000		875.00000 
 43692.65567		 305.27265			43387.38302		71.21000		324.00000 
 43692.65567		 752.08298			42940.57269		221.46000		875.00000 
 43692.65567		 305.27265			43387.38302		71.21000		324.00000 
 43692.65567		 752.08298			42940.57269		221.46000		875.00000 
 43692.65567		 305.27265			43387.38302		71.21000		324.00000 
 43692.65567		 752.08298			42940.57269		221.46000		875.00000 
 43692.65567		 305.27265			43387.38302		71.21000		324.00000 
 43692.65567		 752.08298			42940.57269		221.46000		875.00000 
 43692.65567		 305.27265			43387.38302		71.21000		324.00000 
 43692.65567		 752.08298			42940.57269		221.46000		875.00000 
 43692.65567		 305.27265			43387.38302		71.21000		324.00000 
 43692.65567		 752.08298			42940.57269		221.46000		875.00000 
 43692.65567		 305.27265			43387.38302		71.21000		324.00000 
 43692.65567		 752.08298			42940.57269		221.46000		875.00000 
 43692.65567		 305.27265			43387.38302		71.21000		324.00000 
 43692.65567		 752.08298			42940.57269		221.46000		875.00000 
 43692.65567		 305.27265			43387.38302		71.21000		324.00000 
 43692.65567		 752.08298			42940.57269		222.06000		875.00000 
 43692.65567		 305.27265			43387.38302		71.21000		324.00000 
 43692.65567		 752.08298			42940.57269		222.06000		875.00000 
 43692.65567		 305.27265			43387.38302		71.21000		324.00000 
 43692.65567		 752.08298			42940.57269		222.06000		875.00000 
 43692.65567		 305.27265			43387.38302		71.21000		324.00000 
 43692.65567		 752.08298			42940.57269		222.06000		875.00000 
 43692.65567		 305.27265			43387.38302		71.21000		324.00000 
 43692.65567		 752.08298			42940.57269		222.06000		875.00000 
 43692.65567		 305.27265			43387.38302		71.21000		324.00000 
 43692.65567		 752.08298			42940.57269		222.06000		875.00000 
 43692.65567		 305.27265			43387.38302		71.21000		324.00000 
 43692.65567		 752.08298			42940.57269		222.06000		875.00000 
 43692.65567		 305.27265			43387.38302		71.21000		324.00000 
 43692.65567		 752.08298			42940.57269		222.06000		875.00000 
 43692.65567		 305.27265			43387.38302		71.21000		324.00000 
 43692.65567		 752.08298			42940.57269		222.06000		875.00000 
 43692.65567		 305.27265			43387.38302		71.21000		324.00000 
 43692.65567		 752.08298			42940.57269		222.06000		875.00000 
 43692.65567		 305.27265			43387.38302		71.21000		324.00000 
 43692.65567		 752.08298			42940.57269		222.06000		875.00000 
 43692.65567		 305.27265			43387.38302		71.21000		324.00000 
 43692.65567		 752.08298			42940.57269		222.06000		875.00000 
 43692.65567		 305.27265			43387.38302		71.21000		324.00000 
 43692.65567		 752.08298			42940.57269		222.06000		875.00000 
 43692.65567		 305.27265			43387.38302		71.21000		324.00000 
 43692.65567		 752.08298			42940.57269		222.06000		875.00000 
 43692.65567		 305.27265			43387.38302		71.21000		324.00000 
 43692.65567		 752.08298			42940.57269		222.06000		875.00000 
 43692.65567		 305.27265			43387.38302		71.21000		324.00000 
 43692.65567		 752.08298			42940.57269		222.06000		875.00000 
 43692.65567		 305.27265			43387.38302		71.21000		324.00000 
 43692.65567		 752.08298			42940.57269		222.06000		875.00000 
 43692.65567		 305.27265			43387.38302		71.21000		324.00000 
 43692.65567		 752.08298			42940.57269		222.06000		875.00000 
 43692.65567		 305.27265			43387.38302		71.21000		324.00000 
 43692.65567		 752.08298			42940.57269		222.06000		875.00000 
 43692.65567		 305.27265			43387.38302		71.21000		324.00000 
 43692.65567		 752.08298			42940.57269		222.06000		875.00000 
 43692.65567		 305.27265			43387.38302		71.21000		324.00000 
 43692.65567		 752.08298			42940.57269		222.06000		875.00000 
 43692.65567		 305.27265			43387.38302		71.21000		324.00000 
 43692.65567		 752.08298			42940.57269		222.06000		875.00000 
 43692.65567		 305.27265			43387.38302		71.21000		324.00000 
 43692.65567		 752.08298			42940.57269		222.06000		875.00000 
 43692.65567		 305.27265			43387.38302		71.21000		324.00000 
 43692.65567		 752.08298			42940.57269		222.06000		875.00000 
 43692.65567		 305.27265			43387.38302		71.21000		324.00000 
 43692.65567		 752.08298			42940.57269		222.06000		875.00000 
 43692.65567		 305.27265			43387.38302		71.21000		324.00000 
 43692.65567		 752.08298			42940.57269		222.06000		875.00000 
 43692.65567		 305.27265			43387.38302		71.21000		324.00000 
 43692.65567		 752.08298			42940.57269		222.06000		875.00000 
 43692.65567		 305.27265			43387.38302		71.21000		324.00000 
 43692.65567		 752.08298			42940.57269		222.06000		875.00000 
 43692.65567		 305.27265			43387.38302		71.21000		324.00000 
 43692.65567		 752.08298			42940.57269		222.06000		875.00000 
 43692.65567		 305.27265			43387.38302		71.21000		324.00000 
 43692.65567		 752.08298			42940.57269		222.06000		875.00000 
 43692.65567		 305.27265			43387.38302		71.21000		324.00000 
 43692.65567		 752.08298			42940.57269		222.06000		875.00000 
 43692.65567		 305.27265			43387.38302		71.21000		324.00000 
 43692.65567		 752.08298			42940.57269		222.06000		875.00000 
 43692.65567		 305.27265			43387.38302		71.21000		324.00000 
 43692.65567		 752.08298			42940.57269		222.06000		875.00000 
 43692.65567		 305.27265			43387.38302		71.21000		324.00000 
 43692.65567		 752.08298			42940.57269		222.06000		875.00000 
 43692.65567		 305.27265			43387.38302		71.21000		324.00000 
 43692.65567		 752.08298			42940.57269		222.06000		875.00000 
 43692.65567		 305.27265			43387.38302		71.21000		324.00000 
 43692.65567		 752.08298			42940.57269		222.06000		875.00000 
 43692.65567		 305.27265			43387.38302		71.21000		324.00000 
 43692.65567		 752.08298			42940.57269		222.06000		875.00000 
 43692.65567		 305.27265			43387.38302		71.21000		324.00000 
 43692.65567		 752.08298			42940.57269		222.06000		875.00000 
 43692.65567		 305.27265			43387.38302		71.21000		324.00000 
 43692.65567		 752.08298			42940.57269		222.06000		875.00000 
 43692.65567		 305.27265			43387.38302		71.21000		324.00000 
 43692.65567		 752.08298			42940.57269		222.06000		875.00000 
 43692.65567		 305.27265			43387.38302		71.21000		324.00000 
 43692.65567		 752.08298			42940.57269		222.06000		875.00000 
 43692.65567		 305.27265			43387.38302		71.21000		324.00000 
 43692.65567		 752.08298			42940.57269		222.06000		875.00000 
 43692.65567		 305.27265			43387.38302		71.21000		324.00000 
 43692.65567		 752.08298			42940.57269		222.06000		875.00000 
 43692.65567		 305.27265			43387.38302		71.21000		324.00000 
 43692.65567		 752.08298			42940.57269		222.06000		875.00000 
 43692.65567		 305.27265			43387.38302		71.21000		324.00000 
 43692.65567		 752.08298			42940.57269		222.06000		875.00000 
 43692.65567		 305.27265			43387.38302		71.21000		324.00000 
 43692.65567		 752.08298			42940.57269		222.06000		875.00000 
 43692.65567		 305.27265			43387.38302		71.21000		324.00000 
 43692.65567		 752.08298			42940.57269		222.06000		875.00000 
 43692.65567		 305.27265			43387.38302		71.21000		324.00000 
 43692.65567		 752.08298			42940.57269		222.06000		875.00000 
 43692.65567		 305.27265			43387.38302		71.21000		324.00000 
 43692.65567		 752.08298			42940.57269		222.06000		875.00000 
 43692.65567		 305.27265			43387.38302		71.21000		324.00000 
 43692.65567		 752.08298			42940.57269		222.06000		875.00000 
 43692.65567		 305.27265			43387.38302		71.21000		324.00000 
 43692.65567		 752.08298			42940.57269		222.06000		875.00000 
 43692.65567		 305.27265			43387.38302		71.21000		324.00000 
 43692.65567		 752.08298			42940.57269		222.06000		875.00000 
 43692.65567		 305.27265			43387.38302		71.21000		324.00000 
 43692.65567		 752.08298			42940.57269		222.06000		875.00000 
 43692.65567		 305.27265			43387.38302		71.21000		324.00000 
 43692.65567		 752.08298			42940.57269		222.06000		875.00000 
 43692.65567		 305.27265			43387.38302		71.21000		324.00000 
 43692.65567		 752.08298			42940.57269		222.06000		875.00000 
 43692.65567		 305.27265			43387.38302		71.21000		324.00000 
 43692.65567		 752.08298			42940.57269		222.06000		875.00000 
 43692.65567		 305.27265			43387.38302		71.21000		324.00000 
 43692.65567		 752.08298			42940.57269		222.06000		875.00000 
 43692.65567		 305.27265			43387.38302		71.21000		324.00000 
 43692.65567		 752.08298			42940.57269		222.06000		875.00000 
 43692.65567		 305.27265			43387.38302		71.21000		324.00000 
 43692.65567		 752.08298			42940.57269		222.06000		875.00000 
 43692.65567		 305.27265			43387.38302		71.21000		324.00000 
 43692.65567		 752.08298			42940.57269		222.06000		875.00000 
 43692.65567		 305.27265			43387.38302		71.21000		324.00000 
 43692.65567		 752.08298			42940.57269		222.06000		875.00000 
 43692.65567		 305.27265			43387.38302		71.21000		324.00000 
 43692.65567		 752.08298			42940.57269		222.06000		875.00000 
 43692.65567		 305.27265			43387.38302		71.21000		324.00000 
 43692.65567		 752.08298			42940.57269		222.06000		875.00000 
 43692.65567		 305.27265			43387.38302		71.21000		324.00000 
 43692.65567		 752.08298			42940.57269		222.06000		875.00000 
 43692.65567		 305.27265			43387.38302		71.21000		324.00000 
 43692.65567		 752.08298			42940.57269		222.06000		875.00000 
 43692.65567		 305.27265			43387.38302		71.21000		324.00000 
 43692.65567		 752.08298			42940.57269		221.46000		875.00000 
 43692.65567		 305.27265			43387.38302		71.21000		324.00000 
 43692.65567		 752.08298			42940.57269		221.46000		875.00000 
 43692.65567		 305.27265			43387.38302		71.21000		324.00000 
 43692.65567		 752.08298			42940.57269		221.46000		875.00000 
 43692.65567		 305.27265			43387.38302		71.21000		324.00000 
 43692.65567		 752.08298			42940.57269		221.46000		875.00000 
 43692.65567		 305.27265			43387.38302		71.21000		324.00000 
 43692.65567		 752.08298			42940.57269		221.46000		875.00000 
 43692.65567		 305.27265			43387.38302		71.21000		324.00000 
 43692.65567		 752.08298			42940.57269		221.46000		875.00000 
 43692.65567		 305.27265			43387.38302		71.21000		324.00000 
 43692.65567		 752.08298			42940.57269		221.46000		875.00000 
 43692.65567		 305.27265			43387.38302		71.21000		324.00000 
 43692.65567		 752.08298			42940.57269		221.46000		875.00000 
 43692.65567		 305.27265			43387.38302		71.21000		324.00000 
 43692.65567		 752.08298			42940.57269		221.46000		875.00000 
 43692.65567		 305.27265			43387.38302		71.21000		324.00000 
 43692.65567		 752.08298			42940.57269		221.46000		875.00000 
 43692.65567		 305.27265			43387.38302		71.21000		324.00000 
 43692.65567		 752.08298			42940.57269		221.46000		875.00000 
 43692.65567		 305.27265			43387.38302		71.21000		324.00000 
 43692.65567		 752.08298			42940.57269		221.46000		875.00000 
 43692.65567		 305.27265			43387.38302		71.21000		324.00000 
 43692.65567		 752.08298			42940.57269		221.46000		875.00000 
 43692.65567		 305.27265			43387.38302		71.21000		324.00000 
 43692.65567		 752.08298			42940.57269		221.46000		875.00000 
 43692.65567		 305.27265			43387.38302		71.21000		324.00000 
 43692.65567		 752.08298			42940.57269		221.46000		875.00000 
 43692.65567		 305.27265			43387.38302		71.21000		324.00000 
 43692.65567		 752.08298			42940.57269		221.46000		875.00000 
 43692.65567		 305.27265			43387.38302		71.21000		324.00000 
 43692.65567		 752.08298			42940.57269		221.46000		875.00000 
 43692.65567		 305.27265			43387.38302		71.21000		324.00000 
 43692.65567		 752.08298			42940.57269		221.46000		875.00000 
 43692.65567		 305.27265			43387.38302		71.21000		324.00000 
 43692.65567		 752.08298			42940.57269		221.46000		875.00000 
 43692.65567		 305.27265			43387.38302		71.21000		324.00000 
 43692.65567		 752.08298			42940.57269		221.46000		875.00000 
 43692.65567		 305.27265			43387.38302		71.21000		324.00000 
 43692.65567		 752.08298			42940.57269		221.46000		875.00000 
 43692.65567		 305.27265			43387.38302		71.21000		324.00000 
 43692.65567		 752.08298			42940.57269		221.46000		875.00000 
 43692.65567		 305.27265			43387.38302		71.21000		324.00000 
 43692.65567		 752.08298			42940.57269		221.46000		875.00000 
 43692.65567		 305.27265			43387.38302		71.21000		324.00000 
 43692.65567		 752.08298			42940.57269		221.46000		875.00000 
 43692.65567		 305.27265			43387.38302		71.21000		324.00000 
 43692.65567		 752.08298			42940.57269		221.46000		875.00000 
 43692.65567		 305.27265			43387.38302		71.21000		324.00000 
 43692.65567		 752.08298			42940.57269		221.46000		875.00000 
 43692.65567		 305.27265			43387.38302		71.21000		324.00000 
 43692.65567		 752.08298			42940.57269		221.46000		875.00000 
 43692.65567		 305.27265			43387.38302		71.21000		324.00000 
 43692.65567		 752.08298			42940.57269		221.46000		875.00000 
 43692.65567		 305.27265			43387.38302		71.21000		324.00000 
 43692.65567		 752.08298			42940.57269		221.46000		875.00000 
 43692.65567		 305.27265			43387.38302		71.21000		324.00000 
 43692.65567		 752.08298			42940.57269		221.46000		875.00000 
 43692.65567		 305.27265			43387.38302		71.21000		324.00000 
 43692.65567		 752.08298			42940.57269		221.46000		875.00000 
 43692.65567		 305.27265			43387.38302		71.21000		324.00000 
 43692.65567		 752.08298			42940.57269		221.46000		875.00000 
 43692.65567		 305.27265			43387.38302		71.21000		324.00000 
 43692.65567		 752.08298			42940.57269		221.46000		875.00000 
 43692.65567		 305.27265			43387.38302		71.21000		324.00000 
 43692.65567		 752.08298			42940.57269		221.46000		875.00000 
 43692.65567		 305.27265			43387.38302		71.21000		324.00000 
 43692.65567		 752.08298			42940.57269		221.46000		875.00000 
 43692.65567		 305.27265			43387.38302		71.21000		324.00000 
 43692.65567		 752.08298			42940.57269		221.46000		875.00000 
 43692.65567		 305.27265			43387.38302		71.21000		324.00000 
 43692.65567		 752.08298			42940.57269		221.46000		875.00000 
 43692.65567		 305.27265			43387.38302		71.21000		324.00000 
 43692.65567		 752.08298			42940.57269		221.46000		875.00000 
 43692.65567		 305.27265			43387.38302		71.21000		324.00000 
 43692.65567		 752.08298			42940.57269		221.46000		875.00000 
 43692.65567		 305.27265			43387.38302		71.21000		324.00000 
 43692.65567		 752.08298			42940.57269		221.46000		875.00000 
 43692.65567		 305.27265			43387.38302		71.21000		324.00000 
 43692.65567		 752.08298			42940.57269		221.46000		875.00000 
 43692.65567		 305.27265			43387.38302		71.21000		324.00000 
 43692.65567		 752.08298			42940.57269		221.46000		875.00000 
 43692.65567		 305.27265			43387.38302		71.21000		324.00000 
 43692.65567		 752.08298			42940.57269		221.46000		875.00000 
 43692.65567		 305.27265			43387.38302		71.21000		324.00000 
 43692.65567		 752.08298			42940.57269		221.46000		875.00000 
 43692.65567		 305.27265			43387.38302		71.21000		324.00000 
 43692.65567		 752.08298			42940.57269		221.46000		875.00000 
 43692.65567		 305.27265			43387.38302		71.21000		324.00000 
 43692.65567		 752.08298			42940.57269		221.46000		875.00000 
 43692.65567		 305.27265			43387.38302		71.21000		324.00000 
 43692.65567		 752.08298			42940.57269		221.46000		875.00000 
 43692.65567		 305.27265			43387.38302		71.21000		324.00000 
 43692.65567		 752.08298			42940.57269		221.46000		875.00000 
 43692.65567		 305.27265			43387.38302		71.21000		324.00000 
 43692.65567		 752.08298			42940.57269		221.46000		875.00000 
 43692.65567		 305.27265			43387.38302		71.21000		324.00000 
 43692.65567		 752.08298			42940.57269		221.46000		875.00000 
 43692.65567		 305.27265			43387.38302		71.21000		324.00000 
 43692.65567		 752.08298			42940.57269		221.46000		875.00000 
 43692.65567		 305.27265			43387.38302		71.21000		324.00000 
 43692.65567		 752.08298			42940.57269		221.46000		875.00000 
 43692.65567		 305.27265			43387.38302		71.21000		324.00000 
 43692.65567		 752.08298			42940.57269		221.46000		875.00000 
 43692.65567		 305.27265			43387.38302		71.21000		324.00000 
 43692.65567		 752.08298			42940.57269		221.46000		875.00000 
 43692.65567		 305.27265			43387.38302		71.21000		324.00000 
 43692.65567		 752.08298			42940.57269		221.46000		875.00000 
 43692.65567		 305.27265			43387.38302		71.21000		324.00000 
 43692.65567		 752.08298			42940.57269		221.46000		875.00000 
 43692.65567		 305.27265			43387.38302		71.21000		324.00000 
 43692.65567		 752.08298			42940.57269		221.46000		875.00000 
 43692.65567		 305.27265			43387.38302		71.21000		324.00000 
 43692.65567		 752.08298			42940.57269		221.46000		875.00000 
 43692.65567		 305.27265			43387.38302		71.21000		324.00000 
 43692.65567		 752.08298			42940.57269		221.46000		875.00000 
 43692.65567		 305.27265			43387.38302		71.21000		324.00000 
 43692.65567		 752.08298			42940.57269		221.46000		875.00000 
 43692.65567		 305.27265			43387.38302		71.21000		324.00000 
 43692.65567		 752.08298			42940.57269		221.46000		875.00000 
 43692.65567		 305.27265			43387.38302		71.21000		324.00000 
 43692.65567		 752.08298			42940.57269		221.46000		875.00000 
 43692.65567		 305.27265			43387.38302		71.21000		324.00000 
 43692.65567		 752.08298			42940.57269		221.46000		875.00000 
 43692.65567		 305.27265			43387.38302		71.21000		324.00000 
 43692.65567		 752.08298			42940.57269		221.46000		875.00000 
 43692.65567		 305.27265			43387.38302		71.21000		324.00000 
 43692.65567		 752.08298			42940.57269		222.06000		875.00000 
 43692.65567		 305.27265			43387.38302		71.21000		324.00000 
 43692.65567		 752.08298			42940.57269		222.06000		875.00000 
 43692.65567		 305.27265			43387.38302		71.21000		324.00000 
 43692.65567		 752.08298			42940.57269		222.06000		875.00000 
 43692.65567		 305.27265			43387.38302		71.21000		324.00000 
 43692.65567		 752.08298			42940.57269		222.06000		875.00000 
 43692.65567		 305.27265			43387.38302		71.21000		324.00000 
 43692.65567		 752.08298			42940.57269		222.06000		875.00000 
 43692.65567		 305.27265			43387.38302		71.21000		324.00000 
 43692.65567		 752.08298			42940.57269		222.06000		875.00000 
 43692.65567		 305.27265			43387.38302		71.21000		324.00000 
 43692.65567		 752.08298			42940.57269		222.06000		875.00000 
 43692.65567		 305.27265			43387.38302		71.21000		324.00000 
 43692.65567		 752.08298			42940.57269		222.06000		875.00000 
 43692.65567		 305.27265			43387.38302		71.21000		324.00000 
 43692.65567		 752.08298			42940.57269		222.06000		875.00000 
 43692.65567		 305.27265			43387.38302		71.21000		324.00000 
 43692.65567		 752.08298			42940.57269		222.06000		875.00000 
 43692.65567		 305.27265			43387.38302		71.21000		324.00000 
 43692.65567		 752.08298			42940.57269		222.06000		875.00000 
 43692.65567		 305.27265			43387.38302		71.21000		324.00000 
 43692.65567		 752.08298			42940.57269		222.06000		875.00000 
 43692.65567		 305.27265			43387.38302		71.21000		324.00000 
 43692.65567		 752.08298			42940.57269		222.06000		875.00000 
 43692.65567		 305.27265			43387.38302		71.21000		324.00000 
 43692.65567		 752.08298			42940.57269		222.06000		875.00000 
 43692.65567		 305.27265			43387.38302		71.21000		324.00000 
 43692.65567		 752.08298			42940.57269		222.06000		875.00000 
 43692.65567		 305.27265			43387.38302		71.21000		324.00000 
 43692.65567		 752.08298			42940.57269		222.06000		875.00000 
 43692.65567		 305.27265			43387.38302		71.21000		324.00000 
 43692.65567		 752.08298			42940.57269		222.06000		875.00000 
 43692.65567		 305.27265			43387.38302		71.21000		324.00000 
 43692.65567		 752.08298			42940.57269		222.06000		875.00000 
 43692.65567		 305.27265			43387.38302		71.21000		324.00000 
 43692.65567		 752.08298			42940.57269		222.06000		875.00000 
 43692.65567		 305.27265			43387.38302		71.21000		324.00000 
 43692.65567		 752.08298			42940.57269		222.06000		875.00000 
 43692.65567		 305.27265			43387.38302		71.21000		324.00000 
 43692.65567		 752.08298			42940.57269		222.06000		875.00000 
 43692.65567		 305.27265			43387.38302		71.21000		324.00000 
 43692.65567		 752.08298			42940.57269		222.06000		875.00000 
 43692.65567		 305.27265			43387.38302		71.21000		324.00000 
 43692.65567		 752.08298			42940.57269		222.06000		875.00000 
 43692.65567		 305.27265			43387.38302		71.21000		324.00000 
 43692.65567		 752.08298			42940.57269		222.06000		875.00000 
 43692.65567		 305.27265			43387.38302		71.21000		324.00000 
 43692.65567		 752.08298			42940.57269		222.06000		875.00000 
 43692.65567		 305.27265			43387.38302		71.21000		324.00000 
 43692.65567		 752.08298			42940.57269		222.06000		875.00000 
 43692.65567		 305.27265			43387.38302		71.21000		324.00000 
 43692.65567		 752.08298			42940.57269		222.06000		875.00000 
 43692.65567		 305.27265			43387.38302		71.21000		324.00000 
 43692.65567		 752.08298			42940.57269		222.06000		875.00000 
 43692.65567		 305.27265			43387.38302		71.21000		324.00000 
 43692.65567		 752.08298			42940.57269		222.06000		875.00000 
 43692.65567		 305.27265			43387.38302		71.21000		324.00000 
 43692.65567		 752.08298			42940.57269		222.06000		875.00000 
 43692.65567		 305.27265			43387.38302		71.21000		324.00000 
 43692.65567		 752.08298			42940.57269		222.06000		875.00000 
 43692.65567		 305.27265			43387.38302		71.21000		324.00000 
 43692.65567		 752.08298			42940.57269		222.06000		875.00000 
 43692.65567		 305.27265			43387.38302		71.21000		324.00000 
 43692.65567		 752.08298			42940.57269		222.06000		875.00000 
 43692.65567		 305.27265			43387.38302		71.21000		324.00000 
 43692.65567		 752.08298			42940.57269		222.06000		875.00000 
 43692.65567		 305.27265			43387.38302		71.21000		324.00000 
 43692.65567		 752.08298			42940.57269		222.06000		875.00000 
 43692.65567		 305.27265			43387.38302		71.21000		324.00000 
 43692.65567		 752.08298			42940.57269		222.06000		875.00000 
 43692.65567		 305.27265			43387.38302		71.21000		324.00000 
 43692.65567		 752.08298			42940.57269		222.06000		875.00000 
 43692.65567		 305.27265			43387.38302		71.21000		324.00000 
 43692.65567		 752.08298			42940.57269		222.06000		875.00000 
 43692.65567		 305.27265			43387.38302		71.21000		324.00000 
 43692.65567		 752.08298			42940.57269		222.06000		875.00000 
 43692.65567		 305.27265			43387.38302		71.21000		324.00000 
 43692.65567		 752.08298			42940.57269		222.06000		875.00000 
 43692.65567		 305.27265			43387.38302		71.21000		324.00000 
 43692.65567		 752.08298			42940.57269		222.06000		875.00000 
 43692.65567		 305.27265			43387.38302		71.21000		324.00000 
 43692.65567		 752.08298			42940.57269		222.06000		875.00000 
 43692.65567		 305.27265			43387.38302		71.21000		324.00000 
 43692.65567		 752.08298			42940.57269		222.06000		875.00000 
 43692.65567		 305.27265			43387.38302		71.21000		324.00000 
 43692.65567		 752.08298			42940.57269		222.06000		875.00000 
 43692.65567		 305.27265			43387.38302		71.21000		324.00000 
 43692.65567		 752.08298			42940.57269		222.06000		875.00000 
 43692.65567		 305.27265			43387.38302		71.21000		324.00000 
 43692.65567		 752.08298			42940.57269		222.06000		875.00000 
 43692.65567		 305.27265			43387.38302		71.21000		324.00000 
 43692.65567		 752.08298			42940.57269		222.06000		875.00000 
 43692.65567		 305.27265			43387.38302		71.21000		324.00000 
 43692.65567		 752.08298			42940.57269		222.06000		875.00000 
 43692.65567		 305.27265			43387.38302		71.21000		324.00000 
 43692.65567		 752.08298			42940.57269		222.06000		875.00000 
 43692.65567		 305.27265			43387.38302		71.21000		324.00000 
 43692.65567		 752.08298			42940.57269		222.06000		875.00000 
 43692.65567		 305.27265			43387.38302		71.21000		324.00000 
 43692.65567		 752.08298			42940.57269		222.06000		875.00000 
 43692.65567		 305.27265			43387.38302		71.21000		324.00000 
 43692.65567		 752.08298			42940.57269		222.06000		875.00000 
 43692.65567		 305.27265			43387.38302		71.21000		324.00000 
 43692.65567		 752.08298			42940.57269		222.06000		875.00000 
 43692.65567		 305.27265			43387.38302		71.21000		324.00000 
 43692.65567		 752.08298			42940.57269		222.06000		875.00000 
 43692.65567		 305.27265			43387.38302		71.21000		324.00000 
 43692.65567		 752.08298			42940.57269		222.06000		875.00000 
 43692.65567		 305.27265			43387.38302		71.21000		324.00000 
 43692.65567		 752.08298			42940.57269		222.06000		875.00000 
 43692.65567		 305.27265			43387.38302		71.21000		324.00000 
 43692.65567		 752.08298			42940.57269		222.06000		875.00000 
 43692.65567		 305.27265			43387.38302		71.21000		324.00000 
 43692.65567		 752.08298			42940.57269		222.06000		875.00000 
 43692.65567		 305.27265			43387.38302		71.21000		324.00000 
 43692.65567		 752.08298			42940.57269		222.06000		875.00000 
 43692.65567		 305.27265			43387.38302		71.21000		324.00000 
 43692.65567		 752.08298			42940.57269		222.06000		875.00000 
 43692.65567		 305.27265			43387.38302		71.21000		324.00000 
 43692.65567		 752.08298			42940.57269		222.06000		875.00000 
 43692.65567		 305.27265			43387.38302		71.21000		324.00000 
 43692.65567		 752.08298			42940.57269		222.06000		875.00000 
 43692.65567		 305.27265			43387.38302		71.21000		324.00000 
 43692.65567		 752.08298			42940.57269		222.06000		875.00000 
 43692.65567		 305.27265			43387.38302		71.21000		324.00000 
 43692.65567		 752.08298			42940.57269		222.06000		875.00000 
 43692.65567		 305.27265			43387.38302		71.21000		324.00000 
 43692.65567		 752.08298			42940.57269		222.06000		875.00000 
 43692.65567		 305.27265			43387.38302		71.21000		324.00000 
 43692.65567		 752.08298			42940.57269		222.06000		875.00000 
 43692.65567		 305.27265			43387.38302		71.21000		324.00000 
 43692.65567		 752.08298			42940.57269		222.06000		875.00000 
 43692.65567		 305.27265			43387.38302		71.21000		324.00000 
 43692.65567		 752.08298			42940.57269		222.06000		875.00000 
 43692.65567		 305.27265			43387.38302		71.21000		324.00000 
 43692.65567		 752.08298			42940.57269		222.06000		875.00000 
 43692.65567		 305.27265			43387.38302		71.21000		324.00000 
 43692.65567		 752.08298			42940.57269		222.06000		875.00000 
 43692.65567		 305.27265			43387.38302		71.21000		324.00000 
 43692.65567		 752.08298			42940.57269		222.06000		875.00000 
 43692.65567		 305.27265			43387.38302		71.21000		324.00000 
 43692.65567		 752.08298			42940.57269		222.06000		875.00000 
 43692.65567		 305.27265			43387.38302		71.21000		324.00000 
 43692.65567		 752.08298			42940.57269		222.06000		875.00000 
 43692.65567		 305.27265			43387.38302		71.21000		324.00000 
 43692.65567		 752.08298			42940.57269		222.06000		875.00000 
 43692.65567		 305.27265			43387.38302		71.21000		324.00000 
 43692.65567		 752.08298			42940.57269		222.06000		875.00000 
 43692.65567		 305.27265			43387.38302		71.21000		324.00000 
 43692.65567		 752.08298			42940.57269		222.06000		875.00000 
 43692.65567		 305.27265			43387.38302		71.21000		324.00000 
 43692.65567		 752.08298			42940.57269		222.06000		875.00000 
 43692.65567		 305.27265			43387.38302		71.21000		324.00000 
 43692.65567		 752.08298			42940.57269		222.06000		875.00000 
 43692.65567		 305.27265			43387.38302		71.21000		324.00000 
 43692.65567		 752.08298			42940.57269		222.06000		875.00000 
 43692.65567		 305.27265			43387.38302		71.21000		324.00000 
 43692.65567		 752.08298			42940.57269		222.06000		875.00000 
 43692.65567		 305.27265			43387.38302		71.21000		324.00000 
 43692.65567		 752.08298			42940.57269		222.06000		875.00000 
 43692.65567		 305.27265			43387.38302		71.21000		324.00000 
 43692.65567		 752.08298			42940.57269		222.06000		875.00000 
 43692.65567		 305.27265			43387.38302		71.21000		324.00000 
 43692.65567		 752.08298			42940.57269		222.06000		875.00000 
 43692.65567		 305.27265			43387.38302		71.21000		324.00000 
 43692.65567		 752.08298			42940.57269		222.06000		875.00000 
 43692.65567		 305.27265			43387.38302		71.21000		324.00000 
 43692.65567		 752.08298			42940.57269		222.06000		875.00000 
 43692.65567		 305.27265			43387.38302		71.21000		324.00000 
 43692.65567		 752.08298			42940.57269		222.06000		875.00000 
 43692.65567		 305.27265			43387.38302		71.21000		324.00000 
 43692.65567		 752.08298			42940.57269		222.06000		875.00000 
 43692.65567		 305.27265			43387.38302		71.21000		324.00000 
 43692.65567		 752.08298			42940.57269		222.06000		875.00000 
 43692.65567		 305.27265			43387.38302		71.21000		324.00000 
 43692.65567		 752.08298			42940.57269		222.06000		875.00000 
 43692.65567		 305.27265			43387.38302		71.21000		324.00000 
 43692.65567		 752.08298			42940.57269		222.06000		875.00000 
 43692.65567		 305.27265			43387.38302		71.21000		324.00000 
 43692.65567		 752.08298			42940.57269		222.06000		875.00000 
 43692.65567		 305.27265			43387.38302		71.21000		324.00000 
 43692.65567		 752.08298			42940.57269		222.06000		875.00000 
 43692.65567		 305.27265			43387.38302		71.21000		324.00000 
 43692.65567		 752.08298			42940.57269		222.06000		875.00000 
 43692.65567		 305.27265			43387.38302		71.21000		324.00000 
 43692.65567		 752.08298			42940.57269		222.06000		875.00000 
 43692.65567		 305.27265			43387.38302		71.21000		324.00000 
 43692.65567		 752.08298			42940.57269		222.06000		875.00000 
 43692.65567		 305.27265			43387.38302		71.21000		324.00000 
 43692.65567		 752.08298			42940.57269		222.06000		875.00000 
 43692.65567		 305.27265			43387.38302		71.21000		324.00000 
 43692.65567		 752.08298			42940.57269		222.06000		875.00000 
 43692.65567		 305.27265			43387.38302		71.21000		324.00000 
 43692.65567		 752.08298			42940.57269		222.06000		875.00000 
 43692.65567		 305.27265			43387.38302		71.21000		324.00000 
 43692.65567		 752.08298			42940.57269		222.06000		875.00000 
 43692.65567		 305.27265			43387.38302		71.21000		324.00000 
 43692.65567		 752.08298			42940.57269		222.06000		875.00000 
 43692.65567		 305.27265			43387.38302		71.21000		324.00000 
 43692.65567		 752.08298			42940.57269		222.06000		875.00000 
 43692.65567		 305.27265			43387.38302		71.21000		324.00000 
 43692.65567		 752.08298			42940.57269		222.06000		875.00000 
 43692.65567		 305.27265			43387.38302		71.21000		324.00000 
 43692.65567		 752.08298			42940.57269		222.06000		875.00000 
 43692.65567		 305.27265			43387.38302		71.21000		324.00000 
 43692.65567		 752.08298			42940.57269		222.06000		875.00000 
 43692.65567		 305.27265			43387.38302		71.21000		324.00000 
 43692.65567		 752.08298			42940.57269		222.06000		875.00000 
 43692.65567		 305.27265			43387.38302		71.21000		324.00000 
 43692.65567		 752.08298			42940.57269		222.06000		875.00000 
 43692.65567		 305.27265			43387.38302		71.21000		324.00000 
 43692.65567		 752.08298			42940.57269		222.06000		875.00000 
 43692.65567		 305.27265			43387.38302		71.21000		324.00000 
 43692.65567		 752.08298			42940.57269		222.06000		875.00000 
 43692.65567		 305.27265			43387.38302		71.21000		324.00000 
 43692.65567		 752.08298			42940.57269		222.06000		875.00000 
 43692.65567		 305.27265			43387.38302		71.21000		324.00000 
 43692.65567		 752.08298			42940.57269		222.06000		875.00000 
 43692.65567		 305.27265			43387.38302		71.21000		324.00000 
 43692.65567		 752.08298			42940.57269		222.06000		875.00000 
 43692.65567		 305.27265			43387.38302		71.21000		324.00000 
 43692.65567		 752.08298			42940.57269		222.06000		875.00000 
 43692.65567		 305.27265			43387.38302		71.21000		324.00000 
 43692.65567		 752.08298			42940.57269		222.06000		875.00000 
 43692.65567		 305.27265			43387.38302		71.21000		324.00000 
 43692.65567		 752.08298			42940.57269		222.06000		875.00000 
 43692.65567		 305.27265			43387.38302		71.21000		324.00000 
 43692.65567		 752.08298			42940.57269		222.06000		875.00000 
 43692.65567		 305.27265			43387.38302		71.21000		324.00000 
 43692.65567		 752.08298			42940.57269		222.06000		875.00000 
 43692.65567		 305.27265			43387.38302		71.21000		324.00000 
 43692.65567		 752.08298			42940.57269		222.06000		875.00000 
 43692.65567		 305.27265			43387.38302		71.21000		324.00000 
 43692.65567		 752.08298			42940.57269		222.06000		875.00000 
 43692.65567		 305.27265			43387.38302		71.21000		324.00000 
 43692.65567		 752.08298			42940.57269		222.06000		875.00000 
 43692.65567		 305.27265			43387.38302		71.21000		324.00000 
 43692.65567		 752.08298			42940.57269		222.06000		875.00000 
 43692.65567		 305.27265			43387.38302		71.21000		324.00000 
 43692.65567		 752.08298			42940.57269		222.06000		875.00000 
 43692.65567		 305.27265			43387.38302		71.21000		324.00000 
 43692.65567		 752.08298			42940.57269		222.06000		875.00000 
 43692.65567		 305.27265			43387.38302		71.21000		324.00000 
 43692.65567		 752.08298			42940.57269		222.06000		875.00000 
 43692.65567		 305.27265			43387.38302		71.21000		324.00000 
 43692.65567		 752.08298			42940.57269		222.06000		875.00000 
 43692.65567		 305.27265			43387.38302		71.21000		324.00000 
 43692.65567		 752.08298			42940.57269		222.06000		875.00000 
 43692.65567		 305.27265			43387.38302		71.21000		324.00000 
 43692.65567		 752.08298			42940.57269		222.06000		875.00000 
 43692.65567		 305.27265			43387.38302		71.21000		324.00000 
 43692.65567		 752.08298			42940.57269		222.06000		875.00000 
 43692.65567		 305.27265			43387.38302		71.21000		324.00000 
 43692.65567		 752.08298			42940.57269		222.06000		875.00000 
 43692.65567		 305.27265			43387.38302		71.21000		324.00000 
 43692.65567		 752.08298			42940.57269		221.46000		875.00000 
 43692.65567		 305.27265			43387.38302		71.21000		324.00000 
 43692.65567		 752.08298			42940.57269		221.46000		875.00000 
 43692.65567		 305.27265			43387.38302		71.21000		324.00000 
 43692.65567		 752.08298			42940.57269		221.46000		875.00000 
 43692.65567		 305.27265			43387.38302		71.21000		324.00000 
 43692.65567		 752.08298			42940.57269		221.46000		875.00000 
 43692.65567		 305.27265			43387.38302		71.21000		324.00000 
 43692.65567		 752.08298			42940.57269		221.46000		875.00000 
 43692.65567		 305.27265			43387.38302		71.21000		324.00000 
 43692.65567		 752.08298			42940.57269		221.46000		875.00000 
 43692.65567		 305.27265			43387.38302		71.21000		324.00000 
 43692.65567		 680.47876			43012.17691		221.46000		875.00000 
 43692.65567		 305.27265			43387.38302		71.21000		324.00000 
 43692.65567		 608.87454			43083.78113		221.46000		875.00000 
 43692.65567		 305.27265			43387.38302		71.21000		324.00000 
 43692.65567		 537.27032			43155.38535		221.46000		875.00000 
 43692.65567		 305.27265			43387.38302		71.21000		324.00000 
 43692.65567		 537.27032			43155.38535		221.46000		875.00000 
 43692.65567		 305.27265			43387.38302		71.21000		324.00000 
 43692.65567		 537.27032			43155.38535		221.46000		875.00000 
 43692.65567		 305.27265			43387.38302		71.21000		324.00000 
 43692.65567		 537.27032			43155.38535		221.46000		875.00000 
 43692.65567		 305.27265			43387.38302		71.21000		324.00000 
 43692.65567		 537.27032			43155.38535		221.46000		875.00000 
 43692.65567		 305.27265			43387.38302		71.21000		324.00000 
 43692.65567		 537.27032			43155.38535		221.46000		875.00000 
 43692.65567		 305.27265			43387.38302		71.21000		324.00000 
 43692.65567		 537.27032			43155.38535		221.46000		875.00000 
 43692.65567		 305.27265			43387.38302		71.21000		324.00000 
 43692.65567		 537.27032			43155.38535		221.46000		875.00000 
 43692.65567		 305.27265			43387.38302		71.21000		324.00000 
 43692.65567		 537.27032			43155.38535		221.46000		875.00000 
 43692.65567		 305.27265			43387.38302		71.21000		324.00000 
 43692.65567		 537.27032			43155.38535		221.46000		875.00000 
 43692.65567		 305.27265			43387.38302		71.21000		324.00000 
 43692.65567		 537.27032			43155.38535		221.46000		875.00000 
 43692.65567		 305.27265			43387.38302		71.21000		324.00000 
 43692.65567		 537.27032			43155.38535		221.46000		875.00000 
 43692.65567		 305.27265			43387.38302		71.21000		324.00000 
 43692.65567		 537.27032			43155.38535		221.46000		875.00000 
 43692.65567		 305.27265			43387.38302		71.21000		324.00000 
 43692.65567		 537.27032			43155.38535		221.46000		875.00000 
 43692.65567		 305.27265			43387.38302		71.21000		324.00000 
 43692.65567		 537.27032			43155.38535		221.46000		875.00000 
 43692.65567		 305.27265			43387.38302		71.21000		324.00000 
 43692.65567		 537.27032			43155.38535		221.46000		875.00000 
 43692.65567		 305.27265			43387.38302		71.21000		324.00000 
 43692.65567		 537.27032			43155.38535		221.46000		875.00000 
 43692.65567		 305.27265			43387.38302		71.21000		324.00000 
 43692.65567		 537.27032			43155.38535		221.46000		875.00000 
 43692.65567		 305.27265			43387.38302		71.21000		324.00000 
 43692.65567		 537.27032			43155.38535		221.46000		875.00000 
 43692.65567		 305.27265			43387.38302		71.21000		324.00000 
 43692.65567		 529.63254			43163.02313		221.46000		875.00000 
 43692.65567		 305.27265			43387.38302		71.21000		324.00000 
 43692.65567		 525.81365			43166.84203		221.46000		875.00000 
 43692.65567		 297.63487			43395.02080		71.21000		324.00000 
 43692.65567		 261.35540			43431.30027		221.46000		875.00000 
 43692.65567		 261.35540			43431.30027		71.21000		324.00000 
