Memory Total (MiB) 	 Memory Used (MiB) 	    Memory Free (MiB) 	 Power Drawed (W) 	 Clocks (Mhz) 	 
 43692.65567		 261.35540			43431.30027		184.23800		875.00000 
 43692.65567		 261.35540			43431.30027		68.68200		324.00000 
 43692.65567		 261.35540			43431.30027		184.23800		875.00000 
 43692.65567		 261.35540			43431.30027		68.68200		324.00000 
 43692.65567		 261.35540			43431.30027		184.23800		875.00000 
 43692.65567		 261.35540			43431.30027		68.68200		324.00000 
 43692.65567		 261.35540			43431.30027		184.23800		875.00000 
 43692.65567		 261.35540			43431.30027		68.68200		324.00000 
 43692.65567		 261.35540			43431.30027		184.23800		875.00000 
 43692.65567		 261.35540			43431.30027		68.68200		324.00000 
 43692.65567		 261.35540			43431.30027		184.23800		875.00000 
 43692.65567		 261.35540			43431.30027		68.68200		324.00000 
 43692.65567		 261.35540			43431.30027		184.23800		875.00000 
 43692.65567		 261.35540			43431.30027		68.68200		324.00000 
 43692.65567		 261.35540			43431.30027		184.23800		875.00000 
 43692.65567		 261.35540			43431.30027		68.68200		324.00000 
 43692.65567		 261.35540			43431.30027		184.23800		875.00000 
 43692.65567		 261.35540			43431.30027		68.68200		324.00000 
 43692.65567		 261.35540			43431.30027		184.23800		875.00000 
 43692.65567		 261.35540			43431.30027		68.68200		324.00000 
 43692.65567		 261.35540			43431.30027		184.23800		875.00000 
 43692.65567		 261.35540			43431.30027		68.68200		324.00000 
 43692.65567		 261.35540			43431.30027		184.23800		875.00000 
 43692.65567		 261.35540			43431.30027		68.68200		324.00000 
 43692.65567		 261.35540			43431.30027		184.23800		875.00000 
 43692.65567		 261.35540			43431.30027		68.68200		324.00000 
 43692.65567		 261.35540			43431.30027		184.23800		875.00000 
 43692.65567		 261.35540			43431.30027		68.68200		324.00000 
 43692.65567		 261.35540			43431.30027		184.23800		875.00000 
 43692.65567		 261.35540			43431.30027		68.68200		324.00000 
 43692.65567		 261.35540			43431.30027		184.23800		875.00000 
 43692.65567		 261.35540			43431.30027		68.68200		324.00000 
 43692.65567		 261.35540			43431.30027		184.23800		875.00000 
 43692.65567		 261.35540			43431.30027		68.68200		324.00000 
 43692.65567		 261.35540			43431.30027		184.23800		875.00000 
 43692.65567		 261.35540			43431.30027		68.68200		324.00000 
 43692.65567		 265.17429			43427.48138		184.23800		875.00000 
 43692.65567		 261.35540			43431.30027		68.68200		324.00000 
 43692.65567		 265.17429			43427.48138		184.23800		875.00000 
 43692.65567		 261.35540			43431.30027		68.68200		324.00000 
 43692.65567		 272.81207			43419.84360		184.23800		875.00000 
 43692.65567		 261.35540			43431.30027		68.68200		324.00000 
 43692.65567		 272.81207			43419.84360		184.23800		875.00000 
 43692.65567		 261.35540			43431.30027		68.68200		324.00000 
 43692.65567		 272.81207			43419.84360		184.23800		875.00000 
 43692.65567		 265.17429			43427.48138		68.68200		324.00000 
 43692.65567		 272.81207			43419.84360		184.23800		875.00000 
 43692.65567		 265.17429			43427.48138		68.68200		324.00000 
 43692.65567		 272.81207			43419.84360		184.23800		875.00000 
 43692.65567		 272.81207			43419.84360		68.68200		324.00000 
 43692.65567		 272.81207			43419.84360		184.23800		875.00000 
 43692.65567		 272.81207			43419.84360		68.68200		324.00000 
 43692.65567		 272.81207			43419.84360		184.23800		875.00000 
 43692.65567		 272.81207			43419.84360		68.68200		324.00000 
 43692.65567		 272.81207			43419.84360		184.23800		875.00000 
 43692.65567		 305.27265			43387.38302		68.68200		324.00000 
 43692.65567		 305.27265			43387.38302		184.23800		875.00000 
 43692.65567		 305.27265			43387.38302		68.68200		324.00000 
 43692.65567		 305.27265			43387.38302		151.41800		875.00000 
 43692.65567		 305.27265			43387.38302		68.68200		324.00000 
 43692.65567		 305.27265			43387.38302		151.41800		875.00000 
 43692.65567		 305.27265			43387.38302		68.68200		324.00000 
 43692.65567		 305.27265			43387.38302		151.41800		875.00000 
 43692.65567		 305.27265			43387.38302		68.68200		324.00000 
 43692.65567		 309.09154			43383.56413		151.41800		875.00000 
 43692.65567		 305.27265			43387.38302		68.68200		324.00000 
 43692.65567		 310.52363			43382.13204		151.41800		875.00000 
 43692.65567		 305.27265			43387.38302		68.68200		324.00000 
 43692.65567		 311.00099			43381.65468		151.41800		875.00000 
 43692.65567		 305.27265			43387.38302		68.68200		324.00000 
 43692.65567		 311.00099			43381.65468		151.41800		875.00000 
 43692.65567		 305.27265			43387.38302		68.68200		324.00000 
 43692.65567		 311.00099			43381.65468		151.41800		875.00000 
 43692.65567		 305.27265			43387.38302		68.68200		324.00000 
 43692.65567		 311.00099			43381.65468		151.41800		875.00000 
 43692.65567		 305.27265			43387.38302		68.68200		324.00000 
 43692.65567		 311.00099			43381.65468		151.41800		875.00000 
 43692.65567		 305.27265			43387.38302		68.68200		324.00000 
 43692.65567		 311.00099			43381.65468		151.41800		875.00000 
 43692.65567		 305.27265			43387.38302		68.68200		324.00000 
 43692.65567		 311.00099			43381.65468		151.41800		875.00000 
 43692.65567		 305.27265			43387.38302		68.68200		324.00000 
 43692.65567		 311.00099			43381.65468		151.41800		875.00000 
 43692.65567		 305.27265			43387.38302		68.68200		324.00000 
 43692.65567		 311.00099			43381.65468		151.41800		875.00000 
 43692.65567		 305.27265			43387.38302		68.68200		324.00000 
 43692.65567		 311.00099			43381.65468		151.41800		875.00000 
 43692.65567		 305.27265			43387.38302		68.68200		324.00000 
 43692.65567		 311.00099			43381.65468		151.41800		875.00000 
 43692.65567		 305.27265			43387.38302		68.68200		324.00000 
 43692.65567		 311.00099			43381.65468		151.41800		875.00000 
 43692.65567		 305.27265			43387.38302		68.68200		324.00000 
 43692.65567		 311.00099			43381.65468		151.41800		875.00000 
 43692.65567		 305.27265			43387.38302		68.68200		324.00000 
 43692.65567		 311.00099			43381.65468		151.41800		875.00000 
 43692.65567		 305.27265			43387.38302		68.68200		324.00000 
 43692.65567		 311.00099			43381.65468		151.41800		875.00000 
 43692.65567		 305.27265			43387.38302		68.68200		324.00000 
 43692.65567		 311.00099			43381.65468		151.41800		875.00000 
 43692.65567		 305.27265			43387.38302		68.68200		324.00000 
 43692.65567		 311.00099			43381.65468		151.41800		875.00000 
 43692.65567		 305.27265			43387.38302		68.68200		324.00000 
 43692.65567		 311.00099			43381.65468		151.41800		875.00000 
 43692.65567		 305.27265			43387.38302		68.68200		324.00000 
 43692.65567		 311.00099			43381.65468		151.41800		875.00000 
 43692.65567		 305.27265			43387.38302		68.68200		324.00000 
 43692.65567		 311.00099			43381.65468		151.41800		875.00000 
 43692.65567		 305.27265			43387.38302		68.68200		324.00000 
 43692.65567		 311.00099			43381.65468		151.41800		875.00000 
 43692.65567		 305.27265			43387.38302		68.68200		324.00000 
 43692.65567		 311.00099			43381.65468		151.41800		875.00000 
 43692.65567		 305.27265			43387.38302		68.68200		324.00000 
 43692.65567		 311.00099			43381.65468		151.41800		875.00000 
 43692.65567		 305.27265			43387.38302		68.68200		324.00000 
 43692.65567		 311.00099			43381.65468		151.41800		875.00000 
 43692.65567		 305.27265			43387.38302		68.68200		324.00000 
 43692.65567		 311.00099			43381.65468		151.41800		875.00000 
 43692.65567		 305.27265			43387.38302		68.68200		324.00000 
 43692.65567		 311.00099			43381.65468		151.41800		875.00000 
 43692.65567		 305.27265			43387.38302		68.68200		324.00000 
 43692.65567		 311.00099			43381.65468		151.41800		875.00000 
 43692.65567		 305.27265			43387.38302		68.68200		324.00000 
 43692.65567		 311.00099			43381.65468		139.28000		875.00000 
 43692.65567		 305.27265			43387.38302		68.68200		324.00000 
 43692.65567		 311.00099			43381.65468		139.28000		875.00000 
 43692.65567		 305.27265			43387.38302		68.68200		324.00000 
 43692.65567		 311.00099			43381.65468		139.28000		875.00000 
 43692.65567		 305.27265			43387.38302		68.68200		324.00000 
 43692.65567		 311.00099			43381.65468		139.28000		875.00000 
 43692.65567		 305.27265			43387.38302		68.68200		324.00000 
 43692.65567		 311.00099			43381.65468		139.28000		875.00000 
 43692.65567		 305.27265			43387.38302		68.68200		324.00000 
 43692.65567		 311.00099			43381.65468		139.28000		875.00000 
 43692.65567		 305.27265			43387.38302		68.68200		324.00000 
 43692.65567		 311.00099			43381.65468		139.28000		875.00000 
 43692.65567		 305.27265			43387.38302		68.68200		324.00000 
 43692.65567		 311.00099			43381.65468		139.28000		875.00000 
 43692.65567		 305.27265			43387.38302		68.68200		324.00000 
 43692.65567		 311.00099			43381.65468		139.28000		875.00000 
 43692.65567		 305.27265			43387.38302		68.68200		324.00000 
 43692.65567		 311.00099			43381.65468		139.28000		875.00000 
 43692.65567		 305.27265			43387.38302		68.68200		324.00000 
 43692.65567		 311.00099			43381.65468		139.28000		875.00000 
 43692.65567		 305.27265			43387.38302		68.68200		324.00000 
 43692.65567		 311.00099			43381.65468		139.28000		875.00000 
 43692.65567		 305.27265			43387.38302		68.68200		324.00000 
 43692.65567		 311.00099			43381.65468		139.28000		875.00000 
 43692.65567		 305.27265			43387.38302		68.68200		324.00000 
 43692.65567		 311.00099			43381.65468		139.28000		875.00000 
 43692.65567		 305.27265			43387.38302		68.68200		324.00000 
 43692.65567		 311.00099			43381.65468		139.28000		875.00000 
 43692.65567		 305.27265			43387.38302		68.68200		324.00000 
 43692.65567		 311.00099			43381.65468		139.28000		875.00000 
 43692.65567		 305.27265			43387.38302		68.68200		324.00000 
 43692.65567		 311.00099			43381.65468		139.28000		875.00000 
 43692.65567		 305.27265			43387.38302		68.68200		324.00000 
 43692.65567		 311.00099			43381.65468		139.28000		875.00000 
 43692.65567		 305.27265			43387.38302		68.68200		324.00000 
 43692.65567		 311.00099			43381.65468		139.28000		875.00000 
 43692.65567		 305.27265			43387.38302		68.68200		324.00000 
 43692.65567		 311.00099			43381.65468		139.28000		875.00000 
 43692.65567		 305.27265			43387.38302		68.68200		324.00000 
 43692.65567		 311.00099			43381.65468		139.28000		875.00000 
 43692.65567		 305.27265			43387.38302		68.68200		324.00000 
 43692.65567		 311.00099			43381.65468		139.28000		875.00000 
 43692.65567		 305.27265			43387.38302		68.68200		324.00000 
 43692.65567		 311.00099			43381.65468		139.28000		875.00000 
 43692.65567		 305.27265			43387.38302		68.68200		324.00000 
 43692.65567		 311.00099			43381.65468		139.28000		875.00000 
 43692.65567		 305.27265			43387.38302		68.68200		324.00000 
 43692.65567		 314.81988			43377.83579		139.28000		875.00000 
 43692.65567		 305.27265			43387.38302		68.68200		324.00000 
 43692.65567		 314.81988			43377.83579		139.28000		875.00000 
 43692.65567		 305.27265			43387.38302		68.68200		324.00000 
 43692.65567		 318.63877			43374.01690		139.28000		875.00000 
 43692.65567		 305.27265			43387.38302		68.68200		324.00000 
 43692.65567		 322.45767			43370.19801		139.28000		875.00000 
 43692.65567		 305.27265			43387.38302		68.68200		324.00000 
 43692.65567		 326.27656			43366.37912		139.28000		875.00000 
 43692.65567		 305.27265			43387.38302		68.68200		324.00000 
 43692.65567		 326.27656			43366.37912		139.28000		875.00000 
 43692.65567		 305.27265			43387.38302		68.68200		324.00000 
 43692.65567		 326.27656			43366.37912		139.28000		875.00000 
 43692.65567		 305.27265			43387.38302		68.68200		324.00000 
 43692.65567		 326.27656			43366.37912		139.28000		875.00000 
 43692.65567		 305.27265			43387.38302		68.68200		324.00000 
 43692.65567		 537.27032			43155.38535		139.28000		875.00000 
 43692.65567		 305.27265			43387.38302		68.68200		324.00000 
 43692.65567		 624.15011			43068.50556		134.44800		875.00000 
 43692.65567		 305.27265			43387.38302		68.68200		324.00000 
 43692.65567		 667.59000			43025.06567		134.44800		875.00000 
 43692.65567		 305.27265			43387.38302		68.68200		324.00000 
 43692.65567		 667.59000			43025.06567		134.44800		875.00000 
 43692.65567		 305.27265			43387.38302		68.68200		324.00000 
 43692.65567		 667.59000			43025.06567		134.44800		875.00000 
 43692.65567		 305.27265			43387.38302		68.68200		324.00000 
 43692.65567		 667.59000			43025.06567		134.44800		875.00000 
 43692.65567		 305.27265			43387.38302		68.68200		324.00000 
 43692.65567		 667.59000			43025.06567		134.44800		875.00000 
 43692.65567		 305.27265			43387.38302		68.68200		324.00000 
 43692.65567		 667.59000			43025.06567		134.44800		875.00000 
 43692.65567		 305.27265			43387.38302		68.68200		324.00000 
 43692.65567		 667.59000			43025.06567		134.44800		875.00000 
 43692.65567		 305.27265			43387.38302		68.68200		324.00000 
 43692.65567		 667.59000			43025.06567		134.44800		875.00000 
 43692.65567		 305.27265			43387.38302		68.68200		324.00000 
 43692.65567		 667.59000			43025.06567		134.44800		875.00000 
 43692.65567		 305.27265			43387.38302		68.68200		324.00000 
 43692.65567		 667.59000			43025.06567		134.44800		875.00000 
 43692.65567		 305.27265			43387.38302		68.68200		324.00000 
 43692.65567		 667.59000			43025.06567		134.44800		875.00000 
 43692.65567		 305.27265			43387.38302		68.68200		324.00000 
 43692.65567		 667.59000			43025.06567		134.44800		875.00000 
 43692.65567		 305.27265			43387.38302		68.68200		324.00000 
 43692.65567		 667.59000			43025.06567		134.44800		875.00000 
 43692.65567		 305.27265			43387.38302		68.68200		324.00000 
 43692.65567		 667.59000			43025.06567		134.44800		875.00000 
 43692.65567		 305.27265			43387.38302		68.68200		324.00000 
 43692.65567		 667.59000			43025.06567		134.44800		875.00000 
 43692.65567		 305.27265			43387.38302		68.68200		324.00000 
 43692.65567		 667.59000			43025.06567		134.44800		875.00000 
 43692.65567		 305.27265			43387.38302		68.68200		324.00000 
 43692.65567		 667.59000			43025.06567		134.44800		875.00000 
 43692.65567		 305.27265			43387.38302		68.68200		324.00000 
 43692.65567		 667.59000			43025.06567		134.44800		875.00000 
 43692.65567		 305.27265			43387.38302		68.68200		324.00000 
 43692.65567		 667.59000			43025.06567		134.44800		875.00000 
 43692.65567		 305.27265			43387.38302		68.68200		324.00000 
 43692.65567		 667.59000			43025.06567		134.44800		875.00000 
 43692.65567		 305.27265			43387.38302		68.68200		324.00000 
 43692.65567		 667.59000			43025.06567		134.44800		875.00000 
 43692.65567		 305.27265			43387.38302		68.68200		324.00000 
 43692.65567		 667.59000			43025.06567		134.44800		875.00000 
 43692.65567		 305.27265			43387.38302		68.68200		324.00000 
 43692.65567		 667.59000			43025.06567		134.44800		875.00000 
 43692.65567		 305.27265			43387.38302		68.68200		324.00000 
 43692.65567		 667.59000			43025.06567		134.44800		875.00000 
 43692.65567		 305.27265			43387.38302		68.68200		324.00000 
 43692.65567		 667.59000			43025.06567		134.44800		875.00000 
 43692.65567		 305.27265			43387.38302		68.68200		324.00000 
 43692.65567		 667.59000			43025.06567		134.44800		875.00000 
 43692.65567		 305.27265			43387.38302		68.68200		324.00000 
 43692.65567		 667.59000			43025.06567		134.44800		875.00000 
 43692.65567		 305.27265			43387.38302		68.68200		324.00000 
 43692.65567		 667.59000			43025.06567		134.44800		875.00000 
 43692.65567		 305.27265			43387.38302		68.68200		324.00000 
 43692.65567		 667.59000			43025.06567		134.44800		875.00000 
 43692.65567		 305.27265			43387.38302		68.68200		324.00000 
 43692.65567		 667.59000			43025.06567		134.44800		875.00000 
 43692.65567		 305.27265			43387.38302		68.68200		324.00000 
 43692.65567		 667.59000			43025.06567		134.44800		875.00000 
 43692.65567		 305.27265			43387.38302		68.68200		324.00000 
 43692.65567		 667.59000			43025.06567		134.44800		875.00000 
 43692.65567		 305.27265			43387.38302		68.68200		324.00000 
 43692.65567		 667.59000			43025.06567		134.44800		875.00000 
 43692.65567		 305.27265			43387.38302		68.68200		324.00000 
 43692.65567		 667.59000			43025.06567		134.44800		875.00000 
 43692.65567		 305.27265			43387.38302		68.68200		324.00000 
 43692.65567		 667.59000			43025.06567		134.44800		875.00000 
 43692.65567		 305.27265			43387.38302		68.68200		324.00000 
 43692.65567		 667.59000			43025.06567		134.44800		875.00000 
 43692.65567		 305.27265			43387.38302		68.68200		324.00000 
 43692.65567		 667.59000			43025.06567		134.44800		875.00000 
 43692.65567		 305.27265			43387.38302		68.68200		324.00000 
 43692.65567		 667.59000			43025.06567		134.44800		875.00000 
 43692.65567		 305.27265			43387.38302		68.68200		324.00000 
 43692.65567		 667.59000			43025.06567		134.44800		875.00000 
 43692.65567		 305.27265			43387.38302		68.68200		324.00000 
 43692.65567		 667.59000			43025.06567		134.44800		875.00000 
 43692.65567		 305.27265			43387.38302		68.68200		324.00000 
 43692.65567		 667.59000			43025.06567		134.44800		875.00000 
 43692.65567		 305.27265			43387.38302		68.68200		324.00000 
 43692.65567		 667.59000			43025.06567		134.44800		875.00000 
 43692.65567		 305.27265			43387.38302		68.68200		324.00000 
 43692.65567		 667.59000			43025.06567		134.44800		875.00000 
 43692.65567		 305.27265			43387.38302		68.68200		324.00000 
 43692.65567		 667.59000			43025.06567		134.44800		875.00000 
 43692.65567		 305.27265			43387.38302		68.68200		324.00000 
 43692.65567		 667.59000			43025.06567		134.44800		875.00000 
 43692.65567		 305.27265			43387.38302		68.68200		324.00000 
 43692.65567		 667.59000			43025.06567		134.44800		875.00000 
 43692.65567		 305.27265			43387.38302		68.68200		324.00000 
 43692.65567		 667.59000			43025.06567		134.44800		875.00000 
 43692.65567		 305.27265			43387.38302		68.68200		324.00000 
 43692.65567		 667.59000			43025.06567		134.44800		875.00000 
 43692.65567		 305.27265			43387.38302		68.68200		324.00000 
 43692.65567		 667.59000			43025.06567		134.44800		875.00000 
 43692.65567		 305.27265			43387.38302		68.68200		324.00000 
 43692.65567		 667.59000			43025.06567		134.44800		875.00000 
 43692.65567		 305.27265			43387.38302		68.68200		324.00000 
 43692.65567		 667.59000			43025.06567		134.44800		875.00000 
 43692.65567		 305.27265			43387.38302		68.68200		324.00000 
 43692.65567		 667.59000			43025.06567		134.44800		875.00000 
 43692.65567		 305.27265			43387.38302		68.68200		324.00000 
 43692.65567		 667.59000			43025.06567		134.44800		875.00000 
 43692.65567		 305.27265			43387.38302		68.68200		324.00000 
 43692.65567		 667.59000			43025.06567		134.44800		875.00000 
 43692.65567		 305.27265			43387.38302		68.68200		324.00000 
 43692.65567		 667.59000			43025.06567		134.44800		875.00000 
 43692.65567		 305.27265			43387.38302		68.68200		324.00000 
 43692.65567		 667.59000			43025.06567		134.44800		875.00000 
 43692.65567		 305.27265			43387.38302		68.68200		324.00000 
 43692.65567		 667.59000			43025.06567		134.44800		875.00000 
 43692.65567		 305.27265			43387.38302		68.68200		324.00000 
 43692.65567		 667.59000			43025.06567		134.44800		875.00000 
 43692.65567		 305.27265			43387.38302		68.68200		324.00000 
 43692.65567		 667.59000			43025.06567		134.44800		875.00000 
 43692.65567		 305.27265			43387.38302		68.68200		324.00000 
 43692.65567		 667.59000			43025.06567		134.44800		875.00000 
 43692.65567		 305.27265			43387.38302		68.68200		324.00000 
 43692.65567		 667.59000			43025.06567		134.44800		875.00000 
 43692.65567		 305.27265			43387.38302		68.68200		324.00000 
 43692.65567		 667.59000			43025.06567		134.44800		875.00000 
 43692.65567		 305.27265			43387.38302		68.68200		324.00000 
 43692.65567		 667.59000			43025.06567		187.58000		875.00000 
 43692.65567		 305.27265			43387.38302		68.68200		324.00000 
 43692.65567		 667.59000			43025.06567		187.58000		875.00000 
 43692.65567		 305.27265			43387.38302		68.68200		324.00000 
 43692.65567		 667.59000			43025.06567		187.58000		875.00000 
 43692.65567		 305.27265			43387.38302		68.68200		324.00000 
 43692.65567		 667.59000			43025.06567		187.58000		875.00000 
 43692.65567		 305.27265			43387.38302		68.68200		324.00000 
 43692.65567		 667.59000			43025.06567		187.58000		875.00000 
 43692.65567		 305.27265			43387.38302		68.68200		324.00000 
 43692.65567		 667.59000			43025.06567		187.58000		875.00000 
 43692.65567		 305.27265			43387.38302		68.68200		324.00000 
 43692.65567		 667.59000			43025.06567		187.58000		875.00000 
 43692.65567		 305.27265			43387.38302		68.68200		324.00000 
 43692.65567		 667.59000			43025.06567		187.58000		875.00000 
 43692.65567		 305.27265			43387.38302		68.68200		324.00000 
 43692.65567		 667.59000			43025.06567		187.58000		875.00000 
 43692.65567		 305.27265			43387.38302		68.68200		324.00000 
 43692.65567		 667.59000			43025.06567		187.58000		875.00000 
 43692.65567		 305.27265			43387.38302		68.68200		324.00000 
 43692.65567		 667.59000			43025.06567		187.58000		875.00000 
 43692.65567		 305.27265			43387.38302		68.68200		324.00000 
 43692.65567		 667.59000			43025.06567		187.58000		875.00000 
 43692.65567		 305.27265			43387.38302		68.68200		324.00000 
 43692.65567		 667.59000			43025.06567		187.58000		875.00000 
 43692.65567		 305.27265			43387.38302		68.68200		324.00000 
 43692.65567		 667.59000			43025.06567		187.58000		875.00000 
 43692.65567		 305.27265			43387.38302		68.68200		324.00000 
 43692.65567		 667.59000			43025.06567		187.58000		875.00000 
 43692.65567		 305.27265			43387.38302		68.68200		324.00000 
 43692.65567		 667.59000			43025.06567		187.58000		875.00000 
 43692.65567		 305.27265			43387.38302		68.68200		324.00000 
 43692.65567		 667.59000			43025.06567		187.58000		875.00000 
 43692.65567		 305.27265			43387.38302		68.68200		324.00000 
 43692.65567		 667.59000			43025.06567		187.58000		875.00000 
 43692.65567		 305.27265			43387.38302		68.68200		324.00000 
 43692.65567		 667.59000			43025.06567		187.58000		875.00000 
 43692.65567		 305.27265			43387.38302		68.68200		324.00000 
 43692.65567		 667.59000			43025.06567		187.58000		875.00000 
 43692.65567		 305.27265			43387.38302		68.68200		324.00000 
 43692.65567		 667.59000			43025.06567		187.58000		875.00000 
 43692.65567		 305.27265			43387.38302		68.68200		324.00000 
 43692.65567		 667.59000			43025.06567		187.58000		875.00000 
 43692.65567		 305.27265			43387.38302		68.68200		324.00000 
 43692.65567		 667.59000			43025.06567		187.58000		875.00000 
 43692.65567		 305.27265			43387.38302		68.68200		324.00000 
 43692.65567		 667.59000			43025.06567		187.58000		875.00000 
 43692.65567		 305.27265			43387.38302		68.68200		324.00000 
 43692.65567		 667.59000			43025.06567		187.58000		875.00000 
 43692.65567		 305.27265			43387.38302		68.68200		324.00000 
 43692.65567		 667.59000			43025.06567		187.58000		875.00000 
 43692.65567		 305.27265			43387.38302		68.68200		324.00000 
 43692.65567		 667.59000			43025.06567		187.58000		875.00000 
 43692.65567		 305.27265			43387.38302		68.68200		324.00000 
 43692.65567		 667.59000			43025.06567		187.58000		875.00000 
 43692.65567		 305.27265			43387.38302		68.68200		324.00000 
 43692.65567		 667.59000			43025.06567		187.58000		875.00000 
 43692.65567		 305.27265			43387.38302		68.68200		324.00000 
 43692.65567		 667.59000			43025.06567		187.58000		875.00000 
 43692.65567		 305.27265			43387.38302		68.68200		324.00000 
 43692.65567		 667.59000			43025.06567		187.58000		875.00000 
 43692.65567		 305.27265			43387.38302		68.68200		324.00000 
 43692.65567		 667.59000			43025.06567		187.58000		875.00000 
 43692.65567		 305.27265			43387.38302		68.68200		324.00000 
 43692.65567		 667.59000			43025.06567		187.58000		875.00000 
 43692.65567		 305.27265			43387.38302		68.68200		324.00000 
 43692.65567		 667.59000			43025.06567		187.58000		875.00000 
 43692.65567		 305.27265			43387.38302		68.68200		324.00000 
 43692.65567		 667.59000			43025.06567		187.58000		875.00000 
 43692.65567		 305.27265			43387.38302		68.68200		324.00000 
 43692.65567		 667.59000			43025.06567		187.58000		875.00000 
 43692.65567		 305.27265			43387.38302		68.68200		324.00000 
 43692.65567		 667.59000			43025.06567		187.58000		875.00000 
 43692.65567		 305.27265			43387.38302		68.68200		324.00000 
 43692.65567		 667.59000			43025.06567		187.58000		875.00000 
 43692.65567		 305.27265			43387.38302		68.68200		324.00000 
 43692.65567		 667.59000			43025.06567		187.58000		875.00000 
 43692.65567		 305.27265			43387.38302		68.68200		324.00000 
 43692.65567		 667.59000			43025.06567		187.58000		875.00000 
 43692.65567		 305.27265			43387.38302		68.68200		324.00000 
 43692.65567		 667.59000			43025.06567		187.58000		875.00000 
 43692.65567		 305.27265			43387.38302		68.68200		324.00000 
 43692.65567		 667.59000			43025.06567		187.58000		875.00000 
 43692.65567		 305.27265			43387.38302		68.68200		324.00000 
 43692.65567		 667.59000			43025.06567		187.58000		875.00000 
 43692.65567		 305.27265			43387.38302		68.68200		324.00000 
 43692.65567		 667.59000			43025.06567		187.58000		875.00000 
 43692.65567		 305.27265			43387.38302		68.68200		324.00000 
 43692.65567		 667.59000			43025.06567		187.58000		875.00000 
 43692.65567		 305.27265			43387.38302		68.68200		324.00000 
 43692.65567		 667.59000			43025.06567		187.58000		875.00000 
 43692.65567		 305.27265			43387.38302		68.68200		324.00000 
 43692.65567		 667.59000			43025.06567		187.58000		875.00000 
 43692.65567		 305.27265			43387.38302		68.68200		324.00000 
 43692.65567		 667.59000			43025.06567		187.58000		875.00000 
 43692.65567		 305.27265			43387.38302		68.68200		324.00000 
 43692.65567		 667.59000			43025.06567		187.58000		875.00000 
 43692.65567		 305.27265			43387.38302		68.68200		324.00000 
 43692.65567		 667.59000			43025.06567		187.58000		875.00000 
 43692.65567		 305.27265			43387.38302		68.68200		324.00000 
 43692.65567		 667.59000			43025.06567		187.58000		875.00000 
 43692.65567		 305.27265			43387.38302		68.68200		324.00000 
 43692.65567		 667.59000			43025.06567		187.58000		875.00000 
 43692.65567		 305.27265			43387.38302		68.68200		324.00000 
 43692.65567		 667.59000			43025.06567		187.58000		875.00000 
 43692.65567		 305.27265			43387.38302		68.68200		324.00000 
 43692.65567		 667.59000			43025.06567		187.58000		875.00000 
 43692.65567		 305.27265			43387.38302		68.68200		324.00000 
 43692.65567		 667.59000			43025.06567		187.58000		875.00000 
 43692.65567		 305.27265			43387.38302		68.68200		324.00000 
 43692.65567		 667.59000			43025.06567		187.58000		875.00000 
 43692.65567		 305.27265			43387.38302		68.68200		324.00000 
 43692.65567		 667.59000			43025.06567		187.58000		875.00000 
 43692.65567		 305.27265			43387.38302		68.68200		324.00000 
 43692.65567		 667.59000			43025.06567		187.58000		875.00000 
 43692.65567		 305.27265			43387.38302		68.68200		324.00000 
 43692.65567		 667.59000			43025.06567		187.58000		875.00000 
 43692.65567		 305.27265			43387.38302		68.68200		324.00000 
 43692.65567		 667.59000			43025.06567		187.58000		875.00000 
 43692.65567		 305.27265			43387.38302		68.68200		324.00000 
 43692.65567		 667.59000			43025.06567		187.58000		875.00000 
 43692.65567		 305.27265			43387.38302		68.68200		324.00000 
 43692.65567		 667.59000			43025.06567		187.58000		875.00000 
 43692.65567		 305.27265			43387.38302		68.68200		324.00000 
 43692.65567		 667.59000			43025.06567		187.58000		875.00000 
 43692.65567		 305.27265			43387.38302		68.68200		324.00000 
 43692.65567		 667.59000			43025.06567		187.58000		875.00000 
 43692.65567		 305.27265			43387.38302		68.68200		324.00000 
 43692.65567		 667.59000			43025.06567		187.58000		875.00000 
 43692.65567		 305.27265			43387.38302		68.68200		324.00000 
 43692.65567		 667.59000			43025.06567		209.48600		875.00000 
 43692.65567		 305.27265			43387.38302		68.68200		324.00000 
 43692.65567		 667.59000			43025.06567		209.48600		875.00000 
 43692.65567		 305.27265			43387.38302		68.68200		324.00000 
 43692.65567		 667.59000			43025.06567		209.48600		875.00000 
 43692.65567		 305.27265			43387.38302		68.68200		324.00000 
 43692.65567		 667.59000			43025.06567		209.48600		875.00000 
 43692.65567		 305.27265			43387.38302		68.68200		324.00000 
 43692.65567		 667.59000			43025.06567		209.48600		875.00000 
 43692.65567		 305.27265			43387.38302		68.68200		324.00000 
 43692.65567		 667.59000			43025.06567		209.48600		875.00000 
 43692.65567		 305.27265			43387.38302		68.68200		324.00000 
 43692.65567		 667.59000			43025.06567		209.48600		875.00000 
 43692.65567		 305.27265			43387.38302		68.68200		324.00000 
 43692.65567		 667.59000			43025.06567		209.48600		875.00000 
 43692.65567		 305.27265			43387.38302		68.68200		324.00000 
 43692.65567		 667.59000			43025.06567		209.48600		875.00000 
 43692.65567		 305.27265			43387.38302		68.68200		324.00000 
 43692.65567		 667.59000			43025.06567		209.48600		875.00000 
 43692.65567		 305.27265			43387.38302		68.68200		324.00000 
 43692.65567		 667.59000			43025.06567		209.48600		875.00000 
 43692.65567		 305.27265			43387.38302		68.68200		324.00000 
 43692.65567		 667.59000			43025.06567		209.48600		875.00000 
 43692.65567		 305.27265			43387.38302		68.68200		324.00000 
 43692.65567		 667.59000			43025.06567		209.48600		875.00000 
 43692.65567		 305.27265			43387.38302		68.68200		324.00000 
 43692.65567		 667.59000			43025.06567		209.48600		875.00000 
 43692.65567		 305.27265			43387.38302		68.68200		324.00000 
 43692.65567		 667.59000			43025.06567		209.48600		875.00000 
 43692.65567		 305.27265			43387.38302		68.68200		324.00000 
 43692.65567		 667.59000			43025.06567		209.48600		875.00000 
 43692.65567		 305.27265			43387.38302		68.68200		324.00000 
 43692.65567		 667.59000			43025.06567		209.48600		875.00000 
 43692.65567		 305.27265			43387.38302		68.68200		324.00000 
 43692.65567		 667.59000			43025.06567		209.48600		875.00000 
 43692.65567		 305.27265			43387.38302		68.68200		324.00000 
 43692.65567		 667.59000			43025.06567		209.48600		875.00000 
 43692.65567		 305.27265			43387.38302		68.68200		324.00000 
 43692.65567		 667.59000			43025.06567		209.48600		875.00000 
 43692.65567		 305.27265			43387.38302		68.68200		324.00000 
 43692.65567		 667.59000			43025.06567		209.48600		875.00000 
 43692.65567		 305.27265			43387.38302		68.68200		324.00000 
 43692.65567		 667.59000			43025.06567		209.48600		875.00000 
 43692.65567		 305.27265			43387.38302		68.68200		324.00000 
 43692.65567		 667.59000			43025.06567		209.48600		875.00000 
 43692.65567		 305.27265			43387.38302		68.68200		324.00000 
 43692.65567		 667.59000			43025.06567		209.48600		875.00000 
 43692.65567		 305.27265			43387.38302		68.68200		324.00000 
 43692.65567		 667.59000			43025.06567		209.48600		875.00000 
 43692.65567		 305.27265			43387.38302		68.68200		324.00000 
 43692.65567		 667.59000			43025.06567		209.48600		875.00000 
 43692.65567		 305.27265			43387.38302		68.68200		324.00000 
 43692.65567		 667.59000			43025.06567		209.48600		875.00000 
 43692.65567		 305.27265			43387.38302		68.68200		324.00000 
 43692.65567		 667.59000			43025.06567		209.48600		875.00000 
 43692.65567		 305.27265			43387.38302		68.68200		324.00000 
 43692.65567		 667.59000			43025.06567		209.48600		875.00000 
 43692.65567		 305.27265			43387.38302		68.68200		324.00000 
 43692.65567		 667.59000			43025.06567		209.48600		875.00000 
 43692.65567		 305.27265			43387.38302		68.68200		324.00000 
 43692.65567		 667.59000			43025.06567		209.48600		875.00000 
 43692.65567		 305.27265			43387.38302		68.68200		324.00000 
 43692.65567		 667.59000			43025.06567		209.48600		875.00000 
 43692.65567		 305.27265			43387.38302		68.68200		324.00000 
 43692.65567		 667.59000			43025.06567		209.48600		875.00000 
 43692.65567		 305.27265			43387.38302		68.68200		324.00000 
 43692.65567		 667.59000			43025.06567		209.48600		875.00000 
 43692.65567		 305.27265			43387.38302		68.68200		324.00000 
 43692.65567		 667.59000			43025.06567		209.48600		875.00000 
 43692.65567		 305.27265			43387.38302		68.68200		324.00000 
 43692.65567		 667.59000			43025.06567		209.48600		875.00000 
 43692.65567		 305.27265			43387.38302		68.68200		324.00000 
 43692.65567		 667.59000			43025.06567		209.48600		875.00000 
 43692.65567		 305.27265			43387.38302		68.68200		324.00000 
 43692.65567		 667.59000			43025.06567		209.48600		875.00000 
 43692.65567		 305.27265			43387.38302		68.68200		324.00000 
 43692.65567		 667.59000			43025.06567		209.48600		875.00000 
 43692.65567		 305.27265			43387.38302		68.68200		324.00000 
 43692.65567		 667.59000			43025.06567		209.48600		875.00000 
 43692.65567		 305.27265			43387.38302		68.68200		324.00000 
 43692.65567		 667.59000			43025.06567		209.48600		875.00000 
 43692.65567		 305.27265			43387.38302		68.68200		324.00000 
 43692.65567		 667.59000			43025.06567		209.48600		875.00000 
 43692.65567		 305.27265			43387.38302		68.68200		324.00000 
 43692.65567		 667.59000			43025.06567		209.48600		875.00000 
 43692.65567		 305.27265			43387.38302		68.68200		324.00000 
 43692.65567		 667.59000			43025.06567		209.48600		875.00000 
 43692.65567		 305.27265			43387.38302		68.68200		324.00000 
 43692.65567		 667.59000			43025.06567		209.48600		875.00000 
 43692.65567		 305.27265			43387.38302		68.68200		324.00000 
 43692.65567		 667.59000			43025.06567		209.48600		875.00000 
 43692.65567		 305.27265			43387.38302		68.68200		324.00000 
 43692.65567		 667.59000			43025.06567		209.48600		875.00000 
 43692.65567		 305.27265			43387.38302		68.68200		324.00000 
 43692.65567		 667.59000			43025.06567		209.48600		875.00000 
 43692.65567		 305.27265			43387.38302		68.68200		324.00000 
 43692.65567		 667.59000			43025.06567		209.48600		875.00000 
 43692.65567		 305.27265			43387.38302		68.68200		324.00000 
 43692.65567		 667.59000			43025.06567		209.48600		875.00000 
 43692.65567		 305.27265			43387.38302		68.68200		324.00000 
 43692.65567		 667.59000			43025.06567		209.48600		875.00000 
 43692.65567		 305.27265			43387.38302		68.68200		324.00000 
 43692.65567		 667.59000			43025.06567		209.48600		875.00000 
 43692.65567		 305.27265			43387.38302		68.68200		324.00000 
 43692.65567		 667.59000			43025.06567		209.48600		875.00000 
 43692.65567		 305.27265			43387.38302		68.68200		324.00000 
 43692.65567		 667.59000			43025.06567		209.48600		875.00000 
 43692.65567		 305.27265			43387.38302		68.68200		324.00000 
 43692.65567		 667.59000			43025.06567		209.48600		875.00000 
 43692.65567		 305.27265			43387.38302		68.68200		324.00000 
 43692.65567		 667.59000			43025.06567		209.48600		875.00000 
 43692.65567		 305.27265			43387.38302		68.68200		324.00000 
 43692.65567		 667.59000			43025.06567		209.48600		875.00000 
 43692.65567		 305.27265			43387.38302		68.68200		324.00000 
 43692.65567		 667.59000			43025.06567		209.48600		875.00000 
 43692.65567		 305.27265			43387.38302		68.68200		324.00000 
 43692.65567		 667.59000			43025.06567		209.48600		875.00000 
 43692.65567		 305.27265			43387.38302		68.68200		324.00000 
 43692.65567		 667.59000			43025.06567		209.48600		875.00000 
 43692.65567		 305.27265			43387.38302		68.68200		324.00000 
 43692.65567		 667.59000			43025.06567		209.48600		875.00000 
 43692.65567		 305.27265			43387.38302		68.68200		324.00000 
 43692.65567		 667.59000			43025.06567		209.48600		875.00000 
 43692.65567		 305.27265			43387.38302		68.68200		324.00000 
 43692.65567		 667.59000			43025.06567		209.48600		875.00000 
 43692.65567		 305.27265			43387.38302		68.68200		324.00000 
 43692.65567		 667.59000			43025.06567		217.38000		875.00000 
 43692.65567		 305.27265			43387.38302		68.68200		324.00000 
 43692.65567		 667.59000			43025.06567		217.38000		875.00000 
 43692.65567		 305.27265			43387.38302		68.68200		324.00000 
 43692.65567		 667.59000			43025.06567		217.38000		875.00000 
 43692.65567		 305.27265			43387.38302		68.68200		324.00000 
 43692.65567		 667.59000			43025.06567		217.38000		875.00000 
 43692.65567		 305.27265			43387.38302		68.68200		324.00000 
 43692.65567		 667.59000			43025.06567		217.38000		875.00000 
 43692.65567		 305.27265			43387.38302		68.68200		324.00000 
 43692.65567		 667.59000			43025.06567		217.38000		875.00000 
 43692.65567		 305.27265			43387.38302		68.68200		324.00000 
 43692.65567		 667.59000			43025.06567		217.38000		875.00000 
 43692.65567		 305.27265			43387.38302		68.68200		324.00000 
 43692.65567		 667.59000			43025.06567		217.38000		875.00000 
 43692.65567		 305.27265			43387.38302		68.68200		324.00000 
 43692.65567		 667.59000			43025.06567		217.38000		875.00000 
 43692.65567		 305.27265			43387.38302		68.68200		324.00000 
 43692.65567		 667.59000			43025.06567		217.38000		875.00000 
 43692.65567		 305.27265			43387.38302		68.68200		324.00000 
 43692.65567		 667.59000			43025.06567		217.38000		875.00000 
 43692.65567		 305.27265			43387.38302		68.68200		324.00000 
 43692.65567		 667.59000			43025.06567		217.38000		875.00000 
 43692.65567		 305.27265			43387.38302		68.68200		324.00000 
 43692.65567		 667.59000			43025.06567		217.38000		875.00000 
 43692.65567		 305.27265			43387.38302		68.68200		324.00000 
 43692.65567		 667.59000			43025.06567		217.38000		875.00000 
 43692.65567		 305.27265			43387.38302		68.68200		324.00000 
 43692.65567		 667.59000			43025.06567		217.38000		875.00000 
 43692.65567		 305.27265			43387.38302		68.68200		324.00000 
 43692.65567		 667.59000			43025.06567		217.38000		875.00000 
 43692.65567		 305.27265			43387.38302		68.68200		324.00000 
 43692.65567		 667.59000			43025.06567		217.38000		875.00000 
 43692.65567		 305.27265			43387.38302		68.68200		324.00000 
 43692.65567		 667.59000			43025.06567		217.38000		875.00000 
 43692.65567		 305.27265			43387.38302		68.68200		324.00000 
 43692.65567		 667.59000			43025.06567		217.38000		875.00000 
 43692.65567		 305.27265			43387.38302		68.68200		324.00000 
 43692.65567		 667.59000			43025.06567		217.38000		875.00000 
 43692.65567		 305.27265			43387.38302		68.68200		324.00000 
 43692.65567		 667.59000			43025.06567		217.38000		875.00000 
 43692.65567		 305.27265			43387.38302		68.68200		324.00000 
 43692.65567		 667.59000			43025.06567		217.38000		875.00000 
 43692.65567		 305.27265			43387.38302		68.68200		324.00000 
 43692.65567		 667.59000			43025.06567		217.38000		875.00000 
 43692.65567		 305.27265			43387.38302		68.68200		324.00000 
 43692.65567		 667.59000			43025.06567		217.38000		875.00000 
 43692.65567		 305.27265			43387.38302		68.68200		324.00000 
 43692.65567		 667.59000			43025.06567		217.38000		875.00000 
 43692.65567		 305.27265			43387.38302		68.68200		324.00000 
 43692.65567		 667.59000			43025.06567		217.38000		875.00000 
 43692.65567		 305.27265			43387.38302		68.68200		324.00000 
 43692.65567		 667.59000			43025.06567		217.38000		875.00000 
 43692.65567		 305.27265			43387.38302		68.68200		324.00000 
 43692.65567		 667.59000			43025.06567		217.38000		875.00000 
 43692.65567		 305.27265			43387.38302		68.68200		324.00000 
 43692.65567		 667.59000			43025.06567		217.38000		875.00000 
 43692.65567		 305.27265			43387.38302		68.68200		324.00000 
 43692.65567		 667.59000			43025.06567		217.38000		875.00000 
 43692.65567		 305.27265			43387.38302		68.68200		324.00000 
 43692.65567		 667.59000			43025.06567		217.38000		875.00000 
 43692.65567		 305.27265			43387.38302		68.68200		324.00000 
 43692.65567		 667.59000			43025.06567		217.38000		875.00000 
 43692.65567		 305.27265			43387.38302		68.68200		324.00000 
 43692.65567		 667.59000			43025.06567		217.38000		875.00000 
 43692.65567		 305.27265			43387.38302		68.68200		324.00000 
 43692.65567		 667.59000			43025.06567		217.38000		875.00000 
 43692.65567		 305.27265			43387.38302		68.68200		324.00000 
 43692.65567		 667.59000			43025.06567		217.38000		875.00000 
 43692.65567		 305.27265			43387.38302		68.68200		324.00000 
 43692.65567		 667.59000			43025.06567		217.38000		875.00000 
 43692.65567		 305.27265			43387.38302		68.68200		324.00000 
 43692.65567		 667.59000			43025.06567		217.38000		875.00000 
 43692.65567		 305.27265			43387.38302		68.68200		324.00000 
 43692.65567		 667.59000			43025.06567		217.38000		875.00000 
 43692.65567		 305.27265			43387.38302		68.68200		324.00000 
 43692.65567		 667.59000			43025.06567		217.38000		875.00000 
 43692.65567		 305.27265			43387.38302		68.68200		324.00000 
 43692.65567		 667.59000			43025.06567		217.38000		875.00000 
 43692.65567		 305.27265			43387.38302		68.68200		324.00000 
 43692.65567		 667.59000			43025.06567		217.38000		875.00000 
 43692.65567		 305.27265			43387.38302		68.68200		324.00000 
 43692.65567		 667.59000			43025.06567		217.38000		875.00000 
 43692.65567		 305.27265			43387.38302		68.68200		324.00000 
 43692.65567		 667.59000			43025.06567		217.38000		875.00000 
 43692.65567		 305.27265			43387.38302		68.68200		324.00000 
 43692.65567		 667.59000			43025.06567		217.38000		875.00000 
 43692.65567		 305.27265			43387.38302		68.68200		324.00000 
 43692.65567		 667.59000			43025.06567		217.38000		875.00000 
 43692.65567		 305.27265			43387.38302		68.68200		324.00000 
 43692.65567		 667.59000			43025.06567		217.38000		875.00000 
 43692.65567		 305.27265			43387.38302		68.68200		324.00000 
 43692.65567		 667.59000			43025.06567		217.38000		875.00000 
 43692.65567		 305.27265			43387.38302		68.68200		324.00000 
 43692.65567		 667.59000			43025.06567		217.38000		875.00000 
 43692.65567		 305.27265			43387.38302		68.68200		324.00000 
 43692.65567		 667.59000			43025.06567		217.38000		875.00000 
 43692.65567		 305.27265			43387.38302		68.68200		324.00000 
 43692.65567		 667.59000			43025.06567		217.38000		875.00000 
 43692.65567		 305.27265			43387.38302		68.68200		324.00000 
 43692.65567		 667.59000			43025.06567		217.38000		875.00000 
 43692.65567		 305.27265			43387.38302		68.68200		324.00000 
 43692.65567		 667.59000			43025.06567		217.38000		875.00000 
 43692.65567		 305.27265			43387.38302		68.68200		324.00000 
 43692.65567		 667.59000			43025.06567		217.38000		875.00000 
 43692.65567		 305.27265			43387.38302		69.65600		324.00000 
 43692.65567		 667.59000			43025.06567		217.38000		875.00000 
 43692.65567		 305.27265			43387.38302		69.65600		324.00000 
 43692.65567		 667.59000			43025.06567		217.38000		875.00000 
 43692.65567		 305.27265			43387.38302		69.65600		324.00000 
 43692.65567		 667.59000			43025.06567		217.38000		875.00000 
 43692.65567		 305.27265			43387.38302		69.65600		324.00000 
 43692.65567		 667.59000			43025.06567		217.38000		875.00000 
 43692.65567		 305.27265			43387.38302		69.65600		324.00000 
 43692.65567		 667.59000			43025.06567		217.38000		875.00000 
 43692.65567		 305.27265			43387.38302		69.65600		324.00000 
 43692.65567		 667.59000			43025.06567		217.38000		875.00000 
 43692.65567		 305.27265			43387.38302		69.65600		324.00000 
 43692.65567		 667.59000			43025.06567		217.38000		875.00000 
 43692.65567		 305.27265			43387.38302		69.65600		324.00000 
 43692.65567		 667.59000			43025.06567		220.90800		875.00000 
 43692.65567		 305.27265			43387.38302		69.65600		324.00000 
 43692.65567		 667.59000			43025.06567		220.90800		875.00000 
 43692.65567		 305.27265			43387.38302		69.65600		324.00000 
 43692.65567		 667.59000			43025.06567		220.90800		875.00000 
 43692.65567		 305.27265			43387.38302		69.65600		324.00000 
 43692.65567		 667.59000			43025.06567		220.90800		875.00000 
 43692.65567		 305.27265			43387.38302		69.65600		324.00000 
 43692.65567		 667.59000			43025.06567		220.90800		875.00000 
 43692.65567		 305.27265			43387.38302		69.65600		324.00000 
 43692.65567		 667.59000			43025.06567		220.90800		875.00000 
 43692.65567		 305.27265			43387.38302		69.65600		324.00000 
 43692.65567		 667.59000			43025.06567		220.90800		875.00000 
 43692.65567		 305.27265			43387.38302		69.65600		324.00000 
 43692.65567		 667.59000			43025.06567		220.90800		875.00000 
 43692.65567		 305.27265			43387.38302		69.65600		324.00000 
 43692.65567		 667.59000			43025.06567		220.90800		875.00000 
 43692.65567		 305.27265			43387.38302		69.65600		324.00000 
 43692.65567		 667.59000			43025.06567		220.90800		875.00000 
 43692.65567		 305.27265			43387.38302		69.65600		324.00000 
 43692.65567		 667.59000			43025.06567		220.90800		875.00000 
 43692.65567		 305.27265			43387.38302		69.65600		324.00000 
 43692.65567		 667.59000			43025.06567		220.90800		875.00000 
 43692.65567		 305.27265			43387.38302		69.65600		324.00000 
 43692.65567		 667.59000			43025.06567		220.90800		875.00000 
 43692.65567		 305.27265			43387.38302		69.65600		324.00000 
 43692.65567		 667.59000			43025.06567		220.90800		875.00000 
 43692.65567		 305.27265			43387.38302		69.65600		324.00000 
 43692.65567		 667.59000			43025.06567		220.90800		875.00000 
 43692.65567		 305.27265			43387.38302		69.65600		324.00000 
 43692.65567		 667.59000			43025.06567		220.90800		875.00000 
 43692.65567		 305.27265			43387.38302		69.65600		324.00000 
 43692.65567		 667.59000			43025.06567		220.90800		875.00000 
 43692.65567		 305.27265			43387.38302		69.65600		324.00000 
 43692.65567		 667.59000			43025.06567		220.90800		875.00000 
 43692.65567		 305.27265			43387.38302		69.65600		324.00000 
 43692.65567		 667.59000			43025.06567		220.90800		875.00000 
 43692.65567		 305.27265			43387.38302		69.65600		324.00000 
 43692.65567		 667.59000			43025.06567		220.90800		875.00000 
 43692.65567		 305.27265			43387.38302		69.65600		324.00000 
 43692.65567		 667.59000			43025.06567		220.90800		875.00000 
 43692.65567		 305.27265			43387.38302		69.65600		324.00000 
 43692.65567		 667.59000			43025.06567		220.90800		875.00000 
 43692.65567		 305.27265			43387.38302		69.65600		324.00000 
 43692.65567		 667.59000			43025.06567		220.90800		875.00000 
 43692.65567		 305.27265			43387.38302		69.65600		324.00000 
 43692.65567		 667.59000			43025.06567		220.90800		875.00000 
 43692.65567		 305.27265			43387.38302		69.65600		324.00000 
 43692.65567		 667.59000			43025.06567		220.90800		875.00000 
 43692.65567		 305.27265			43387.38302		69.65600		324.00000 
 43692.65567		 667.59000			43025.06567		220.90800		875.00000 
 43692.65567		 305.27265			43387.38302		69.65600		324.00000 
 43692.65567		 667.59000			43025.06567		220.90800		875.00000 
 43692.65567		 305.27265			43387.38302		69.65600		324.00000 
 43692.65567		 667.59000			43025.06567		220.90800		875.00000 
 43692.65567		 305.27265			43387.38302		69.65600		324.00000 
 43692.65567		 667.59000			43025.06567		220.90800		875.00000 
 43692.65567		 305.27265			43387.38302		69.65600		324.00000 
 43692.65567		 667.59000			43025.06567		220.90800		875.00000 
 43692.65567		 305.27265			43387.38302		69.65600		324.00000 
 43692.65567		 667.59000			43025.06567		220.90800		875.00000 
 43692.65567		 305.27265			43387.38302		69.65600		324.00000 
 43692.65567		 667.59000			43025.06567		220.90800		875.00000 
 43692.65567		 305.27265			43387.38302		69.65600		324.00000 
 43692.65567		 667.59000			43025.06567		220.90800		875.00000 
 43692.65567		 305.27265			43387.38302		69.65600		324.00000 
 43692.65567		 667.59000			43025.06567		220.90800		875.00000 
 43692.65567		 305.27265			43387.38302		69.65600		324.00000 
 43692.65567		 667.59000			43025.06567		220.90800		875.00000 
 43692.65567		 305.27265			43387.38302		69.65600		324.00000 
 43692.65567		 667.59000			43025.06567		220.90800		875.00000 
 43692.65567		 305.27265			43387.38302		69.65600		324.00000 
 43692.65567		 667.59000			43025.06567		220.90800		875.00000 
 43692.65567		 305.27265			43387.38302		69.65600		324.00000 
 43692.65567		 667.59000			43025.06567		220.90800		875.00000 
 43692.65567		 305.27265			43387.38302		69.65600		324.00000 
 43692.65567		 667.59000			43025.06567		220.90800		875.00000 
 43692.65567		 305.27265			43387.38302		69.65600		324.00000 
 43692.65567		 667.59000			43025.06567		220.90800		875.00000 
 43692.65567		 305.27265			43387.38302		69.65600		324.00000 
 43692.65567		 667.59000			43025.06567		220.90800		875.00000 
 43692.65567		 305.27265			43387.38302		69.65600		324.00000 
 43692.65567		 667.59000			43025.06567		220.90800		875.00000 
 43692.65567		 305.27265			43387.38302		69.65600		324.00000 
 43692.65567		 667.59000			43025.06567		220.90800		875.00000 
 43692.65567		 305.27265			43387.38302		69.65600		324.00000 
 43692.65567		 667.59000			43025.06567		220.90800		875.00000 
 43692.65567		 305.27265			43387.38302		69.65600		324.00000 
 43692.65567		 667.59000			43025.06567		220.90800		875.00000 
 43692.65567		 305.27265			43387.38302		69.65600		324.00000 
 43692.65567		 667.59000			43025.06567		220.90800		875.00000 
 43692.65567		 305.27265			43387.38302		69.65600		324.00000 
 43692.65567		 667.59000			43025.06567		220.90800		875.00000 
 43692.65567		 305.27265			43387.38302		69.65600		324.00000 
 43692.65567		 667.59000			43025.06567		220.90800		875.00000 
 43692.65567		 305.27265			43387.38302		69.65600		324.00000 
 43692.65567		 667.59000			43025.06567		220.90800		875.00000 
 43692.65567		 305.27265			43387.38302		69.65600		324.00000 
 43692.65567		 667.59000			43025.06567		220.90800		875.00000 
 43692.65567		 305.27265			43387.38302		69.65600		324.00000 
 43692.65567		 667.59000			43025.06567		220.90800		875.00000 
 43692.65567		 305.27265			43387.38302		69.65600		324.00000 
 43692.65567		 667.59000			43025.06567		220.90800		875.00000 
 43692.65567		 305.27265			43387.38302		69.65600		324.00000 
 43692.65567		 667.59000			43025.06567		220.90800		875.00000 
 43692.65567		 305.27265			43387.38302		69.65600		324.00000 
 43692.65567		 667.59000			43025.06567		220.90800		875.00000 
 43692.65567		 305.27265			43387.38302		69.65600		324.00000 
 43692.65567		 667.59000			43025.06567		220.90800		875.00000 
 43692.65567		 305.27265			43387.38302		69.65600		324.00000 
 43692.65567		 667.59000			43025.06567		220.90800		875.00000 
 43692.65567		 305.27265			43387.38302		69.65600		324.00000 
 43692.65567		 667.59000			43025.06567		220.90800		875.00000 
 43692.65567		 305.27265			43387.38302		69.65600		324.00000 
 43692.65567		 667.59000			43025.06567		220.90800		875.00000 
 43692.65567		 305.27265			43387.38302		69.65600		324.00000 
 43692.65567		 667.59000			43025.06567		220.90800		875.00000 
 43692.65567		 305.27265			43387.38302		69.65600		324.00000 
 43692.65567		 667.59000			43025.06567		220.90800		875.00000 
 43692.65567		 305.27265			43387.38302		69.65600		324.00000 
 43692.65567		 667.59000			43025.06567		220.90800		875.00000 
 43692.65567		 305.27265			43387.38302		69.65600		324.00000 
 43692.65567		 667.59000			43025.06567		220.90800		875.00000 
 43692.65567		 305.27265			43387.38302		69.65600		324.00000 
 43692.65567		 667.59000			43025.06567		220.90800		875.00000 
 43692.65567		 305.27265			43387.38302		69.65600		324.00000 
 43692.65567		 667.59000			43025.06567		221.70000		875.00000 
 43692.65567		 305.27265			43387.38302		69.65600		324.00000 
 43692.65567		 667.59000			43025.06567		221.70000		875.00000 
 43692.65567		 305.27265			43387.38302		69.65600		324.00000 
 43692.65567		 667.59000			43025.06567		221.70000		875.00000 
 43692.65567		 305.27265			43387.38302		69.65600		324.00000 
 43692.65567		 667.59000			43025.06567		221.70000		875.00000 
 43692.65567		 305.27265			43387.38302		69.65600		324.00000 
 43692.65567		 667.59000			43025.06567		221.70000		875.00000 
 43692.65567		 305.27265			43387.38302		69.65600		324.00000 
 43692.65567		 667.59000			43025.06567		221.70000		875.00000 
 43692.65567		 305.27265			43387.38302		69.65600		324.00000 
 43692.65567		 667.59000			43025.06567		221.70000		875.00000 
 43692.65567		 305.27265			43387.38302		69.65600		324.00000 
 43692.65567		 667.59000			43025.06567		221.70000		875.00000 
 43692.65567		 305.27265			43387.38302		69.65600		324.00000 
 43692.65567		 667.59000			43025.06567		221.70000		875.00000 
 43692.65567		 305.27265			43387.38302		69.65600		324.00000 
 43692.65567		 667.59000			43025.06567		221.70000		875.00000 
 43692.65567		 305.27265			43387.38302		69.65600		324.00000 
 43692.65567		 667.59000			43025.06567		221.70000		875.00000 
 43692.65567		 305.27265			43387.38302		69.65600		324.00000 
 43692.65567		 667.59000			43025.06567		221.70000		875.00000 
 43692.65567		 305.27265			43387.38302		69.65600		324.00000 
 43692.65567		 667.59000			43025.06567		221.70000		875.00000 
 43692.65567		 305.27265			43387.38302		69.65600		324.00000 
 43692.65567		 667.59000			43025.06567		221.70000		875.00000 
 43692.65567		 305.27265			43387.38302		69.65600		324.00000 
 43692.65567		 667.59000			43025.06567		221.70000		875.00000 
 43692.65567		 305.27265			43387.38302		69.65600		324.00000 
 43692.65567		 667.59000			43025.06567		221.70000		875.00000 
 43692.65567		 305.27265			43387.38302		69.65600		324.00000 
 43692.65567		 667.59000			43025.06567		221.70000		875.00000 
 43692.65567		 305.27265			43387.38302		69.65600		324.00000 
 43692.65567		 667.59000			43025.06567		221.70000		875.00000 
 43692.65567		 305.27265			43387.38302		69.65600		324.00000 
 43692.65567		 667.59000			43025.06567		221.70000		875.00000 
 43692.65567		 305.27265			43387.38302		69.65600		324.00000 
 43692.65567		 667.59000			43025.06567		221.70000		875.00000 
 43692.65567		 305.27265			43387.38302		69.65600		324.00000 
 43692.65567		 667.59000			43025.06567		221.70000		875.00000 
 43692.65567		 305.27265			43387.38302		69.65600		324.00000 
 43692.65567		 667.59000			43025.06567		221.70000		875.00000 
 43692.65567		 305.27265			43387.38302		69.65600		324.00000 
 43692.65567		 667.59000			43025.06567		221.70000		875.00000 
 43692.65567		 305.27265			43387.38302		69.65600		324.00000 
 43692.65567		 667.59000			43025.06567		221.70000		875.00000 
 43692.65567		 305.27265			43387.38302		69.65600		324.00000 
 43692.65567		 667.59000			43025.06567		221.70000		875.00000 
 43692.65567		 305.27265			43387.38302		69.65600		324.00000 
 43692.65567		 667.59000			43025.06567		221.70000		875.00000 
 43692.65567		 305.27265			43387.38302		69.65600		324.00000 
 43692.65567		 667.59000			43025.06567		221.70000		875.00000 
 43692.65567		 305.27265			43387.38302		69.65600		324.00000 
 43692.65567		 667.59000			43025.06567		221.70000		875.00000 
 43692.65567		 305.27265			43387.38302		69.65600		324.00000 
 43692.65567		 667.59000			43025.06567		221.70000		875.00000 
 43692.65567		 305.27265			43387.38302		69.65600		324.00000 
 43692.65567		 667.59000			43025.06567		221.70000		875.00000 
 43692.65567		 305.27265			43387.38302		69.65600		324.00000 
 43692.65567		 667.59000			43025.06567		221.70000		875.00000 
 43692.65567		 305.27265			43387.38302		69.65600		324.00000 
 43692.65567		 667.59000			43025.06567		221.70000		875.00000 
 43692.65567		 305.27265			43387.38302		69.65600		324.00000 
 43692.65567		 667.59000			43025.06567		221.70000		875.00000 
 43692.65567		 305.27265			43387.38302		69.65600		324.00000 
 43692.65567		 667.59000			43025.06567		221.70000		875.00000 
 43692.65567		 305.27265			43387.38302		69.65600		324.00000 
 43692.65567		 667.59000			43025.06567		221.70000		875.00000 
 43692.65567		 305.27265			43387.38302		69.65600		324.00000 
 43692.65567		 667.59000			43025.06567		221.70000		875.00000 
 43692.65567		 305.27265			43387.38302		69.65600		324.00000 
 43692.65567		 667.59000			43025.06567		221.70000		875.00000 
 43692.65567		 305.27265			43387.38302		69.65600		324.00000 
 43692.65567		 667.59000			43025.06567		221.70000		875.00000 
 43692.65567		 305.27265			43387.38302		69.65600		324.00000 
 43692.65567		 667.59000			43025.06567		221.70000		875.00000 
 43692.65567		 305.27265			43387.38302		69.65600		324.00000 
 43692.65567		 667.59000			43025.06567		221.70000		875.00000 
 43692.65567		 305.27265			43387.38302		69.65600		324.00000 
 43692.65567		 667.59000			43025.06567		221.70000		875.00000 
 43692.65567		 305.27265			43387.38302		69.65600		324.00000 
 43692.65567		 667.59000			43025.06567		221.70000		875.00000 
 43692.65567		 305.27265			43387.38302		69.65600		324.00000 
 43692.65567		 667.59000			43025.06567		221.70000		875.00000 
 43692.65567		 305.27265			43387.38302		69.65600		324.00000 
 43692.65567		 667.59000			43025.06567		221.70000		875.00000 
 43692.65567		 305.27265			43387.38302		69.65600		324.00000 
 43692.65567		 667.59000			43025.06567		221.70000		875.00000 
 43692.65567		 305.27265			43387.38302		69.65600		324.00000 
 43692.65567		 667.59000			43025.06567		221.70000		875.00000 
 43692.65567		 305.27265			43387.38302		69.65600		324.00000 
 43692.65567		 667.59000			43025.06567		221.70000		875.00000 
 43692.65567		 305.27265			43387.38302		69.65600		324.00000 
 43692.65567		 667.59000			43025.06567		221.70000		875.00000 
 43692.65567		 305.27265			43387.38302		69.65600		324.00000 
 43692.65567		 667.59000			43025.06567		221.70000		875.00000 
 43692.65567		 305.27265			43387.38302		69.65600		324.00000 
 43692.65567		 667.59000			43025.06567		221.70000		875.00000 
 43692.65567		 305.27265			43387.38302		69.65600		324.00000 
 43692.65567		 667.59000			43025.06567		221.70000		875.00000 
 43692.65567		 305.27265			43387.38302		69.65600		324.00000 
 43692.65567		 667.59000			43025.06567		221.70000		875.00000 
 43692.65567		 305.27265			43387.38302		69.65600		324.00000 
 43692.65567		 667.59000			43025.06567		221.70000		875.00000 
 43692.65567		 305.27265			43387.38302		69.65600		324.00000 
 43692.65567		 667.59000			43025.06567		221.70000		875.00000 
 43692.65567		 305.27265			43387.38302		69.65600		324.00000 
 43692.65567		 667.59000			43025.06567		221.70000		875.00000 
 43692.65567		 305.27265			43387.38302		69.65600		324.00000 
 43692.65567		 667.59000			43025.06567		221.70000		875.00000 
 43692.65567		 305.27265			43387.38302		69.65600		324.00000 
 43692.65567		 667.59000			43025.06567		221.70000		875.00000 
 43692.65567		 305.27265			43387.38302		69.65600		324.00000 
 43692.65567		 667.59000			43025.06567		221.70000		875.00000 
 43692.65567		 305.27265			43387.38302		69.65600		324.00000 
 43692.65567		 667.59000			43025.06567		221.70000		875.00000 
 43692.65567		 305.27265			43387.38302		69.65600		324.00000 
 43692.65567		 667.59000			43025.06567		221.70000		875.00000 
 43692.65567		 305.27265			43387.38302		69.65600		324.00000 
 43692.65567		 667.59000			43025.06567		221.70000		875.00000 
 43692.65567		 305.27265			43387.38302		69.65600		324.00000 
 43692.65567		 667.59000			43025.06567		221.70000		875.00000 
 43692.65567		 305.27265			43387.38302		69.65600		324.00000 
 43692.65567		 667.59000			43025.06567		221.70000		875.00000 
 43692.65567		 305.27265			43387.38302		69.65600		324.00000 
 43692.65567		 667.59000			43025.06567		221.70000		875.00000 
 43692.65567		 305.27265			43387.38302		69.65600		324.00000 
 43692.65567		 667.59000			43025.06567		221.70000		875.00000 
 43692.65567		 305.27265			43387.38302		69.65600		324.00000 
 43692.65567		 667.59000			43025.06567		222.66000		875.00000 
 43692.65567		 305.27265			43387.38302		69.65600		324.00000 
 43692.65567		 667.59000			43025.06567		222.66000		875.00000 
 43692.65567		 305.27265			43387.38302		69.65600		324.00000 
 43692.65567		 667.59000			43025.06567		222.66000		875.00000 
 43692.65567		 305.27265			43387.38302		69.65600		324.00000 
 43692.65567		 667.59000			43025.06567		222.66000		875.00000 
 43692.65567		 305.27265			43387.38302		69.65600		324.00000 
 43692.65567		 667.59000			43025.06567		222.66000		875.00000 
 43692.65567		 305.27265			43387.38302		69.65600		324.00000 
 43692.65567		 667.59000			43025.06567		222.66000		875.00000 
 43692.65567		 305.27265			43387.38302		69.65600		324.00000 
 43692.65567		 667.59000			43025.06567		222.66000		875.00000 
 43692.65567		 305.27265			43387.38302		69.65600		324.00000 
 43692.65567		 667.59000			43025.06567		222.66000		875.00000 
 43692.65567		 305.27265			43387.38302		69.65600		324.00000 
 43692.65567		 667.59000			43025.06567		222.66000		875.00000 
 43692.65567		 305.27265			43387.38302		69.65600		324.00000 
 43692.65567		 667.59000			43025.06567		222.66000		875.00000 
 43692.65567		 305.27265			43387.38302		69.65600		324.00000 
 43692.65567		 667.59000			43025.06567		222.66000		875.00000 
 43692.65567		 305.27265			43387.38302		69.65600		324.00000 
 43692.65567		 667.59000			43025.06567		222.66000		875.00000 
 43692.65567		 305.27265			43387.38302		69.65600		324.00000 
 43692.65567		 667.59000			43025.06567		222.66000		875.00000 
 43692.65567		 305.27265			43387.38302		69.65600		324.00000 
 43692.65567		 667.59000			43025.06567		222.66000		875.00000 
 43692.65567		 305.27265			43387.38302		69.65600		324.00000 
 43692.65567		 667.59000			43025.06567		222.66000		875.00000 
 43692.65567		 305.27265			43387.38302		69.65600		324.00000 
 43692.65567		 667.59000			43025.06567		222.66000		875.00000 
 43692.65567		 305.27265			43387.38302		69.65600		324.00000 
 43692.65567		 667.59000			43025.06567		222.66000		875.00000 
 43692.65567		 305.27265			43387.38302		69.65600		324.00000 
 43692.65567		 667.59000			43025.06567		222.66000		875.00000 
 43692.65567		 305.27265			43387.38302		69.65600		324.00000 
 43692.65567		 667.59000			43025.06567		222.66000		875.00000 
 43692.65567		 305.27265			43387.38302		69.65600		324.00000 
 43692.65567		 667.59000			43025.06567		222.66000		875.00000 
 43692.65567		 305.27265			43387.38302		69.65600		324.00000 
 43692.65567		 667.59000			43025.06567		222.66000		875.00000 
 43692.65567		 305.27265			43387.38302		69.65600		324.00000 
 43692.65567		 667.59000			43025.06567		222.66000		875.00000 
 43692.65567		 305.27265			43387.38302		69.65600		324.00000 
 43692.65567		 667.59000			43025.06567		222.66000		875.00000 
 43692.65567		 305.27265			43387.38302		69.65600		324.00000 
 43692.65567		 667.59000			43025.06567		222.66000		875.00000 
 43692.65567		 305.27265			43387.38302		69.65600		324.00000 
 43692.65567		 667.59000			43025.06567		222.66000		875.00000 
 43692.65567		 305.27265			43387.38302		69.65600		324.00000 
 43692.65567		 667.59000			43025.06567		222.66000		875.00000 
 43692.65567		 305.27265			43387.38302		69.65600		324.00000 
 43692.65567		 667.59000			43025.06567		222.66000		875.00000 
 43692.65567		 305.27265			43387.38302		69.65600		324.00000 
 43692.65567		 667.59000			43025.06567		222.66000		875.00000 
 43692.65567		 305.27265			43387.38302		69.65600		324.00000 
 43692.65567		 667.59000			43025.06567		222.66000		875.00000 
 43692.65567		 305.27265			43387.38302		69.65600		324.00000 
 43692.65567		 667.59000			43025.06567		222.66000		875.00000 
 43692.65567		 305.27265			43387.38302		69.65600		324.00000 
 43692.65567		 667.59000			43025.06567		222.66000		875.00000 
 43692.65567		 305.27265			43387.38302		69.65600		324.00000 
 43692.65567		 667.59000			43025.06567		222.66000		875.00000 
 43692.65567		 305.27265			43387.38302		69.65600		324.00000 
 43692.65567		 667.59000			43025.06567		222.66000		875.00000 
 43692.65567		 305.27265			43387.38302		69.65600		324.00000 
 43692.65567		 667.59000			43025.06567		222.66000		875.00000 
 43692.65567		 305.27265			43387.38302		69.65600		324.00000 
 43692.65567		 667.59000			43025.06567		222.66000		875.00000 
 43692.65567		 305.27265			43387.38302		69.65600		324.00000 
 43692.65567		 667.59000			43025.06567		222.66000		875.00000 
 43692.65567		 305.27265			43387.38302		69.65600		324.00000 
 43692.65567		 667.59000			43025.06567		222.66000		875.00000 
 43692.65567		 305.27265			43387.38302		69.65600		324.00000 
 43692.65567		 667.59000			43025.06567		222.66000		875.00000 
 43692.65567		 305.27265			43387.38302		69.65600		324.00000 
 43692.65567		 667.59000			43025.06567		222.66000		875.00000 
 43692.65567		 305.27265			43387.38302		69.65600		324.00000 
 43692.65567		 667.59000			43025.06567		222.66000		875.00000 
 43692.65567		 305.27265			43387.38302		69.65600		324.00000 
 43692.65567		 667.59000			43025.06567		222.66000		875.00000 
 43692.65567		 305.27265			43387.38302		69.65600		324.00000 
 43692.65567		 667.59000			43025.06567		222.66000		875.00000 
 43692.65567		 305.27265			43387.38302		69.65600		324.00000 
 43692.65567		 667.59000			43025.06567		222.66000		875.00000 
 43692.65567		 305.27265			43387.38302		69.65600		324.00000 
 43692.65567		 667.59000			43025.06567		222.66000		875.00000 
 43692.65567		 305.27265			43387.38302		69.65600		324.00000 
 43692.65567		 667.59000			43025.06567		222.66000		875.00000 
 43692.65567		 305.27265			43387.38302		69.65600		324.00000 
 43692.65567		 667.59000			43025.06567		222.66000		875.00000 
 43692.65567		 305.27265			43387.38302		69.65600		324.00000 
 43692.65567		 667.59000			43025.06567		222.66000		875.00000 
 43692.65567		 305.27265			43387.38302		69.65600		324.00000 
 43692.65567		 667.59000			43025.06567		222.66000		875.00000 
 43692.65567		 305.27265			43387.38302		69.65600		324.00000 
 43692.65567		 667.59000			43025.06567		222.66000		875.00000 
 43692.65567		 305.27265			43387.38302		69.65600		324.00000 
 43692.65567		 667.59000			43025.06567		222.66000		875.00000 
 43692.65567		 305.27265			43387.38302		69.65600		324.00000 
 43692.65567		 667.59000			43025.06567		222.66000		875.00000 
 43692.65567		 305.27265			43387.38302		69.65600		324.00000 
 43692.65567		 667.59000			43025.06567		222.66000		875.00000 
 43692.65567		 305.27265			43387.38302		69.65600		324.00000 
 43692.65567		 667.59000			43025.06567		222.66000		875.00000 
 43692.65567		 305.27265			43387.38302		69.65600		324.00000 
 43692.65567		 667.59000			43025.06567		222.66000		875.00000 
 43692.65567		 305.27265			43387.38302		69.65600		324.00000 
 43692.65567		 667.59000			43025.06567		222.66000		875.00000 
 43692.65567		 305.27265			43387.38302		69.65600		324.00000 
 43692.65567		 667.59000			43025.06567		222.66000		875.00000 
 43692.65567		 305.27265			43387.38302		69.65600		324.00000 
 43692.65567		 667.59000			43025.06567		222.66000		875.00000 
 43692.65567		 305.27265			43387.38302		69.65600		324.00000 
 43692.65567		 667.59000			43025.06567		222.66000		875.00000 
 43692.65567		 305.27265			43387.38302		69.65600		324.00000 
 43692.65567		 667.59000			43025.06567		222.66000		875.00000 
 43692.65567		 305.27265			43387.38302		69.65600		324.00000 
 43692.65567		 667.59000			43025.06567		222.66000		875.00000 
 43692.65567		 305.27265			43387.38302		69.65600		324.00000 
 43692.65567		 667.59000			43025.06567		222.66000		875.00000 
 43692.65567		 305.27265			43387.38302		69.65600		324.00000 
 43692.65567		 667.59000			43025.06567		222.66000		875.00000 
 43692.65567		 305.27265			43387.38302		69.65600		324.00000 
 43692.65567		 667.59000			43025.06567		222.66000		875.00000 
 43692.65567		 305.27265			43387.38302		69.65600		324.00000 
 43692.65567		 667.59000			43025.06567		222.66000		875.00000 
 43692.65567		 305.27265			43387.38302		69.65600		324.00000 
 43692.65567		 667.59000			43025.06567		222.66000		875.00000 
 43692.65567		 305.27265			43387.38302		69.65600		324.00000 
 43692.65567		 667.59000			43025.06567		222.66000		875.00000 
 43692.65567		 305.27265			43387.38302		69.65600		324.00000 
 43692.65567		 667.59000			43025.06567		222.66000		875.00000 
 43692.65567		 305.27265			43387.38302		69.65600		324.00000 
 43692.65567		 667.59000			43025.06567		222.66000		875.00000 
 43692.65567		 305.27265			43387.38302		69.65600		324.00000 
 43692.65567		 667.59000			43025.06567		222.66000		875.00000 
 43692.65567		 305.27265			43387.38302		69.65600		324.00000 
 43692.65567		 667.59000			43025.06567		222.66000		875.00000 
 43692.65567		 305.27265			43387.38302		69.65600		324.00000 
 43692.65567		 667.59000			43025.06567		222.66000		875.00000 
 43692.65567		 305.27265			43387.38302		69.65600		324.00000 
 43692.65567		 667.59000			43025.06567		222.66000		875.00000 
 43692.65567		 305.27265			43387.38302		69.65600		324.00000 
 43692.65567		 667.59000			43025.06567		222.66000		875.00000 
 43692.65567		 305.27265			43387.38302		69.65600		324.00000 
 43692.65567		 667.59000			43025.06567		222.66000		875.00000 
 43692.65567		 305.27265			43387.38302		69.65600		324.00000 
 43692.65567		 667.59000			43025.06567		222.66000		875.00000 
 43692.65567		 305.27265			43387.38302		69.65600		324.00000 
 43692.65567		 667.59000			43025.06567		222.66000		875.00000 
 43692.65567		 305.27265			43387.38302		69.65600		324.00000 
 43692.65567		 667.59000			43025.06567		222.66000		875.00000 
 43692.65567		 305.27265			43387.38302		69.65600		324.00000 
 43692.65567		 667.59000			43025.06567		222.66000		875.00000 
 43692.65567		 305.27265			43387.38302		69.65600		324.00000 
 43692.65567		 667.59000			43025.06567		222.66000		875.00000 
 43692.65567		 305.27265			43387.38302		69.65600		324.00000 
 43692.65567		 667.59000			43025.06567		222.66000		875.00000 
 43692.65567		 305.27265			43387.38302		69.65600		324.00000 
 43692.65567		 667.59000			43025.06567		222.66000		875.00000 
 43692.65567		 305.27265			43387.38302		69.65600		324.00000 
 43692.65567		 667.59000			43025.06567		222.66000		875.00000 
 43692.65567		 305.27265			43387.38302		69.65600		324.00000 
 43692.65567		 667.59000			43025.06567		222.66000		875.00000 
 43692.65567		 305.27265			43387.38302		69.65600		324.00000 
 43692.65567		 667.59000			43025.06567		222.66000		875.00000 
 43692.65567		 305.27265			43387.38302		69.65600		324.00000 
 43692.65567		 667.59000			43025.06567		222.66000		875.00000 
 43692.65567		 305.27265			43387.38302		69.65600		324.00000 
 43692.65567		 667.59000			43025.06567		222.66000		875.00000 
 43692.65567		 305.27265			43387.38302		69.65600		324.00000 
 43692.65567		 667.59000			43025.06567		222.66000		875.00000 
 43692.65567		 305.27265			43387.38302		69.65600		324.00000 
 43692.65567		 667.59000			43025.06567		222.66000		875.00000 
 43692.65567		 305.27265			43387.38302		69.65600		324.00000 
 43692.65567		 667.59000			43025.06567		222.66000		875.00000 
 43692.65567		 305.27265			43387.38302		69.65600		324.00000 
 43692.65567		 667.59000			43025.06567		222.66000		875.00000 
 43692.65567		 305.27265			43387.38302		69.65600		324.00000 
 43692.65567		 667.59000			43025.06567		222.66000		875.00000 
 43692.65567		 305.27265			43387.38302		69.65600		324.00000 
 43692.65567		 667.59000			43025.06567		222.66000		875.00000 
 43692.65567		 305.27265			43387.38302		69.65600		324.00000 
 43692.65567		 667.59000			43025.06567		222.66000		875.00000 
 43692.65567		 305.27265			43387.38302		69.65600		324.00000 
 43692.65567		 624.15011			43068.50556		222.66000		875.00000 
 43692.65567		 305.27265			43387.38302		69.65600		324.00000 
 43692.65567		 580.71022			43111.94546		222.66000		875.00000 
 43692.65567		 305.27265			43387.38302		69.65600		324.00000 
 43692.65567		 537.27032			43155.38535		222.66000		875.00000 
 43692.65567		 305.27265			43387.38302		69.65600		324.00000 
 43692.65567		 537.27032			43155.38535		222.66000		875.00000 
 43692.65567		 305.27265			43387.38302		69.65600		324.00000 
 43692.65567		 537.27032			43155.38535		222.66000		875.00000 
 43692.65567		 305.27265			43387.38302		69.65600		324.00000 
 43692.65567		 537.27032			43155.38535		222.66000		875.00000 
 43692.65567		 305.27265			43387.38302		69.65600		324.00000 
 43692.65567		 537.27032			43155.38535		222.66000		875.00000 
 43692.65567		 305.27265			43387.38302		69.65600		324.00000 
 43692.65567		 537.27032			43155.38535		222.66000		875.00000 
 43692.65567		 305.27265			43387.38302		69.65600		324.00000 
 43692.65567		 537.27032			43155.38535		222.66000		875.00000 
 43692.65567		 305.27265			43387.38302		69.65600		324.00000 
 43692.65567		 537.27032			43155.38535		222.66000		875.00000 
 43692.65567		 305.27265			43387.38302		69.65600		324.00000 
 43692.65567		 537.27032			43155.38535		222.66000		875.00000 
 43692.65567		 305.27265			43387.38302		69.65600		324.00000 
 43692.65567		 537.27032			43155.38535		222.66000		875.00000 
 43692.65567		 305.27265			43387.38302		69.65600		324.00000 
 43692.65567		 537.27032			43155.38535		222.66000		875.00000 
 43692.65567		 305.27265			43387.38302		69.65600		324.00000 
 43692.65567		 537.27032			43155.38535		222.66000		875.00000 
 43692.65567		 305.27265			43387.38302		69.65600		324.00000 
 43692.65567		 537.27032			43155.38535		222.66000		875.00000 
 43692.65567		 305.27265			43387.38302		69.65600		324.00000 
 43692.65567		 537.27032			43155.38535		222.66000		875.00000 
 43692.65567		 305.27265			43387.38302		69.65600		324.00000 
 43692.65567		 537.27032			43155.38535		222.66000		875.00000 
 43692.65567		 305.27265			43387.38302		69.65600		324.00000 
 43692.65567		 537.27032			43155.38535		222.66000		875.00000 
 43692.65567		 305.27265			43387.38302		69.65600		324.00000 
 43692.65567		 537.27032			43155.38535		222.66000		875.00000 
 43692.65567		 305.27265			43387.38302		69.65600		324.00000 
 43692.65567		 537.27032			43155.38535		222.66000		875.00000 
 43692.65567		 305.27265			43387.38302		69.65600		324.00000 
 43692.65567		 537.27032			43155.38535		222.66000		875.00000 
 43692.65567		 305.27265			43387.38302		69.65600		324.00000 
 43692.65567		 537.27032			43155.38535		222.66000		875.00000 
 43692.65567		 305.27265			43387.38302		69.65600		324.00000 
 43692.65567		 529.63254			43163.02313		222.66000		875.00000 
 43692.65567		 305.27265			43387.38302		69.65600		324.00000 
 43692.65567		 525.81365			43166.84203		222.66000		875.00000 
 43692.65567		 305.27265			43387.38302		69.65600		324.00000 
 43692.65567		 525.81365			43166.84203		185.44200		875.00000 
 43692.65567		 261.35540			43431.30027		69.65600		324.00000 
 43692.65567		 261.35540			43431.30027		185.44200		875.00000 
 43692.65567		 261.35540			43431.30027		69.65600		324.00000 
