Memory Total (MiB) 	 Memory Used (MiB) 	    Memory Free (MiB) 	 Power Drawed (W) 	 Clocks (Mhz) 	 
 43692.65567		 261.35540			43431.30027		181.52800		875.00000 
 43692.65567		 261.35540			43431.30027		70.72800		324.00000 
 43692.65567		 261.35540			43431.30027		181.52800		875.00000 
 43692.65567		 261.35540			43431.30027		70.72800		324.00000 
 43692.65567		 261.35540			43431.30027		181.52800		875.00000 
 43692.65567		 261.35540			43431.30027		70.72800		324.00000 
 43692.65567		 261.35540			43431.30027		181.52800		875.00000 
 43692.65567		 261.35540			43431.30027		70.72800		324.00000 
 43692.65567		 261.35540			43431.30027		181.52800		875.00000 
 43692.65567		 261.35540			43431.30027		70.72800		324.00000 
 43692.65567		 261.35540			43431.30027		181.52800		875.00000 
 43692.65567		 261.35540			43431.30027		70.72800		324.00000 
 43692.65567		 261.35540			43431.30027		181.52800		875.00000 
 43692.65567		 261.35540			43431.30027		70.72800		324.00000 
 43692.65567		 261.35540			43431.30027		181.52800		875.00000 
 43692.65567		 261.35540			43431.30027		70.72800		324.00000 
 43692.65567		 261.35540			43431.30027		181.52800		875.00000 
 43692.65567		 261.35540			43431.30027		70.72800		324.00000 
 43692.65567		 261.35540			43431.30027		181.52800		875.00000 
 43692.65567		 261.35540			43431.30027		70.72800		324.00000 
 43692.65567		 261.35540			43431.30027		181.52800		875.00000 
 43692.65567		 261.35540			43431.30027		70.72800		324.00000 
 43692.65567		 261.35540			43431.30027		181.52800		875.00000 
 43692.65567		 261.35540			43431.30027		70.72800		324.00000 
 43692.65567		 261.35540			43431.30027		181.52800		875.00000 
 43692.65567		 261.35540			43431.30027		70.72800		324.00000 
 43692.65567		 261.35540			43431.30027		181.52800		875.00000 
 43692.65567		 261.35540			43431.30027		70.72800		324.00000 
 43692.65567		 261.35540			43431.30027		181.52800		875.00000 
 43692.65567		 261.35540			43431.30027		70.72800		324.00000 
 43692.65567		 261.35540			43431.30027		181.52800		875.00000 
 43692.65567		 261.35540			43431.30027		70.72800		324.00000 
 43692.65567		 261.35540			43431.30027		181.52800		875.00000 
 43692.65567		 261.35540			43431.30027		70.72800		324.00000 
 43692.65567		 265.17429			43427.48138		181.52800		875.00000 
 43692.65567		 261.35540			43431.30027		70.72800		324.00000 
 43692.65567		 265.17429			43427.48138		181.52800		875.00000 
 43692.65567		 261.35540			43431.30027		70.72800		324.00000 
 43692.65567		 272.81207			43419.84360		181.52800		875.00000 
 43692.65567		 261.35540			43431.30027		70.72800		324.00000 
 43692.65567		 272.81207			43419.84360		181.52800		875.00000 
 43692.65567		 261.35540			43431.30027		70.72800		324.00000 
 43692.65567		 272.81207			43419.84360		150.85600		875.00000 
 43692.65567		 265.17429			43427.48138		70.72800		324.00000 
 43692.65567		 272.81207			43419.84360		150.85600		875.00000 
 43692.65567		 265.17429			43427.48138		70.72800		324.00000 
 43692.65567		 272.81207			43419.84360		150.85600		875.00000 
 43692.65567		 272.81207			43419.84360		70.72800		324.00000 
 43692.65567		 272.81207			43419.84360		150.85600		875.00000 
 43692.65567		 272.81207			43419.84360		70.72800		324.00000 
 43692.65567		 272.81207			43419.84360		150.85600		875.00000 
 43692.65567		 272.81207			43419.84360		70.72800		324.00000 
 43692.65567		 305.27265			43387.38302		150.85600		875.00000 
 43692.65567		 305.27265			43387.38302		70.72800		324.00000 
 43692.65567		 305.27265			43387.38302		150.85600		875.00000 
 43692.65567		 305.27265			43387.38302		70.72800		324.00000 
 43692.65567		 305.27265			43387.38302		150.85600		875.00000 
 43692.65567		 305.27265			43387.38302		70.72800		324.00000 
 43692.65567		 305.27265			43387.38302		150.85600		875.00000 
 43692.65567		 305.27265			43387.38302		70.72800		324.00000 
 43692.65567		 305.27265			43387.38302		150.85600		875.00000 
 43692.65567		 305.27265			43387.38302		70.72800		324.00000 
 43692.65567		 309.09154			43383.56413		150.85600		875.00000 
 43692.65567		 305.27265			43387.38302		70.72800		324.00000 
 43692.65567		 310.52363			43382.13204		150.85600		875.00000 
 43692.65567		 305.27265			43387.38302		70.72800		324.00000 
 43692.65567		 311.00099			43381.65468		150.85600		875.00000 
 43692.65567		 305.27265			43387.38302		70.72800		324.00000 
 43692.65567		 311.00099			43381.65468		150.85600		875.00000 
 43692.65567		 305.27265			43387.38302		70.72800		324.00000 
 43692.65567		 311.00099			43381.65468		150.85600		875.00000 
 43692.65567		 305.27265			43387.38302		70.72800		324.00000 
 43692.65567		 311.00099			43381.65468		150.85600		875.00000 
 43692.65567		 305.27265			43387.38302		70.72800		324.00000 
 43692.65567		 311.00099			43381.65468		150.85600		875.00000 
 43692.65567		 305.27265			43387.38302		70.72800		324.00000 
 43692.65567		 311.00099			43381.65468		150.85600		875.00000 
 43692.65567		 305.27265			43387.38302		70.72800		324.00000 
 43692.65567		 311.00099			43381.65468		150.85600		875.00000 
 43692.65567		 305.27265			43387.38302		70.72800		324.00000 
 43692.65567		 311.00099			43381.65468		150.85600		875.00000 
 43692.65567		 305.27265			43387.38302		70.72800		324.00000 
 43692.65567		 311.00099			43381.65468		150.85600		875.00000 
 43692.65567		 305.27265			43387.38302		70.72800		324.00000 
 43692.65567		 311.00099			43381.65468		150.85600		875.00000 
 43692.65567		 305.27265			43387.38302		70.72800		324.00000 
 43692.65567		 311.00099			43381.65468		150.85600		875.00000 
 43692.65567		 305.27265			43387.38302		70.72800		324.00000 
 43692.65567		 311.00099			43381.65468		150.85600		875.00000 
 43692.65567		 305.27265			43387.38302		70.72800		324.00000 
 43692.65567		 311.00099			43381.65468		150.85600		875.00000 
 43692.65567		 305.27265			43387.38302		70.72800		324.00000 
 43692.65567		 311.00099			43381.65468		150.85600		875.00000 
 43692.65567		 305.27265			43387.38302		70.72800		324.00000 
 43692.65567		 311.00099			43381.65468		150.85600		875.00000 
 43692.65567		 305.27265			43387.38302		70.72800		324.00000 
 43692.65567		 311.00099			43381.65468		150.85600		875.00000 
 43692.65567		 305.27265			43387.38302		70.72800		324.00000 
 43692.65567		 311.00099			43381.65468		150.85600		875.00000 
 43692.65567		 305.27265			43387.38302		70.72800		324.00000 
 43692.65567		 311.00099			43381.65468		150.85600		875.00000 
 43692.65567		 305.27265			43387.38302		70.72800		324.00000 
 43692.65567		 311.00099			43381.65468		150.85600		875.00000 
 43692.65567		 305.27265			43387.38302		70.72800		324.00000 
 43692.65567		 311.00099			43381.65468		150.85600		875.00000 
 43692.65567		 305.27265			43387.38302		70.72800		324.00000 
 43692.65567		 311.00099			43381.65468		139.28000		875.00000 
 43692.65567		 305.27265			43387.38302		70.72800		324.00000 
 43692.65567		 311.00099			43381.65468		139.28000		875.00000 
 43692.65567		 305.27265			43387.38302		70.72800		324.00000 
 43692.65567		 311.00099			43381.65468		139.28000		875.00000 
 43692.65567		 305.27265			43387.38302		70.72800		324.00000 
 43692.65567		 311.00099			43381.65468		139.28000		875.00000 
 43692.65567		 305.27265			43387.38302		70.72800		324.00000 
 43692.65567		 311.00099			43381.65468		139.28000		875.00000 
 43692.65567		 305.27265			43387.38302		70.72800		324.00000 
 43692.65567		 311.00099			43381.65468		139.28000		875.00000 
 43692.65567		 305.27265			43387.38302		70.72800		324.00000 
 43692.65567		 311.00099			43381.65468		139.28000		875.00000 
 43692.65567		 305.27265			43387.38302		70.72800		324.00000 
 43692.65567		 311.00099			43381.65468		139.28000		875.00000 
 43692.65567		 305.27265			43387.38302		70.72800		324.00000 
 43692.65567		 311.00099			43381.65468		139.28000		875.00000 
 43692.65567		 305.27265			43387.38302		70.72800		324.00000 
 43692.65567		 311.00099			43381.65468		139.28000		875.00000 
 43692.65567		 305.27265			43387.38302		70.72800		324.00000 
 43692.65567		 311.00099			43381.65468		139.28000		875.00000 
 43692.65567		 305.27265			43387.38302		70.72800		324.00000 
 43692.65567		 311.00099			43381.65468		139.28000		875.00000 
 43692.65567		 305.27265			43387.38302		70.72800		324.00000 
 43692.65567		 311.00099			43381.65468		139.28000		875.00000 
 43692.65567		 305.27265			43387.38302		70.72800		324.00000 
 43692.65567		 311.00099			43381.65468		139.28000		875.00000 
 43692.65567		 305.27265			43387.38302		70.72800		324.00000 
 43692.65567		 311.00099			43381.65468		139.28000		875.00000 
 43692.65567		 305.27265			43387.38302		70.72800		324.00000 
 43692.65567		 311.00099			43381.65468		139.28000		875.00000 
 43692.65567		 305.27265			43387.38302		70.72800		324.00000 
 43692.65567		 311.00099			43381.65468		139.28000		875.00000 
 43692.65567		 305.27265			43387.38302		70.72800		324.00000 
 43692.65567		 311.00099			43381.65468		139.28000		875.00000 
 43692.65567		 305.27265			43387.38302		70.72800		324.00000 
 43692.65567		 311.00099			43381.65468		139.28000		875.00000 
 43692.65567		 305.27265			43387.38302		70.72800		324.00000 
 43692.65567		 311.00099			43381.65468		139.28000		875.00000 
 43692.65567		 305.27265			43387.38302		70.72800		324.00000 
 43692.65567		 311.00099			43381.65468		139.28000		875.00000 
 43692.65567		 305.27265			43387.38302		70.72800		324.00000 
 43692.65567		 311.00099			43381.65468		139.28000		875.00000 
 43692.65567		 305.27265			43387.38302		70.72800		324.00000 
 43692.65567		 311.00099			43381.65468		139.28000		875.00000 
 43692.65567		 305.27265			43387.38302		70.72800		324.00000 
 43692.65567		 311.00099			43381.65468		139.28000		875.00000 
 43692.65567		 305.27265			43387.38302		70.72800		324.00000 
 43692.65567		 311.00099			43381.65468		139.28000		875.00000 
 43692.65567		 305.27265			43387.38302		70.72800		324.00000 
 43692.65567		 311.00099			43381.65468		139.28000		875.00000 
 43692.65567		 305.27265			43387.38302		70.72800		324.00000 
 43692.65567		 311.00099			43381.65468		139.28000		875.00000 
 43692.65567		 305.27265			43387.38302		70.72800		324.00000 
 43692.65567		 311.00099			43381.65468		139.28000		875.00000 
 43692.65567		 305.27265			43387.38302		70.72800		324.00000 
 43692.65567		 311.00099			43381.65468		139.28000		875.00000 
 43692.65567		 305.27265			43387.38302		70.72800		324.00000 
 43692.65567		 311.00099			43381.65468		139.28000		875.00000 
 43692.65567		 305.27265			43387.38302		70.72800		324.00000 
 43692.65567		 314.81988			43377.83579		139.28000		875.00000 
 43692.65567		 305.27265			43387.38302		70.72800		324.00000 
 43692.65567		 314.81988			43377.83579		139.28000		875.00000 
 43692.65567		 305.27265			43387.38302		70.72800		324.00000 
 43692.65567		 314.81988			43377.83579		135.03600		875.00000 
 43692.65567		 305.27265			43387.38302		70.72800		324.00000 
 43692.65567		 318.63877			43374.01690		135.03600		875.00000 
 43692.65567		 305.27265			43387.38302		70.72800		324.00000 
 43692.65567		 322.45767			43370.19801		135.03600		875.00000 
 43692.65567		 305.27265			43387.38302		70.72800		324.00000 
 43692.65567		 326.27656			43366.37912		135.03600		875.00000 
 43692.65567		 305.27265			43387.38302		70.72800		324.00000 
 43692.65567		 326.27656			43366.37912		135.03600		875.00000 
 43692.65567		 305.27265			43387.38302		70.72800		324.00000 
 43692.65567		 326.27656			43366.37912		135.03600		875.00000 
 43692.65567		 305.27265			43387.38302		70.72800		324.00000 
 43692.65567		 537.27032			43155.38535		135.03600		875.00000 
 43692.65567		 305.27265			43387.38302		70.72800		324.00000 
 43692.65567		 655.65596			43036.99971		135.03600		875.00000 
 43692.65567		 305.27265			43387.38302		70.72800		324.00000 
 43692.65567		 892.42725			42800.22842		135.03600		875.00000 
 43692.65567		 305.27265			43387.38302		70.72800		324.00000 
 43692.65567		 892.42725			42800.22842		135.03600		875.00000 
 43692.65567		 305.27265			43387.38302		70.72800		324.00000 
 43692.65567		 892.42725			42800.22842		135.03600		875.00000 
 43692.65567		 305.27265			43387.38302		70.72800		324.00000 
 43692.65567		 892.42725			42800.22842		135.03600		875.00000 
 43692.65567		 305.27265			43387.38302		70.72800		324.00000 
 43692.65567		 892.42725			42800.22842		135.03600		875.00000 
 43692.65567		 305.27265			43387.38302		70.72800		324.00000 
 43692.65567		 892.42725			42800.22842		135.03600		875.00000 
 43692.65567		 305.27265			43387.38302		70.72800		324.00000 
 43692.65567		 892.42725			42800.22842		135.03600		875.00000 
 43692.65567		 305.27265			43387.38302		70.72800		324.00000 
 43692.65567		 892.42725			42800.22842		135.03600		875.00000 
 43692.65567		 305.27265			43387.38302		70.72800		324.00000 
 43692.65567		 892.42725			42800.22842		135.03600		875.00000 
 43692.65567		 305.27265			43387.38302		70.72800		324.00000 
 43692.65567		 892.42725			42800.22842		135.03600		875.00000 
 43692.65567		 305.27265			43387.38302		70.72800		324.00000 
 43692.65567		 892.42725			42800.22842		135.03600		875.00000 
 43692.65567		 305.27265			43387.38302		70.72800		324.00000 
 43692.65567		 892.42725			42800.22842		135.03600		875.00000 
 43692.65567		 305.27265			43387.38302		70.72800		324.00000 
 43692.65567		 892.42725			42800.22842		135.03600		875.00000 
 43692.65567		 305.27265			43387.38302		70.72800		324.00000 
 43692.65567		 892.42725			42800.22842		135.03600		875.00000 
 43692.65567		 305.27265			43387.38302		70.72800		324.00000 
 43692.65567		 892.42725			42800.22842		135.03600		875.00000 
 43692.65567		 305.27265			43387.38302		70.72800		324.00000 
 43692.65567		 892.42725			42800.22842		135.03600		875.00000 
 43692.65567		 305.27265			43387.38302		70.72800		324.00000 
 43692.65567		 892.42725			42800.22842		135.03600		875.00000 
 43692.65567		 305.27265			43387.38302		70.72800		324.00000 
 43692.65567		 892.42725			42800.22842		135.03600		875.00000 
 43692.65567		 305.27265			43387.38302		70.72800		324.00000 
 43692.65567		 892.42725			42800.22842		135.03600		875.00000 
 43692.65567		 305.27265			43387.38302		70.72800		324.00000 
 43692.65567		 892.42725			42800.22842		135.03600		875.00000 
 43692.65567		 305.27265			43387.38302		70.72800		324.00000 
 43692.65567		 892.42725			42800.22842		135.03600		875.00000 
 43692.65567		 305.27265			43387.38302		70.72800		324.00000 
 43692.65567		 892.42725			42800.22842		135.03600		875.00000 
 43692.65567		 305.27265			43387.38302		70.72800		324.00000 
 43692.65567		 892.42725			42800.22842		135.03600		875.00000 
 43692.65567		 305.27265			43387.38302		70.72800		324.00000 
 43692.65567		 892.42725			42800.22842		135.03600		875.00000 
 43692.65567		 305.27265			43387.38302		70.72800		324.00000 
 43692.65567		 892.42725			42800.22842		135.03600		875.00000 
 43692.65567		 305.27265			43387.38302		70.72800		324.00000 
 43692.65567		 892.42725			42800.22842		135.03600		875.00000 
 43692.65567		 305.27265			43387.38302		70.72800		324.00000 
 43692.65567		 892.42725			42800.22842		135.03600		875.00000 
 43692.65567		 305.27265			43387.38302		70.72800		324.00000 
 43692.65567		 892.42725			42800.22842		135.03600		875.00000 
 43692.65567		 305.27265			43387.38302		70.72800		324.00000 
 43692.65567		 892.42725			42800.22842		135.03600		875.00000 
 43692.65567		 305.27265			43387.38302		70.72800		324.00000 
 43692.65567		 892.42725			42800.22842		135.03600		875.00000 
 43692.65567		 305.27265			43387.38302		70.72800		324.00000 
 43692.65567		 892.42725			42800.22842		135.03600		875.00000 
 43692.65567		 305.27265			43387.38302		70.72800		324.00000 
 43692.65567		 892.42725			42800.22842		135.03600		875.00000 
 43692.65567		 305.27265			43387.38302		70.72800		324.00000 
 43692.65567		 892.42725			42800.22842		135.03600		875.00000 
 43692.65567		 305.27265			43387.38302		70.72800		324.00000 
 43692.65567		 892.42725			42800.22842		135.03600		875.00000 
 43692.65567		 305.27265			43387.38302		70.72800		324.00000 
 43692.65567		 892.42725			42800.22842		135.03600		875.00000 
 43692.65567		 305.27265			43387.38302		70.72800		324.00000 
 43692.65567		 892.42725			42800.22842		135.03600		875.00000 
 43692.65567		 305.27265			43387.38302		70.72800		324.00000 
 43692.65567		 892.42725			42800.22842		135.03600		875.00000 
 43692.65567		 305.27265			43387.38302		70.72800		324.00000 
 43692.65567		 892.42725			42800.22842		135.03600		875.00000 
 43692.65567		 305.27265			43387.38302		70.72800		324.00000 
 43692.65567		 892.42725			42800.22842		135.03600		875.00000 
 43692.65567		 305.27265			43387.38302		70.72800		324.00000 
 43692.65567		 892.42725			42800.22842		135.03600		875.00000 
 43692.65567		 305.27265			43387.38302		70.72800		324.00000 
 43692.65567		 892.42725			42800.22842		135.03600		875.00000 
 43692.65567		 305.27265			43387.38302		70.72800		324.00000 
 43692.65567		 892.42725			42800.22842		135.03600		875.00000 
 43692.65567		 305.27265			43387.38302		70.72800		324.00000 
 43692.65567		 892.42725			42800.22842		135.03600		875.00000 
 43692.65567		 305.27265			43387.38302		70.72800		324.00000 
 43692.65567		 892.42725			42800.22842		135.03600		875.00000 
 43692.65567		 305.27265			43387.38302		70.72800		324.00000 
 43692.65567		 892.42725			42800.22842		135.03600		875.00000 
 43692.65567		 305.27265			43387.38302		70.72800		324.00000 
 43692.65567		 892.42725			42800.22842		135.03600		875.00000 
 43692.65567		 305.27265			43387.38302		70.72800		324.00000 
 43692.65567		 892.42725			42800.22842		135.03600		875.00000 
 43692.65567		 305.27265			43387.38302		70.72800		324.00000 
 43692.65567		 892.42725			42800.22842		135.03600		875.00000 
 43692.65567		 305.27265			43387.38302		70.72800		324.00000 
 43692.65567		 892.42725			42800.22842		135.03600		875.00000 
 43692.65567		 305.27265			43387.38302		70.72800		324.00000 
 43692.65567		 892.42725			42800.22842		135.03600		875.00000 
 43692.65567		 305.27265			43387.38302		70.72800		324.00000 
 43692.65567		 892.42725			42800.22842		135.03600		875.00000 
 43692.65567		 305.27265			43387.38302		70.72800		324.00000 
 43692.65567		 892.42725			42800.22842		135.03600		875.00000 
 43692.65567		 305.27265			43387.38302		70.72800		324.00000 
 43692.65567		 892.42725			42800.22842		135.03600		875.00000 
 43692.65567		 305.27265			43387.38302		70.72800		324.00000 
 43692.65567		 892.42725			42800.22842		135.03600		875.00000 
 43692.65567		 305.27265			43387.38302		70.72800		324.00000 
 43692.65567		 892.42725			42800.22842		184.28400		875.00000 
 43692.65567		 305.27265			43387.38302		70.72800		324.00000 
 43692.65567		 892.42725			42800.22842		184.28400		875.00000 
 43692.65567		 305.27265			43387.38302		70.72800		324.00000 
 43692.65567		 892.42725			42800.22842		184.28400		875.00000 
 43692.65567		 305.27265			43387.38302		70.72800		324.00000 
 43692.65567		 892.42725			42800.22842		184.28400		875.00000 
 43692.65567		 305.27265			43387.38302		70.72800		324.00000 
 43692.65567		 892.42725			42800.22842		184.28400		875.00000 
 43692.65567		 305.27265			43387.38302		70.72800		324.00000 
 43692.65567		 892.42725			42800.22842		184.28400		875.00000 
 43692.65567		 305.27265			43387.38302		70.72800		324.00000 
 43692.65567		 892.42725			42800.22842		184.28400		875.00000 
 43692.65567		 305.27265			43387.38302		70.72800		324.00000 
 43692.65567		 892.42725			42800.22842		184.28400		875.00000 
 43692.65567		 305.27265			43387.38302		70.72800		324.00000 
 43692.65567		 892.42725			42800.22842		184.28400		875.00000 
 43692.65567		 305.27265			43387.38302		70.72800		324.00000 
 43692.65567		 892.42725			42800.22842		184.28400		875.00000 
 43692.65567		 305.27265			43387.38302		70.72800		324.00000 
 43692.65567		 892.42725			42800.22842		184.28400		875.00000 
 43692.65567		 305.27265			43387.38302		70.72800		324.00000 
 43692.65567		 892.42725			42800.22842		184.28400		875.00000 
 43692.65567		 305.27265			43387.38302		70.72800		324.00000 
 43692.65567		 892.42725			42800.22842		184.28400		875.00000 
 43692.65567		 305.27265			43387.38302		70.72800		324.00000 
 43692.65567		 892.42725			42800.22842		184.28400		875.00000 
 43692.65567		 305.27265			43387.38302		70.72800		324.00000 
 43692.65567		 892.42725			42800.22842		184.28400		875.00000 
 43692.65567		 305.27265			43387.38302		70.72800		324.00000 
 43692.65567		 892.42725			42800.22842		184.28400		875.00000 
 43692.65567		 305.27265			43387.38302		70.72800		324.00000 
 43692.65567		 892.42725			42800.22842		184.28400		875.00000 
 43692.65567		 305.27265			43387.38302		70.72800		324.00000 
 43692.65567		 892.42725			42800.22842		184.28400		875.00000 
 43692.65567		 305.27265			43387.38302		70.72800		324.00000 
 43692.65567		 892.42725			42800.22842		184.28400		875.00000 
 43692.65567		 305.27265			43387.38302		70.72800		324.00000 
 43692.65567		 892.42725			42800.22842		184.28400		875.00000 
 43692.65567		 305.27265			43387.38302		70.72800		324.00000 
 43692.65567		 892.42725			42800.22842		184.28400		875.00000 
 43692.65567		 305.27265			43387.38302		70.72800		324.00000 
 43692.65567		 892.42725			42800.22842		184.28400		875.00000 
 43692.65567		 305.27265			43387.38302		70.72800		324.00000 
 43692.65567		 892.42725			42800.22842		184.28400		875.00000 
 43692.65567		 305.27265			43387.38302		70.72800		324.00000 
 43692.65567		 892.42725			42800.22842		184.28400		875.00000 
 43692.65567		 305.27265			43387.38302		70.72800		324.00000 
 43692.65567		 892.42725			42800.22842		184.28400		875.00000 
 43692.65567		 305.27265			43387.38302		70.72800		324.00000 
 43692.65567		 892.42725			42800.22842		184.28400		875.00000 
 43692.65567		 305.27265			43387.38302		70.72800		324.00000 
 43692.65567		 892.42725			42800.22842		184.28400		875.00000 
 43692.65567		 305.27265			43387.38302		70.72800		324.00000 
 43692.65567		 892.42725			42800.22842		184.28400		875.00000 
 43692.65567		 305.27265			43387.38302		70.72800		324.00000 
 43692.65567		 892.42725			42800.22842		184.28400		875.00000 
 43692.65567		 305.27265			43387.38302		70.72800		324.00000 
 43692.65567		 892.42725			42800.22842		184.28400		875.00000 
 43692.65567		 305.27265			43387.38302		70.72800		324.00000 
 43692.65567		 892.42725			42800.22842		184.28400		875.00000 
 43692.65567		 305.27265			43387.38302		70.72800		324.00000 
 43692.65567		 892.42725			42800.22842		184.28400		875.00000 
 43692.65567		 305.27265			43387.38302		70.72800		324.00000 
 43692.65567		 892.42725			42800.22842		184.28400		875.00000 
 43692.65567		 305.27265			43387.38302		70.72800		324.00000 
 43692.65567		 892.42725			42800.22842		184.28400		875.00000 
 43692.65567		 305.27265			43387.38302		70.72800		324.00000 
 43692.65567		 892.42725			42800.22842		184.28400		875.00000 
 43692.65567		 305.27265			43387.38302		70.72800		324.00000 
 43692.65567		 892.42725			42800.22842		184.28400		875.00000 
 43692.65567		 305.27265			43387.38302		70.72800		324.00000 
 43692.65567		 892.42725			42800.22842		184.28400		875.00000 
 43692.65567		 305.27265			43387.38302		70.72800		324.00000 
 43692.65567		 892.42725			42800.22842		184.28400		875.00000 
 43692.65567		 305.27265			43387.38302		70.72800		324.00000 
 43692.65567		 892.42725			42800.22842		184.28400		875.00000 
 43692.65567		 305.27265			43387.38302		70.72800		324.00000 
 43692.65567		 892.42725			42800.22842		184.28400		875.00000 
 43692.65567		 305.27265			43387.38302		70.72800		324.00000 
 43692.65567		 892.42725			42800.22842		184.28400		875.00000 
 43692.65567		 305.27265			43387.38302		70.72800		324.00000 
 43692.65567		 892.42725			42800.22842		184.28400		875.00000 
 43692.65567		 305.27265			43387.38302		70.72800		324.00000 
 43692.65567		 892.42725			42800.22842		184.28400		875.00000 
 43692.65567		 305.27265			43387.38302		70.72800		324.00000 
 43692.65567		 892.42725			42800.22842		184.28400		875.00000 
 43692.65567		 305.27265			43387.38302		70.72800		324.00000 
 43692.65567		 892.42725			42800.22842		184.28400		875.00000 
 43692.65567		 305.27265			43387.38302		70.72800		324.00000 
 43692.65567		 892.42725			42800.22842		184.28400		875.00000 
 43692.65567		 305.27265			43387.38302		70.72800		324.00000 
 43692.65567		 892.42725			42800.22842		184.28400		875.00000 
 43692.65567		 305.27265			43387.38302		70.72800		324.00000 
 43692.65567		 892.42725			42800.22842		184.28400		875.00000 
 43692.65567		 305.27265			43387.38302		70.72800		324.00000 
 43692.65567		 892.42725			42800.22842		184.28400		875.00000 
 43692.65567		 305.27265			43387.38302		70.72800		324.00000 
 43692.65567		 892.42725			42800.22842		184.28400		875.00000 
 43692.65567		 305.27265			43387.38302		70.72800		324.00000 
 43692.65567		 892.42725			42800.22842		184.28400		875.00000 
 43692.65567		 305.27265			43387.38302		70.72800		324.00000 
 43692.65567		 892.42725			42800.22842		184.28400		875.00000 
 43692.65567		 305.27265			43387.38302		70.72800		324.00000 
 43692.65567		 892.42725			42800.22842		184.28400		875.00000 
 43692.65567		 305.27265			43387.38302		70.72800		324.00000 
 43692.65567		 892.42725			42800.22842		184.28400		875.00000 
 43692.65567		 305.27265			43387.38302		70.72800		324.00000 
 43692.65567		 892.42725			42800.22842		184.28400		875.00000 
 43692.65567		 305.27265			43387.38302		70.72800		324.00000 
 43692.65567		 892.42725			42800.22842		184.28400		875.00000 
 43692.65567		 305.27265			43387.38302		70.72800		324.00000 
 43692.65567		 892.42725			42800.22842		184.28400		875.00000 
 43692.65567		 305.27265			43387.38302		70.72800		324.00000 
 43692.65567		 892.42725			42800.22842		184.28400		875.00000 
 43692.65567		 305.27265			43387.38302		70.72800		324.00000 
 43692.65567		 892.42725			42800.22842		184.28400		875.00000 
 43692.65567		 305.27265			43387.38302		70.72800		324.00000 
 43692.65567		 892.42725			42800.22842		184.28400		875.00000 
 43692.65567		 305.27265			43387.38302		70.72800		324.00000 
 43692.65567		 892.42725			42800.22842		184.28400		875.00000 
 43692.65567		 305.27265			43387.38302		70.72800		324.00000 
 43692.65567		 892.42725			42800.22842		184.28400		875.00000 
 43692.65567		 305.27265			43387.38302		70.72800		324.00000 
 43692.65567		 892.42725			42800.22842		184.28400		875.00000 
 43692.65567		 305.27265			43387.38302		70.72800		324.00000 
 43692.65567		 892.42725			42800.22842		184.28400		875.00000 
 43692.65567		 305.27265			43387.38302		70.72800		324.00000 
 43692.65567		 892.42725			42800.22842		210.17200		875.00000 
 43692.65567		 305.27265			43387.38302		70.72800		324.00000 
 43692.65567		 892.42725			42800.22842		210.17200		875.00000 
 43692.65567		 305.27265			43387.38302		70.72800		324.00000 
 43692.65567		 892.42725			42800.22842		210.17200		875.00000 
 43692.65567		 305.27265			43387.38302		70.72800		324.00000 
 43692.65567		 892.42725			42800.22842		210.17200		875.00000 
 43692.65567		 305.27265			43387.38302		70.72800		324.00000 
 43692.65567		 892.42725			42800.22842		210.17200		875.00000 
 43692.65567		 305.27265			43387.38302		70.72800		324.00000 
 43692.65567		 892.42725			42800.22842		210.17200		875.00000 
 43692.65567		 305.27265			43387.38302		70.72800		324.00000 
 43692.65567		 892.42725			42800.22842		210.17200		875.00000 
 43692.65567		 305.27265			43387.38302		70.72800		324.00000 
 43692.65567		 892.42725			42800.22842		210.17200		875.00000 
 43692.65567		 305.27265			43387.38302		70.72800		324.00000 
 43692.65567		 892.42725			42800.22842		210.17200		875.00000 
 43692.65567		 305.27265			43387.38302		70.72800		324.00000 
 43692.65567		 892.42725			42800.22842		210.17200		875.00000 
 43692.65567		 305.27265			43387.38302		70.72800		324.00000 
 43692.65567		 892.42725			42800.22842		210.17200		875.00000 
 43692.65567		 305.27265			43387.38302		70.72800		324.00000 
 43692.65567		 892.42725			42800.22842		210.17200		875.00000 
 43692.65567		 305.27265			43387.38302		70.72800		324.00000 
 43692.65567		 892.42725			42800.22842		210.17200		875.00000 
 43692.65567		 305.27265			43387.38302		70.72800		324.00000 
 43692.65567		 892.42725			42800.22842		210.17200		875.00000 
 43692.65567		 305.27265			43387.38302		70.72800		324.00000 
 43692.65567		 892.42725			42800.22842		210.17200		875.00000 
 43692.65567		 305.27265			43387.38302		70.72800		324.00000 
 43692.65567		 892.42725			42800.22842		210.17200		875.00000 
 43692.65567		 305.27265			43387.38302		70.72800		324.00000 
 43692.65567		 892.42725			42800.22842		210.17200		875.00000 
 43692.65567		 305.27265			43387.38302		70.72800		324.00000 
 43692.65567		 892.42725			42800.22842		210.17200		875.00000 
 43692.65567		 305.27265			43387.38302		70.72800		324.00000 
 43692.65567		 892.42725			42800.22842		210.17200		875.00000 
 43692.65567		 305.27265			43387.38302		70.72800		324.00000 
 43692.65567		 892.42725			42800.22842		210.17200		875.00000 
 43692.65567		 305.27265			43387.38302		70.72800		324.00000 
 43692.65567		 892.42725			42800.22842		210.17200		875.00000 
 43692.65567		 305.27265			43387.38302		70.72800		324.00000 
 43692.65567		 892.42725			42800.22842		210.17200		875.00000 
 43692.65567		 305.27265			43387.38302		70.72800		324.00000 
 43692.65567		 892.42725			42800.22842		210.17200		875.00000 
 43692.65567		 305.27265			43387.38302		70.72800		324.00000 
 43692.65567		 892.42725			42800.22842		210.17200		875.00000 
 43692.65567		 305.27265			43387.38302		70.72800		324.00000 
 43692.65567		 892.42725			42800.22842		210.17200		875.00000 
 43692.65567		 305.27265			43387.38302		70.72800		324.00000 
 43692.65567		 892.42725			42800.22842		210.17200		875.00000 
 43692.65567		 305.27265			43387.38302		70.72800		324.00000 
 43692.65567		 892.42725			42800.22842		210.17200		875.00000 
 43692.65567		 305.27265			43387.38302		70.72800		324.00000 
 43692.65567		 892.42725			42800.22842		210.17200		875.00000 
 43692.65567		 305.27265			43387.38302		70.72800		324.00000 
 43692.65567		 892.42725			42800.22842		210.17200		875.00000 
 43692.65567		 305.27265			43387.38302		70.72800		324.00000 
 43692.65567		 892.42725			42800.22842		210.17200		875.00000 
 43692.65567		 305.27265			43387.38302		70.72800		324.00000 
 43692.65567		 892.42725			42800.22842		210.17200		875.00000 
 43692.65567		 305.27265			43387.38302		70.72800		324.00000 
 43692.65567		 892.42725			42800.22842		210.17200		875.00000 
 43692.65567		 305.27265			43387.38302		70.72800		324.00000 
 43692.65567		 892.42725			42800.22842		210.17200		875.00000 
 43692.65567		 305.27265			43387.38302		70.72800		324.00000 
 43692.65567		 892.42725			42800.22842		210.17200		875.00000 
 43692.65567		 305.27265			43387.38302		70.72800		324.00000 
 43692.65567		 892.42725			42800.22842		210.17200		875.00000 
 43692.65567		 305.27265			43387.38302		70.72800		324.00000 
 43692.65567		 892.42725			42800.22842		210.17200		875.00000 
 43692.65567		 305.27265			43387.38302		70.72800		324.00000 
 43692.65567		 892.42725			42800.22842		210.17200		875.00000 
 43692.65567		 305.27265			43387.38302		70.72800		324.00000 
 43692.65567		 892.42725			42800.22842		210.17200		875.00000 
 43692.65567		 305.27265			43387.38302		70.72800		324.00000 
 43692.65567		 892.42725			42800.22842		210.17200		875.00000 
 43692.65567		 305.27265			43387.38302		70.72800		324.00000 
 43692.65567		 892.42725			42800.22842		210.17200		875.00000 
 43692.65567		 305.27265			43387.38302		70.72800		324.00000 
 43692.65567		 892.42725			42800.22842		210.17200		875.00000 
 43692.65567		 305.27265			43387.38302		70.72800		324.00000 
 43692.65567		 892.42725			42800.22842		210.17200		875.00000 
 43692.65567		 305.27265			43387.38302		70.72800		324.00000 
 43692.65567		 892.42725			42800.22842		210.17200		875.00000 
 43692.65567		 305.27265			43387.38302		70.72800		324.00000 
 43692.65567		 892.42725			42800.22842		210.17200		875.00000 
 43692.65567		 305.27265			43387.38302		70.72800		324.00000 
 43692.65567		 892.42725			42800.22842		210.17200		875.00000 
 43692.65567		 305.27265			43387.38302		70.72800		324.00000 
 43692.65567		 892.42725			42800.22842		210.17200		875.00000 
 43692.65567		 305.27265			43387.38302		70.72800		324.00000 
 43692.65567		 892.42725			42800.22842		210.17200		875.00000 
 43692.65567		 305.27265			43387.38302		70.72800		324.00000 
 43692.65567		 892.42725			42800.22842		210.17200		875.00000 
 43692.65567		 305.27265			43387.38302		70.72800		324.00000 
 43692.65567		 892.42725			42800.22842		210.17200		875.00000 
 43692.65567		 305.27265			43387.38302		70.72800		324.00000 
 43692.65567		 892.42725			42800.22842		210.17200		875.00000 
 43692.65567		 305.27265			43387.38302		70.72800		324.00000 
 43692.65567		 892.42725			42800.22842		210.17200		875.00000 
 43692.65567		 305.27265			43387.38302		70.72800		324.00000 
 43692.65567		 892.42725			42800.22842		210.17200		875.00000 
 43692.65567		 305.27265			43387.38302		70.72800		324.00000 
 43692.65567		 892.42725			42800.22842		210.17200		875.00000 
 43692.65567		 305.27265			43387.38302		70.72800		324.00000 
 43692.65567		 892.42725			42800.22842		210.17200		875.00000 
 43692.65567		 305.27265			43387.38302		70.72800		324.00000 
 43692.65567		 892.42725			42800.22842		210.17200		875.00000 
 43692.65567		 305.27265			43387.38302		70.72800		324.00000 
 43692.65567		 892.42725			42800.22842		210.17200		875.00000 
 43692.65567		 305.27265			43387.38302		70.72800		324.00000 
 43692.65567		 892.42725			42800.22842		210.17200		875.00000 
 43692.65567		 305.27265			43387.38302		70.72800		324.00000 
 43692.65567		 892.42725			42800.22842		210.17200		875.00000 
 43692.65567		 305.27265			43387.38302		70.72800		324.00000 
 43692.65567		 892.42725			42800.22842		210.17200		875.00000 
 43692.65567		 305.27265			43387.38302		70.72800		324.00000 
 43692.65567		 892.42725			42800.22842		210.17200		875.00000 
 43692.65567		 305.27265			43387.38302		70.72800		324.00000 
 43692.65567		 892.42725			42800.22842		210.17200		875.00000 
 43692.65567		 305.27265			43387.38302		70.72800		324.00000 
 43692.65567		 892.42725			42800.22842		210.17200		875.00000 
 43692.65567		 305.27265			43387.38302		70.72800		324.00000 
 43692.65567		 892.42725			42800.22842		210.17200		875.00000 
 43692.65567		 305.27265			43387.38302		70.72800		324.00000 
 43692.65567		 892.42725			42800.22842		210.17200		875.00000 
 43692.65567		 305.27265			43387.38302		70.72800		324.00000 
 43692.65567		 892.42725			42800.22842		210.17200		875.00000 
 43692.65567		 305.27265			43387.38302		70.72800		324.00000 
 43692.65567		 892.42725			42800.22842		218.93400		875.00000 
 43692.65567		 305.27265			43387.38302		70.72800		324.00000 
 43692.65567		 892.42725			42800.22842		218.93400		875.00000 
 43692.65567		 305.27265			43387.38302		70.72800		324.00000 
 43692.65567		 892.42725			42800.22842		218.93400		875.00000 
 43692.65567		 305.27265			43387.38302		70.72800		324.00000 
 43692.65567		 892.42725			42800.22842		218.93400		875.00000 
 43692.65567		 305.27265			43387.38302		70.72800		324.00000 
 43692.65567		 892.42725			42800.22842		218.93400		875.00000 
 43692.65567		 305.27265			43387.38302		70.72800		324.00000 
 43692.65567		 892.42725			42800.22842		218.93400		875.00000 
 43692.65567		 305.27265			43387.38302		70.72800		324.00000 
 43692.65567		 892.42725			42800.22842		218.93400		875.00000 
 43692.65567		 305.27265			43387.38302		70.72800		324.00000 
 43692.65567		 892.42725			42800.22842		218.93400		875.00000 
 43692.65567		 305.27265			43387.38302		70.72800		324.00000 
 43692.65567		 892.42725			42800.22842		218.93400		875.00000 
 43692.65567		 305.27265			43387.38302		70.72800		324.00000 
 43692.65567		 892.42725			42800.22842		218.93400		875.00000 
 43692.65567		 305.27265			43387.38302		70.72800		324.00000 
 43692.65567		 892.42725			42800.22842		218.93400		875.00000 
 43692.65567		 305.27265			43387.38302		70.72800		324.00000 
 43692.65567		 892.42725			42800.22842		218.93400		875.00000 
 43692.65567		 305.27265			43387.38302		70.72800		324.00000 
 43692.65567		 892.42725			42800.22842		218.93400		875.00000 
 43692.65567		 305.27265			43387.38302		70.72800		324.00000 
 43692.65567		 892.42725			42800.22842		218.93400		875.00000 
 43692.65567		 305.27265			43387.38302		70.72800		324.00000 
 43692.65567		 892.42725			42800.22842		218.93400		875.00000 
 43692.65567		 305.27265			43387.38302		70.72800		324.00000 
 43692.65567		 892.42725			42800.22842		218.93400		875.00000 
 43692.65567		 305.27265			43387.38302		70.72800		324.00000 
 43692.65567		 892.42725			42800.22842		218.93400		875.00000 
 43692.65567		 305.27265			43387.38302		70.72800		324.00000 
 43692.65567		 892.42725			42800.22842		218.93400		875.00000 
 43692.65567		 305.27265			43387.38302		70.72800		324.00000 
 43692.65567		 892.42725			42800.22842		218.93400		875.00000 
 43692.65567		 305.27265			43387.38302		70.72800		324.00000 
 43692.65567		 892.42725			42800.22842		218.93400		875.00000 
 43692.65567		 305.27265			43387.38302		70.72800		324.00000 
 43692.65567		 892.42725			42800.22842		218.93400		875.00000 
 43692.65567		 305.27265			43387.38302		70.72800		324.00000 
 43692.65567		 892.42725			42800.22842		218.93400		875.00000 
 43692.65567		 305.27265			43387.38302		70.72800		324.00000 
 43692.65567		 892.42725			42800.22842		218.93400		875.00000 
 43692.65567		 305.27265			43387.38302		70.72800		324.00000 
 43692.65567		 892.42725			42800.22842		218.93400		875.00000 
 43692.65567		 305.27265			43387.38302		70.72800		324.00000 
 43692.65567		 892.42725			42800.22842		218.93400		875.00000 
 43692.65567		 305.27265			43387.38302		70.72800		324.00000 
 43692.65567		 892.42725			42800.22842		218.93400		875.00000 
 43692.65567		 305.27265			43387.38302		70.72800		324.00000 
 43692.65567		 892.42725			42800.22842		218.93400		875.00000 
 43692.65567		 305.27265			43387.38302		70.72800		324.00000 
 43692.65567		 892.42725			42800.22842		218.93400		875.00000 
 43692.65567		 305.27265			43387.38302		70.72800		324.00000 
 43692.65567		 892.42725			42800.22842		218.93400		875.00000 
 43692.65567		 305.27265			43387.38302		70.72800		324.00000 
 43692.65567		 892.42725			42800.22842		218.93400		875.00000 
 43692.65567		 305.27265			43387.38302		70.72800		324.00000 
 43692.65567		 892.42725			42800.22842		218.93400		875.00000 
 43692.65567		 305.27265			43387.38302		70.72800		324.00000 
 43692.65567		 892.42725			42800.22842		218.93400		875.00000 
 43692.65567		 305.27265			43387.38302		70.72800		324.00000 
 43692.65567		 892.42725			42800.22842		218.93400		875.00000 
 43692.65567		 305.27265			43387.38302		70.72800		324.00000 
 43692.65567		 892.42725			42800.22842		218.93400		875.00000 
 43692.65567		 305.27265			43387.38302		70.72800		324.00000 
 43692.65567		 892.42725			42800.22842		218.93400		875.00000 
 43692.65567		 305.27265			43387.38302		70.72800		324.00000 
 43692.65567		 892.42725			42800.22842		218.93400		875.00000 
 43692.65567		 305.27265			43387.38302		70.72800		324.00000 
 43692.65567		 892.42725			42800.22842		218.93400		875.00000 
 43692.65567		 305.27265			43387.38302		70.72800		324.00000 
 43692.65567		 892.42725			42800.22842		218.93400		875.00000 
 43692.65567		 305.27265			43387.38302		70.72800		324.00000 
 43692.65567		 892.42725			42800.22842		218.93400		875.00000 
 43692.65567		 305.27265			43387.38302		70.72800		324.00000 
 43692.65567		 892.42725			42800.22842		218.93400		875.00000 
 43692.65567		 305.27265			43387.38302		70.72800		324.00000 
 43692.65567		 892.42725			42800.22842		218.93400		875.00000 
 43692.65567		 305.27265			43387.38302		70.72800		324.00000 
 43692.65567		 892.42725			42800.22842		218.93400		875.00000 
 43692.65567		 305.27265			43387.38302		70.72800		324.00000 
 43692.65567		 892.42725			42800.22842		218.93400		875.00000 
 43692.65567		 305.27265			43387.38302		70.72800		324.00000 
 43692.65567		 892.42725			42800.22842		218.93400		875.00000 
 43692.65567		 305.27265			43387.38302		70.72800		324.00000 
 43692.65567		 892.42725			42800.22842		218.93400		875.00000 
 43692.65567		 305.27265			43387.38302		70.72800		324.00000 
 43692.65567		 892.42725			42800.22842		218.93400		875.00000 
 43692.65567		 305.27265			43387.38302		70.72800		324.00000 
 43692.65567		 892.42725			42800.22842		218.93400		875.00000 
 43692.65567		 305.27265			43387.38302		70.72800		324.00000 
 43692.65567		 892.42725			42800.22842		218.93400		875.00000 
 43692.65567		 305.27265			43387.38302		70.72800		324.00000 
 43692.65567		 892.42725			42800.22842		218.93400		875.00000 
 43692.65567		 305.27265			43387.38302		70.72800		324.00000 
 43692.65567		 892.42725			42800.22842		218.93400		875.00000 
 43692.65567		 305.27265			43387.38302		70.72800		324.00000 
 43692.65567		 892.42725			42800.22842		218.93400		875.00000 
 43692.65567		 305.27265			43387.38302		70.72800		324.00000 
 43692.65567		 892.42725			42800.22842		218.93400		875.00000 
 43692.65567		 305.27265			43387.38302		70.72800		324.00000 
 43692.65567		 892.42725			42800.22842		218.93400		875.00000 
 43692.65567		 305.27265			43387.38302		70.72800		324.00000 
 43692.65567		 892.42725			42800.22842		218.93400		875.00000 
 43692.65567		 305.27265			43387.38302		70.72800		324.00000 
 43692.65567		 892.42725			42800.22842		218.93400		875.00000 
 43692.65567		 305.27265			43387.38302		70.72800		324.00000 
 43692.65567		 892.42725			42800.22842		218.93400		875.00000 
 43692.65567		 305.27265			43387.38302		70.72800		324.00000 
 43692.65567		 892.42725			42800.22842		218.93400		875.00000 
 43692.65567		 305.27265			43387.38302		70.72800		324.00000 
 43692.65567		 892.42725			42800.22842		218.93400		875.00000 
 43692.65567		 305.27265			43387.38302		70.72800		324.00000 
 43692.65567		 892.42725			42800.22842		218.93400		875.00000 
 43692.65567		 305.27265			43387.38302		70.72800		324.00000 
 43692.65567		 892.42725			42800.22842		218.93400		875.00000 
 43692.65567		 305.27265			43387.38302		70.72800		324.00000 
 43692.65567		 892.42725			42800.22842		218.93400		875.00000 
 43692.65567		 305.27265			43387.38302		70.72800		324.00000 
 43692.65567		 892.42725			42800.22842		218.93400		875.00000 
 43692.65567		 305.27265			43387.38302		70.72800		324.00000 
 43692.65567		 892.42725			42800.22842		218.93400		875.00000 
 43692.65567		 305.27265			43387.38302		70.72800		324.00000 
 43692.65567		 892.42725			42800.22842		218.93400		875.00000 
 43692.65567		 305.27265			43387.38302		70.72800		324.00000 
 43692.65567		 892.42725			42800.22842		222.39000		875.00000 
 43692.65567		 305.27265			43387.38302		70.72800		324.00000 
 43692.65567		 892.42725			42800.22842		222.39000		875.00000 
 43692.65567		 305.27265			43387.38302		70.72800		324.00000 
 43692.65567		 892.42725			42800.22842		222.39000		875.00000 
 43692.65567		 305.27265			43387.38302		70.72800		324.00000 
 43692.65567		 892.42725			42800.22842		222.39000		875.00000 
 43692.65567		 305.27265			43387.38302		70.72800		324.00000 
 43692.65567		 892.42725			42800.22842		222.39000		875.00000 
 43692.65567		 305.27265			43387.38302		70.72800		324.00000 
 43692.65567		 892.42725			42800.22842		222.39000		875.00000 
 43692.65567		 305.27265			43387.38302		70.72800		324.00000 
 43692.65567		 892.42725			42800.22842		222.39000		875.00000 
 43692.65567		 305.27265			43387.38302		70.72800		324.00000 
 43692.65567		 892.42725			42800.22842		222.39000		875.00000 
 43692.65567		 305.27265			43387.38302		70.72800		324.00000 
 43692.65567		 892.42725			42800.22842		222.39000		875.00000 
 43692.65567		 305.27265			43387.38302		70.72800		324.00000 
 43692.65567		 892.42725			42800.22842		222.39000		875.00000 
 43692.65567		 305.27265			43387.38302		70.72800		324.00000 
 43692.65567		 892.42725			42800.22842		222.39000		875.00000 
 43692.65567		 305.27265			43387.38302		70.72800		324.00000 
 43692.65567		 892.42725			42800.22842		222.39000		875.00000 
 43692.65567		 305.27265			43387.38302		70.72800		324.00000 
 43692.65567		 892.42725			42800.22842		222.39000		875.00000 
 43692.65567		 305.27265			43387.38302		70.72800		324.00000 
 43692.65567		 892.42725			42800.22842		222.39000		875.00000 
 43692.65567		 305.27265			43387.38302		70.72800		324.00000 
 43692.65567		 892.42725			42800.22842		222.39000		875.00000 
 43692.65567		 305.27265			43387.38302		70.72800		324.00000 
 43692.65567		 892.42725			42800.22842		222.39000		875.00000 
 43692.65567		 305.27265			43387.38302		70.72800		324.00000 
 43692.65567		 892.42725			42800.22842		222.39000		875.00000 
 43692.65567		 305.27265			43387.38302		70.72800		324.00000 
 43692.65567		 892.42725			42800.22842		222.39000		875.00000 
 43692.65567		 305.27265			43387.38302		70.72800		324.00000 
 43692.65567		 892.42725			42800.22842		222.39000		875.00000 
 43692.65567		 305.27265			43387.38302		70.72800		324.00000 
 43692.65567		 892.42725			42800.22842		222.39000		875.00000 
 43692.65567		 305.27265			43387.38302		70.72800		324.00000 
 43692.65567		 892.42725			42800.22842		222.39000		875.00000 
 43692.65567		 305.27265			43387.38302		70.72800		324.00000 
 43692.65567		 892.42725			42800.22842		222.39000		875.00000 
 43692.65567		 305.27265			43387.38302		70.72800		324.00000 
 43692.65567		 892.42725			42800.22842		222.39000		875.00000 
 43692.65567		 305.27265			43387.38302		70.72800		324.00000 
 43692.65567		 892.42725			42800.22842		222.39000		875.00000 
 43692.65567		 305.27265			43387.38302		70.72800		324.00000 
 43692.65567		 892.42725			42800.22842		222.39000		875.00000 
 43692.65567		 305.27265			43387.38302		70.72800		324.00000 
 43692.65567		 892.42725			42800.22842		222.39000		875.00000 
 43692.65567		 305.27265			43387.38302		70.72800		324.00000 
 43692.65567		 892.42725			42800.22842		222.39000		875.00000 
 43692.65567		 305.27265			43387.38302		70.72800		324.00000 
 43692.65567		 892.42725			42800.22842		222.39000		875.00000 
 43692.65567		 305.27265			43387.38302		70.72800		324.00000 
 43692.65567		 892.42725			42800.22842		222.39000		875.00000 
 43692.65567		 305.27265			43387.38302		70.72800		324.00000 
 43692.65567		 892.42725			42800.22842		222.39000		875.00000 
 43692.65567		 305.27265			43387.38302		70.72800		324.00000 
 43692.65567		 892.42725			42800.22842		222.39000		875.00000 
 43692.65567		 305.27265			43387.38302		70.72800		324.00000 
 43692.65567		 892.42725			42800.22842		222.39000		875.00000 
 43692.65567		 305.27265			43387.38302		70.72800		324.00000 
 43692.65567		 892.42725			42800.22842		222.39000		875.00000 
 43692.65567		 305.27265			43387.38302		70.72800		324.00000 
 43692.65567		 892.42725			42800.22842		222.39000		875.00000 
 43692.65567		 305.27265			43387.38302		70.72800		324.00000 
 43692.65567		 892.42725			42800.22842		222.39000		875.00000 
 43692.65567		 305.27265			43387.38302		70.72800		324.00000 
 43692.65567		 892.42725			42800.22842		222.39000		875.00000 
 43692.65567		 305.27265			43387.38302		70.72800		324.00000 
 43692.65567		 892.42725			42800.22842		222.39000		875.00000 
 43692.65567		 305.27265			43387.38302		70.72800		324.00000 
 43692.65567		 892.42725			42800.22842		222.39000		875.00000 
 43692.65567		 305.27265			43387.38302		70.72800		324.00000 
 43692.65567		 892.42725			42800.22842		222.39000		875.00000 
 43692.65567		 305.27265			43387.38302		70.72800		324.00000 
 43692.65567		 892.42725			42800.22842		222.39000		875.00000 
 43692.65567		 305.27265			43387.38302		70.72800		324.00000 
 43692.65567		 892.42725			42800.22842		222.39000		875.00000 
 43692.65567		 305.27265			43387.38302		70.72800		324.00000 
 43692.65567		 892.42725			42800.22842		222.39000		875.00000 
 43692.65567		 305.27265			43387.38302		70.72800		324.00000 
 43692.65567		 892.42725			42800.22842		222.39000		875.00000 
 43692.65567		 305.27265			43387.38302		70.72800		324.00000 
 43692.65567		 892.42725			42800.22842		222.39000		875.00000 
 43692.65567		 305.27265			43387.38302		70.72800		324.00000 
 43692.65567		 892.42725			42800.22842		222.39000		875.00000 
 43692.65567		 305.27265			43387.38302		70.72800		324.00000 
 43692.65567		 892.42725			42800.22842		222.39000		875.00000 
 43692.65567		 305.27265			43387.38302		70.72800		324.00000 
 43692.65567		 892.42725			42800.22842		222.39000		875.00000 
 43692.65567		 305.27265			43387.38302		70.72800		324.00000 
 43692.65567		 892.42725			42800.22842		222.39000		875.00000 
 43692.65567		 305.27265			43387.38302		70.72800		324.00000 
 43692.65567		 892.42725			42800.22842		222.39000		875.00000 
 43692.65567		 305.27265			43387.38302		70.72800		324.00000 
 43692.65567		 892.42725			42800.22842		222.39000		875.00000 
 43692.65567		 305.27265			43387.38302		70.72800		324.00000 
 43692.65567		 892.42725			42800.22842		222.39000		875.00000 
 43692.65567		 305.27265			43387.38302		70.72800		324.00000 
 43692.65567		 892.42725			42800.22842		222.39000		875.00000 
 43692.65567		 305.27265			43387.38302		70.72800		324.00000 
 43692.65567		 892.42725			42800.22842		222.39000		875.00000 
 43692.65567		 305.27265			43387.38302		70.72800		324.00000 
 43692.65567		 892.42725			42800.22842		222.39000		875.00000 
 43692.65567		 305.27265			43387.38302		70.72800		324.00000 
 43692.65567		 892.42725			42800.22842		222.39000		875.00000 
 43692.65567		 305.27265			43387.38302		70.72800		324.00000 
 43692.65567		 892.42725			42800.22842		222.39000		875.00000 
 43692.65567		 305.27265			43387.38302		70.72800		324.00000 
 43692.65567		 892.42725			42800.22842		222.39000		875.00000 
 43692.65567		 305.27265			43387.38302		70.72800		324.00000 
 43692.65567		 892.42725			42800.22842		222.39000		875.00000 
 43692.65567		 305.27265			43387.38302		70.72800		324.00000 
 43692.65567		 892.42725			42800.22842		222.39000		875.00000 
 43692.65567		 305.27265			43387.38302		70.72800		324.00000 
 43692.65567		 892.42725			42800.22842		222.39000		875.00000 
 43692.65567		 305.27265			43387.38302		70.72800		324.00000 
 43692.65567		 892.42725			42800.22842		222.39000		875.00000 
 43692.65567		 305.27265			43387.38302		70.72800		324.00000 
 43692.65567		 892.42725			42800.22842		222.39000		875.00000 
 43692.65567		 305.27265			43387.38302		70.72800		324.00000 
 43692.65567		 892.42725			42800.22842		222.39000		875.00000 
 43692.65567		 305.27265			43387.38302		70.72800		324.00000 
 43692.65567		 892.42725			42800.22842		222.39000		875.00000 
 43692.65567		 305.27265			43387.38302		70.72800		324.00000 
 43692.65567		 892.42725			42800.22842		222.39000		875.00000 
 43692.65567		 305.27265			43387.38302		70.72800		324.00000 
 43692.65567		 892.42725			42800.22842		222.66000		875.00000 
 43692.65567		 305.27265			43387.38302		70.72800		324.00000 
 43692.65567		 892.42725			42800.22842		222.66000		875.00000 
 43692.65567		 305.27265			43387.38302		70.72800		324.00000 
 43692.65567		 892.42725			42800.22842		222.66000		875.00000 
 43692.65567		 305.27265			43387.38302		70.72800		324.00000 
 43692.65567		 892.42725			42800.22842		222.66000		875.00000 
 43692.65567		 305.27265			43387.38302		70.72800		324.00000 
 43692.65567		 892.42725			42800.22842		222.66000		875.00000 
 43692.65567		 305.27265			43387.38302		70.72800		324.00000 
 43692.65567		 892.42725			42800.22842		222.66000		875.00000 
 43692.65567		 305.27265			43387.38302		70.72800		324.00000 
 43692.65567		 892.42725			42800.22842		222.66000		875.00000 
 43692.65567		 305.27265			43387.38302		70.72800		324.00000 
 43692.65567		 892.42725			42800.22842		222.66000		875.00000 
 43692.65567		 305.27265			43387.38302		70.72800		324.00000 
 43692.65567		 892.42725			42800.22842		222.66000		875.00000 
 43692.65567		 305.27265			43387.38302		70.72800		324.00000 
 43692.65567		 892.42725			42800.22842		222.66000		875.00000 
 43692.65567		 305.27265			43387.38302		70.72800		324.00000 
 43692.65567		 892.42725			42800.22842		222.66000		875.00000 
 43692.65567		 305.27265			43387.38302		70.72800		324.00000 
 43692.65567		 892.42725			42800.22842		222.66000		875.00000 
 43692.65567		 305.27265			43387.38302		70.72800		324.00000 
 43692.65567		 892.42725			42800.22842		222.66000		875.00000 
 43692.65567		 305.27265			43387.38302		70.72800		324.00000 
 43692.65567		 892.42725			42800.22842		222.66000		875.00000 
 43692.65567		 305.27265			43387.38302		70.72800		324.00000 
 43692.65567		 892.42725			42800.22842		222.66000		875.00000 
 43692.65567		 305.27265			43387.38302		70.72800		324.00000 
 43692.65567		 892.42725			42800.22842		222.66000		875.00000 
 43692.65567		 305.27265			43387.38302		70.72800		324.00000 
 43692.65567		 892.42725			42800.22842		222.66000		875.00000 
 43692.65567		 305.27265			43387.38302		70.72800		324.00000 
 43692.65567		 892.42725			42800.22842		222.66000		875.00000 
 43692.65567		 305.27265			43387.38302		70.72800		324.00000 
 43692.65567		 892.42725			42800.22842		222.66000		875.00000 
 43692.65567		 305.27265			43387.38302		70.72800		324.00000 
 43692.65567		 892.42725			42800.22842		222.66000		875.00000 
 43692.65567		 305.27265			43387.38302		70.72800		324.00000 
 43692.65567		 892.42725			42800.22842		222.66000		875.00000 
 43692.65567		 305.27265			43387.38302		70.72800		324.00000 
 43692.65567		 892.42725			42800.22842		222.66000		875.00000 
 43692.65567		 305.27265			43387.38302		70.72800		324.00000 
 43692.65567		 892.42725			42800.22842		222.66000		875.00000 
 43692.65567		 305.27265			43387.38302		70.72800		324.00000 
 43692.65567		 892.42725			42800.22842		222.66000		875.00000 
 43692.65567		 305.27265			43387.38302		70.72800		324.00000 
 43692.65567		 892.42725			42800.22842		222.66000		875.00000 
 43692.65567		 305.27265			43387.38302		70.72800		324.00000 
 43692.65567		 892.42725			42800.22842		222.66000		875.00000 
 43692.65567		 305.27265			43387.38302		70.72800		324.00000 
 43692.65567		 892.42725			42800.22842		222.66000		875.00000 
 43692.65567		 305.27265			43387.38302		70.72800		324.00000 
 43692.65567		 892.42725			42800.22842		222.66000		875.00000 
 43692.65567		 305.27265			43387.38302		70.72800		324.00000 
 43692.65567		 892.42725			42800.22842		222.66000		875.00000 
 43692.65567		 305.27265			43387.38302		70.72800		324.00000 
 43692.65567		 892.42725			42800.22842		222.66000		875.00000 
 43692.65567		 305.27265			43387.38302		70.72800		324.00000 
 43692.65567		 892.42725			42800.22842		222.66000		875.00000 
 43692.65567		 305.27265			43387.38302		70.72800		324.00000 
 43692.65567		 892.42725			42800.22842		222.66000		875.00000 
 43692.65567		 305.27265			43387.38302		70.72800		324.00000 
 43692.65567		 892.42725			42800.22842		222.66000		875.00000 
 43692.65567		 305.27265			43387.38302		70.72800		324.00000 
 43692.65567		 892.42725			42800.22842		222.66000		875.00000 
 43692.65567		 305.27265			43387.38302		70.72800		324.00000 
 43692.65567		 892.42725			42800.22842		222.66000		875.00000 
 43692.65567		 305.27265			43387.38302		70.72800		324.00000 
 43692.65567		 892.42725			42800.22842		222.66000		875.00000 
 43692.65567		 305.27265			43387.38302		70.72800		324.00000 
 43692.65567		 892.42725			42800.22842		222.66000		875.00000 
 43692.65567		 305.27265			43387.38302		70.72800		324.00000 
 43692.65567		 892.42725			42800.22842		222.66000		875.00000 
 43692.65567		 305.27265			43387.38302		70.72800		324.00000 
 43692.65567		 892.42725			42800.22842		222.66000		875.00000 
 43692.65567		 305.27265			43387.38302		70.72800		324.00000 
 43692.65567		 892.42725			42800.22842		222.66000		875.00000 
 43692.65567		 305.27265			43387.38302		70.72800		324.00000 
 43692.65567		 892.42725			42800.22842		222.66000		875.00000 
 43692.65567		 305.27265			43387.38302		70.72800		324.00000 
 43692.65567		 892.42725			42800.22842		222.66000		875.00000 
 43692.65567		 305.27265			43387.38302		70.72800		324.00000 
 43692.65567		 892.42725			42800.22842		222.66000		875.00000 
 43692.65567		 305.27265			43387.38302		70.72800		324.00000 
 43692.65567		 892.42725			42800.22842		222.66000		875.00000 
 43692.65567		 305.27265			43387.38302		70.72800		324.00000 
 43692.65567		 892.42725			42800.22842		222.66000		875.00000 
 43692.65567		 305.27265			43387.38302		70.72800		324.00000 
 43692.65567		 892.42725			42800.22842		222.66000		875.00000 
 43692.65567		 305.27265			43387.38302		70.72800		324.00000 
 43692.65567		 892.42725			42800.22842		222.66000		875.00000 
 43692.65567		 305.27265			43387.38302		70.12600		324.00000 
 43692.65567		 892.42725			42800.22842		222.66000		875.00000 
 43692.65567		 305.27265			43387.38302		70.12600		324.00000 
 43692.65567		 892.42725			42800.22842		222.66000		875.00000 
 43692.65567		 305.27265			43387.38302		70.12600		324.00000 
 43692.65567		 892.42725			42800.22842		222.66000		875.00000 
 43692.65567		 305.27265			43387.38302		70.12600		324.00000 
 43692.65567		 892.42725			42800.22842		222.66000		875.00000 
 43692.65567		 305.27265			43387.38302		70.12600		324.00000 
 43692.65567		 892.42725			42800.22842		222.66000		875.00000 
 43692.65567		 305.27265			43387.38302		70.12600		324.00000 
 43692.65567		 892.42725			42800.22842		222.66000		875.00000 
 43692.65567		 305.27265			43387.38302		70.12600		324.00000 
 43692.65567		 892.42725			42800.22842		222.66000		875.00000 
 43692.65567		 305.27265			43387.38302		70.12600		324.00000 
 43692.65567		 892.42725			42800.22842		222.66000		875.00000 
 43692.65567		 305.27265			43387.38302		70.12600		324.00000 
 43692.65567		 892.42725			42800.22842		222.66000		875.00000 
 43692.65567		 305.27265			43387.38302		70.12600		324.00000 
 43692.65567		 892.42725			42800.22842		222.66000		875.00000 
 43692.65567		 305.27265			43387.38302		70.12600		324.00000 
 43692.65567		 892.42725			42800.22842		222.66000		875.00000 
 43692.65567		 305.27265			43387.38302		70.12600		324.00000 
 43692.65567		 892.42725			42800.22842		222.66000		875.00000 
 43692.65567		 305.27265			43387.38302		70.12600		324.00000 
 43692.65567		 892.42725			42800.22842		222.66000		875.00000 
 43692.65567		 305.27265			43387.38302		70.12600		324.00000 
 43692.65567		 892.42725			42800.22842		222.66000		875.00000 
 43692.65567		 305.27265			43387.38302		70.12600		324.00000 
 43692.65567		 892.42725			42800.22842		222.59000		875.00000 
 43692.65567		 305.27265			43387.38302		70.12600		324.00000 
 43692.65567		 892.42725			42800.22842		222.59000		875.00000 
 43692.65567		 305.27265			43387.38302		70.12600		324.00000 
 43692.65567		 892.42725			42800.22842		222.59000		875.00000 
 43692.65567		 305.27265			43387.38302		70.12600		324.00000 
 43692.65567		 892.42725			42800.22842		222.59000		875.00000 
 43692.65567		 305.27265			43387.38302		70.12600		324.00000 
 43692.65567		 892.42725			42800.22842		222.59000		875.00000 
 43692.65567		 305.27265			43387.38302		70.12600		324.00000 
 43692.65567		 892.42725			42800.22842		222.59000		875.00000 
 43692.65567		 305.27265			43387.38302		70.12600		324.00000 
 43692.65567		 892.42725			42800.22842		222.59000		875.00000 
 43692.65567		 305.27265			43387.38302		70.12600		324.00000 
 43692.65567		 892.42725			42800.22842		222.59000		875.00000 
 43692.65567		 305.27265			43387.38302		70.12600		324.00000 
 43692.65567		 892.42725			42800.22842		222.59000		875.00000 
 43692.65567		 305.27265			43387.38302		70.12600		324.00000 
 43692.65567		 892.42725			42800.22842		222.59000		875.00000 
 43692.65567		 305.27265			43387.38302		70.12600		324.00000 
 43692.65567		 892.42725			42800.22842		222.59000		875.00000 
 43692.65567		 305.27265			43387.38302		70.12600		324.00000 
 43692.65567		 892.42725			42800.22842		222.59000		875.00000 
 43692.65567		 305.27265			43387.38302		70.12600		324.00000 
 43692.65567		 892.42725			42800.22842		222.59000		875.00000 
 43692.65567		 305.27265			43387.38302		70.12600		324.00000 
 43692.65567		 892.42725			42800.22842		222.59000		875.00000 
 43692.65567		 305.27265			43387.38302		70.12600		324.00000 
 43692.65567		 892.42725			42800.22842		222.59000		875.00000 
 43692.65567		 305.27265			43387.38302		70.12600		324.00000 
 43692.65567		 892.42725			42800.22842		222.59000		875.00000 
 43692.65567		 305.27265			43387.38302		70.12600		324.00000 
 43692.65567		 892.42725			42800.22842		222.59000		875.00000 
 43692.65567		 305.27265			43387.38302		70.12600		324.00000 
 43692.65567		 892.42725			42800.22842		222.59000		875.00000 
 43692.65567		 305.27265			43387.38302		70.12600		324.00000 
 43692.65567		 892.42725			42800.22842		222.59000		875.00000 
 43692.65567		 305.27265			43387.38302		70.12600		324.00000 
 43692.65567		 892.42725			42800.22842		222.59000		875.00000 
 43692.65567		 305.27265			43387.38302		70.12600		324.00000 
 43692.65567		 892.42725			42800.22842		222.59000		875.00000 
 43692.65567		 305.27265			43387.38302		70.12600		324.00000 
 43692.65567		 892.42725			42800.22842		222.59000		875.00000 
 43692.65567		 305.27265			43387.38302		70.12600		324.00000 
 43692.65567		 892.42725			42800.22842		222.59000		875.00000 
 43692.65567		 305.27265			43387.38302		70.12600		324.00000 
 43692.65567		 892.42725			42800.22842		222.59000		875.00000 
 43692.65567		 305.27265			43387.38302		70.12600		324.00000 
 43692.65567		 892.42725			42800.22842		222.59000		875.00000 
 43692.65567		 305.27265			43387.38302		70.12600		324.00000 
 43692.65567		 892.42725			42800.22842		222.59000		875.00000 
 43692.65567		 305.27265			43387.38302		70.12600		324.00000 
 43692.65567		 892.42725			42800.22842		222.59000		875.00000 
 43692.65567		 305.27265			43387.38302		70.12600		324.00000 
 43692.65567		 892.42725			42800.22842		222.59000		875.00000 
 43692.65567		 305.27265			43387.38302		70.12600		324.00000 
 43692.65567		 892.42725			42800.22842		222.59000		875.00000 
 43692.65567		 305.27265			43387.38302		70.12600		324.00000 
 43692.65567		 892.42725			42800.22842		222.59000		875.00000 
 43692.65567		 305.27265			43387.38302		70.12600		324.00000 
 43692.65567		 892.42725			42800.22842		222.59000		875.00000 
 43692.65567		 305.27265			43387.38302		70.12600		324.00000 
 43692.65567		 892.42725			42800.22842		222.59000		875.00000 
 43692.65567		 305.27265			43387.38302		70.12600		324.00000 
 43692.65567		 892.42725			42800.22842		222.59000		875.00000 
 43692.65567		 305.27265			43387.38302		70.12600		324.00000 
 43692.65567		 892.42725			42800.22842		222.59000		875.00000 
 43692.65567		 305.27265			43387.38302		70.12600		324.00000 
 43692.65567		 892.42725			42800.22842		222.59000		875.00000 
 43692.65567		 305.27265			43387.38302		70.12600		324.00000 
 43692.65567		 892.42725			42800.22842		222.59000		875.00000 
 43692.65567		 305.27265			43387.38302		70.12600		324.00000 
 43692.65567		 892.42725			42800.22842		222.59000		875.00000 
 43692.65567		 305.27265			43387.38302		70.12600		324.00000 
 43692.65567		 892.42725			42800.22842		222.59000		875.00000 
 43692.65567		 305.27265			43387.38302		70.12600		324.00000 
 43692.65567		 892.42725			42800.22842		222.59000		875.00000 
 43692.65567		 305.27265			43387.38302		70.12600		324.00000 
 43692.65567		 892.42725			42800.22842		222.59000		875.00000 
 43692.65567		 305.27265			43387.38302		70.12600		324.00000 
 43692.65567		 892.42725			42800.22842		222.59000		875.00000 
 43692.65567		 305.27265			43387.38302		70.12600		324.00000 
 43692.65567		 892.42725			42800.22842		222.59000		875.00000 
 43692.65567		 305.27265			43387.38302		70.12600		324.00000 
 43692.65567		 892.42725			42800.22842		222.59000		875.00000 
 43692.65567		 305.27265			43387.38302		70.12600		324.00000 
 43692.65567		 892.42725			42800.22842		222.59000		875.00000 
 43692.65567		 305.27265			43387.38302		70.12600		324.00000 
 43692.65567		 892.42725			42800.22842		222.59000		875.00000 
 43692.65567		 305.27265			43387.38302		70.12600		324.00000 
 43692.65567		 892.42725			42800.22842		222.59000		875.00000 
 43692.65567		 305.27265			43387.38302		70.12600		324.00000 
 43692.65567		 892.42725			42800.22842		222.59000		875.00000 
 43692.65567		 305.27265			43387.38302		70.12600		324.00000 
 43692.65567		 892.42725			42800.22842		222.59000		875.00000 
 43692.65567		 305.27265			43387.38302		70.12600		324.00000 
 43692.65567		 892.42725			42800.22842		222.59000		875.00000 
 43692.65567		 305.27265			43387.38302		70.12600		324.00000 
 43692.65567		 892.42725			42800.22842		222.59000		875.00000 
 43692.65567		 305.27265			43387.38302		70.12600		324.00000 
 43692.65567		 892.42725			42800.22842		222.59000		875.00000 
 43692.65567		 305.27265			43387.38302		70.12600		324.00000 
 43692.65567		 892.42725			42800.22842		222.59000		875.00000 
 43692.65567		 305.27265			43387.38302		70.12600		324.00000 
 43692.65567		 892.42725			42800.22842		222.59000		875.00000 
 43692.65567		 305.27265			43387.38302		70.12600		324.00000 
 43692.65567		 892.42725			42800.22842		222.59000		875.00000 
 43692.65567		 305.27265			43387.38302		70.12600		324.00000 
 43692.65567		 892.42725			42800.22842		222.59000		875.00000 
 43692.65567		 305.27265			43387.38302		70.12600		324.00000 
 43692.65567		 892.42725			42800.22842		222.59000		875.00000 
 43692.65567		 305.27265			43387.38302		70.12600		324.00000 
 43692.65567		 892.42725			42800.22842		222.59000		875.00000 
 43692.65567		 305.27265			43387.38302		70.12600		324.00000 
 43692.65567		 892.42725			42800.22842		222.59000		875.00000 
 43692.65567		 305.27265			43387.38302		70.12600		324.00000 
 43692.65567		 892.42725			42800.22842		222.59000		875.00000 
 43692.65567		 305.27265			43387.38302		70.12600		324.00000 
 43692.65567		 892.42725			42800.22842		222.59000		875.00000 
 43692.65567		 305.27265			43387.38302		70.12600		324.00000 
 43692.65567		 892.42725			42800.22842		222.59000		875.00000 
 43692.65567		 305.27265			43387.38302		70.12600		324.00000 
 43692.65567		 892.42725			42800.22842		222.59000		875.00000 
 43692.65567		 305.27265			43387.38302		70.12600		324.00000 
 43692.65567		 892.42725			42800.22842		222.59000		875.00000 
 43692.65567		 305.27265			43387.38302		70.12600		324.00000 
 43692.65567		 892.42725			42800.22842		222.59000		875.00000 
 43692.65567		 305.27265			43387.38302		70.12600		324.00000 
 43692.65567		 892.42725			42800.22842		222.66000		875.00000 
 43692.65567		 305.27265			43387.38302		70.12600		324.00000 
 43692.65567		 892.42725			42800.22842		222.66000		875.00000 
 43692.65567		 305.27265			43387.38302		70.12600		324.00000 
 43692.65567		 892.42725			42800.22842		222.66000		875.00000 
 43692.65567		 305.27265			43387.38302		70.12600		324.00000 
 43692.65567		 892.42725			42800.22842		222.66000		875.00000 
 43692.65567		 305.27265			43387.38302		70.12600		324.00000 
 43692.65567		 892.42725			42800.22842		222.66000		875.00000 
 43692.65567		 305.27265			43387.38302		70.12600		324.00000 
 43692.65567		 892.42725			42800.22842		222.66000		875.00000 
 43692.65567		 305.27265			43387.38302		70.12600		324.00000 
 43692.65567		 892.42725			42800.22842		222.66000		875.00000 
 43692.65567		 305.27265			43387.38302		70.12600		324.00000 
 43692.65567		 892.42725			42800.22842		222.66000		875.00000 
 43692.65567		 305.27265			43387.38302		70.12600		324.00000 
 43692.65567		 892.42725			42800.22842		222.66000		875.00000 
 43692.65567		 305.27265			43387.38302		70.12600		324.00000 
 43692.65567		 892.42725			42800.22842		222.66000		875.00000 
 43692.65567		 305.27265			43387.38302		70.12600		324.00000 
 43692.65567		 892.42725			42800.22842		222.66000		875.00000 
 43692.65567		 305.27265			43387.38302		70.12600		324.00000 
 43692.65567		 892.42725			42800.22842		222.66000		875.00000 
 43692.65567		 305.27265			43387.38302		70.12600		324.00000 
 43692.65567		 892.42725			42800.22842		222.66000		875.00000 
 43692.65567		 305.27265			43387.38302		70.12600		324.00000 
 43692.65567		 892.42725			42800.22842		222.66000		875.00000 
 43692.65567		 305.27265			43387.38302		70.12600		324.00000 
 43692.65567		 892.42725			42800.22842		222.66000		875.00000 
 43692.65567		 305.27265			43387.38302		70.12600		324.00000 
 43692.65567		 892.42725			42800.22842		222.66000		875.00000 
 43692.65567		 305.27265			43387.38302		70.12600		324.00000 
 43692.65567		 892.42725			42800.22842		222.66000		875.00000 
 43692.65567		 305.27265			43387.38302		70.12600		324.00000 
 43692.65567		 892.42725			42800.22842		222.66000		875.00000 
 43692.65567		 305.27265			43387.38302		70.12600		324.00000 
 43692.65567		 892.42725			42800.22842		222.66000		875.00000 
 43692.65567		 305.27265			43387.38302		70.12600		324.00000 
 43692.65567		 892.42725			42800.22842		222.66000		875.00000 
 43692.65567		 305.27265			43387.38302		70.12600		324.00000 
 43692.65567		 892.42725			42800.22842		222.66000		875.00000 
 43692.65567		 305.27265			43387.38302		70.12600		324.00000 
 43692.65567		 892.42725			42800.22842		222.66000		875.00000 
 43692.65567		 305.27265			43387.38302		70.12600		324.00000 
 43692.65567		 892.42725			42800.22842		222.66000		875.00000 
 43692.65567		 305.27265			43387.38302		70.12600		324.00000 
 43692.65567		 892.42725			42800.22842		222.66000		875.00000 
 43692.65567		 305.27265			43387.38302		70.12600		324.00000 
 43692.65567		 892.42725			42800.22842		222.66000		875.00000 
 43692.65567		 305.27265			43387.38302		70.12600		324.00000 
 43692.65567		 892.42725			42800.22842		222.66000		875.00000 
 43692.65567		 305.27265			43387.38302		70.12600		324.00000 
 43692.65567		 892.42725			42800.22842		222.66000		875.00000 
 43692.65567		 305.27265			43387.38302		70.12600		324.00000 
 43692.65567		 892.42725			42800.22842		222.66000		875.00000 
 43692.65567		 305.27265			43387.38302		70.12600		324.00000 
 43692.65567		 892.42725			42800.22842		222.66000		875.00000 
 43692.65567		 305.27265			43387.38302		70.12600		324.00000 
 43692.65567		 892.42725			42800.22842		222.66000		875.00000 
 43692.65567		 305.27265			43387.38302		70.12600		324.00000 
 43692.65567		 892.42725			42800.22842		222.66000		875.00000 
 43692.65567		 305.27265			43387.38302		70.12600		324.00000 
 43692.65567		 892.42725			42800.22842		222.66000		875.00000 
 43692.65567		 305.27265			43387.38302		70.12600		324.00000 
 43692.65567		 892.42725			42800.22842		222.66000		875.00000 
 43692.65567		 305.27265			43387.38302		70.12600		324.00000 
 43692.65567		 892.42725			42800.22842		222.66000		875.00000 
 43692.65567		 305.27265			43387.38302		70.12600		324.00000 
 43692.65567		 892.42725			42800.22842		222.66000		875.00000 
 43692.65567		 305.27265			43387.38302		70.12600		324.00000 
 43692.65567		 892.42725			42800.22842		222.66000		875.00000 
 43692.65567		 305.27265			43387.38302		70.12600		324.00000 
 43692.65567		 892.42725			42800.22842		222.66000		875.00000 
 43692.65567		 305.27265			43387.38302		70.12600		324.00000 
 43692.65567		 892.42725			42800.22842		222.66000		875.00000 
 43692.65567		 305.27265			43387.38302		70.12600		324.00000 
 43692.65567		 892.42725			42800.22842		222.66000		875.00000 
 43692.65567		 305.27265			43387.38302		70.12600		324.00000 
 43692.65567		 892.42725			42800.22842		222.66000		875.00000 
 43692.65567		 305.27265			43387.38302		70.12600		324.00000 
 43692.65567		 892.42725			42800.22842		222.66000		875.00000 
 43692.65567		 305.27265			43387.38302		70.12600		324.00000 
 43692.65567		 892.42725			42800.22842		222.66000		875.00000 
 43692.65567		 305.27265			43387.38302		70.12600		324.00000 
 43692.65567		 892.42725			42800.22842		222.66000		875.00000 
 43692.65567		 305.27265			43387.38302		70.12600		324.00000 
 43692.65567		 892.42725			42800.22842		222.66000		875.00000 
 43692.65567		 305.27265			43387.38302		70.12600		324.00000 
 43692.65567		 892.42725			42800.22842		222.66000		875.00000 
 43692.65567		 305.27265			43387.38302		70.12600		324.00000 
 43692.65567		 892.42725			42800.22842		222.66000		875.00000 
 43692.65567		 305.27265			43387.38302		70.12600		324.00000 
 43692.65567		 892.42725			42800.22842		222.66000		875.00000 
 43692.65567		 305.27265			43387.38302		70.12600		324.00000 
 43692.65567		 892.42725			42800.22842		222.66000		875.00000 
 43692.65567		 305.27265			43387.38302		70.12600		324.00000 
 43692.65567		 892.42725			42800.22842		222.66000		875.00000 
 43692.65567		 305.27265			43387.38302		70.12600		324.00000 
 43692.65567		 892.42725			42800.22842		222.66000		875.00000 
 43692.65567		 305.27265			43387.38302		70.12600		324.00000 
 43692.65567		 892.42725			42800.22842		222.66000		875.00000 
 43692.65567		 305.27265			43387.38302		70.12600		324.00000 
 43692.65567		 892.42725			42800.22842		222.66000		875.00000 
 43692.65567		 305.27265			43387.38302		70.12600		324.00000 
 43692.65567		 892.42725			42800.22842		222.66000		875.00000 
 43692.65567		 305.27265			43387.38302		70.12600		324.00000 
 43692.65567		 892.42725			42800.22842		222.66000		875.00000 
 43692.65567		 305.27265			43387.38302		70.12600		324.00000 
 43692.65567		 892.42725			42800.22842		222.66000		875.00000 
 43692.65567		 305.27265			43387.38302		70.12600		324.00000 
 43692.65567		 892.42725			42800.22842		222.66000		875.00000 
 43692.65567		 305.27265			43387.38302		70.12600		324.00000 
 43692.65567		 892.42725			42800.22842		222.66000		875.00000 
 43692.65567		 305.27265			43387.38302		70.12600		324.00000 
 43692.65567		 892.42725			42800.22842		222.66000		875.00000 
 43692.65567		 305.27265			43387.38302		70.12600		324.00000 
 43692.65567		 892.42725			42800.22842		222.66000		875.00000 
 43692.65567		 305.27265			43387.38302		70.12600		324.00000 
 43692.65567		 892.42725			42800.22842		222.66000		875.00000 
 43692.65567		 305.27265			43387.38302		70.12600		324.00000 
 43692.65567		 892.42725			42800.22842		222.66000		875.00000 
 43692.65567		 305.27265			43387.38302		70.12600		324.00000 
 43692.65567		 892.42725			42800.22842		222.66000		875.00000 
 43692.65567		 305.27265			43387.38302		70.12600		324.00000 
 43692.65567		 892.42725			42800.22842		222.66000		875.00000 
 43692.65567		 305.27265			43387.38302		70.12600		324.00000 
 43692.65567		 892.42725			42800.22842		222.66000		875.00000 
 43692.65567		 305.27265			43387.38302		70.12600		324.00000 
 43692.65567		 892.42725			42800.22842		222.66000		875.00000 
 43692.65567		 305.27265			43387.38302		70.12600		324.00000 
 43692.65567		 892.42725			42800.22842		223.26000		875.00000 
 43692.65567		 305.27265			43387.38302		70.12600		324.00000 
 43692.65567		 892.42725			42800.22842		223.26000		875.00000 
 43692.65567		 305.27265			43387.38302		70.12600		324.00000 
 43692.65567		 892.42725			42800.22842		223.26000		875.00000 
 43692.65567		 305.27265			43387.38302		70.12600		324.00000 
 43692.65567		 892.42725			42800.22842		223.26000		875.00000 
 43692.65567		 305.27265			43387.38302		70.12600		324.00000 
 43692.65567		 892.42725			42800.22842		223.26000		875.00000 
 43692.65567		 305.27265			43387.38302		70.12600		324.00000 
 43692.65567		 892.42725			42800.22842		223.26000		875.00000 
 43692.65567		 305.27265			43387.38302		70.12600		324.00000 
 43692.65567		 892.42725			42800.22842		223.26000		875.00000 
 43692.65567		 305.27265			43387.38302		70.12600		324.00000 
 43692.65567		 892.42725			42800.22842		223.26000		875.00000 
 43692.65567		 305.27265			43387.38302		70.12600		324.00000 
 43692.65567		 892.42725			42800.22842		223.26000		875.00000 
 43692.65567		 305.27265			43387.38302		70.12600		324.00000 
 43692.65567		 892.42725			42800.22842		223.26000		875.00000 
 43692.65567		 305.27265			43387.38302		70.12600		324.00000 
 43692.65567		 892.42725			42800.22842		223.26000		875.00000 
 43692.65567		 305.27265			43387.38302		70.12600		324.00000 
 43692.65567		 892.42725			42800.22842		223.26000		875.00000 
 43692.65567		 305.27265			43387.38302		70.12600		324.00000 
 43692.65567		 892.42725			42800.22842		223.26000		875.00000 
 43692.65567		 305.27265			43387.38302		70.12600		324.00000 
 43692.65567		 892.42725			42800.22842		223.26000		875.00000 
 43692.65567		 305.27265			43387.38302		70.12600		324.00000 
 43692.65567		 892.42725			42800.22842		223.26000		875.00000 
 43692.65567		 305.27265			43387.38302		70.12600		324.00000 
 43692.65567		 892.42725			42800.22842		223.26000		875.00000 
 43692.65567		 305.27265			43387.38302		70.12600		324.00000 
 43692.65567		 892.42725			42800.22842		223.26000		875.00000 
 43692.65567		 305.27265			43387.38302		70.12600		324.00000 
 43692.65567		 892.42725			42800.22842		223.26000		875.00000 
 43692.65567		 305.27265			43387.38302		70.12600		324.00000 
 43692.65567		 892.42725			42800.22842		223.26000		875.00000 
 43692.65567		 305.27265			43387.38302		70.12600		324.00000 
 43692.65567		 892.42725			42800.22842		223.26000		875.00000 
 43692.65567		 305.27265			43387.38302		70.12600		324.00000 
 43692.65567		 892.42725			42800.22842		223.26000		875.00000 
 43692.65567		 305.27265			43387.38302		70.12600		324.00000 
 43692.65567		 892.42725			42800.22842		223.26000		875.00000 
 43692.65567		 305.27265			43387.38302		70.12600		324.00000 
 43692.65567		 892.42725			42800.22842		223.26000		875.00000 
 43692.65567		 305.27265			43387.38302		70.12600		324.00000 
 43692.65567		 892.42725			42800.22842		223.26000		875.00000 
 43692.65567		 305.27265			43387.38302		70.12600		324.00000 
 43692.65567		 892.42725			42800.22842		223.26000		875.00000 
 43692.65567		 305.27265			43387.38302		70.12600		324.00000 
 43692.65567		 892.42725			42800.22842		223.26000		875.00000 
 43692.65567		 305.27265			43387.38302		70.12600		324.00000 
 43692.65567		 892.42725			42800.22842		223.26000		875.00000 
 43692.65567		 305.27265			43387.38302		70.12600		324.00000 
 43692.65567		 892.42725			42800.22842		223.26000		875.00000 
 43692.65567		 305.27265			43387.38302		70.12600		324.00000 
 43692.65567		 892.42725			42800.22842		223.26000		875.00000 
 43692.65567		 305.27265			43387.38302		70.12600		324.00000 
 43692.65567		 892.42725			42800.22842		223.26000		875.00000 
 43692.65567		 305.27265			43387.38302		70.12600		324.00000 
 43692.65567		 892.42725			42800.22842		223.26000		875.00000 
 43692.65567		 305.27265			43387.38302		70.12600		324.00000 
 43692.65567		 892.42725			42800.22842		223.26000		875.00000 
 43692.65567		 305.27265			43387.38302		70.12600		324.00000 
 43692.65567		 892.42725			42800.22842		223.26000		875.00000 
 43692.65567		 305.27265			43387.38302		70.12600		324.00000 
 43692.65567		 892.42725			42800.22842		223.26000		875.00000 
 43692.65567		 305.27265			43387.38302		70.12600		324.00000 
 43692.65567		 892.42725			42800.22842		223.26000		875.00000 
 43692.65567		 305.27265			43387.38302		70.12600		324.00000 
 43692.65567		 892.42725			42800.22842		223.26000		875.00000 
 43692.65567		 305.27265			43387.38302		70.12600		324.00000 
 43692.65567		 892.42725			42800.22842		223.26000		875.00000 
 43692.65567		 305.27265			43387.38302		70.12600		324.00000 
 43692.65567		 892.42725			42800.22842		223.26000		875.00000 
 43692.65567		 305.27265			43387.38302		70.12600		324.00000 
 43692.65567		 892.42725			42800.22842		223.26000		875.00000 
 43692.65567		 305.27265			43387.38302		70.12600		324.00000 
 43692.65567		 892.42725			42800.22842		223.26000		875.00000 
 43692.65567		 305.27265			43387.38302		70.12600		324.00000 
 43692.65567		 892.42725			42800.22842		223.26000		875.00000 
 43692.65567		 305.27265			43387.38302		70.12600		324.00000 
 43692.65567		 892.42725			42800.22842		223.26000		875.00000 
 43692.65567		 305.27265			43387.38302		70.12600		324.00000 
 43692.65567		 892.42725			42800.22842		223.26000		875.00000 
 43692.65567		 305.27265			43387.38302		70.12600		324.00000 
 43692.65567		 892.42725			42800.22842		223.26000		875.00000 
 43692.65567		 305.27265			43387.38302		70.12600		324.00000 
 43692.65567		 892.42725			42800.22842		223.26000		875.00000 
 43692.65567		 305.27265			43387.38302		70.12600		324.00000 
 43692.65567		 892.42725			42800.22842		223.26000		875.00000 
 43692.65567		 305.27265			43387.38302		70.12600		324.00000 
 43692.65567		 892.42725			42800.22842		223.26000		875.00000 
 43692.65567		 305.27265			43387.38302		70.12600		324.00000 
 43692.65567		 892.42725			42800.22842		223.26000		875.00000 
 43692.65567		 305.27265			43387.38302		70.12600		324.00000 
 43692.65567		 892.42725			42800.22842		223.26000		875.00000 
 43692.65567		 305.27265			43387.38302		70.12600		324.00000 
 43692.65567		 892.42725			42800.22842		223.26000		875.00000 
 43692.65567		 305.27265			43387.38302		70.12600		324.00000 
 43692.65567		 892.42725			42800.22842		223.26000		875.00000 
 43692.65567		 305.27265			43387.38302		70.12600		324.00000 
 43692.65567		 892.42725			42800.22842		223.26000		875.00000 
 43692.65567		 305.27265			43387.38302		70.12600		324.00000 
 43692.65567		 892.42725			42800.22842		223.26000		875.00000 
 43692.65567		 305.27265			43387.38302		70.12600		324.00000 
 43692.65567		 892.42725			42800.22842		223.26000		875.00000 
 43692.65567		 305.27265			43387.38302		70.12600		324.00000 
 43692.65567		 892.42725			42800.22842		223.26000		875.00000 
 43692.65567		 305.27265			43387.38302		70.12600		324.00000 
 43692.65567		 892.42725			42800.22842		223.26000		875.00000 
 43692.65567		 305.27265			43387.38302		70.12600		324.00000 
 43692.65567		 892.42725			42800.22842		223.26000		875.00000 
 43692.65567		 305.27265			43387.38302		70.12600		324.00000 
 43692.65567		 892.42725			42800.22842		223.26000		875.00000 
 43692.65567		 305.27265			43387.38302		70.12600		324.00000 
 43692.65567		 892.42725			42800.22842		223.26000		875.00000 
 43692.65567		 305.27265			43387.38302		70.12600		324.00000 
 43692.65567		 892.42725			42800.22842		223.26000		875.00000 
 43692.65567		 305.27265			43387.38302		70.12600		324.00000 
 43692.65567		 892.42725			42800.22842		223.26000		875.00000 
 43692.65567		 305.27265			43387.38302		70.12600		324.00000 
 43692.65567		 892.42725			42800.22842		223.26000		875.00000 
 43692.65567		 305.27265			43387.38302		70.12600		324.00000 
 43692.65567		 892.42725			42800.22842		223.26000		875.00000 
 43692.65567		 305.27265			43387.38302		70.12600		324.00000 
 43692.65567		 892.42725			42800.22842		223.26000		875.00000 
 43692.65567		 305.27265			43387.38302		70.12600		324.00000 
 43692.65567		 892.42725			42800.22842		222.66000		875.00000 
 43692.65567		 305.27265			43387.38302		70.12600		324.00000 
 43692.65567		 892.42725			42800.22842		222.66000		875.00000 
 43692.65567		 305.27265			43387.38302		70.12600		324.00000 
 43692.65567		 892.42725			42800.22842		222.66000		875.00000 
 43692.65567		 305.27265			43387.38302		70.12600		324.00000 
 43692.65567		 892.42725			42800.22842		222.66000		875.00000 
 43692.65567		 305.27265			43387.38302		70.12600		324.00000 
 43692.65567		 892.42725			42800.22842		222.66000		875.00000 
 43692.65567		 305.27265			43387.38302		70.12600		324.00000 
 43692.65567		 892.42725			42800.22842		222.66000		875.00000 
 43692.65567		 305.27265			43387.38302		70.12600		324.00000 
 43692.65567		 892.42725			42800.22842		222.66000		875.00000 
 43692.65567		 305.27265			43387.38302		70.12600		324.00000 
 43692.65567		 892.42725			42800.22842		222.66000		875.00000 
 43692.65567		 305.27265			43387.38302		70.12600		324.00000 
 43692.65567		 892.42725			42800.22842		222.66000		875.00000 
 43692.65567		 305.27265			43387.38302		70.12600		324.00000 
 43692.65567		 892.42725			42800.22842		222.66000		875.00000 
 43692.65567		 305.27265			43387.38302		70.12600		324.00000 
 43692.65567		 892.42725			42800.22842		222.66000		875.00000 
 43692.65567		 305.27265			43387.38302		70.12600		324.00000 
 43692.65567		 892.42725			42800.22842		222.66000		875.00000 
 43692.65567		 305.27265			43387.38302		70.12600		324.00000 
 43692.65567		 892.42725			42800.22842		222.66000		875.00000 
 43692.65567		 305.27265			43387.38302		70.12600		324.00000 
 43692.65567		 892.42725			42800.22842		222.66000		875.00000 
 43692.65567		 305.27265			43387.38302		70.12600		324.00000 
 43692.65567		 892.42725			42800.22842		222.66000		875.00000 
 43692.65567		 305.27265			43387.38302		70.12600		324.00000 
 43692.65567		 892.42725			42800.22842		222.66000		875.00000 
 43692.65567		 305.27265			43387.38302		70.12600		324.00000 
 43692.65567		 892.42725			42800.22842		222.66000		875.00000 
 43692.65567		 305.27265			43387.38302		70.12600		324.00000 
 43692.65567		 892.42725			42800.22842		222.66000		875.00000 
 43692.65567		 305.27265			43387.38302		70.12600		324.00000 
 43692.65567		 892.42725			42800.22842		222.66000		875.00000 
 43692.65567		 305.27265			43387.38302		70.12600		324.00000 
 43692.65567		 892.42725			42800.22842		222.66000		875.00000 
 43692.65567		 305.27265			43387.38302		70.12600		324.00000 
 43692.65567		 892.42725			42800.22842		222.66000		875.00000 
 43692.65567		 305.27265			43387.38302		70.12600		324.00000 
 43692.65567		 892.42725			42800.22842		222.66000		875.00000 
 43692.65567		 305.27265			43387.38302		70.12600		324.00000 
 43692.65567		 892.42725			42800.22842		222.66000		875.00000 
 43692.65567		 305.27265			43387.38302		70.12600		324.00000 
 43692.65567		 892.42725			42800.22842		222.66000		875.00000 
 43692.65567		 305.27265			43387.38302		70.12600		324.00000 
 43692.65567		 892.42725			42800.22842		222.66000		875.00000 
 43692.65567		 305.27265			43387.38302		70.12600		324.00000 
 43692.65567		 892.42725			42800.22842		222.66000		875.00000 
 43692.65567		 305.27265			43387.38302		70.12600		324.00000 
 43692.65567		 892.42725			42800.22842		222.66000		875.00000 
 43692.65567		 305.27265			43387.38302		70.12600		324.00000 
 43692.65567		 892.42725			42800.22842		222.66000		875.00000 
 43692.65567		 305.27265			43387.38302		70.12600		324.00000 
 43692.65567		 892.42725			42800.22842		222.66000		875.00000 
 43692.65567		 305.27265			43387.38302		70.12600		324.00000 
 43692.65567		 892.42725			42800.22842		222.66000		875.00000 
 43692.65567		 305.27265			43387.38302		70.12600		324.00000 
 43692.65567		 892.42725			42800.22842		222.66000		875.00000 
 43692.65567		 305.27265			43387.38302		70.12600		324.00000 
 43692.65567		 892.42725			42800.22842		222.66000		875.00000 
 43692.65567		 305.27265			43387.38302		70.12600		324.00000 
 43692.65567		 892.42725			42800.22842		222.66000		875.00000 
 43692.65567		 305.27265			43387.38302		70.12600		324.00000 
 43692.65567		 892.42725			42800.22842		222.66000		875.00000 
 43692.65567		 305.27265			43387.38302		70.12600		324.00000 
 43692.65567		 892.42725			42800.22842		222.66000		875.00000 
 43692.65567		 305.27265			43387.38302		70.12600		324.00000 
 43692.65567		 892.42725			42800.22842		222.66000		875.00000 
 43692.65567		 305.27265			43387.38302		70.12600		324.00000 
 43692.65567		 892.42725			42800.22842		222.66000		875.00000 
 43692.65567		 305.27265			43387.38302		70.12600		324.00000 
 43692.65567		 892.42725			42800.22842		222.66000		875.00000 
 43692.65567		 305.27265			43387.38302		70.12600		324.00000 
 43692.65567		 892.42725			42800.22842		222.66000		875.00000 
 43692.65567		 305.27265			43387.38302		70.12600		324.00000 
 43692.65567		 892.42725			42800.22842		222.66000		875.00000 
 43692.65567		 305.27265			43387.38302		70.12600		324.00000 
 43692.65567		 892.42725			42800.22842		222.66000		875.00000 
 43692.65567		 305.27265			43387.38302		70.12600		324.00000 
 43692.65567		 892.42725			42800.22842		222.66000		875.00000 
 43692.65567		 305.27265			43387.38302		70.12600		324.00000 
 43692.65567		 892.42725			42800.22842		222.66000		875.00000 
 43692.65567		 305.27265			43387.38302		70.12600		324.00000 
 43692.65567		 892.42725			42800.22842		222.66000		875.00000 
 43692.65567		 305.27265			43387.38302		70.12600		324.00000 
 43692.65567		 892.42725			42800.22842		222.66000		875.00000 
 43692.65567		 305.27265			43387.38302		70.12600		324.00000 
 43692.65567		 892.42725			42800.22842		222.66000		875.00000 
 43692.65567		 305.27265			43387.38302		70.12600		324.00000 
 43692.65567		 892.42725			42800.22842		222.66000		875.00000 
 43692.65567		 305.27265			43387.38302		70.12600		324.00000 
 43692.65567		 892.42725			42800.22842		222.66000		875.00000 
 43692.65567		 305.27265			43387.38302		70.12600		324.00000 
 43692.65567		 892.42725			42800.22842		222.66000		875.00000 
 43692.65567		 305.27265			43387.38302		70.12600		324.00000 
 43692.65567		 892.42725			42800.22842		222.66000		875.00000 
 43692.65567		 305.27265			43387.38302		70.12600		324.00000 
 43692.65567		 892.42725			42800.22842		222.66000		875.00000 
 43692.65567		 305.27265			43387.38302		70.12600		324.00000 
 43692.65567		 892.42725			42800.22842		222.66000		875.00000 
 43692.65567		 305.27265			43387.38302		70.12600		324.00000 
 43692.65567		 892.42725			42800.22842		222.66000		875.00000 
 43692.65567		 305.27265			43387.38302		70.12600		324.00000 
 43692.65567		 892.42725			42800.22842		222.66000		875.00000 
 43692.65567		 305.27265			43387.38302		70.12600		324.00000 
 43692.65567		 892.42725			42800.22842		222.66000		875.00000 
 43692.65567		 305.27265			43387.38302		70.12600		324.00000 
 43692.65567		 892.42725			42800.22842		222.66000		875.00000 
 43692.65567		 305.27265			43387.38302		70.12600		324.00000 
 43692.65567		 892.42725			42800.22842		222.66000		875.00000 
 43692.65567		 305.27265			43387.38302		70.12600		324.00000 
 43692.65567		 892.42725			42800.22842		222.66000		875.00000 
 43692.65567		 305.27265			43387.38302		70.12600		324.00000 
 43692.65567		 892.42725			42800.22842		222.66000		875.00000 
 43692.65567		 305.27265			43387.38302		70.12600		324.00000 
 43692.65567		 892.42725			42800.22842		222.66000		875.00000 
 43692.65567		 305.27265			43387.38302		70.12600		324.00000 
 43692.65567		 892.42725			42800.22842		222.66000		875.00000 
 43692.65567		 305.27265			43387.38302		70.12600		324.00000 
 43692.65567		 892.42725			42800.22842		222.66000		875.00000 
 43692.65567		 305.27265			43387.38302		70.12600		324.00000 
 43692.65567		 892.42725			42800.22842		222.66000		875.00000 
 43692.65567		 305.27265			43387.38302		70.12600		324.00000 
 43692.65567		 892.42725			42800.22842		222.66000		875.00000 
 43692.65567		 305.27265			43387.38302		70.12600		324.00000 
 43692.65567		 892.42725			42800.22842		222.59000		875.00000 
 43692.65567		 305.27265			43387.38302		70.12600		324.00000 
 43692.65567		 892.42725			42800.22842		222.59000		875.00000 
 43692.65567		 305.27265			43387.38302		70.12600		324.00000 
 43692.65567		 892.42725			42800.22842		222.59000		875.00000 
 43692.65567		 305.27265			43387.38302		70.12600		324.00000 
 43692.65567		 892.42725			42800.22842		222.59000		875.00000 
 43692.65567		 305.27265			43387.38302		70.12600		324.00000 
 43692.65567		 892.42725			42800.22842		222.59000		875.00000 
 43692.65567		 305.27265			43387.38302		70.12600		324.00000 
 43692.65567		 892.42725			42800.22842		222.59000		875.00000 
 43692.65567		 305.27265			43387.38302		70.12600		324.00000 
 43692.65567		 892.42725			42800.22842		222.59000		875.00000 
 43692.65567		 305.27265			43387.38302		70.12600		324.00000 
 43692.65567		 892.42725			42800.22842		222.59000		875.00000 
 43692.65567		 305.27265			43387.38302		70.12600		324.00000 
 43692.65567		 892.42725			42800.22842		222.59000		875.00000 
 43692.65567		 305.27265			43387.38302		70.12600		324.00000 
 43692.65567		 892.42725			42800.22842		222.59000		875.00000 
 43692.65567		 305.27265			43387.38302		70.12600		324.00000 
 43692.65567		 892.42725			42800.22842		222.59000		875.00000 
 43692.65567		 305.27265			43387.38302		70.12600		324.00000 
 43692.65567		 892.42725			42800.22842		222.59000		875.00000 
 43692.65567		 305.27265			43387.38302		70.12600		324.00000 
 43692.65567		 892.42725			42800.22842		222.59000		875.00000 
 43692.65567		 305.27265			43387.38302		70.12600		324.00000 
 43692.65567		 892.42725			42800.22842		222.59000		875.00000 
 43692.65567		 305.27265			43387.38302		70.12600		324.00000 
 43692.65567		 892.42725			42800.22842		222.59000		875.00000 
 43692.65567		 305.27265			43387.38302		70.12600		324.00000 
 43692.65567		 892.42725			42800.22842		222.59000		875.00000 
 43692.65567		 305.27265			43387.38302		70.12600		324.00000 
 43692.65567		 892.42725			42800.22842		222.59000		875.00000 
 43692.65567		 305.27265			43387.38302		70.12600		324.00000 
 43692.65567		 892.42725			42800.22842		222.59000		875.00000 
 43692.65567		 305.27265			43387.38302		70.12600		324.00000 
 43692.65567		 892.42725			42800.22842		222.59000		875.00000 
 43692.65567		 305.27265			43387.38302		70.12600		324.00000 
 43692.65567		 892.42725			42800.22842		222.59000		875.00000 
 43692.65567		 305.27265			43387.38302		70.12600		324.00000 
 43692.65567		 892.42725			42800.22842		222.59000		875.00000 
 43692.65567		 305.27265			43387.38302		70.12600		324.00000 
 43692.65567		 892.42725			42800.22842		222.59000		875.00000 
 43692.65567		 305.27265			43387.38302		70.12600		324.00000 
 43692.65567		 892.42725			42800.22842		222.59000		875.00000 
 43692.65567		 305.27265			43387.38302		70.12600		324.00000 
 43692.65567		 892.42725			42800.22842		222.59000		875.00000 
 43692.65567		 305.27265			43387.38302		70.12600		324.00000 
 43692.65567		 892.42725			42800.22842		222.59000		875.00000 
 43692.65567		 305.27265			43387.38302		70.12600		324.00000 
 43692.65567		 892.42725			42800.22842		222.59000		875.00000 
 43692.65567		 305.27265			43387.38302		70.12600		324.00000 
 43692.65567		 892.42725			42800.22842		222.59000		875.00000 
 43692.65567		 305.27265			43387.38302		70.12600		324.00000 
 43692.65567		 892.42725			42800.22842		222.59000		875.00000 
 43692.65567		 305.27265			43387.38302		70.12600		324.00000 
 43692.65567		 892.42725			42800.22842		222.59000		875.00000 
 43692.65567		 305.27265			43387.38302		70.12600		324.00000 
 43692.65567		 892.42725			42800.22842		222.59000		875.00000 
 43692.65567		 305.27265			43387.38302		70.12600		324.00000 
 43692.65567		 892.42725			42800.22842		222.59000		875.00000 
 43692.65567		 305.27265			43387.38302		70.12600		324.00000 
 43692.65567		 892.42725			42800.22842		222.59000		875.00000 
 43692.65567		 305.27265			43387.38302		70.12600		324.00000 
 43692.65567		 892.42725			42800.22842		222.59000		875.00000 
 43692.65567		 305.27265			43387.38302		70.12600		324.00000 
 43692.65567		 892.42725			42800.22842		222.59000		875.00000 
 43692.65567		 305.27265			43387.38302		70.12600		324.00000 
 43692.65567		 892.42725			42800.22842		222.59000		875.00000 
 43692.65567		 305.27265			43387.38302		70.12600		324.00000 
 43692.65567		 892.42725			42800.22842		222.59000		875.00000 
 43692.65567		 305.27265			43387.38302		70.12600		324.00000 
 43692.65567		 892.42725			42800.22842		222.59000		875.00000 
 43692.65567		 305.27265			43387.38302		70.12600		324.00000 
 43692.65567		 892.42725			42800.22842		222.59000		875.00000 
 43692.65567		 305.27265			43387.38302		70.12600		324.00000 
 43692.65567		 892.42725			42800.22842		222.59000		875.00000 
 43692.65567		 305.27265			43387.38302		70.12600		324.00000 
 43692.65567		 892.42725			42800.22842		222.59000		875.00000 
 43692.65567		 305.27265			43387.38302		70.12600		324.00000 
 43692.65567		 892.42725			42800.22842		222.59000		875.00000 
 43692.65567		 305.27265			43387.38302		70.12600		324.00000 
 43692.65567		 892.42725			42800.22842		222.59000		875.00000 
 43692.65567		 305.27265			43387.38302		70.12600		324.00000 
 43692.65567		 892.42725			42800.22842		222.59000		875.00000 
 43692.65567		 305.27265			43387.38302		70.12600		324.00000 
 43692.65567		 892.42725			42800.22842		222.59000		875.00000 
 43692.65567		 305.27265			43387.38302		70.12600		324.00000 
 43692.65567		 892.42725			42800.22842		222.59000		875.00000 
 43692.65567		 305.27265			43387.38302		70.12600		324.00000 
 43692.65567		 892.42725			42800.22842		222.59000		875.00000 
 43692.65567		 305.27265			43387.38302		70.12600		324.00000 
 43692.65567		 892.42725			42800.22842		222.59000		875.00000 
 43692.65567		 305.27265			43387.38302		70.12600		324.00000 
 43692.65567		 892.42725			42800.22842		222.59000		875.00000 
 43692.65567		 305.27265			43387.38302		70.12600		324.00000 
 43692.65567		 892.42725			42800.22842		222.59000		875.00000 
 43692.65567		 305.27265			43387.38302		70.12600		324.00000 
 43692.65567		 892.42725			42800.22842		222.59000		875.00000 
 43692.65567		 305.27265			43387.38302		70.12600		324.00000 
 43692.65567		 892.42725			42800.22842		222.59000		875.00000 
 43692.65567		 305.27265			43387.38302		70.12600		324.00000 
 43692.65567		 892.42725			42800.22842		222.59000		875.00000 
 43692.65567		 305.27265			43387.38302		70.12600		324.00000 
 43692.65567		 892.42725			42800.22842		222.59000		875.00000 
 43692.65567		 305.27265			43387.38302		70.12600		324.00000 
 43692.65567		 892.42725			42800.22842		222.59000		875.00000 
 43692.65567		 305.27265			43387.38302		70.12600		324.00000 
 43692.65567		 892.42725			42800.22842		222.59000		875.00000 
 43692.65567		 305.27265			43387.38302		70.12600		324.00000 
 43692.65567		 892.42725			42800.22842		222.59000		875.00000 
 43692.65567		 305.27265			43387.38302		70.12600		324.00000 
 43692.65567		 892.42725			42800.22842		222.59000		875.00000 
 43692.65567		 305.27265			43387.38302		70.12600		324.00000 
 43692.65567		 892.42725			42800.22842		222.59000		875.00000 
 43692.65567		 305.27265			43387.38302		70.12600		324.00000 
 43692.65567		 892.42725			42800.22842		222.59000		875.00000 
 43692.65567		 305.27265			43387.38302		70.12600		324.00000 
 43692.65567		 892.42725			42800.22842		222.59000		875.00000 
 43692.65567		 305.27265			43387.38302		70.12600		324.00000 
 43692.65567		 892.42725			42800.22842		222.59000		875.00000 
 43692.65567		 305.27265			43387.38302		70.12600		324.00000 
 43692.65567		 892.42725			42800.22842		222.59000		875.00000 
 43692.65567		 305.27265			43387.38302		70.12600		324.00000 
 43692.65567		 892.42725			42800.22842		222.59000		875.00000 
 43692.65567		 305.27265			43387.38302		70.12600		324.00000 
 43692.65567		 892.42725			42800.22842		222.59000		875.00000 
 43692.65567		 305.27265			43387.38302		70.12600		324.00000 
 43692.65567		 892.42725			42800.22842		222.66000		875.00000 
 43692.65567		 305.27265			43387.38302		70.12600		324.00000 
 43692.65567		 892.42725			42800.22842		222.66000		875.00000 
 43692.65567		 305.27265			43387.38302		70.12600		324.00000 
 43692.65567		 892.42725			42800.22842		222.66000		875.00000 
 43692.65567		 305.27265			43387.38302		70.12600		324.00000 
 43692.65567		 892.42725			42800.22842		222.66000		875.00000 
 43692.65567		 305.27265			43387.38302		70.12600		324.00000 
 43692.65567		 892.42725			42800.22842		222.66000		875.00000 
 43692.65567		 305.27265			43387.38302		70.12600		324.00000 
 43692.65567		 892.42725			42800.22842		222.66000		875.00000 
 43692.65567		 305.27265			43387.38302		70.12600		324.00000 
 43692.65567		 892.42725			42800.22842		222.66000		875.00000 
 43692.65567		 305.27265			43387.38302		70.12600		324.00000 
 43692.65567		 892.42725			42800.22842		222.66000		875.00000 
 43692.65567		 305.27265			43387.38302		70.12600		324.00000 
 43692.65567		 892.42725			42800.22842		222.66000		875.00000 
 43692.65567		 305.27265			43387.38302		70.12600		324.00000 
 43692.65567		 892.42725			42800.22842		222.66000		875.00000 
 43692.65567		 305.27265			43387.38302		70.12600		324.00000 
 43692.65567		 892.42725			42800.22842		222.66000		875.00000 
 43692.65567		 305.27265			43387.38302		70.12600		324.00000 
 43692.65567		 892.42725			42800.22842		222.66000		875.00000 
 43692.65567		 305.27265			43387.38302		70.12600		324.00000 
 43692.65567		 892.42725			42800.22842		222.66000		875.00000 
 43692.65567		 305.27265			43387.38302		70.12600		324.00000 
 43692.65567		 892.42725			42800.22842		222.66000		875.00000 
 43692.65567		 305.27265			43387.38302		70.12600		324.00000 
 43692.65567		 892.42725			42800.22842		222.66000		875.00000 
 43692.65567		 305.27265			43387.38302		70.12600		324.00000 
 43692.65567		 892.42725			42800.22842		222.66000		875.00000 
 43692.65567		 305.27265			43387.38302		70.12600		324.00000 
 43692.65567		 892.42725			42800.22842		222.66000		875.00000 
 43692.65567		 305.27265			43387.38302		70.12600		324.00000 
 43692.65567		 892.42725			42800.22842		222.66000		875.00000 
 43692.65567		 305.27265			43387.38302		70.12600		324.00000 
 43692.65567		 892.42725			42800.22842		222.66000		875.00000 
 43692.65567		 305.27265			43387.38302		70.12600		324.00000 
 43692.65567		 892.42725			42800.22842		222.66000		875.00000 
 43692.65567		 305.27265			43387.38302		70.12600		324.00000 
 43692.65567		 892.42725			42800.22842		222.66000		875.00000 
 43692.65567		 305.27265			43387.38302		70.12600		324.00000 
 43692.65567		 892.42725			42800.22842		222.66000		875.00000 
 43692.65567		 305.27265			43387.38302		70.12600		324.00000 
 43692.65567		 892.42725			42800.22842		222.66000		875.00000 
 43692.65567		 305.27265			43387.38302		70.12600		324.00000 
 43692.65567		 892.42725			42800.22842		222.66000		875.00000 
 43692.65567		 305.27265			43387.38302		70.12600		324.00000 
 43692.65567		 892.42725			42800.22842		222.66000		875.00000 
 43692.65567		 305.27265			43387.38302		70.12600		324.00000 
 43692.65567		 892.42725			42800.22842		222.66000		875.00000 
 43692.65567		 305.27265			43387.38302		70.12600		324.00000 
 43692.65567		 892.42725			42800.22842		222.66000		875.00000 
 43692.65567		 305.27265			43387.38302		70.12600		324.00000 
 43692.65567		 892.42725			42800.22842		222.66000		875.00000 
 43692.65567		 305.27265			43387.38302		70.12600		324.00000 
 43692.65567		 892.42725			42800.22842		222.66000		875.00000 
 43692.65567		 305.27265			43387.38302		70.12600		324.00000 
 43692.65567		 892.42725			42800.22842		222.66000		875.00000 
 43692.65567		 305.27265			43387.38302		70.12600		324.00000 
 43692.65567		 892.42725			42800.22842		222.66000		875.00000 
 43692.65567		 305.27265			43387.38302		70.12600		324.00000 
 43692.65567		 892.42725			42800.22842		222.66000		875.00000 
 43692.65567		 305.27265			43387.38302		70.12600		324.00000 
 43692.65567		 892.42725			42800.22842		222.66000		875.00000 
 43692.65567		 305.27265			43387.38302		70.12600		324.00000 
 43692.65567		 892.42725			42800.22842		222.66000		875.00000 
 43692.65567		 305.27265			43387.38302		70.12600		324.00000 
 43692.65567		 892.42725			42800.22842		222.66000		875.00000 
 43692.65567		 305.27265			43387.38302		70.12600		324.00000 
 43692.65567		 892.42725			42800.22842		222.66000		875.00000 
 43692.65567		 305.27265			43387.38302		70.12600		324.00000 
 43692.65567		 892.42725			42800.22842		222.66000		875.00000 
 43692.65567		 305.27265			43387.38302		70.12600		324.00000 
 43692.65567		 892.42725			42800.22842		222.66000		875.00000 
 43692.65567		 305.27265			43387.38302		70.12600		324.00000 
 43692.65567		 892.42725			42800.22842		222.66000		875.00000 
 43692.65567		 305.27265			43387.38302		70.12600		324.00000 
 43692.65567		 892.42725			42800.22842		222.66000		875.00000 
 43692.65567		 305.27265			43387.38302		70.12600		324.00000 
 43692.65567		 892.42725			42800.22842		222.66000		875.00000 
 43692.65567		 305.27265			43387.38302		70.12600		324.00000 
 43692.65567		 892.42725			42800.22842		222.66000		875.00000 
 43692.65567		 305.27265			43387.38302		70.12600		324.00000 
 43692.65567		 892.42725			42800.22842		222.66000		875.00000 
 43692.65567		 305.27265			43387.38302		70.12600		324.00000 
 43692.65567		 892.42725			42800.22842		222.66000		875.00000 
 43692.65567		 305.27265			43387.38302		70.12600		324.00000 
 43692.65567		 892.42725			42800.22842		222.66000		875.00000 
 43692.65567		 305.27265			43387.38302		70.12600		324.00000 
 43692.65567		 892.42725			42800.22842		222.66000		875.00000 
 43692.65567		 305.27265			43387.38302		70.12600		324.00000 
 43692.65567		 892.42725			42800.22842		222.66000		875.00000 
 43692.65567		 305.27265			43387.38302		70.12600		324.00000 
 43692.65567		 892.42725			42800.22842		222.66000		875.00000 
 43692.65567		 305.27265			43387.38302		70.12600		324.00000 
 43692.65567		 892.42725			42800.22842		222.66000		875.00000 
 43692.65567		 305.27265			43387.38302		70.12600		324.00000 
 43692.65567		 892.42725			42800.22842		222.66000		875.00000 
 43692.65567		 305.27265			43387.38302		70.12600		324.00000 
 43692.65567		 892.42725			42800.22842		222.66000		875.00000 
 43692.65567		 305.27265			43387.38302		70.12600		324.00000 
 43692.65567		 892.42725			42800.22842		222.66000		875.00000 
 43692.65567		 305.27265			43387.38302		70.12600		324.00000 
 43692.65567		 892.42725			42800.22842		222.66000		875.00000 
 43692.65567		 305.27265			43387.38302		70.12600		324.00000 
 43692.65567		 892.42725			42800.22842		222.66000		875.00000 
 43692.65567		 305.27265			43387.38302		70.12600		324.00000 
 43692.65567		 892.42725			42800.22842		222.66000		875.00000 
 43692.65567		 305.27265			43387.38302		70.12600		324.00000 
 43692.65567		 892.42725			42800.22842		222.66000		875.00000 
 43692.65567		 305.27265			43387.38302		70.12600		324.00000 
 43692.65567		 892.42725			42800.22842		222.66000		875.00000 
 43692.65567		 305.27265			43387.38302		70.12600		324.00000 
 43692.65567		 892.42725			42800.22842		222.66000		875.00000 
 43692.65567		 305.27265			43387.38302		70.12600		324.00000 
 43692.65567		 892.42725			42800.22842		222.66000		875.00000 
 43692.65567		 305.27265			43387.38302		70.12600		324.00000 
 43692.65567		 892.42725			42800.22842		222.66000		875.00000 
 43692.65567		 305.27265			43387.38302		70.12600		324.00000 
 43692.65567		 892.42725			42800.22842		222.66000		875.00000 
 43692.65567		 305.27265			43387.38302		70.12600		324.00000 
 43692.65567		 892.42725			42800.22842		222.66000		875.00000 
 43692.65567		 305.27265			43387.38302		70.12600		324.00000 
 43692.65567		 892.42725			42800.22842		222.66000		875.00000 
 43692.65567		 305.27265			43387.38302		70.12600		324.00000 
 43692.65567		 892.42725			42800.22842		222.66000		875.00000 
 43692.65567		 305.27265			43387.38302		70.12600		324.00000 
 43692.65567		 892.42725			42800.22842		222.66000		875.00000 
 43692.65567		 305.27265			43387.38302		70.12600		324.00000 
 43692.65567		 892.42725			42800.22842		222.59000		875.00000 
 43692.65567		 305.27265			43387.38302		70.12600		324.00000 
 43692.65567		 892.42725			42800.22842		222.59000		875.00000 
 43692.65567		 305.27265			43387.38302		70.12600		324.00000 
 43692.65567		 892.42725			42800.22842		222.59000		875.00000 
 43692.65567		 305.27265			43387.38302		70.12600		324.00000 
 43692.65567		 892.42725			42800.22842		222.59000		875.00000 
 43692.65567		 305.27265			43387.38302		70.12600		324.00000 
 43692.65567		 892.42725			42800.22842		222.59000		875.00000 
 43692.65567		 305.27265			43387.38302		70.12600		324.00000 
 43692.65567		 892.42725			42800.22842		222.59000		875.00000 
 43692.65567		 305.27265			43387.38302		70.12600		324.00000 
 43692.65567		 892.42725			42800.22842		222.59000		875.00000 
 43692.65567		 305.27265			43387.38302		70.12600		324.00000 
 43692.65567		 892.42725			42800.22842		222.59000		875.00000 
 43692.65567		 305.27265			43387.38302		70.12600		324.00000 
 43692.65567		 892.42725			42800.22842		222.59000		875.00000 
 43692.65567		 305.27265			43387.38302		70.12600		324.00000 
 43692.65567		 892.42725			42800.22842		222.59000		875.00000 
 43692.65567		 305.27265			43387.38302		70.12600		324.00000 
 43692.65567		 892.42725			42800.22842		222.59000		875.00000 
 43692.65567		 305.27265			43387.38302		70.12600		324.00000 
 43692.65567		 892.42725			42800.22842		222.59000		875.00000 
 43692.65567		 305.27265			43387.38302		70.12600		324.00000 
 43692.65567		 892.42725			42800.22842		222.59000		875.00000 
 43692.65567		 305.27265			43387.38302		70.12600		324.00000 
 43692.65567		 892.42725			42800.22842		222.59000		875.00000 
 43692.65567		 305.27265			43387.38302		70.12600		324.00000 
 43692.65567		 892.42725			42800.22842		222.59000		875.00000 
 43692.65567		 305.27265			43387.38302		70.12600		324.00000 
 43692.65567		 892.42725			42800.22842		222.59000		875.00000 
 43692.65567		 305.27265			43387.38302		70.12600		324.00000 
 43692.65567		 892.42725			42800.22842		222.59000		875.00000 
 43692.65567		 305.27265			43387.38302		70.12600		324.00000 
 43692.65567		 892.42725			42800.22842		222.59000		875.00000 
 43692.65567		 305.27265			43387.38302		70.12600		324.00000 
 43692.65567		 892.42725			42800.22842		222.59000		875.00000 
 43692.65567		 305.27265			43387.38302		70.12600		324.00000 
 43692.65567		 892.42725			42800.22842		222.59000		875.00000 
 43692.65567		 305.27265			43387.38302		70.12600		324.00000 
 43692.65567		 892.42725			42800.22842		222.59000		875.00000 
 43692.65567		 305.27265			43387.38302		70.12600		324.00000 
 43692.65567		 892.42725			42800.22842		222.59000		875.00000 
 43692.65567		 305.27265			43387.38302		70.12600		324.00000 
 43692.65567		 892.42725			42800.22842		222.59000		875.00000 
 43692.65567		 305.27265			43387.38302		70.12600		324.00000 
 43692.65567		 892.42725			42800.22842		222.59000		875.00000 
 43692.65567		 305.27265			43387.38302		70.12600		324.00000 
 43692.65567		 892.42725			42800.22842		222.59000		875.00000 
 43692.65567		 305.27265			43387.38302		70.12600		324.00000 
 43692.65567		 892.42725			42800.22842		222.59000		875.00000 
 43692.65567		 305.27265			43387.38302		70.12600		324.00000 
 43692.65567		 892.42725			42800.22842		222.59000		875.00000 
 43692.65567		 305.27265			43387.38302		70.12600		324.00000 
 43692.65567		 892.42725			42800.22842		222.59000		875.00000 
 43692.65567		 305.27265			43387.38302		70.12600		324.00000 
 43692.65567		 892.42725			42800.22842		222.59000		875.00000 
 43692.65567		 305.27265			43387.38302		70.12600		324.00000 
 43692.65567		 892.42725			42800.22842		222.59000		875.00000 
 43692.65567		 305.27265			43387.38302		70.12600		324.00000 
 43692.65567		 892.42725			42800.22842		222.59000		875.00000 
 43692.65567		 305.27265			43387.38302		70.12600		324.00000 
 43692.65567		 892.42725			42800.22842		222.59000		875.00000 
 43692.65567		 305.27265			43387.38302		70.12600		324.00000 
 43692.65567		 892.42725			42800.22842		222.59000		875.00000 
 43692.65567		 305.27265			43387.38302		70.12600		324.00000 
 43692.65567		 892.42725			42800.22842		222.59000		875.00000 
 43692.65567		 305.27265			43387.38302		70.12600		324.00000 
 43692.65567		 892.42725			42800.22842		222.59000		875.00000 
 43692.65567		 305.27265			43387.38302		70.12600		324.00000 
 43692.65567		 892.42725			42800.22842		222.59000		875.00000 
 43692.65567		 305.27265			43387.38302		70.12600		324.00000 
 43692.65567		 892.42725			42800.22842		222.59000		875.00000 
 43692.65567		 305.27265			43387.38302		70.12600		324.00000 
 43692.65567		 892.42725			42800.22842		222.59000		875.00000 
 43692.65567		 305.27265			43387.38302		70.12600		324.00000 
 43692.65567		 892.42725			42800.22842		222.59000		875.00000 
 43692.65567		 305.27265			43387.38302		70.12600		324.00000 
 43692.65567		 892.42725			42800.22842		222.59000		875.00000 
 43692.65567		 305.27265			43387.38302		70.12600		324.00000 
 43692.65567		 892.42725			42800.22842		222.59000		875.00000 
 43692.65567		 305.27265			43387.38302		70.12600		324.00000 
 43692.65567		 892.42725			42800.22842		222.59000		875.00000 
 43692.65567		 305.27265			43387.38302		70.12600		324.00000 
 43692.65567		 892.42725			42800.22842		222.59000		875.00000 
 43692.65567		 305.27265			43387.38302		70.12600		324.00000 
 43692.65567		 892.42725			42800.22842		222.59000		875.00000 
 43692.65567		 305.27265			43387.38302		70.12600		324.00000 
 43692.65567		 892.42725			42800.22842		222.59000		875.00000 
 43692.65567		 305.27265			43387.38302		70.12600		324.00000 
 43692.65567		 892.42725			42800.22842		222.59000		875.00000 
 43692.65567		 305.27265			43387.38302		70.12600		324.00000 
 43692.65567		 892.42725			42800.22842		222.59000		875.00000 
 43692.65567		 305.27265			43387.38302		70.12600		324.00000 
 43692.65567		 892.42725			42800.22842		222.59000		875.00000 
 43692.65567		 305.27265			43387.38302		70.12600		324.00000 
 43692.65567		 892.42725			42800.22842		222.59000		875.00000 
 43692.65567		 305.27265			43387.38302		70.12600		324.00000 
 43692.65567		 892.42725			42800.22842		222.59000		875.00000 
 43692.65567		 305.27265			43387.38302		70.12600		324.00000 
 43692.65567		 892.42725			42800.22842		222.59000		875.00000 
 43692.65567		 305.27265			43387.38302		70.12600		324.00000 
 43692.65567		 892.42725			42800.22842		222.59000		875.00000 
 43692.65567		 305.27265			43387.38302		70.12600		324.00000 
 43692.65567		 892.42725			42800.22842		222.59000		875.00000 
 43692.65567		 305.27265			43387.38302		70.12600		324.00000 
 43692.65567		 892.42725			42800.22842		222.59000		875.00000 
 43692.65567		 305.27265			43387.38302		70.12600		324.00000 
 43692.65567		 892.42725			42800.22842		222.59000		875.00000 
 43692.65567		 305.27265			43387.38302		70.12600		324.00000 
 43692.65567		 892.42725			42800.22842		222.59000		875.00000 
 43692.65567		 305.27265			43387.38302		70.12600		324.00000 
 43692.65567		 892.42725			42800.22842		222.59000		875.00000 
 43692.65567		 305.27265			43387.38302		70.12600		324.00000 
 43692.65567		 892.42725			42800.22842		222.59000		875.00000 
 43692.65567		 305.27265			43387.38302		70.12600		324.00000 
 43692.65567		 892.42725			42800.22842		222.59000		875.00000 
 43692.65567		 305.27265			43387.38302		70.12600		324.00000 
 43692.65567		 892.42725			42800.22842		222.59000		875.00000 
 43692.65567		 305.27265			43387.38302		70.12600		324.00000 
 43692.65567		 892.42725			42800.22842		222.59000		875.00000 
 43692.65567		 305.27265			43387.38302		70.12600		324.00000 
 43692.65567		 892.42725			42800.22842		222.59000		875.00000 
 43692.65567		 305.27265			43387.38302		70.12600		324.00000 
 43692.65567		 892.42725			42800.22842		222.59000		875.00000 
 43692.65567		 305.27265			43387.38302		70.12600		324.00000 
 43692.65567		 892.42725			42800.22842		222.59000		875.00000 
 43692.65567		 305.27265			43387.38302		70.12600		324.00000 
 43692.65567		 892.42725			42800.22842		222.59000		875.00000 
 43692.65567		 305.27265			43387.38302		70.12600		324.00000 
 43692.65567		 892.42725			42800.22842		222.66000		875.00000 
 43692.65567		 305.27265			43387.38302		70.12600		324.00000 
 43692.65567		 892.42725			42800.22842		222.66000		875.00000 
 43692.65567		 305.27265			43387.38302		70.12600		324.00000 
 43692.65567		 892.42725			42800.22842		222.66000		875.00000 
 43692.65567		 305.27265			43387.38302		70.12600		324.00000 
 43692.65567		 892.42725			42800.22842		222.66000		875.00000 
 43692.65567		 305.27265			43387.38302		70.12600		324.00000 
 43692.65567		 892.42725			42800.22842		222.66000		875.00000 
 43692.65567		 305.27265			43387.38302		70.12600		324.00000 
 43692.65567		 892.42725			42800.22842		222.66000		875.00000 
 43692.65567		 305.27265			43387.38302		70.12600		324.00000 
 43692.65567		 892.42725			42800.22842		222.66000		875.00000 
 43692.65567		 305.27265			43387.38302		70.12600		324.00000 
 43692.65567		 892.42725			42800.22842		222.66000		875.00000 
 43692.65567		 305.27265			43387.38302		70.12600		324.00000 
 43692.65567		 892.42725			42800.22842		222.66000		875.00000 
 43692.65567		 305.27265			43387.38302		70.12600		324.00000 
 43692.65567		 892.42725			42800.22842		222.66000		875.00000 
 43692.65567		 305.27265			43387.38302		70.12600		324.00000 
 43692.65567		 892.42725			42800.22842		222.66000		875.00000 
 43692.65567		 305.27265			43387.38302		70.12600		324.00000 
 43692.65567		 892.42725			42800.22842		222.66000		875.00000 
 43692.65567		 305.27265			43387.38302		70.12600		324.00000 
 43692.65567		 892.42725			42800.22842		222.66000		875.00000 
 43692.65567		 305.27265			43387.38302		70.12600		324.00000 
 43692.65567		 892.42725			42800.22842		222.66000		875.00000 
 43692.65567		 305.27265			43387.38302		70.12600		324.00000 
 43692.65567		 892.42725			42800.22842		222.66000		875.00000 
 43692.65567		 305.27265			43387.38302		70.12600		324.00000 
 43692.65567		 892.42725			42800.22842		222.66000		875.00000 
 43692.65567		 305.27265			43387.38302		70.12600		324.00000 
 43692.65567		 892.42725			42800.22842		222.66000		875.00000 
 43692.65567		 305.27265			43387.38302		70.12600		324.00000 
 43692.65567		 892.42725			42800.22842		222.66000		875.00000 
 43692.65567		 305.27265			43387.38302		70.12600		324.00000 
 43692.65567		 892.42725			42800.22842		222.66000		875.00000 
 43692.65567		 305.27265			43387.38302		70.12600		324.00000 
 43692.65567		 892.42725			42800.22842		222.66000		875.00000 
 43692.65567		 305.27265			43387.38302		70.12600		324.00000 
 43692.65567		 892.42725			42800.22842		222.66000		875.00000 
 43692.65567		 305.27265			43387.38302		70.12600		324.00000 
 43692.65567		 892.42725			42800.22842		222.66000		875.00000 
 43692.65567		 305.27265			43387.38302		70.12600		324.00000 
 43692.65567		 892.42725			42800.22842		222.66000		875.00000 
 43692.65567		 305.27265			43387.38302		70.12600		324.00000 
 43692.65567		 892.42725			42800.22842		222.66000		875.00000 
 43692.65567		 305.27265			43387.38302		70.12600		324.00000 
 43692.65567		 892.42725			42800.22842		222.66000		875.00000 
 43692.65567		 305.27265			43387.38302		70.12600		324.00000 
 43692.65567		 892.42725			42800.22842		222.66000		875.00000 
 43692.65567		 305.27265			43387.38302		70.12600		324.00000 
 43692.65567		 892.42725			42800.22842		222.66000		875.00000 
 43692.65567		 305.27265			43387.38302		70.12600		324.00000 
 43692.65567		 892.42725			42800.22842		222.66000		875.00000 
 43692.65567		 305.27265			43387.38302		70.12600		324.00000 
 43692.65567		 892.42725			42800.22842		222.66000		875.00000 
 43692.65567		 305.27265			43387.38302		70.12600		324.00000 
 43692.65567		 892.42725			42800.22842		222.66000		875.00000 
 43692.65567		 305.27265			43387.38302		70.12600		324.00000 
 43692.65567		 892.42725			42800.22842		222.66000		875.00000 
 43692.65567		 305.27265			43387.38302		70.12600		324.00000 
 43692.65567		 892.42725			42800.22842		222.66000		875.00000 
 43692.65567		 305.27265			43387.38302		70.12600		324.00000 
 43692.65567		 892.42725			42800.22842		222.66000		875.00000 
 43692.65567		 305.27265			43387.38302		70.12600		324.00000 
 43692.65567		 892.42725			42800.22842		222.66000		875.00000 
 43692.65567		 305.27265			43387.38302		70.12600		324.00000 
 43692.65567		 892.42725			42800.22842		222.66000		875.00000 
 43692.65567		 305.27265			43387.38302		70.12600		324.00000 
 43692.65567		 892.42725			42800.22842		222.66000		875.00000 
 43692.65567		 305.27265			43387.38302		70.12600		324.00000 
 43692.65567		 892.42725			42800.22842		222.66000		875.00000 
 43692.65567		 305.27265			43387.38302		70.12600		324.00000 
 43692.65567		 892.42725			42800.22842		222.66000		875.00000 
 43692.65567		 305.27265			43387.38302		70.12600		324.00000 
 43692.65567		 892.42725			42800.22842		222.66000		875.00000 
 43692.65567		 305.27265			43387.38302		70.12600		324.00000 
 43692.65567		 892.42725			42800.22842		222.66000		875.00000 
 43692.65567		 305.27265			43387.38302		70.12600		324.00000 
 43692.65567		 892.42725			42800.22842		222.66000		875.00000 
 43692.65567		 305.27265			43387.38302		70.12600		324.00000 
 43692.65567		 892.42725			42800.22842		222.66000		875.00000 
 43692.65567		 305.27265			43387.38302		70.12600		324.00000 
 43692.65567		 892.42725			42800.22842		222.66000		875.00000 
 43692.65567		 305.27265			43387.38302		70.12600		324.00000 
 43692.65567		 892.42725			42800.22842		222.66000		875.00000 
 43692.65567		 305.27265			43387.38302		70.12600		324.00000 
 43692.65567		 892.42725			42800.22842		222.66000		875.00000 
 43692.65567		 305.27265			43387.38302		70.12600		324.00000 
 43692.65567		 892.42725			42800.22842		222.66000		875.00000 
 43692.65567		 305.27265			43387.38302		70.12600		324.00000 
 43692.65567		 892.42725			42800.22842		222.66000		875.00000 
 43692.65567		 305.27265			43387.38302		70.12600		324.00000 
 43692.65567		 892.42725			42800.22842		222.66000		875.00000 
 43692.65567		 305.27265			43387.38302		70.12600		324.00000 
 43692.65567		 892.42725			42800.22842		222.66000		875.00000 
 43692.65567		 305.27265			43387.38302		70.12600		324.00000 
 43692.65567		 892.42725			42800.22842		222.66000		875.00000 
 43692.65567		 305.27265			43387.38302		70.12600		324.00000 
 43692.65567		 892.42725			42800.22842		222.66000		875.00000 
 43692.65567		 305.27265			43387.38302		70.12600		324.00000 
 43692.65567		 892.42725			42800.22842		222.66000		875.00000 
 43692.65567		 305.27265			43387.38302		70.12600		324.00000 
 43692.65567		 892.42725			42800.22842		222.66000		875.00000 
 43692.65567		 305.27265			43387.38302		70.12600		324.00000 
 43692.65567		 892.42725			42800.22842		222.66000		875.00000 
 43692.65567		 305.27265			43387.38302		70.12600		324.00000 
 43692.65567		 892.42725			42800.22842		222.66000		875.00000 
 43692.65567		 305.27265			43387.38302		70.12600		324.00000 
 43692.65567		 892.42725			42800.22842		222.66000		875.00000 
 43692.65567		 305.27265			43387.38302		70.12600		324.00000 
 43692.65567		 892.42725			42800.22842		222.66000		875.00000 
 43692.65567		 305.27265			43387.38302		70.12600		324.00000 
 43692.65567		 892.42725			42800.22842		222.66000		875.00000 
 43692.65567		 305.27265			43387.38302		70.12600		324.00000 
 43692.65567		 892.42725			42800.22842		222.66000		875.00000 
 43692.65567		 305.27265			43387.38302		70.12600		324.00000 
 43692.65567		 892.42725			42800.22842		222.66000		875.00000 
 43692.65567		 305.27265			43387.38302		70.12600		324.00000 
 43692.65567		 892.42725			42800.22842		222.66000		875.00000 
 43692.65567		 305.27265			43387.38302		70.12600		324.00000 
 43692.65567		 892.42725			42800.22842		222.66000		875.00000 
 43692.65567		 305.27265			43387.38302		70.12600		324.00000 
 43692.65567		 892.42725			42800.22842		222.66000		875.00000 
 43692.65567		 305.27265			43387.38302		70.12600		324.00000 
 43692.65567		 892.42725			42800.22842		222.66000		875.00000 
 43692.65567		 305.27265			43387.38302		70.12600		324.00000 
 43692.65567		 892.42725			42800.22842		223.55400		875.00000 
 43692.65567		 305.27265			43387.38302		70.12600		324.00000 
 43692.65567		 892.42725			42800.22842		223.55400		875.00000 
 43692.65567		 305.27265			43387.38302		70.12600		324.00000 
 43692.65567		 892.42725			42800.22842		223.55400		875.00000 
 43692.65567		 305.27265			43387.38302		70.12600		324.00000 
 43692.65567		 892.42725			42800.22842		223.55400		875.00000 
 43692.65567		 305.27265			43387.38302		70.12600		324.00000 
 43692.65567		 892.42725			42800.22842		223.55400		875.00000 
 43692.65567		 305.27265			43387.38302		70.12600		324.00000 
 43692.65567		 892.42725			42800.22842		223.55400		875.00000 
 43692.65567		 305.27265			43387.38302		70.12600		324.00000 
 43692.65567		 892.42725			42800.22842		223.55400		875.00000 
 43692.65567		 305.27265			43387.38302		70.12600		324.00000 
 43692.65567		 892.42725			42800.22842		223.55400		875.00000 
 43692.65567		 305.27265			43387.38302		70.12600		324.00000 
 43692.65567		 892.42725			42800.22842		223.55400		875.00000 
 43692.65567		 305.27265			43387.38302		70.12600		324.00000 
 43692.65567		 892.42725			42800.22842		223.55400		875.00000 
 43692.65567		 305.27265			43387.38302		70.12600		324.00000 
 43692.65567		 892.42725			42800.22842		223.55400		875.00000 
 43692.65567		 305.27265			43387.38302		70.12600		324.00000 
 43692.65567		 892.42725			42800.22842		223.55400		875.00000 
 43692.65567		 305.27265			43387.38302		70.12600		324.00000 
 43692.65567		 892.42725			42800.22842		223.55400		875.00000 
 43692.65567		 305.27265			43387.38302		70.12600		324.00000 
 43692.65567		 892.42725			42800.22842		223.55400		875.00000 
 43692.65567		 305.27265			43387.38302		70.12600		324.00000 
 43692.65567		 892.42725			42800.22842		223.55400		875.00000 
 43692.65567		 305.27265			43387.38302		70.12600		324.00000 
 43692.65567		 892.42725			42800.22842		223.55400		875.00000 
 43692.65567		 305.27265			43387.38302		70.12600		324.00000 
 43692.65567		 892.42725			42800.22842		223.55400		875.00000 
 43692.65567		 305.27265			43387.38302		70.12600		324.00000 
 43692.65567		 892.42725			42800.22842		223.55400		875.00000 
 43692.65567		 305.27265			43387.38302		70.12600		324.00000 
 43692.65567		 892.42725			42800.22842		223.55400		875.00000 
 43692.65567		 305.27265			43387.38302		70.12600		324.00000 
 43692.65567		 892.42725			42800.22842		223.55400		875.00000 
 43692.65567		 305.27265			43387.38302		70.12600		324.00000 
 43692.65567		 892.42725			42800.22842		223.55400		875.00000 
 43692.65567		 305.27265			43387.38302		70.12600		324.00000 
 43692.65567		 892.42725			42800.22842		223.55400		875.00000 
 43692.65567		 305.27265			43387.38302		70.12600		324.00000 
 43692.65567		 892.42725			42800.22842		223.55400		875.00000 
 43692.65567		 305.27265			43387.38302		70.12600		324.00000 
 43692.65567		 892.42725			42800.22842		223.55400		875.00000 
 43692.65567		 305.27265			43387.38302		70.12600		324.00000 
 43692.65567		 892.42725			42800.22842		223.55400		875.00000 
 43692.65567		 305.27265			43387.38302		70.12600		324.00000 
 43692.65567		 892.42725			42800.22842		223.55400		875.00000 
 43692.65567		 305.27265			43387.38302		70.12600		324.00000 
 43692.65567		 892.42725			42800.22842		223.55400		875.00000 
 43692.65567		 305.27265			43387.38302		70.12600		324.00000 
 43692.65567		 892.42725			42800.22842		223.55400		875.00000 
 43692.65567		 305.27265			43387.38302		70.12600		324.00000 
 43692.65567		 892.42725			42800.22842		223.55400		875.00000 
 43692.65567		 305.27265			43387.38302		70.12600		324.00000 
 43692.65567		 892.42725			42800.22842		223.55400		875.00000 
 43692.65567		 305.27265			43387.38302		70.12600		324.00000 
 43692.65567		 892.42725			42800.22842		223.55400		875.00000 
 43692.65567		 305.27265			43387.38302		70.12600		324.00000 
 43692.65567		 892.42725			42800.22842		223.55400		875.00000 
 43692.65567		 305.27265			43387.38302		70.12600		324.00000 
 43692.65567		 892.42725			42800.22842		223.55400		875.00000 
 43692.65567		 305.27265			43387.38302		70.12600		324.00000 
 43692.65567		 892.42725			42800.22842		223.55400		875.00000 
 43692.65567		 305.27265			43387.38302		70.12600		324.00000 
 43692.65567		 892.42725			42800.22842		223.55400		875.00000 
 43692.65567		 305.27265			43387.38302		70.12600		324.00000 
 43692.65567		 892.42725			42800.22842		223.55400		875.00000 
 43692.65567		 305.27265			43387.38302		70.12600		324.00000 
 43692.65567		 892.42725			42800.22842		223.55400		875.00000 
 43692.65567		 305.27265			43387.38302		70.12600		324.00000 
 43692.65567		 892.42725			42800.22842		223.55400		875.00000 
 43692.65567		 305.27265			43387.38302		70.12600		324.00000 
 43692.65567		 892.42725			42800.22842		223.55400		875.00000 
 43692.65567		 305.27265			43387.38302		70.12600		324.00000 
 43692.65567		 892.42725			42800.22842		223.55400		875.00000 
 43692.65567		 305.27265			43387.38302		70.12600		324.00000 
 43692.65567		 892.42725			42800.22842		223.55400		875.00000 
 43692.65567		 305.27265			43387.38302		70.12600		324.00000 
 43692.65567		 892.42725			42800.22842		223.55400		875.00000 
 43692.65567		 305.27265			43387.38302		70.12600		324.00000 
 43692.65567		 892.42725			42800.22842		223.55400		875.00000 
 43692.65567		 305.27265			43387.38302		70.12600		324.00000 
 43692.65567		 892.42725			42800.22842		223.55400		875.00000 
 43692.65567		 305.27265			43387.38302		70.12600		324.00000 
 43692.65567		 892.42725			42800.22842		223.55400		875.00000 
 43692.65567		 305.27265			43387.38302		70.12600		324.00000 
 43692.65567		 892.42725			42800.22842		223.55400		875.00000 
 43692.65567		 305.27265			43387.38302		70.12600		324.00000 
 43692.65567		 892.42725			42800.22842		223.55400		875.00000 
 43692.65567		 305.27265			43387.38302		70.12600		324.00000 
 43692.65567		 892.42725			42800.22842		223.55400		875.00000 
 43692.65567		 305.27265			43387.38302		70.12600		324.00000 
 43692.65567		 892.42725			42800.22842		223.55400		875.00000 
 43692.65567		 305.27265			43387.38302		70.12600		324.00000 
 43692.65567		 892.42725			42800.22842		223.55400		875.00000 
 43692.65567		 305.27265			43387.38302		70.12600		324.00000 
 43692.65567		 892.42725			42800.22842		223.55400		875.00000 
 43692.65567		 305.27265			43387.38302		70.12600		324.00000 
 43692.65567		 892.42725			42800.22842		223.55400		875.00000 
 43692.65567		 305.27265			43387.38302		70.12600		324.00000 
 43692.65567		 892.42725			42800.22842		223.55400		875.00000 
 43692.65567		 305.27265			43387.38302		70.12600		324.00000 
 43692.65567		 892.42725			42800.22842		223.55400		875.00000 
 43692.65567		 305.27265			43387.38302		70.12600		324.00000 
 43692.65567		 892.42725			42800.22842		223.55400		875.00000 
 43692.65567		 305.27265			43387.38302		70.12600		324.00000 
 43692.65567		 892.42725			42800.22842		223.55400		875.00000 
 43692.65567		 305.27265			43387.38302		70.12600		324.00000 
 43692.65567		 892.42725			42800.22842		223.55400		875.00000 
 43692.65567		 305.27265			43387.38302		70.12600		324.00000 
 43692.65567		 892.42725			42800.22842		223.55400		875.00000 
 43692.65567		 305.27265			43387.38302		70.12600		324.00000 
 43692.65567		 892.42725			42800.22842		223.55400		875.00000 
 43692.65567		 305.27265			43387.38302		70.12600		324.00000 
 43692.65567		 892.42725			42800.22842		223.55400		875.00000 
 43692.65567		 305.27265			43387.38302		70.12600		324.00000 
 43692.65567		 892.42725			42800.22842		223.55400		875.00000 
 43692.65567		 305.27265			43387.38302		70.12600		324.00000 
 43692.65567		 892.42725			42800.22842		223.55400		875.00000 
 43692.65567		 305.27265			43387.38302		70.12600		324.00000 
 43692.65567		 892.42725			42800.22842		223.55400		875.00000 
 43692.65567		 305.27265			43387.38302		70.12600		324.00000 
 43692.65567		 892.42725			42800.22842		223.55400		875.00000 
 43692.65567		 305.27265			43387.38302		70.12600		324.00000 
 43692.65567		 892.42725			42800.22842		222.66000		875.00000 
 43692.65567		 305.27265			43387.38302		70.12600		324.00000 
 43692.65567		 892.42725			42800.22842		222.66000		875.00000 
 43692.65567		 305.27265			43387.38302		70.12600		324.00000 
 43692.65567		 892.42725			42800.22842		222.66000		875.00000 
 43692.65567		 305.27265			43387.38302		70.12600		324.00000 
 43692.65567		 892.42725			42800.22842		222.66000		875.00000 
 43692.65567		 305.27265			43387.38302		70.12600		324.00000 
 43692.65567		 892.42725			42800.22842		222.66000		875.00000 
 43692.65567		 305.27265			43387.38302		70.12600		324.00000 
 43692.65567		 892.42725			42800.22842		222.66000		875.00000 
 43692.65567		 305.27265			43387.38302		70.12600		324.00000 
 43692.65567		 892.42725			42800.22842		222.66000		875.00000 
 43692.65567		 305.27265			43387.38302		70.12600		324.00000 
 43692.65567		 892.42725			42800.22842		222.66000		875.00000 
 43692.65567		 305.27265			43387.38302		70.12600		324.00000 
 43692.65567		 892.42725			42800.22842		222.66000		875.00000 
 43692.65567		 305.27265			43387.38302		70.12600		324.00000 
 43692.65567		 892.42725			42800.22842		222.66000		875.00000 
 43692.65567		 305.27265			43387.38302		70.12600		324.00000 
 43692.65567		 892.42725			42800.22842		222.66000		875.00000 
 43692.65567		 305.27265			43387.38302		70.12600		324.00000 
 43692.65567		 892.42725			42800.22842		222.66000		875.00000 
 43692.65567		 305.27265			43387.38302		70.12600		324.00000 
 43692.65567		 892.42725			42800.22842		222.66000		875.00000 
 43692.65567		 305.27265			43387.38302		70.12600		324.00000 
 43692.65567		 892.42725			42800.22842		222.66000		875.00000 
 43692.65567		 305.27265			43387.38302		70.12600		324.00000 
 43692.65567		 892.42725			42800.22842		222.66000		875.00000 
 43692.65567		 305.27265			43387.38302		70.12600		324.00000 
 43692.65567		 892.42725			42800.22842		222.66000		875.00000 
 43692.65567		 305.27265			43387.38302		70.12600		324.00000 
 43692.65567		 892.42725			42800.22842		222.66000		875.00000 
 43692.65567		 305.27265			43387.38302		70.12600		324.00000 
 43692.65567		 892.42725			42800.22842		222.66000		875.00000 
 43692.65567		 305.27265			43387.38302		70.12600		324.00000 
 43692.65567		 892.42725			42800.22842		222.66000		875.00000 
 43692.65567		 305.27265			43387.38302		70.12600		324.00000 
 43692.65567		 892.42725			42800.22842		222.66000		875.00000 
 43692.65567		 305.27265			43387.38302		70.12600		324.00000 
 43692.65567		 892.42725			42800.22842		222.66000		875.00000 
 43692.65567		 305.27265			43387.38302		70.12600		324.00000 
 43692.65567		 892.42725			42800.22842		222.66000		875.00000 
 43692.65567		 305.27265			43387.38302		70.12600		324.00000 
 43692.65567		 892.42725			42800.22842		222.66000		875.00000 
 43692.65567		 305.27265			43387.38302		70.12600		324.00000 
 43692.65567		 892.42725			42800.22842		222.66000		875.00000 
 43692.65567		 305.27265			43387.38302		70.12600		324.00000 
 43692.65567		 892.42725			42800.22842		222.66000		875.00000 
 43692.65567		 305.27265			43387.38302		70.12600		324.00000 
 43692.65567		 892.42725			42800.22842		222.66000		875.00000 
 43692.65567		 305.27265			43387.38302		70.12600		324.00000 
 43692.65567		 892.42725			42800.22842		222.66000		875.00000 
 43692.65567		 305.27265			43387.38302		70.12600		324.00000 
 43692.65567		 892.42725			42800.22842		222.66000		875.00000 
 43692.65567		 305.27265			43387.38302		70.12600		324.00000 
 43692.65567		 892.42725			42800.22842		222.66000		875.00000 
 43692.65567		 305.27265			43387.38302		70.12600		324.00000 
 43692.65567		 892.42725			42800.22842		222.66000		875.00000 
 43692.65567		 305.27265			43387.38302		70.12600		324.00000 
 43692.65567		 892.42725			42800.22842		222.66000		875.00000 
 43692.65567		 305.27265			43387.38302		70.12600		324.00000 
 43692.65567		 892.42725			42800.22842		222.66000		875.00000 
 43692.65567		 305.27265			43387.38302		70.12600		324.00000 
 43692.65567		 892.42725			42800.22842		222.66000		875.00000 
 43692.65567		 305.27265			43387.38302		70.12600		324.00000 
 43692.65567		 892.42725			42800.22842		222.66000		875.00000 
 43692.65567		 305.27265			43387.38302		70.12600		324.00000 
 43692.65567		 892.42725			42800.22842		222.66000		875.00000 
 43692.65567		 305.27265			43387.38302		70.12600		324.00000 
 43692.65567		 892.42725			42800.22842		222.66000		875.00000 
 43692.65567		 305.27265			43387.38302		70.12600		324.00000 
 43692.65567		 892.42725			42800.22842		222.66000		875.00000 
 43692.65567		 305.27265			43387.38302		70.12600		324.00000 
 43692.65567		 892.42725			42800.22842		222.66000		875.00000 
 43692.65567		 305.27265			43387.38302		70.12600		324.00000 
 43692.65567		 892.42725			42800.22842		222.66000		875.00000 
 43692.65567		 305.27265			43387.38302		70.12600		324.00000 
 43692.65567		 892.42725			42800.22842		222.66000		875.00000 
 43692.65567		 305.27265			43387.38302		70.12600		324.00000 
 43692.65567		 892.42725			42800.22842		222.66000		875.00000 
 43692.65567		 305.27265			43387.38302		70.12600		324.00000 
 43692.65567		 892.42725			42800.22842		222.66000		875.00000 
 43692.65567		 305.27265			43387.38302		70.12600		324.00000 
 43692.65567		 892.42725			42800.22842		222.66000		875.00000 
 43692.65567		 305.27265			43387.38302		70.12600		324.00000 
 43692.65567		 892.42725			42800.22842		222.66000		875.00000 
 43692.65567		 305.27265			43387.38302		70.12600		324.00000 
 43692.65567		 892.42725			42800.22842		222.66000		875.00000 
 43692.65567		 305.27265			43387.38302		70.12600		324.00000 
 43692.65567		 892.42725			42800.22842		222.66000		875.00000 
 43692.65567		 305.27265			43387.38302		70.12600		324.00000 
 43692.65567		 892.42725			42800.22842		222.66000		875.00000 
 43692.65567		 305.27265			43387.38302		70.12600		324.00000 
 43692.65567		 892.42725			42800.22842		222.66000		875.00000 
 43692.65567		 305.27265			43387.38302		70.12600		324.00000 
 43692.65567		 892.42725			42800.22842		222.66000		875.00000 
 43692.65567		 305.27265			43387.38302		70.12600		324.00000 
 43692.65567		 892.42725			42800.22842		222.66000		875.00000 
 43692.65567		 305.27265			43387.38302		70.12600		324.00000 
 43692.65567		 892.42725			42800.22842		222.66000		875.00000 
 43692.65567		 305.27265			43387.38302		70.12600		324.00000 
 43692.65567		 892.42725			42800.22842		222.66000		875.00000 
 43692.65567		 305.27265			43387.38302		70.12600		324.00000 
 43692.65567		 892.42725			42800.22842		222.66000		875.00000 
 43692.65567		 305.27265			43387.38302		70.12600		324.00000 
 43692.65567		 892.42725			42800.22842		222.66000		875.00000 
 43692.65567		 305.27265			43387.38302		70.12600		324.00000 
 43692.65567		 892.42725			42800.22842		222.66000		875.00000 
 43692.65567		 305.27265			43387.38302		70.12600		324.00000 
 43692.65567		 892.42725			42800.22842		222.66000		875.00000 
 43692.65567		 305.27265			43387.38302		70.12600		324.00000 
 43692.65567		 892.42725			42800.22842		222.66000		875.00000 
 43692.65567		 305.27265			43387.38302		70.12600		324.00000 
 43692.65567		 892.42725			42800.22842		222.66000		875.00000 
 43692.65567		 305.27265			43387.38302		70.12600		324.00000 
 43692.65567		 892.42725			42800.22842		222.66000		875.00000 
 43692.65567		 305.27265			43387.38302		70.12600		324.00000 
 43692.65567		 892.42725			42800.22842		222.66000		875.00000 
 43692.65567		 305.27265			43387.38302		70.12600		324.00000 
 43692.65567		 892.42725			42800.22842		222.66000		875.00000 
 43692.65567		 305.27265			43387.38302		70.12600		324.00000 
 43692.65567		 892.42725			42800.22842		222.66000		875.00000 
 43692.65567		 305.27265			43387.38302		70.12600		324.00000 
 43692.65567		 892.42725			42800.22842		222.66000		875.00000 
 43692.65567		 305.27265			43387.38302		70.12600		324.00000 
 43692.65567		 892.42725			42800.22842		222.66000		875.00000 
 43692.65567		 305.27265			43387.38302		70.12600		324.00000 
 43692.65567		 892.42725			42800.22842		222.66000		875.00000 
 43692.65567		 305.27265			43387.38302		70.12600		324.00000 
 43692.65567		 892.42725			42800.22842		222.66000		875.00000 
 43692.65567		 305.27265			43387.38302		70.12600		324.00000 
 43692.65567		 892.42725			42800.22842		223.62400		875.00000 
 43692.65567		 305.27265			43387.38302		70.72800		324.00000 
 43692.65567		 892.42725			42800.22842		223.62400		875.00000 
 43692.65567		 305.27265			43387.38302		70.72800		324.00000 
 43692.65567		 892.42725			42800.22842		223.62400		875.00000 
 43692.65567		 305.27265			43387.38302		70.72800		324.00000 
 43692.65567		 892.42725			42800.22842		223.62400		875.00000 
 43692.65567		 305.27265			43387.38302		70.72800		324.00000 
 43692.65567		 892.42725			42800.22842		223.62400		875.00000 
 43692.65567		 305.27265			43387.38302		70.72800		324.00000 
 43692.65567		 892.42725			42800.22842		223.62400		875.00000 
 43692.65567		 305.27265			43387.38302		70.72800		324.00000 
 43692.65567		 892.42725			42800.22842		223.62400		875.00000 
 43692.65567		 305.27265			43387.38302		70.72800		324.00000 
 43692.65567		 892.42725			42800.22842		223.62400		875.00000 
 43692.65567		 305.27265			43387.38302		70.72800		324.00000 
 43692.65567		 892.42725			42800.22842		223.62400		875.00000 
 43692.65567		 305.27265			43387.38302		70.72800		324.00000 
 43692.65567		 892.42725			42800.22842		223.62400		875.00000 
 43692.65567		 305.27265			43387.38302		70.72800		324.00000 
 43692.65567		 892.42725			42800.22842		223.62400		875.00000 
 43692.65567		 305.27265			43387.38302		70.72800		324.00000 
 43692.65567		 892.42725			42800.22842		223.62400		875.00000 
 43692.65567		 305.27265			43387.38302		70.72800		324.00000 
 43692.65567		 892.42725			42800.22842		223.62400		875.00000 
 43692.65567		 305.27265			43387.38302		70.72800		324.00000 
 43692.65567		 892.42725			42800.22842		223.62400		875.00000 
 43692.65567		 305.27265			43387.38302		70.72800		324.00000 
 43692.65567		 892.42725			42800.22842		223.62400		875.00000 
 43692.65567		 305.27265			43387.38302		70.72800		324.00000 
 43692.65567		 892.42725			42800.22842		223.62400		875.00000 
 43692.65567		 305.27265			43387.38302		70.72800		324.00000 
 43692.65567		 892.42725			42800.22842		223.62400		875.00000 
 43692.65567		 305.27265			43387.38302		70.72800		324.00000 
 43692.65567		 892.42725			42800.22842		223.62400		875.00000 
 43692.65567		 305.27265			43387.38302		70.72800		324.00000 
 43692.65567		 892.42725			42800.22842		223.62400		875.00000 
 43692.65567		 305.27265			43387.38302		70.72800		324.00000 
 43692.65567		 892.42725			42800.22842		223.62400		875.00000 
 43692.65567		 305.27265			43387.38302		70.72800		324.00000 
 43692.65567		 892.42725			42800.22842		223.62400		875.00000 
 43692.65567		 305.27265			43387.38302		70.72800		324.00000 
 43692.65567		 892.42725			42800.22842		223.62400		875.00000 
 43692.65567		 305.27265			43387.38302		70.72800		324.00000 
 43692.65567		 892.42725			42800.22842		223.62400		875.00000 
 43692.65567		 305.27265			43387.38302		70.72800		324.00000 
 43692.65567		 892.42725			42800.22842		223.62400		875.00000 
 43692.65567		 305.27265			43387.38302		70.72800		324.00000 
 43692.65567		 892.42725			42800.22842		223.62400		875.00000 
 43692.65567		 305.27265			43387.38302		70.72800		324.00000 
 43692.65567		 892.42725			42800.22842		223.62400		875.00000 
 43692.65567		 305.27265			43387.38302		70.72800		324.00000 
 43692.65567		 892.42725			42800.22842		223.62400		875.00000 
 43692.65567		 305.27265			43387.38302		70.72800		324.00000 
 43692.65567		 892.42725			42800.22842		223.62400		875.00000 
 43692.65567		 305.27265			43387.38302		70.72800		324.00000 
 43692.65567		 892.42725			42800.22842		223.62400		875.00000 
 43692.65567		 305.27265			43387.38302		70.72800		324.00000 
 43692.65567		 892.42725			42800.22842		223.62400		875.00000 
 43692.65567		 305.27265			43387.38302		70.72800		324.00000 
 43692.65567		 892.42725			42800.22842		223.62400		875.00000 
 43692.65567		 305.27265			43387.38302		70.72800		324.00000 
 43692.65567		 892.42725			42800.22842		223.62400		875.00000 
 43692.65567		 305.27265			43387.38302		70.72800		324.00000 
 43692.65567		 892.42725			42800.22842		223.62400		875.00000 
 43692.65567		 305.27265			43387.38302		70.72800		324.00000 
 43692.65567		 892.42725			42800.22842		223.62400		875.00000 
 43692.65567		 305.27265			43387.38302		70.72800		324.00000 
 43692.65567		 892.42725			42800.22842		223.62400		875.00000 
 43692.65567		 305.27265			43387.38302		70.72800		324.00000 
 43692.65567		 892.42725			42800.22842		223.62400		875.00000 
 43692.65567		 305.27265			43387.38302		70.72800		324.00000 
 43692.65567		 892.42725			42800.22842		223.62400		875.00000 
 43692.65567		 305.27265			43387.38302		70.72800		324.00000 
 43692.65567		 892.42725			42800.22842		223.62400		875.00000 
 43692.65567		 305.27265			43387.38302		70.72800		324.00000 
 43692.65567		 892.42725			42800.22842		223.62400		875.00000 
 43692.65567		 305.27265			43387.38302		70.72800		324.00000 
 43692.65567		 892.42725			42800.22842		223.62400		875.00000 
 43692.65567		 305.27265			43387.38302		70.72800		324.00000 
 43692.65567		 892.42725			42800.22842		223.62400		875.00000 
 43692.65567		 305.27265			43387.38302		70.72800		324.00000 
 43692.65567		 892.42725			42800.22842		223.62400		875.00000 
 43692.65567		 305.27265			43387.38302		70.72800		324.00000 
 43692.65567		 892.42725			42800.22842		223.62400		875.00000 
 43692.65567		 305.27265			43387.38302		70.72800		324.00000 
 43692.65567		 892.42725			42800.22842		223.62400		875.00000 
 43692.65567		 305.27265			43387.38302		70.72800		324.00000 
 43692.65567		 892.42725			42800.22842		223.62400		875.00000 
 43692.65567		 305.27265			43387.38302		70.72800		324.00000 
 43692.65567		 892.42725			42800.22842		223.62400		875.00000 
 43692.65567		 305.27265			43387.38302		70.72800		324.00000 
 43692.65567		 892.42725			42800.22842		223.62400		875.00000 
 43692.65567		 305.27265			43387.38302		70.72800		324.00000 
 43692.65567		 892.42725			42800.22842		223.62400		875.00000 
 43692.65567		 305.27265			43387.38302		70.72800		324.00000 
 43692.65567		 892.42725			42800.22842		223.62400		875.00000 
 43692.65567		 305.27265			43387.38302		70.72800		324.00000 
 43692.65567		 892.42725			42800.22842		223.62400		875.00000 
 43692.65567		 305.27265			43387.38302		70.72800		324.00000 
 43692.65567		 892.42725			42800.22842		223.62400		875.00000 
 43692.65567		 305.27265			43387.38302		70.72800		324.00000 
 43692.65567		 892.42725			42800.22842		223.62400		875.00000 
 43692.65567		 305.27265			43387.38302		70.72800		324.00000 
 43692.65567		 892.42725			42800.22842		223.62400		875.00000 
 43692.65567		 305.27265			43387.38302		70.72800		324.00000 
 43692.65567		 892.42725			42800.22842		223.62400		875.00000 
 43692.65567		 305.27265			43387.38302		70.72800		324.00000 
 43692.65567		 892.42725			42800.22842		223.62400		875.00000 
 43692.65567		 305.27265			43387.38302		70.72800		324.00000 
 43692.65567		 892.42725			42800.22842		223.62400		875.00000 
 43692.65567		 305.27265			43387.38302		70.72800		324.00000 
 43692.65567		 892.42725			42800.22842		223.62400		875.00000 
 43692.65567		 305.27265			43387.38302		70.72800		324.00000 
 43692.65567		 892.42725			42800.22842		223.62400		875.00000 
 43692.65567		 305.27265			43387.38302		70.72800		324.00000 
 43692.65567		 892.42725			42800.22842		223.62400		875.00000 
 43692.65567		 305.27265			43387.38302		70.72800		324.00000 
 43692.65567		 892.42725			42800.22842		223.62400		875.00000 
 43692.65567		 305.27265			43387.38302		70.72800		324.00000 
 43692.65567		 892.42725			42800.22842		223.62400		875.00000 
 43692.65567		 305.27265			43387.38302		70.72800		324.00000 
 43692.65567		 892.42725			42800.22842		223.62400		875.00000 
 43692.65567		 305.27265			43387.38302		70.72800		324.00000 
 43692.65567		 892.42725			42800.22842		223.62400		875.00000 
 43692.65567		 305.27265			43387.38302		70.72800		324.00000 
 43692.65567		 892.42725			42800.22842		223.26000		875.00000 
 43692.65567		 305.27265			43387.38302		70.72800		324.00000 
 43692.65567		 892.42725			42800.22842		223.26000		875.00000 
 43692.65567		 305.27265			43387.38302		70.72800		324.00000 
 43692.65567		 892.42725			42800.22842		223.26000		875.00000 
 43692.65567		 305.27265			43387.38302		70.72800		324.00000 
 43692.65567		 892.42725			42800.22842		223.26000		875.00000 
 43692.65567		 305.27265			43387.38302		70.72800		324.00000 
 43692.65567		 892.42725			42800.22842		223.26000		875.00000 
 43692.65567		 305.27265			43387.38302		70.72800		324.00000 
 43692.65567		 892.42725			42800.22842		223.26000		875.00000 
 43692.65567		 305.27265			43387.38302		70.72800		324.00000 
 43692.65567		 892.42725			42800.22842		223.26000		875.00000 
 43692.65567		 305.27265			43387.38302		70.72800		324.00000 
 43692.65567		 892.42725			42800.22842		223.26000		875.00000 
 43692.65567		 305.27265			43387.38302		70.72800		324.00000 
 43692.65567		 892.42725			42800.22842		223.26000		875.00000 
 43692.65567		 305.27265			43387.38302		70.72800		324.00000 
 43692.65567		 892.42725			42800.22842		223.26000		875.00000 
 43692.65567		 305.27265			43387.38302		70.72800		324.00000 
 43692.65567		 892.42725			42800.22842		223.26000		875.00000 
 43692.65567		 305.27265			43387.38302		70.72800		324.00000 
 43692.65567		 892.42725			42800.22842		223.26000		875.00000 
 43692.65567		 305.27265			43387.38302		70.72800		324.00000 
 43692.65567		 892.42725			42800.22842		223.26000		875.00000 
 43692.65567		 305.27265			43387.38302		70.72800		324.00000 
 43692.65567		 892.42725			42800.22842		223.26000		875.00000 
 43692.65567		 305.27265			43387.38302		70.72800		324.00000 
 43692.65567		 892.42725			42800.22842		223.26000		875.00000 
 43692.65567		 305.27265			43387.38302		70.72800		324.00000 
 43692.65567		 892.42725			42800.22842		223.26000		875.00000 
 43692.65567		 305.27265			43387.38302		70.72800		324.00000 
 43692.65567		 892.42725			42800.22842		223.26000		875.00000 
 43692.65567		 305.27265			43387.38302		70.72800		324.00000 
 43692.65567		 892.42725			42800.22842		223.26000		875.00000 
 43692.65567		 305.27265			43387.38302		70.72800		324.00000 
 43692.65567		 892.42725			42800.22842		223.26000		875.00000 
 43692.65567		 305.27265			43387.38302		70.72800		324.00000 
 43692.65567		 892.42725			42800.22842		223.26000		875.00000 
 43692.65567		 305.27265			43387.38302		70.72800		324.00000 
 43692.65567		 892.42725			42800.22842		223.26000		875.00000 
 43692.65567		 305.27265			43387.38302		70.72800		324.00000 
 43692.65567		 892.42725			42800.22842		223.26000		875.00000 
 43692.65567		 305.27265			43387.38302		70.72800		324.00000 
 43692.65567		 892.42725			42800.22842		223.26000		875.00000 
 43692.65567		 305.27265			43387.38302		70.72800		324.00000 
 43692.65567		 892.42725			42800.22842		223.26000		875.00000 
 43692.65567		 305.27265			43387.38302		70.72800		324.00000 
 43692.65567		 892.42725			42800.22842		223.26000		875.00000 
 43692.65567		 305.27265			43387.38302		70.72800		324.00000 
 43692.65567		 892.42725			42800.22842		223.26000		875.00000 
 43692.65567		 305.27265			43387.38302		70.72800		324.00000 
 43692.65567		 892.42725			42800.22842		223.26000		875.00000 
 43692.65567		 305.27265			43387.38302		70.72800		324.00000 
 43692.65567		 892.42725			42800.22842		223.26000		875.00000 
 43692.65567		 305.27265			43387.38302		70.72800		324.00000 
 43692.65567		 892.42725			42800.22842		223.26000		875.00000 
 43692.65567		 305.27265			43387.38302		70.72800		324.00000 
 43692.65567		 892.42725			42800.22842		223.26000		875.00000 
 43692.65567		 305.27265			43387.38302		70.72800		324.00000 
 43692.65567		 892.42725			42800.22842		223.26000		875.00000 
 43692.65567		 305.27265			43387.38302		70.72800		324.00000 
 43692.65567		 892.42725			42800.22842		223.26000		875.00000 
 43692.65567		 305.27265			43387.38302		70.72800		324.00000 
 43692.65567		 892.42725			42800.22842		223.26000		875.00000 
 43692.65567		 305.27265			43387.38302		70.72800		324.00000 
 43692.65567		 892.42725			42800.22842		223.26000		875.00000 
 43692.65567		 305.27265			43387.38302		70.72800		324.00000 
 43692.65567		 892.42725			42800.22842		223.26000		875.00000 
 43692.65567		 305.27265			43387.38302		70.72800		324.00000 
 43692.65567		 892.42725			42800.22842		223.26000		875.00000 
 43692.65567		 305.27265			43387.38302		70.72800		324.00000 
 43692.65567		 892.42725			42800.22842		223.26000		875.00000 
 43692.65567		 305.27265			43387.38302		70.72800		324.00000 
 43692.65567		 892.42725			42800.22842		223.26000		875.00000 
 43692.65567		 305.27265			43387.38302		70.72800		324.00000 
 43692.65567		 892.42725			42800.22842		223.26000		875.00000 
 43692.65567		 305.27265			43387.38302		70.72800		324.00000 
 43692.65567		 892.42725			42800.22842		223.26000		875.00000 
 43692.65567		 305.27265			43387.38302		70.72800		324.00000 
 43692.65567		 892.42725			42800.22842		223.26000		875.00000 
 43692.65567		 305.27265			43387.38302		70.72800		324.00000 
 43692.65567		 892.42725			42800.22842		223.26000		875.00000 
 43692.65567		 305.27265			43387.38302		70.72800		324.00000 
 43692.65567		 892.42725			42800.22842		223.26000		875.00000 
 43692.65567		 305.27265			43387.38302		70.72800		324.00000 
 43692.65567		 892.42725			42800.22842		223.26000		875.00000 
 43692.65567		 305.27265			43387.38302		70.72800		324.00000 
 43692.65567		 892.42725			42800.22842		223.26000		875.00000 
 43692.65567		 305.27265			43387.38302		70.72800		324.00000 
 43692.65567		 892.42725			42800.22842		223.26000		875.00000 
 43692.65567		 305.27265			43387.38302		70.72800		324.00000 
 43692.65567		 892.42725			42800.22842		223.26000		875.00000 
 43692.65567		 305.27265			43387.38302		70.72800		324.00000 
 43692.65567		 892.42725			42800.22842		223.26000		875.00000 
 43692.65567		 305.27265			43387.38302		70.72800		324.00000 
 43692.65567		 892.42725			42800.22842		223.26000		875.00000 
 43692.65567		 305.27265			43387.38302		70.72800		324.00000 
 43692.65567		 892.42725			42800.22842		223.26000		875.00000 
 43692.65567		 305.27265			43387.38302		70.72800		324.00000 
 43692.65567		 892.42725			42800.22842		223.26000		875.00000 
 43692.65567		 305.27265			43387.38302		70.72800		324.00000 
 43692.65567		 892.42725			42800.22842		223.26000		875.00000 
 43692.65567		 305.27265			43387.38302		70.72800		324.00000 
 43692.65567		 892.42725			42800.22842		223.26000		875.00000 
 43692.65567		 305.27265			43387.38302		70.72800		324.00000 
 43692.65567		 892.42725			42800.22842		223.26000		875.00000 
 43692.65567		 305.27265			43387.38302		70.72800		324.00000 
 43692.65567		 892.42725			42800.22842		223.26000		875.00000 
 43692.65567		 305.27265			43387.38302		70.72800		324.00000 
 43692.65567		 892.42725			42800.22842		223.26000		875.00000 
 43692.65567		 305.27265			43387.38302		70.72800		324.00000 
 43692.65567		 892.42725			42800.22842		223.26000		875.00000 
 43692.65567		 305.27265			43387.38302		70.72800		324.00000 
 43692.65567		 892.42725			42800.22842		223.26000		875.00000 
 43692.65567		 305.27265			43387.38302		70.72800		324.00000 
 43692.65567		 892.42725			42800.22842		223.26000		875.00000 
 43692.65567		 305.27265			43387.38302		70.72800		324.00000 
 43692.65567		 892.42725			42800.22842		223.26000		875.00000 
 43692.65567		 305.27265			43387.38302		70.72800		324.00000 
 43692.65567		 892.42725			42800.22842		223.26000		875.00000 
 43692.65567		 305.27265			43387.38302		70.72800		324.00000 
 43692.65567		 892.42725			42800.22842		223.26000		875.00000 
 43692.65567		 305.27265			43387.38302		70.72800		324.00000 
 43692.65567		 892.42725			42800.22842		223.26000		875.00000 
 43692.65567		 305.27265			43387.38302		70.72800		324.00000 
 43692.65567		 892.42725			42800.22842		223.26000		875.00000 
 43692.65567		 305.27265			43387.38302		70.72800		324.00000 
 43692.65567		 892.42725			42800.22842		223.26000		875.00000 
 43692.65567		 305.27265			43387.38302		70.72800		324.00000 
 43692.65567		 892.42725			42800.22842		223.26000		875.00000 
 43692.65567		 305.27265			43387.38302		70.72800		324.00000 
 43692.65567		 892.42725			42800.22842		223.26000		875.00000 
 43692.65567		 305.27265			43387.38302		70.72800		324.00000 
 43692.65567		 892.42725			42800.22842		223.26000		875.00000 
 43692.65567		 305.27265			43387.38302		70.72800		324.00000 
 43692.65567		 892.42725			42800.22842		223.26000		875.00000 
 43692.65567		 305.27265			43387.38302		70.72800		324.00000 
 43692.65567		 892.42725			42800.22842		223.26000		875.00000 
 43692.65567		 305.27265			43387.38302		70.72800		324.00000 
 43692.65567		 892.42725			42800.22842		223.26000		875.00000 
 43692.65567		 305.27265			43387.38302		70.72800		324.00000 
 43692.65567		 892.42725			42800.22842		223.26000		875.00000 
 43692.65567		 305.27265			43387.38302		70.72800		324.00000 
 43692.65567		 892.42725			42800.22842		223.26000		875.00000 
 43692.65567		 305.27265			43387.38302		70.72800		324.00000 
 43692.65567		 892.42725			42800.22842		223.26000		875.00000 
 43692.65567		 305.27265			43387.38302		70.72800		324.00000 
 43692.65567		 892.42725			42800.22842		223.26000		875.00000 
 43692.65567		 305.27265			43387.38302		70.72800		324.00000 
 43692.65567		 892.42725			42800.22842		223.26000		875.00000 
 43692.65567		 305.27265			43387.38302		70.72800		324.00000 
 43692.65567		 892.42725			42800.22842		223.26000		875.00000 
 43692.65567		 305.27265			43387.38302		70.72800		324.00000 
 43692.65567		 892.42725			42800.22842		223.26000		875.00000 
 43692.65567		 305.27265			43387.38302		70.72800		324.00000 
 43692.65567		 892.42725			42800.22842		223.26000		875.00000 
 43692.65567		 305.27265			43387.38302		70.72800		324.00000 
 43692.65567		 892.42725			42800.22842		223.26000		875.00000 
 43692.65567		 305.27265			43387.38302		70.72800		324.00000 
 43692.65567		 892.42725			42800.22842		223.26000		875.00000 
 43692.65567		 305.27265			43387.38302		70.72800		324.00000 
 43692.65567		 892.42725			42800.22842		223.26000		875.00000 
 43692.65567		 305.27265			43387.38302		70.72800		324.00000 
 43692.65567		 892.42725			42800.22842		223.26000		875.00000 
 43692.65567		 305.27265			43387.38302		70.72800		324.00000 
 43692.65567		 892.42725			42800.22842		223.26000		875.00000 
 43692.65567		 305.27265			43387.38302		70.72800		324.00000 
 43692.65567		 892.42725			42800.22842		223.26000		875.00000 
 43692.65567		 305.27265			43387.38302		70.72800		324.00000 
 43692.65567		 892.42725			42800.22842		223.26000		875.00000 
 43692.65567		 305.27265			43387.38302		70.72800		324.00000 
 43692.65567		 892.42725			42800.22842		223.26000		875.00000 
 43692.65567		 305.27265			43387.38302		70.72800		324.00000 
 43692.65567		 892.42725			42800.22842		223.26000		875.00000 
 43692.65567		 305.27265			43387.38302		70.72800		324.00000 
 43692.65567		 892.42725			42800.22842		223.26000		875.00000 
 43692.65567		 305.27265			43387.38302		70.72800		324.00000 
 43692.65567		 892.42725			42800.22842		223.26000		875.00000 
 43692.65567		 305.27265			43387.38302		70.72800		324.00000 
 43692.65567		 892.42725			42800.22842		223.26000		875.00000 
 43692.65567		 305.27265			43387.38302		70.72800		324.00000 
 43692.65567		 892.42725			42800.22842		223.26000		875.00000 
 43692.65567		 305.27265			43387.38302		70.72800		324.00000 
 43692.65567		 892.42725			42800.22842		223.26000		875.00000 
 43692.65567		 305.27265			43387.38302		70.72800		324.00000 
 43692.65567		 892.42725			42800.22842		223.26000		875.00000 
 43692.65567		 305.27265			43387.38302		70.72800		324.00000 
 43692.65567		 892.42725			42800.22842		223.26000		875.00000 
 43692.65567		 305.27265			43387.38302		70.72800		324.00000 
 43692.65567		 892.42725			42800.22842		223.26000		875.00000 
 43692.65567		 305.27265			43387.38302		70.72800		324.00000 
 43692.65567		 892.42725			42800.22842		223.26000		875.00000 
 43692.65567		 305.27265			43387.38302		70.72800		324.00000 
 43692.65567		 892.42725			42800.22842		223.26000		875.00000 
 43692.65567		 305.27265			43387.38302		70.72800		324.00000 
 43692.65567		 892.42725			42800.22842		223.26000		875.00000 
 43692.65567		 305.27265			43387.38302		70.72800		324.00000 
 43692.65567		 892.42725			42800.22842		223.26000		875.00000 
 43692.65567		 305.27265			43387.38302		70.72800		324.00000 
 43692.65567		 892.42725			42800.22842		223.26000		875.00000 
 43692.65567		 305.27265			43387.38302		70.72800		324.00000 
 43692.65567		 892.42725			42800.22842		223.26000		875.00000 
 43692.65567		 305.27265			43387.38302		70.72800		324.00000 
 43692.65567		 892.42725			42800.22842		223.26000		875.00000 
 43692.65567		 305.27265			43387.38302		70.72800		324.00000 
 43692.65567		 892.42725			42800.22842		223.26000		875.00000 
 43692.65567		 305.27265			43387.38302		70.72800		324.00000 
 43692.65567		 892.42725			42800.22842		223.26000		875.00000 
 43692.65567		 305.27265			43387.38302		70.72800		324.00000 
 43692.65567		 892.42725			42800.22842		223.26000		875.00000 
 43692.65567		 305.27265			43387.38302		70.72800		324.00000 
 43692.65567		 892.42725			42800.22842		223.26000		875.00000 
 43692.65567		 305.27265			43387.38302		70.72800		324.00000 
 43692.65567		 892.42725			42800.22842		223.26000		875.00000 
 43692.65567		 305.27265			43387.38302		70.72800		324.00000 
 43692.65567		 892.42725			42800.22842		223.26000		875.00000 
 43692.65567		 305.27265			43387.38302		70.72800		324.00000 
 43692.65567		 892.42725			42800.22842		223.26000		875.00000 
 43692.65567		 305.27265			43387.38302		70.72800		324.00000 
 43692.65567		 892.42725			42800.22842		223.26000		875.00000 
 43692.65567		 305.27265			43387.38302		70.72800		324.00000 
 43692.65567		 892.42725			42800.22842		223.26000		875.00000 
 43692.65567		 305.27265			43387.38302		70.72800		324.00000 
 43692.65567		 892.42725			42800.22842		223.26000		875.00000 
 43692.65567		 305.27265			43387.38302		70.72800		324.00000 
 43692.65567		 892.42725			42800.22842		223.26000		875.00000 
 43692.65567		 305.27265			43387.38302		70.72800		324.00000 
 43692.65567		 892.42725			42800.22842		223.26000		875.00000 
 43692.65567		 305.27265			43387.38302		70.72800		324.00000 
 43692.65567		 892.42725			42800.22842		223.26000		875.00000 
 43692.65567		 305.27265			43387.38302		70.72800		324.00000 
 43692.65567		 892.42725			42800.22842		223.26000		875.00000 
 43692.65567		 305.27265			43387.38302		70.72800		324.00000 
 43692.65567		 892.42725			42800.22842		223.26000		875.00000 
 43692.65567		 305.27265			43387.38302		70.72800		324.00000 
 43692.65567		 892.42725			42800.22842		223.26000		875.00000 
 43692.65567		 305.27265			43387.38302		70.72800		324.00000 
 43692.65567		 892.42725			42800.22842		223.26000		875.00000 
 43692.65567		 305.27265			43387.38302		70.72800		324.00000 
 43692.65567		 892.42725			42800.22842		223.26000		875.00000 
 43692.65567		 305.27265			43387.38302		70.72800		324.00000 
 43692.65567		 892.42725			42800.22842		223.26000		875.00000 
 43692.65567		 305.27265			43387.38302		70.72800		324.00000 
 43692.65567		 892.42725			42800.22842		223.26000		875.00000 
 43692.65567		 305.27265			43387.38302		70.72800		324.00000 
 43692.65567		 892.42725			42800.22842		223.26000		875.00000 
 43692.65567		 305.27265			43387.38302		70.72800		324.00000 
 43692.65567		 892.42725			42800.22842		223.26000		875.00000 
 43692.65567		 305.27265			43387.38302		70.72800		324.00000 
 43692.65567		 892.42725			42800.22842		223.26000		875.00000 
 43692.65567		 305.27265			43387.38302		70.72800		324.00000 
 43692.65567		 892.42725			42800.22842		223.26000		875.00000 
 43692.65567		 305.27265			43387.38302		70.72800		324.00000 
 43692.65567		 892.42725			42800.22842		223.26000		875.00000 
 43692.65567		 305.27265			43387.38302		70.72800		324.00000 
 43692.65567		 892.42725			42800.22842		223.18800		875.00000 
 43692.65567		 305.27265			43387.38302		70.72800		324.00000 
 43692.65567		 892.42725			42800.22842		223.18800		875.00000 
 43692.65567		 305.27265			43387.38302		70.72800		324.00000 
 43692.65567		 892.42725			42800.22842		223.18800		875.00000 
 43692.65567		 305.27265			43387.38302		70.72800		324.00000 
 43692.65567		 892.42725			42800.22842		223.18800		875.00000 
 43692.65567		 305.27265			43387.38302		70.72800		324.00000 
 43692.65567		 892.42725			42800.22842		223.18800		875.00000 
 43692.65567		 305.27265			43387.38302		70.72800		324.00000 
 43692.65567		 892.42725			42800.22842		223.18800		875.00000 
 43692.65567		 305.27265			43387.38302		70.72800		324.00000 
 43692.65567		 892.42725			42800.22842		223.18800		875.00000 
 43692.65567		 305.27265			43387.38302		70.72800		324.00000 
 43692.65567		 892.42725			42800.22842		223.18800		875.00000 
 43692.65567		 305.27265			43387.38302		70.72800		324.00000 
 43692.65567		 892.42725			42800.22842		223.18800		875.00000 
 43692.65567		 305.27265			43387.38302		70.72800		324.00000 
 43692.65567		 892.42725			42800.22842		223.18800		875.00000 
 43692.65567		 305.27265			43387.38302		70.72800		324.00000 
 43692.65567		 892.42725			42800.22842		223.18800		875.00000 
 43692.65567		 305.27265			43387.38302		70.72800		324.00000 
 43692.65567		 892.42725			42800.22842		223.18800		875.00000 
 43692.65567		 305.27265			43387.38302		70.72800		324.00000 
 43692.65567		 892.42725			42800.22842		223.18800		875.00000 
 43692.65567		 305.27265			43387.38302		70.72800		324.00000 
 43692.65567		 892.42725			42800.22842		223.18800		875.00000 
 43692.65567		 305.27265			43387.38302		70.72800		324.00000 
 43692.65567		 892.42725			42800.22842		223.18800		875.00000 
 43692.65567		 305.27265			43387.38302		70.72800		324.00000 
 43692.65567		 892.42725			42800.22842		223.18800		875.00000 
 43692.65567		 305.27265			43387.38302		70.72800		324.00000 
 43692.65567		 892.42725			42800.22842		223.18800		875.00000 
 43692.65567		 305.27265			43387.38302		70.72800		324.00000 
 43692.65567		 892.42725			42800.22842		223.18800		875.00000 
 43692.65567		 305.27265			43387.38302		70.72800		324.00000 
 43692.65567		 892.42725			42800.22842		223.18800		875.00000 
 43692.65567		 305.27265			43387.38302		70.72800		324.00000 
 43692.65567		 892.42725			42800.22842		223.18800		875.00000 
 43692.65567		 305.27265			43387.38302		70.72800		324.00000 
 43692.65567		 892.42725			42800.22842		223.18800		875.00000 
 43692.65567		 305.27265			43387.38302		70.72800		324.00000 
 43692.65567		 892.42725			42800.22842		223.18800		875.00000 
 43692.65567		 305.27265			43387.38302		70.72800		324.00000 
 43692.65567		 892.42725			42800.22842		223.18800		875.00000 
 43692.65567		 305.27265			43387.38302		70.72800		324.00000 
 43692.65567		 892.42725			42800.22842		223.18800		875.00000 
 43692.65567		 305.27265			43387.38302		70.72800		324.00000 
 43692.65567		 892.42725			42800.22842		223.18800		875.00000 
 43692.65567		 305.27265			43387.38302		70.72800		324.00000 
 43692.65567		 892.42725			42800.22842		223.18800		875.00000 
 43692.65567		 305.27265			43387.38302		70.72800		324.00000 
 43692.65567		 892.42725			42800.22842		223.18800		875.00000 
 43692.65567		 305.27265			43387.38302		70.72800		324.00000 
 43692.65567		 892.42725			42800.22842		223.18800		875.00000 
 43692.65567		 305.27265			43387.38302		70.72800		324.00000 
 43692.65567		 892.42725			42800.22842		223.18800		875.00000 
 43692.65567		 305.27265			43387.38302		70.72800		324.00000 
 43692.65567		 892.42725			42800.22842		223.18800		875.00000 
 43692.65567		 305.27265			43387.38302		70.72800		324.00000 
 43692.65567		 892.42725			42800.22842		223.18800		875.00000 
 43692.65567		 305.27265			43387.38302		70.72800		324.00000 
 43692.65567		 892.42725			42800.22842		223.18800		875.00000 
 43692.65567		 305.27265			43387.38302		70.72800		324.00000 
 43692.65567		 892.42725			42800.22842		223.18800		875.00000 
 43692.65567		 305.27265			43387.38302		70.72800		324.00000 
 43692.65567		 892.42725			42800.22842		223.18800		875.00000 
 43692.65567		 305.27265			43387.38302		70.72800		324.00000 
 43692.65567		 892.42725			42800.22842		223.18800		875.00000 
 43692.65567		 305.27265			43387.38302		70.72800		324.00000 
 43692.65567		 892.42725			42800.22842		223.18800		875.00000 
 43692.65567		 305.27265			43387.38302		70.72800		324.00000 
 43692.65567		 892.42725			42800.22842		223.18800		875.00000 
 43692.65567		 305.27265			43387.38302		70.72800		324.00000 
 43692.65567		 892.42725			42800.22842		223.18800		875.00000 
 43692.65567		 305.27265			43387.38302		70.72800		324.00000 
 43692.65567		 892.42725			42800.22842		223.18800		875.00000 
 43692.65567		 305.27265			43387.38302		70.72800		324.00000 
 43692.65567		 892.42725			42800.22842		223.18800		875.00000 
 43692.65567		 305.27265			43387.38302		70.72800		324.00000 
 43692.65567		 892.42725			42800.22842		223.18800		875.00000 
 43692.65567		 305.27265			43387.38302		70.72800		324.00000 
 43692.65567		 892.42725			42800.22842		223.18800		875.00000 
 43692.65567		 305.27265			43387.38302		70.72800		324.00000 
 43692.65567		 892.42725			42800.22842		223.18800		875.00000 
 43692.65567		 305.27265			43387.38302		70.72800		324.00000 
 43692.65567		 892.42725			42800.22842		223.18800		875.00000 
 43692.65567		 305.27265			43387.38302		70.72800		324.00000 
 43692.65567		 892.42725			42800.22842		223.18800		875.00000 
 43692.65567		 305.27265			43387.38302		70.72800		324.00000 
 43692.65567		 892.42725			42800.22842		223.18800		875.00000 
 43692.65567		 305.27265			43387.38302		70.72800		324.00000 
 43692.65567		 892.42725			42800.22842		223.18800		875.00000 
 43692.65567		 305.27265			43387.38302		70.72800		324.00000 
 43692.65567		 892.42725			42800.22842		223.18800		875.00000 
 43692.65567		 305.27265			43387.38302		70.72800		324.00000 
 43692.65567		 892.42725			42800.22842		223.18800		875.00000 
 43692.65567		 305.27265			43387.38302		70.72800		324.00000 
 43692.65567		 892.42725			42800.22842		223.18800		875.00000 
 43692.65567		 305.27265			43387.38302		70.72800		324.00000 
 43692.65567		 892.42725			42800.22842		223.18800		875.00000 
 43692.65567		 305.27265			43387.38302		70.72800		324.00000 
 43692.65567		 892.42725			42800.22842		223.18800		875.00000 
 43692.65567		 305.27265			43387.38302		70.72800		324.00000 
 43692.65567		 892.42725			42800.22842		223.18800		875.00000 
 43692.65567		 305.27265			43387.38302		70.72800		324.00000 
 43692.65567		 892.42725			42800.22842		223.18800		875.00000 
 43692.65567		 305.27265			43387.38302		70.72800		324.00000 
 43692.65567		 892.42725			42800.22842		223.18800		875.00000 
 43692.65567		 305.27265			43387.38302		70.72800		324.00000 
 43692.65567		 892.42725			42800.22842		223.18800		875.00000 
 43692.65567		 305.27265			43387.38302		70.72800		324.00000 
 43692.65567		 892.42725			42800.22842		223.18800		875.00000 
 43692.65567		 305.27265			43387.38302		70.72800		324.00000 
 43692.65567		 892.42725			42800.22842		223.18800		875.00000 
 43692.65567		 305.27265			43387.38302		70.72800		324.00000 
 43692.65567		 892.42725			42800.22842		223.18800		875.00000 
 43692.65567		 305.27265			43387.38302		70.72800		324.00000 
 43692.65567		 892.42725			42800.22842		223.18800		875.00000 
 43692.65567		 305.27265			43387.38302		70.72800		324.00000 
 43692.65567		 892.42725			42800.22842		223.18800		875.00000 
 43692.65567		 305.27265			43387.38302		70.72800		324.00000 
 43692.65567		 892.42725			42800.22842		223.18800		875.00000 
 43692.65567		 305.27265			43387.38302		70.72800		324.00000 
 43692.65567		 892.42725			42800.22842		223.18800		875.00000 
 43692.65567		 305.27265			43387.38302		70.72800		324.00000 
 43692.65567		 892.42725			42800.22842		223.18800		875.00000 
 43692.65567		 305.27265			43387.38302		70.72800		324.00000 
 43692.65567		 892.42725			42800.22842		223.18800		875.00000 
 43692.65567		 305.27265			43387.38302		70.72800		324.00000 
 43692.65567		 892.42725			42800.22842		223.18800		875.00000 
 43692.65567		 305.27265			43387.38302		70.72800		324.00000 
 43692.65567		 892.42725			42800.22842		223.18800		875.00000 
 43692.65567		 305.27265			43387.38302		70.72800		324.00000 
 43692.65567		 892.42725			42800.22842		223.18800		875.00000 
 43692.65567		 305.27265			43387.38302		70.72800		324.00000 
 43692.65567		 892.42725			42800.22842		223.18800		875.00000 
 43692.65567		 305.27265			43387.38302		70.72800		324.00000 
 43692.65567		 892.42725			42800.22842		223.18800		875.00000 
 43692.65567		 305.27265			43387.38302		70.72800		324.00000 
 43692.65567		 892.42725			42800.22842		223.18800		875.00000 
 43692.65567		 305.27265			43387.38302		70.72800		324.00000 
 43692.65567		 892.42725			42800.22842		223.18800		875.00000 
 43692.65567		 305.27265			43387.38302		70.72800		324.00000 
 43692.65567		 774.04161			42918.61407		223.18800		875.00000 
 43692.65567		 305.27265			43387.38302		70.72800		324.00000 
 43692.65567		 774.04161			42918.61407		223.18800		875.00000 
 43692.65567		 305.27265			43387.38302		70.72800		324.00000 
 43692.65567		 655.65596			43036.99971		223.18800		875.00000 
 43692.65567		 305.27265			43387.38302		70.72800		324.00000 
 43692.65567		 655.65596			43036.99971		223.18800		875.00000 
 43692.65567		 305.27265			43387.38302		70.72800		324.00000 
 43692.65567		 537.27032			43155.38535		223.18800		875.00000 
 43692.65567		 305.27265			43387.38302		70.72800		324.00000 
 43692.65567		 537.27032			43155.38535		223.18800		875.00000 
 43692.65567		 305.27265			43387.38302		70.72800		324.00000 
 43692.65567		 537.27032			43155.38535		223.18800		875.00000 
 43692.65567		 305.27265			43387.38302		70.72800		324.00000 
 43692.65567		 537.27032			43155.38535		223.18800		875.00000 
 43692.65567		 305.27265			43387.38302		70.72800		324.00000 
 43692.65567		 537.27032			43155.38535		223.18800		875.00000 
 43692.65567		 305.27265			43387.38302		70.72800		324.00000 
 43692.65567		 537.27032			43155.38535		223.18800		875.00000 
 43692.65567		 305.27265			43387.38302		70.72800		324.00000 
 43692.65567		 537.27032			43155.38535		223.18800		875.00000 
 43692.65567		 305.27265			43387.38302		70.72800		324.00000 
 43692.65567		 537.27032			43155.38535		223.18800		875.00000 
 43692.65567		 305.27265			43387.38302		70.72800		324.00000 
 43692.65567		 537.27032			43155.38535		223.18800		875.00000 
 43692.65567		 305.27265			43387.38302		70.72800		324.00000 
 43692.65567		 537.27032			43155.38535		223.18800		875.00000 
 43692.65567		 305.27265			43387.38302		70.72800		324.00000 
 43692.65567		 537.27032			43155.38535		223.18800		875.00000 
 43692.65567		 305.27265			43387.38302		70.72800		324.00000 
 43692.65567		 537.27032			43155.38535		223.18800		875.00000 
 43692.65567		 305.27265			43387.38302		70.72800		324.00000 
 43692.65567		 537.27032			43155.38535		223.18800		875.00000 
 43692.65567		 305.27265			43387.38302		70.72800		324.00000 
 43692.65567		 537.27032			43155.38535		223.18800		875.00000 
 43692.65567		 305.27265			43387.38302		70.72800		324.00000 
 43692.65567		 537.27032			43155.38535		223.18800		875.00000 
 43692.65567		 305.27265			43387.38302		70.72800		324.00000 
 43692.65567		 537.27032			43155.38535		223.18800		875.00000 
 43692.65567		 305.27265			43387.38302		70.72800		324.00000 
 43692.65567		 537.27032			43155.38535		223.18800		875.00000 
 43692.65567		 305.27265			43387.38302		70.72800		324.00000 
 43692.65567		 537.27032			43155.38535		223.18800		875.00000 
 43692.65567		 305.27265			43387.38302		70.72800		324.00000 
 43692.65567		 537.27032			43155.38535		223.18800		875.00000 
 43692.65567		 305.27265			43387.38302		70.72800		324.00000 
 43692.65567		 537.27032			43155.38535		223.18800		875.00000 
 43692.65567		 305.27265			43387.38302		70.72800		324.00000 
 43692.65567		 529.63254			43163.02313		223.18800		875.00000 
 43692.65567		 305.27265			43387.38302		70.72800		324.00000 
 43692.65567		 525.81365			43166.84203		223.18800		875.00000 
 43692.65567		 305.27265			43387.38302		70.72800		324.00000 
 43692.65567		 525.81365			43166.84203		223.18800		875.00000 
 43692.65567		 261.35540			43431.30027		70.72800		324.00000 
