Memory Total (MiB) 	 Memory Used (MiB) 	    Memory Free (MiB) 	 Power Drawed (W) 	 Clocks (Mhz) 	 
 43692.65567		 261.35540			43431.30027		170.11800		875.00000 
 43692.65567		 261.35540			43431.30027		69.65600		324.00000 
 43692.65567		 261.35540			43431.30027		170.11800		875.00000 
 43692.65567		 261.35540			43431.30027		69.65600		324.00000 
 43692.65567		 261.35540			43431.30027		170.11800		875.00000 
 43692.65567		 261.35540			43431.30027		69.65600		324.00000 
 43692.65567		 261.35540			43431.30027		170.11800		875.00000 
 43692.65567		 261.35540			43431.30027		69.65600		324.00000 
 43692.65567		 261.35540			43431.30027		170.11800		875.00000 
 43692.65567		 261.35540			43431.30027		69.65600		324.00000 
 43692.65567		 261.35540			43431.30027		170.11800		875.00000 
 43692.65567		 261.35540			43431.30027		69.65600		324.00000 
 43692.65567		 261.35540			43431.30027		170.11800		875.00000 
 43692.65567		 261.35540			43431.30027		69.65600		324.00000 
 43692.65567		 261.35540			43431.30027		170.11800		875.00000 
 43692.65567		 261.35540			43431.30027		69.65600		324.00000 
 43692.65567		 261.35540			43431.30027		170.11800		875.00000 
 43692.65567		 261.35540			43431.30027		69.65600		324.00000 
 43692.65567		 261.35540			43431.30027		170.11800		875.00000 
 43692.65567		 261.35540			43431.30027		69.65600		324.00000 
 43692.65567		 261.35540			43431.30027		170.11800		875.00000 
 43692.65567		 261.35540			43431.30027		69.65600		324.00000 
 43692.65567		 261.35540			43431.30027		170.11800		875.00000 
 43692.65567		 261.35540			43431.30027		69.65600		324.00000 
 43692.65567		 261.35540			43431.30027		170.11800		875.00000 
 43692.65567		 261.35540			43431.30027		69.65600		324.00000 
 43692.65567		 261.35540			43431.30027		170.11800		875.00000 
 43692.65567		 261.35540			43431.30027		69.65600		324.00000 
 43692.65567		 261.35540			43431.30027		170.11800		875.00000 
 43692.65567		 261.35540			43431.30027		69.65600		324.00000 
 43692.65567		 261.35540			43431.30027		170.11800		875.00000 
 43692.65567		 261.35540			43431.30027		69.65600		324.00000 
 43692.65567		 261.35540			43431.30027		170.11800		875.00000 
 43692.65567		 261.35540			43431.30027		69.65600		324.00000 
 43692.65567		 261.35540			43431.30027		170.11800		875.00000 
 43692.65567		 261.35540			43431.30027		69.65600		324.00000 
 43692.65567		 261.35540			43431.30027		170.11800		875.00000 
 43692.65567		 261.35540			43431.30027		69.65600		324.00000 
 43692.65567		 265.17429			43427.48138		170.11800		875.00000 
 43692.65567		 261.35540			43431.30027		69.65600		324.00000 
 43692.65567		 265.17429			43427.48138		170.11800		875.00000 
 43692.65567		 261.35540			43431.30027		69.65600		324.00000 
 43692.65567		 272.81207			43419.84360		170.11800		875.00000 
 43692.65567		 261.35540			43431.30027		69.65600		324.00000 
 43692.65567		 272.81207			43419.84360		170.11800		875.00000 
 43692.65567		 261.35540			43431.30027		69.65600		324.00000 
 43692.65567		 272.81207			43419.84360		170.11800		875.00000 
 43692.65567		 265.17429			43427.48138		69.65600		324.00000 
 43692.65567		 272.81207			43419.84360		170.11800		875.00000 
 43692.65567		 265.17429			43427.48138		69.65600		324.00000 
 43692.65567		 272.81207			43419.84360		170.11800		875.00000 
 43692.65567		 272.81207			43419.84360		69.65600		324.00000 
 43692.65567		 272.81207			43419.84360		170.11800		875.00000 
 43692.65567		 272.81207			43419.84360		69.65600		324.00000 
 43692.65567		 272.81207			43419.84360		170.11800		875.00000 
 43692.65567		 272.81207			43419.84360		69.65600		324.00000 
 43692.65567		 272.81207			43419.84360		170.11800		875.00000 
 43692.65567		 305.27265			43387.38302		69.65600		324.00000 
 43692.65567		 305.27265			43387.38302		170.11800		875.00000 
 43692.65567		 305.27265			43387.38302		69.65600		324.00000 
 43692.65567		 305.27265			43387.38302		170.11800		875.00000 
 43692.65567		 305.27265			43387.38302		69.65600		324.00000 
 43692.65567		 305.27265			43387.38302		170.11800		875.00000 
 43692.65567		 305.27265			43387.38302		69.65600		324.00000 
 43692.65567		 305.27265			43387.38302		170.11800		875.00000 
 43692.65567		 305.27265			43387.38302		69.65600		324.00000 
 43692.65567		 309.09154			43383.56413		170.11800		875.00000 
 43692.65567		 305.27265			43387.38302		69.65600		324.00000 
 43692.65567		 310.52363			43382.13204		170.11800		875.00000 
 43692.65567		 305.27265			43387.38302		69.65600		324.00000 
 43692.65567		 311.00099			43381.65468		145.70600		875.00000 
 43692.65567		 305.27265			43387.38302		69.65600		324.00000 
 43692.65567		 311.00099			43381.65468		145.70600		875.00000 
 43692.65567		 305.27265			43387.38302		69.65600		324.00000 
 43692.65567		 311.00099			43381.65468		145.70600		875.00000 
 43692.65567		 305.27265			43387.38302		69.65600		324.00000 
 43692.65567		 311.00099			43381.65468		145.70600		875.00000 
 43692.65567		 305.27265			43387.38302		69.65600		324.00000 
 43692.65567		 311.00099			43381.65468		145.70600		875.00000 
 43692.65567		 305.27265			43387.38302		69.65600		324.00000 
 43692.65567		 311.00099			43381.65468		145.70600		875.00000 
 43692.65567		 305.27265			43387.38302		69.65600		324.00000 
 43692.65567		 311.00099			43381.65468		145.70600		875.00000 
 43692.65567		 305.27265			43387.38302		69.65600		324.00000 
 43692.65567		 311.00099			43381.65468		145.70600		875.00000 
 43692.65567		 305.27265			43387.38302		69.65600		324.00000 
 43692.65567		 311.00099			43381.65468		145.70600		875.00000 
 43692.65567		 305.27265			43387.38302		69.65600		324.00000 
 43692.65567		 311.00099			43381.65468		145.70600		875.00000 
 43692.65567		 305.27265			43387.38302		69.65600		324.00000 
 43692.65567		 311.00099			43381.65468		145.70600		875.00000 
 43692.65567		 305.27265			43387.38302		69.65600		324.00000 
 43692.65567		 311.00099			43381.65468		145.70600		875.00000 
 43692.65567		 305.27265			43387.38302		69.65600		324.00000 
 43692.65567		 311.00099			43381.65468		145.70600		875.00000 
 43692.65567		 305.27265			43387.38302		69.65600		324.00000 
 43692.65567		 311.00099			43381.65468		145.70600		875.00000 
 43692.65567		 305.27265			43387.38302		69.65600		324.00000 
 43692.65567		 311.00099			43381.65468		145.70600		875.00000 
 43692.65567		 305.27265			43387.38302		69.65600		324.00000 
 43692.65567		 311.00099			43381.65468		145.70600		875.00000 
 43692.65567		 305.27265			43387.38302		69.65600		324.00000 
 43692.65567		 311.00099			43381.65468		145.70600		875.00000 
 43692.65567		 305.27265			43387.38302		69.65600		324.00000 
 43692.65567		 311.00099			43381.65468		145.70600		875.00000 
 43692.65567		 305.27265			43387.38302		69.65600		324.00000 
 43692.65567		 311.00099			43381.65468		145.70600		875.00000 
 43692.65567		 305.27265			43387.38302		69.65600		324.00000 
 43692.65567		 311.00099			43381.65468		145.70600		875.00000 
 43692.65567		 305.27265			43387.38302		69.65600		324.00000 
 43692.65567		 311.00099			43381.65468		145.70600		875.00000 
 43692.65567		 305.27265			43387.38302		69.65600		324.00000 
 43692.65567		 311.00099			43381.65468		145.70600		875.00000 
 43692.65567		 305.27265			43387.38302		69.65600		324.00000 
 43692.65567		 311.00099			43381.65468		145.70600		875.00000 
 43692.65567		 305.27265			43387.38302		69.65600		324.00000 
 43692.65567		 311.00099			43381.65468		145.70600		875.00000 
 43692.65567		 305.27265			43387.38302		69.65600		324.00000 
 43692.65567		 311.00099			43381.65468		145.70600		875.00000 
 43692.65567		 305.27265			43387.38302		69.65600		324.00000 
 43692.65567		 311.00099			43381.65468		145.70600		875.00000 
 43692.65567		 305.27265			43387.38302		69.65600		324.00000 
 43692.65567		 311.00099			43381.65468		145.70600		875.00000 
 43692.65567		 305.27265			43387.38302		69.65600		324.00000 
 43692.65567		 311.00099			43381.65468		145.70600		875.00000 
 43692.65567		 305.27265			43387.38302		69.65600		324.00000 
 43692.65567		 311.00099			43381.65468		145.70600		875.00000 
 43692.65567		 305.27265			43387.38302		69.65600		324.00000 
 43692.65567		 311.00099			43381.65468		145.70600		875.00000 
 43692.65567		 305.27265			43387.38302		69.65600		324.00000 
 43692.65567		 311.00099			43381.65468		136.53400		875.00000 
 43692.65567		 305.27265			43387.38302		69.65600		324.00000 
 43692.65567		 311.00099			43381.65468		136.53400		875.00000 
 43692.65567		 305.27265			43387.38302		69.65600		324.00000 
 43692.65567		 311.00099			43381.65468		136.53400		875.00000 
 43692.65567		 305.27265			43387.38302		69.65600		324.00000 
 43692.65567		 311.00099			43381.65468		136.53400		875.00000 
 43692.65567		 305.27265			43387.38302		69.65600		324.00000 
 43692.65567		 311.00099			43381.65468		136.53400		875.00000 
 43692.65567		 305.27265			43387.38302		69.65600		324.00000 
 43692.65567		 311.00099			43381.65468		136.53400		875.00000 
 43692.65567		 305.27265			43387.38302		69.65600		324.00000 
 43692.65567		 311.00099			43381.65468		136.53400		875.00000 
 43692.65567		 305.27265			43387.38302		69.65600		324.00000 
 43692.65567		 311.00099			43381.65468		136.53400		875.00000 
 43692.65567		 305.27265			43387.38302		69.65600		324.00000 
 43692.65567		 311.00099			43381.65468		136.53400		875.00000 
 43692.65567		 305.27265			43387.38302		69.65600		324.00000 
 43692.65567		 311.00099			43381.65468		136.53400		875.00000 
 43692.65567		 305.27265			43387.38302		69.65600		324.00000 
 43692.65567		 311.00099			43381.65468		136.53400		875.00000 
 43692.65567		 305.27265			43387.38302		69.65600		324.00000 
 43692.65567		 311.00099			43381.65468		136.53400		875.00000 
 43692.65567		 305.27265			43387.38302		69.65600		324.00000 
 43692.65567		 311.00099			43381.65468		136.53400		875.00000 
 43692.65567		 305.27265			43387.38302		69.65600		324.00000 
 43692.65567		 311.00099			43381.65468		136.53400		875.00000 
 43692.65567		 305.27265			43387.38302		69.65600		324.00000 
 43692.65567		 311.00099			43381.65468		136.53400		875.00000 
 43692.65567		 305.27265			43387.38302		69.65600		324.00000 
 43692.65567		 311.00099			43381.65468		136.53400		875.00000 
 43692.65567		 305.27265			43387.38302		69.65600		324.00000 
 43692.65567		 311.00099			43381.65468		136.53400		875.00000 
 43692.65567		 305.27265			43387.38302		69.65600		324.00000 
 43692.65567		 311.00099			43381.65468		136.53400		875.00000 
 43692.65567		 305.27265			43387.38302		69.65600		324.00000 
 43692.65567		 311.00099			43381.65468		136.53400		875.00000 
 43692.65567		 305.27265			43387.38302		69.65600		324.00000 
 43692.65567		 311.00099			43381.65468		136.53400		875.00000 
 43692.65567		 305.27265			43387.38302		69.65600		324.00000 
 43692.65567		 311.00099			43381.65468		136.53400		875.00000 
 43692.65567		 305.27265			43387.38302		69.65600		324.00000 
 43692.65567		 314.81988			43377.83579		136.53400		875.00000 
 43692.65567		 305.27265			43387.38302		69.65600		324.00000 
 43692.65567		 314.81988			43377.83579		136.53400		875.00000 
 43692.65567		 305.27265			43387.38302		69.65600		324.00000 
 43692.65567		 314.81988			43377.83579		136.53400		875.00000 
 43692.65567		 305.27265			43387.38302		69.65600		324.00000 
 43692.65567		 318.63877			43374.01690		136.53400		875.00000 
 43692.65567		 305.27265			43387.38302		69.65600		324.00000 
 43692.65567		 322.45767			43370.19801		136.53400		875.00000 
 43692.65567		 305.27265			43387.38302		69.65600		324.00000 
 43692.65567		 326.27656			43366.37912		136.53400		875.00000 
 43692.65567		 305.27265			43387.38302		69.65600		324.00000 
 43692.65567		 326.27656			43366.37912		136.53400		875.00000 
 43692.65567		 305.27265			43387.38302		69.65600		324.00000 
 43692.65567		 326.27656			43366.37912		136.53400		875.00000 
 43692.65567		 305.27265			43387.38302		69.65600		324.00000 
 43692.65567		 537.27032			43155.38535		136.53400		875.00000 
 43692.65567		 305.27265			43387.38302		69.65600		324.00000 
 43692.65567		 636.56151			43056.09417		136.53400		875.00000 
 43692.65567		 305.27265			43387.38302		69.65600		324.00000 
 43692.65567		 686.20710			43006.44858		136.53400		875.00000 
 43692.65567		 305.27265			43387.38302		69.65600		324.00000 
 43692.65567		 686.20710			43006.44858		136.53400		875.00000 
 43692.65567		 305.27265			43387.38302		69.65600		324.00000 
 43692.65567		 686.20710			43006.44858		136.53400		875.00000 
 43692.65567		 305.27265			43387.38302		69.65600		324.00000 
 43692.65567		 686.20710			43006.44858		136.53400		875.00000 
 43692.65567		 305.27265			43387.38302		69.65600		324.00000 
 43692.65567		 686.20710			43006.44858		136.53400		875.00000 
 43692.65567		 305.27265			43387.38302		69.65600		324.00000 
 43692.65567		 686.20710			43006.44858		136.53400		875.00000 
 43692.65567		 305.27265			43387.38302		69.65600		324.00000 
 43692.65567		 686.20710			43006.44858		142.83200		875.00000 
 43692.65567		 305.27265			43387.38302		69.65600		324.00000 
 43692.65567		 686.20710			43006.44858		142.83200		875.00000 
 43692.65567		 305.27265			43387.38302		69.65600		324.00000 
 43692.65567		 686.20710			43006.44858		142.83200		875.00000 
 43692.65567		 305.27265			43387.38302		69.65600		324.00000 
 43692.65567		 686.20710			43006.44858		142.83200		875.00000 
 43692.65567		 305.27265			43387.38302		69.65600		324.00000 
 43692.65567		 686.20710			43006.44858		142.83200		875.00000 
 43692.65567		 305.27265			43387.38302		69.65600		324.00000 
 43692.65567		 686.20710			43006.44858		142.83200		875.00000 
 43692.65567		 305.27265			43387.38302		69.65600		324.00000 
 43692.65567		 686.20710			43006.44858		142.83200		875.00000 
 43692.65567		 305.27265			43387.38302		69.65600		324.00000 
 43692.65567		 686.20710			43006.44858		142.83200		875.00000 
 43692.65567		 305.27265			43387.38302		69.65600		324.00000 
 43692.65567		 686.20710			43006.44858		142.83200		875.00000 
 43692.65567		 305.27265			43387.38302		66.19600		324.00000 
 43692.65567		 686.20710			43006.44858		142.83200		875.00000 
 43692.65567		 305.27265			43387.38302		66.19600		324.00000 
 43692.65567		 686.20710			43006.44858		142.83200		875.00000 
 43692.65567		 305.27265			43387.38302		66.19600		324.00000 
 43692.65567		 686.20710			43006.44858		142.83200		875.00000 
 43692.65567		 305.27265			43387.38302		66.19600		324.00000 
 43692.65567		 686.20710			43006.44858		142.83200		875.00000 
 43692.65567		 305.27265			43387.38302		66.19600		324.00000 
 43692.65567		 686.20710			43006.44858		142.83200		875.00000 
 43692.65567		 305.27265			43387.38302		66.19600		324.00000 
 43692.65567		 686.20710			43006.44858		142.83200		875.00000 
 43692.65567		 305.27265			43387.38302		66.19600		324.00000 
 43692.65567		 686.20710			43006.44858		142.83200		875.00000 
 43692.65567		 305.27265			43387.38302		66.19600		324.00000 
 43692.65567		 686.20710			43006.44858		142.83200		875.00000 
 43692.65567		 305.27265			43387.38302		66.19600		324.00000 
 43692.65567		 686.20710			43006.44858		142.83200		875.00000 
 43692.65567		 305.27265			43387.38302		66.19600		324.00000 
 43692.65567		 686.20710			43006.44858		142.83200		875.00000 
 43692.65567		 305.27265			43387.38302		66.19600		324.00000 
 43692.65567		 686.20710			43006.44858		142.83200		875.00000 
 43692.65567		 305.27265			43387.38302		66.19600		324.00000 
 43692.65567		 686.20710			43006.44858		142.83200		875.00000 
 43692.65567		 305.27265			43387.38302		66.19600		324.00000 
 43692.65567		 686.20710			43006.44858		142.83200		875.00000 
 43692.65567		 305.27265			43387.38302		66.19600		324.00000 
 43692.65567		 686.20710			43006.44858		142.83200		875.00000 
 43692.65567		 305.27265			43387.38302		66.19600		324.00000 
 43692.65567		 686.20710			43006.44858		142.83200		875.00000 
 43692.65567		 305.27265			43387.38302		66.19600		324.00000 
 43692.65567		 686.20710			43006.44858		142.83200		875.00000 
 43692.65567		 305.27265			43387.38302		66.19600		324.00000 
 43692.65567		 686.20710			43006.44858		142.83200		875.00000 
 43692.65567		 305.27265			43387.38302		66.19600		324.00000 
 43692.65567		 686.20710			43006.44858		142.83200		875.00000 
 43692.65567		 305.27265			43387.38302		66.19600		324.00000 
 43692.65567		 686.20710			43006.44858		142.83200		875.00000 
 43692.65567		 305.27265			43387.38302		66.19600		324.00000 
 43692.65567		 686.20710			43006.44858		142.83200		875.00000 
 43692.65567		 305.27265			43387.38302		66.19600		324.00000 
 43692.65567		 686.20710			43006.44858		142.83200		875.00000 
 43692.65567		 305.27265			43387.38302		66.19600		324.00000 
 43692.65567		 686.20710			43006.44858		142.83200		875.00000 
 43692.65567		 305.27265			43387.38302		66.19600		324.00000 
 43692.65567		 686.20710			43006.44858		142.83200		875.00000 
 43692.65567		 305.27265			43387.38302		66.19600		324.00000 
 43692.65567		 686.20710			43006.44858		142.83200		875.00000 
 43692.65567		 305.27265			43387.38302		66.19600		324.00000 
 43692.65567		 686.20710			43006.44858		142.83200		875.00000 
 43692.65567		 305.27265			43387.38302		66.19600		324.00000 
 43692.65567		 686.20710			43006.44858		142.83200		875.00000 
 43692.65567		 305.27265			43387.38302		66.19600		324.00000 
 43692.65567		 686.20710			43006.44858		142.83200		875.00000 
 43692.65567		 305.27265			43387.38302		66.19600		324.00000 
 43692.65567		 686.20710			43006.44858		142.83200		875.00000 
 43692.65567		 305.27265			43387.38302		66.19600		324.00000 
 43692.65567		 686.20710			43006.44858		142.83200		875.00000 
 43692.65567		 305.27265			43387.38302		66.19600		324.00000 
 43692.65567		 686.20710			43006.44858		142.83200		875.00000 
 43692.65567		 305.27265			43387.38302		66.19600		324.00000 
 43692.65567		 686.20710			43006.44858		142.83200		875.00000 
 43692.65567		 305.27265			43387.38302		66.19600		324.00000 
 43692.65567		 686.20710			43006.44858		142.83200		875.00000 
 43692.65567		 305.27265			43387.38302		66.19600		324.00000 
 43692.65567		 686.20710			43006.44858		142.83200		875.00000 
 43692.65567		 305.27265			43387.38302		66.19600		324.00000 
 43692.65567		 686.20710			43006.44858		142.83200		875.00000 
 43692.65567		 305.27265			43387.38302		66.19600		324.00000 
 43692.65567		 686.20710			43006.44858		142.83200		875.00000 
 43692.65567		 305.27265			43387.38302		66.19600		324.00000 
 43692.65567		 686.20710			43006.44858		142.83200		875.00000 
 43692.65567		 305.27265			43387.38302		66.19600		324.00000 
 43692.65567		 686.20710			43006.44858		142.83200		875.00000 
 43692.65567		 305.27265			43387.38302		66.19600		324.00000 
 43692.65567		 686.20710			43006.44858		142.83200		875.00000 
 43692.65567		 305.27265			43387.38302		66.19600		324.00000 
 43692.65567		 686.20710			43006.44858		142.83200		875.00000 
 43692.65567		 305.27265			43387.38302		66.19600		324.00000 
 43692.65567		 686.20710			43006.44858		142.83200		875.00000 
 43692.65567		 305.27265			43387.38302		66.19600		324.00000 
 43692.65567		 686.20710			43006.44858		142.83200		875.00000 
 43692.65567		 305.27265			43387.38302		66.19600		324.00000 
 43692.65567		 686.20710			43006.44858		142.83200		875.00000 
 43692.65567		 305.27265			43387.38302		66.19600		324.00000 
 43692.65567		 686.20710			43006.44858		142.83200		875.00000 
 43692.65567		 305.27265			43387.38302		66.19600		324.00000 
 43692.65567		 686.20710			43006.44858		142.83200		875.00000 
 43692.65567		 305.27265			43387.38302		66.19600		324.00000 
 43692.65567		 686.20710			43006.44858		142.83200		875.00000 
 43692.65567		 305.27265			43387.38302		66.19600		324.00000 
 43692.65567		 686.20710			43006.44858		142.83200		875.00000 
 43692.65567		 305.27265			43387.38302		66.19600		324.00000 
 43692.65567		 686.20710			43006.44858		142.83200		875.00000 
 43692.65567		 305.27265			43387.38302		66.19600		324.00000 
 43692.65567		 686.20710			43006.44858		142.83200		875.00000 
 43692.65567		 305.27265			43387.38302		66.19600		324.00000 
 43692.65567		 686.20710			43006.44858		142.83200		875.00000 
 43692.65567		 305.27265			43387.38302		66.19600		324.00000 
 43692.65567		 686.20710			43006.44858		142.83200		875.00000 
 43692.65567		 305.27265			43387.38302		66.19600		324.00000 
 43692.65567		 686.20710			43006.44858		142.83200		875.00000 
 43692.65567		 305.27265			43387.38302		66.19600		324.00000 
 43692.65567		 686.20710			43006.44858		142.83200		875.00000 
 43692.65567		 305.27265			43387.38302		66.19600		324.00000 
 43692.65567		 686.20710			43006.44858		195.18600		875.00000 
 43692.65567		 305.27265			43387.38302		66.19600		324.00000 
 43692.65567		 686.20710			43006.44858		195.18600		875.00000 
 43692.65567		 305.27265			43387.38302		66.19600		324.00000 
 43692.65567		 686.20710			43006.44858		195.18600		875.00000 
 43692.65567		 305.27265			43387.38302		66.19600		324.00000 
 43692.65567		 686.20710			43006.44858		195.18600		875.00000 
 43692.65567		 305.27265			43387.38302		66.19600		324.00000 
 43692.65567		 686.20710			43006.44858		195.18600		875.00000 
 43692.65567		 305.27265			43387.38302		66.19600		324.00000 
 43692.65567		 686.20710			43006.44858		195.18600		875.00000 
 43692.65567		 305.27265			43387.38302		66.19600		324.00000 
 43692.65567		 686.20710			43006.44858		195.18600		875.00000 
 43692.65567		 305.27265			43387.38302		66.19600		324.00000 
 43692.65567		 686.20710			43006.44858		195.18600		875.00000 
 43692.65567		 305.27265			43387.38302		66.19600		324.00000 
 43692.65567		 686.20710			43006.44858		195.18600		875.00000 
 43692.65567		 305.27265			43387.38302		66.19600		324.00000 
 43692.65567		 686.20710			43006.44858		195.18600		875.00000 
 43692.65567		 305.27265			43387.38302		66.19600		324.00000 
 43692.65567		 686.20710			43006.44858		195.18600		875.00000 
 43692.65567		 305.27265			43387.38302		66.19600		324.00000 
 43692.65567		 686.20710			43006.44858		195.18600		875.00000 
 43692.65567		 305.27265			43387.38302		66.19600		324.00000 
 43692.65567		 686.20710			43006.44858		195.18600		875.00000 
 43692.65567		 305.27265			43387.38302		66.19600		324.00000 
 43692.65567		 686.20710			43006.44858		195.18600		875.00000 
 43692.65567		 305.27265			43387.38302		66.19600		324.00000 
 43692.65567		 686.20710			43006.44858		195.18600		875.00000 
 43692.65567		 305.27265			43387.38302		66.19600		324.00000 
 43692.65567		 686.20710			43006.44858		195.18600		875.00000 
 43692.65567		 305.27265			43387.38302		66.19600		324.00000 
 43692.65567		 686.20710			43006.44858		195.18600		875.00000 
 43692.65567		 305.27265			43387.38302		66.19600		324.00000 
 43692.65567		 686.20710			43006.44858		195.18600		875.00000 
 43692.65567		 305.27265			43387.38302		66.19600		324.00000 
 43692.65567		 686.20710			43006.44858		195.18600		875.00000 
 43692.65567		 305.27265			43387.38302		66.19600		324.00000 
 43692.65567		 686.20710			43006.44858		195.18600		875.00000 
 43692.65567		 305.27265			43387.38302		66.19600		324.00000 
 43692.65567		 686.20710			43006.44858		195.18600		875.00000 
 43692.65567		 305.27265			43387.38302		66.19600		324.00000 
 43692.65567		 686.20710			43006.44858		195.18600		875.00000 
 43692.65567		 305.27265			43387.38302		66.19600		324.00000 
 43692.65567		 686.20710			43006.44858		195.18600		875.00000 
 43692.65567		 305.27265			43387.38302		66.19600		324.00000 
 43692.65567		 686.20710			43006.44858		195.18600		875.00000 
 43692.65567		 305.27265			43387.38302		66.19600		324.00000 
 43692.65567		 686.20710			43006.44858		195.18600		875.00000 
 43692.65567		 305.27265			43387.38302		66.19600		324.00000 
 43692.65567		 686.20710			43006.44858		195.18600		875.00000 
 43692.65567		 305.27265			43387.38302		66.19600		324.00000 
 43692.65567		 686.20710			43006.44858		195.18600		875.00000 
 43692.65567		 305.27265			43387.38302		66.19600		324.00000 
 43692.65567		 686.20710			43006.44858		195.18600		875.00000 
 43692.65567		 305.27265			43387.38302		66.19600		324.00000 
 43692.65567		 686.20710			43006.44858		195.18600		875.00000 
 43692.65567		 305.27265			43387.38302		66.19600		324.00000 
 43692.65567		 686.20710			43006.44858		195.18600		875.00000 
 43692.65567		 305.27265			43387.38302		66.19600		324.00000 
 43692.65567		 686.20710			43006.44858		195.18600		875.00000 
 43692.65567		 305.27265			43387.38302		66.19600		324.00000 
 43692.65567		 686.20710			43006.44858		195.18600		875.00000 
 43692.65567		 305.27265			43387.38302		66.19600		324.00000 
 43692.65567		 686.20710			43006.44858		195.18600		875.00000 
 43692.65567		 305.27265			43387.38302		66.19600		324.00000 
 43692.65567		 686.20710			43006.44858		195.18600		875.00000 
 43692.65567		 305.27265			43387.38302		66.19600		324.00000 
 43692.65567		 686.20710			43006.44858		195.18600		875.00000 
 43692.65567		 305.27265			43387.38302		66.19600		324.00000 
 43692.65567		 686.20710			43006.44858		195.18600		875.00000 
 43692.65567		 305.27265			43387.38302		66.19600		324.00000 
 43692.65567		 686.20710			43006.44858		195.18600		875.00000 
 43692.65567		 305.27265			43387.38302		66.19600		324.00000 
 43692.65567		 686.20710			43006.44858		195.18600		875.00000 
 43692.65567		 305.27265			43387.38302		66.19600		324.00000 
 43692.65567		 686.20710			43006.44858		195.18600		875.00000 
 43692.65567		 305.27265			43387.38302		66.19600		324.00000 
 43692.65567		 686.20710			43006.44858		195.18600		875.00000 
 43692.65567		 305.27265			43387.38302		66.19600		324.00000 
 43692.65567		 686.20710			43006.44858		195.18600		875.00000 
 43692.65567		 305.27265			43387.38302		66.19600		324.00000 
 43692.65567		 686.20710			43006.44858		195.18600		875.00000 
 43692.65567		 305.27265			43387.38302		66.19600		324.00000 
 43692.65567		 686.20710			43006.44858		195.18600		875.00000 
 43692.65567		 305.27265			43387.38302		66.19600		324.00000 
 43692.65567		 686.20710			43006.44858		195.18600		875.00000 
 43692.65567		 305.27265			43387.38302		66.19600		324.00000 
 43692.65567		 686.20710			43006.44858		195.18600		875.00000 
 43692.65567		 305.27265			43387.38302		66.19600		324.00000 
 43692.65567		 686.20710			43006.44858		195.18600		875.00000 
 43692.65567		 305.27265			43387.38302		66.19600		324.00000 
 43692.65567		 686.20710			43006.44858		195.18600		875.00000 
 43692.65567		 305.27265			43387.38302		66.19600		324.00000 
 43692.65567		 686.20710			43006.44858		195.18600		875.00000 
 43692.65567		 305.27265			43387.38302		66.19600		324.00000 
 43692.65567		 686.20710			43006.44858		195.18600		875.00000 
 43692.65567		 305.27265			43387.38302		66.19600		324.00000 
 43692.65567		 686.20710			43006.44858		195.18600		875.00000 
 43692.65567		 305.27265			43387.38302		66.19600		324.00000 
 43692.65567		 686.20710			43006.44858		195.18600		875.00000 
 43692.65567		 305.27265			43387.38302		66.19600		324.00000 
 43692.65567		 686.20710			43006.44858		195.18600		875.00000 
 43692.65567		 305.27265			43387.38302		66.19600		324.00000 
 43692.65567		 686.20710			43006.44858		195.18600		875.00000 
 43692.65567		 305.27265			43387.38302		66.19600		324.00000 
 43692.65567		 686.20710			43006.44858		195.18600		875.00000 
 43692.65567		 305.27265			43387.38302		66.19600		324.00000 
 43692.65567		 686.20710			43006.44858		195.18600		875.00000 
 43692.65567		 305.27265			43387.38302		66.19600		324.00000 
 43692.65567		 686.20710			43006.44858		195.18600		875.00000 
 43692.65567		 305.27265			43387.38302		66.19600		324.00000 
 43692.65567		 686.20710			43006.44858		195.18600		875.00000 
 43692.65567		 305.27265			43387.38302		66.19600		324.00000 
 43692.65567		 686.20710			43006.44858		195.18600		875.00000 
 43692.65567		 305.27265			43387.38302		66.19600		324.00000 
 43692.65567		 686.20710			43006.44858		195.18600		875.00000 
 43692.65567		 305.27265			43387.38302		66.19600		324.00000 
 43692.65567		 686.20710			43006.44858		195.18600		875.00000 
 43692.65567		 305.27265			43387.38302		66.19600		324.00000 
 43692.65567		 686.20710			43006.44858		195.18600		875.00000 
 43692.65567		 305.27265			43387.38302		66.19600		324.00000 
 43692.65567		 686.20710			43006.44858		195.18600		875.00000 
 43692.65567		 305.27265			43387.38302		66.19600		324.00000 
 43692.65567		 686.20710			43006.44858		195.18600		875.00000 
 43692.65567		 305.27265			43387.38302		66.19600		324.00000 
 43692.65567		 686.20710			43006.44858		195.18600		875.00000 
 43692.65567		 305.27265			43387.38302		66.19600		324.00000 
 43692.65567		 686.20710			43006.44858		195.18600		875.00000 
 43692.65567		 305.27265			43387.38302		66.19600		324.00000 
 43692.65567		 686.20710			43006.44858		214.48400		875.00000 
 43692.65567		 305.27265			43387.38302		66.19600		324.00000 
 43692.65567		 686.20710			43006.44858		214.48400		875.00000 
 43692.65567		 305.27265			43387.38302		66.19600		324.00000 
 43692.65567		 686.20710			43006.44858		214.48400		875.00000 
 43692.65567		 305.27265			43387.38302		66.19600		324.00000 
 43692.65567		 686.20710			43006.44858		214.48400		875.00000 
 43692.65567		 305.27265			43387.38302		66.19600		324.00000 
 43692.65567		 686.20710			43006.44858		214.48400		875.00000 
 43692.65567		 305.27265			43387.38302		66.19600		324.00000 
 43692.65567		 686.20710			43006.44858		214.48400		875.00000 
 43692.65567		 305.27265			43387.38302		66.19600		324.00000 
 43692.65567		 686.20710			43006.44858		214.48400		875.00000 
 43692.65567		 305.27265			43387.38302		66.19600		324.00000 
 43692.65567		 686.20710			43006.44858		214.48400		875.00000 
 43692.65567		 305.27265			43387.38302		66.19600		324.00000 
 43692.65567		 686.20710			43006.44858		214.48400		875.00000 
 43692.65567		 305.27265			43387.38302		66.19600		324.00000 
 43692.65567		 686.20710			43006.44858		214.48400		875.00000 
 43692.65567		 305.27265			43387.38302		66.19600		324.00000 
 43692.65567		 686.20710			43006.44858		214.48400		875.00000 
 43692.65567		 305.27265			43387.38302		66.19600		324.00000 
 43692.65567		 686.20710			43006.44858		214.48400		875.00000 
 43692.65567		 305.27265			43387.38302		66.19600		324.00000 
 43692.65567		 686.20710			43006.44858		214.48400		875.00000 
 43692.65567		 305.27265			43387.38302		66.19600		324.00000 
 43692.65567		 686.20710			43006.44858		214.48400		875.00000 
 43692.65567		 305.27265			43387.38302		66.19600		324.00000 
 43692.65567		 686.20710			43006.44858		214.48400		875.00000 
 43692.65567		 305.27265			43387.38302		66.19600		324.00000 
 43692.65567		 686.20710			43006.44858		214.48400		875.00000 
 43692.65567		 305.27265			43387.38302		66.19600		324.00000 
 43692.65567		 686.20710			43006.44858		214.48400		875.00000 
 43692.65567		 305.27265			43387.38302		66.19600		324.00000 
 43692.65567		 686.20710			43006.44858		214.48400		875.00000 
 43692.65567		 305.27265			43387.38302		66.19600		324.00000 
 43692.65567		 686.20710			43006.44858		214.48400		875.00000 
 43692.65567		 305.27265			43387.38302		66.19600		324.00000 
 43692.65567		 686.20710			43006.44858		214.48400		875.00000 
 43692.65567		 305.27265			43387.38302		66.19600		324.00000 
 43692.65567		 686.20710			43006.44858		214.48400		875.00000 
 43692.65567		 305.27265			43387.38302		66.19600		324.00000 
 43692.65567		 686.20710			43006.44858		214.48400		875.00000 
 43692.65567		 305.27265			43387.38302		66.19600		324.00000 
 43692.65567		 686.20710			43006.44858		214.48400		875.00000 
 43692.65567		 305.27265			43387.38302		66.19600		324.00000 
 43692.65567		 686.20710			43006.44858		214.48400		875.00000 
 43692.65567		 305.27265			43387.38302		66.19600		324.00000 
 43692.65567		 686.20710			43006.44858		214.48400		875.00000 
 43692.65567		 305.27265			43387.38302		66.19600		324.00000 
 43692.65567		 686.20710			43006.44858		214.48400		875.00000 
 43692.65567		 305.27265			43387.38302		66.19600		324.00000 
 43692.65567		 686.20710			43006.44858		214.48400		875.00000 
 43692.65567		 305.27265			43387.38302		66.19600		324.00000 
 43692.65567		 686.20710			43006.44858		214.48400		875.00000 
 43692.65567		 305.27265			43387.38302		66.19600		324.00000 
 43692.65567		 686.20710			43006.44858		214.48400		875.00000 
 43692.65567		 305.27265			43387.38302		66.19600		324.00000 
 43692.65567		 686.20710			43006.44858		214.48400		875.00000 
 43692.65567		 305.27265			43387.38302		66.19600		324.00000 
 43692.65567		 686.20710			43006.44858		214.48400		875.00000 
 43692.65567		 305.27265			43387.38302		66.19600		324.00000 
 43692.65567		 686.20710			43006.44858		214.48400		875.00000 
 43692.65567		 305.27265			43387.38302		66.19600		324.00000 
 43692.65567		 686.20710			43006.44858		214.48400		875.00000 
 43692.65567		 305.27265			43387.38302		66.19600		324.00000 
 43692.65567		 686.20710			43006.44858		214.48400		875.00000 
 43692.65567		 305.27265			43387.38302		66.19600		324.00000 
 43692.65567		 686.20710			43006.44858		214.48400		875.00000 
 43692.65567		 305.27265			43387.38302		66.19600		324.00000 
 43692.65567		 686.20710			43006.44858		214.48400		875.00000 
 43692.65567		 305.27265			43387.38302		66.19600		324.00000 
 43692.65567		 686.20710			43006.44858		214.48400		875.00000 
 43692.65567		 305.27265			43387.38302		66.19600		324.00000 
 43692.65567		 686.20710			43006.44858		214.48400		875.00000 
 43692.65567		 305.27265			43387.38302		66.19600		324.00000 
 43692.65567		 686.20710			43006.44858		214.48400		875.00000 
 43692.65567		 305.27265			43387.38302		66.19600		324.00000 
 43692.65567		 686.20710			43006.44858		214.48400		875.00000 
 43692.65567		 305.27265			43387.38302		66.19600		324.00000 
 43692.65567		 686.20710			43006.44858		214.48400		875.00000 
 43692.65567		 305.27265			43387.38302		66.19600		324.00000 
 43692.65567		 686.20710			43006.44858		214.48400		875.00000 
 43692.65567		 305.27265			43387.38302		66.19600		324.00000 
 43692.65567		 686.20710			43006.44858		214.48400		875.00000 
 43692.65567		 305.27265			43387.38302		66.19600		324.00000 
 43692.65567		 686.20710			43006.44858		214.48400		875.00000 
 43692.65567		 305.27265			43387.38302		66.19600		324.00000 
 43692.65567		 686.20710			43006.44858		214.48400		875.00000 
 43692.65567		 305.27265			43387.38302		66.19600		324.00000 
 43692.65567		 686.20710			43006.44858		214.48400		875.00000 
 43692.65567		 305.27265			43387.38302		66.19600		324.00000 
 43692.65567		 686.20710			43006.44858		214.48400		875.00000 
 43692.65567		 305.27265			43387.38302		66.19600		324.00000 
 43692.65567		 686.20710			43006.44858		214.48400		875.00000 
 43692.65567		 305.27265			43387.38302		66.19600		324.00000 
 43692.65567		 686.20710			43006.44858		214.48400		875.00000 
 43692.65567		 305.27265			43387.38302		66.19600		324.00000 
 43692.65567		 686.20710			43006.44858		214.48400		875.00000 
 43692.65567		 305.27265			43387.38302		66.19600		324.00000 
 43692.65567		 686.20710			43006.44858		214.48400		875.00000 
 43692.65567		 305.27265			43387.38302		66.19600		324.00000 
 43692.65567		 686.20710			43006.44858		214.48400		875.00000 
 43692.65567		 305.27265			43387.38302		66.19600		324.00000 
 43692.65567		 686.20710			43006.44858		214.48400		875.00000 
 43692.65567		 305.27265			43387.38302		66.19600		324.00000 
 43692.65567		 686.20710			43006.44858		214.48400		875.00000 
 43692.65567		 305.27265			43387.38302		66.19600		324.00000 
 43692.65567		 686.20710			43006.44858		214.48400		875.00000 
 43692.65567		 305.27265			43387.38302		66.19600		324.00000 
 43692.65567		 686.20710			43006.44858		214.48400		875.00000 
 43692.65567		 305.27265			43387.38302		66.19600		324.00000 
 43692.65567		 686.20710			43006.44858		214.48400		875.00000 
 43692.65567		 305.27265			43387.38302		66.19600		324.00000 
 43692.65567		 686.20710			43006.44858		214.48400		875.00000 
 43692.65567		 305.27265			43387.38302		66.19600		324.00000 
 43692.65567		 686.20710			43006.44858		214.48400		875.00000 
 43692.65567		 305.27265			43387.38302		66.19600		324.00000 
 43692.65567		 686.20710			43006.44858		214.48400		875.00000 
 43692.65567		 305.27265			43387.38302		66.19600		324.00000 
 43692.65567		 686.20710			43006.44858		214.48400		875.00000 
 43692.65567		 305.27265			43387.38302		66.19600		324.00000 
 43692.65567		 686.20710			43006.44858		214.48400		875.00000 
 43692.65567		 305.27265			43387.38302		66.19600		324.00000 
 43692.65567		 686.20710			43006.44858		214.48400		875.00000 
 43692.65567		 305.27265			43387.38302		66.19600		324.00000 
 43692.65567		 686.20710			43006.44858		214.48400		875.00000 
 43692.65567		 305.27265			43387.38302		66.19600		324.00000 
 43692.65567		 686.20710			43006.44858		222.40600		875.00000 
 43692.65567		 305.27265			43387.38302		66.19600		324.00000 
 43692.65567		 686.20710			43006.44858		222.40600		875.00000 
 43692.65567		 305.27265			43387.38302		66.19600		324.00000 
 43692.65567		 686.20710			43006.44858		222.40600		875.00000 
 43692.65567		 305.27265			43387.38302		66.19600		324.00000 
 43692.65567		 686.20710			43006.44858		222.40600		875.00000 
 43692.65567		 305.27265			43387.38302		66.19600		324.00000 
 43692.65567		 686.20710			43006.44858		222.40600		875.00000 
 43692.65567		 305.27265			43387.38302		66.19600		324.00000 
 43692.65567		 686.20710			43006.44858		222.40600		875.00000 
 43692.65567		 305.27265			43387.38302		66.19600		324.00000 
 43692.65567		 686.20710			43006.44858		222.40600		875.00000 
 43692.65567		 305.27265			43387.38302		66.19600		324.00000 
 43692.65567		 686.20710			43006.44858		222.40600		875.00000 
 43692.65567		 305.27265			43387.38302		66.19600		324.00000 
 43692.65567		 686.20710			43006.44858		222.40600		875.00000 
 43692.65567		 305.27265			43387.38302		66.19600		324.00000 
 43692.65567		 686.20710			43006.44858		222.40600		875.00000 
 43692.65567		 305.27265			43387.38302		66.19600		324.00000 
 43692.65567		 686.20710			43006.44858		222.40600		875.00000 
 43692.65567		 305.27265			43387.38302		66.19600		324.00000 
 43692.65567		 686.20710			43006.44858		222.40600		875.00000 
 43692.65567		 305.27265			43387.38302		66.19600		324.00000 
 43692.65567		 686.20710			43006.44858		222.40600		875.00000 
 43692.65567		 305.27265			43387.38302		66.19600		324.00000 
 43692.65567		 686.20710			43006.44858		222.40600		875.00000 
 43692.65567		 305.27265			43387.38302		66.19600		324.00000 
 43692.65567		 686.20710			43006.44858		222.40600		875.00000 
 43692.65567		 305.27265			43387.38302		66.19600		324.00000 
 43692.65567		 686.20710			43006.44858		222.40600		875.00000 
 43692.65567		 305.27265			43387.38302		66.19600		324.00000 
 43692.65567		 686.20710			43006.44858		222.40600		875.00000 
 43692.65567		 305.27265			43387.38302		66.19600		324.00000 
 43692.65567		 686.20710			43006.44858		222.40600		875.00000 
 43692.65567		 305.27265			43387.38302		66.19600		324.00000 
 43692.65567		 686.20710			43006.44858		222.40600		875.00000 
 43692.65567		 305.27265			43387.38302		66.19600		324.00000 
 43692.65567		 686.20710			43006.44858		222.40600		875.00000 
 43692.65567		 305.27265			43387.38302		66.19600		324.00000 
 43692.65567		 686.20710			43006.44858		222.40600		875.00000 
 43692.65567		 305.27265			43387.38302		66.19600		324.00000 
 43692.65567		 686.20710			43006.44858		222.40600		875.00000 
 43692.65567		 305.27265			43387.38302		66.19600		324.00000 
 43692.65567		 686.20710			43006.44858		222.40600		875.00000 
 43692.65567		 305.27265			43387.38302		66.19600		324.00000 
 43692.65567		 686.20710			43006.44858		222.40600		875.00000 
 43692.65567		 305.27265			43387.38302		66.19600		324.00000 
 43692.65567		 686.20710			43006.44858		222.40600		875.00000 
 43692.65567		 305.27265			43387.38302		66.19600		324.00000 
 43692.65567		 686.20710			43006.44858		222.40600		875.00000 
 43692.65567		 305.27265			43387.38302		66.19600		324.00000 
 43692.65567		 686.20710			43006.44858		222.40600		875.00000 
 43692.65567		 305.27265			43387.38302		66.19600		324.00000 
 43692.65567		 686.20710			43006.44858		222.40600		875.00000 
 43692.65567		 305.27265			43387.38302		66.19600		324.00000 
 43692.65567		 686.20710			43006.44858		222.40600		875.00000 
 43692.65567		 305.27265			43387.38302		66.19600		324.00000 
 43692.65567		 686.20710			43006.44858		222.40600		875.00000 
 43692.65567		 305.27265			43387.38302		66.19600		324.00000 
 43692.65567		 686.20710			43006.44858		222.40600		875.00000 
 43692.65567		 305.27265			43387.38302		66.19600		324.00000 
 43692.65567		 686.20710			43006.44858		222.40600		875.00000 
 43692.65567		 305.27265			43387.38302		66.19600		324.00000 
 43692.65567		 686.20710			43006.44858		222.40600		875.00000 
 43692.65567		 305.27265			43387.38302		66.19600		324.00000 
 43692.65567		 686.20710			43006.44858		222.40600		875.00000 
 43692.65567		 305.27265			43387.38302		66.19600		324.00000 
 43692.65567		 686.20710			43006.44858		222.40600		875.00000 
 43692.65567		 305.27265			43387.38302		66.19600		324.00000 
 43692.65567		 686.20710			43006.44858		222.40600		875.00000 
 43692.65567		 305.27265			43387.38302		66.19600		324.00000 
 43692.65567		 686.20710			43006.44858		222.40600		875.00000 
 43692.65567		 305.27265			43387.38302		66.19600		324.00000 
 43692.65567		 686.20710			43006.44858		222.40600		875.00000 
 43692.65567		 305.27265			43387.38302		66.19600		324.00000 
 43692.65567		 686.20710			43006.44858		222.40600		875.00000 
 43692.65567		 305.27265			43387.38302		66.19600		324.00000 
 43692.65567		 686.20710			43006.44858		222.40600		875.00000 
 43692.65567		 305.27265			43387.38302		66.19600		324.00000 
 43692.65567		 686.20710			43006.44858		222.40600		875.00000 
 43692.65567		 305.27265			43387.38302		66.19600		324.00000 
 43692.65567		 686.20710			43006.44858		222.40600		875.00000 
 43692.65567		 305.27265			43387.38302		66.19600		324.00000 
 43692.65567		 686.20710			43006.44858		222.40600		875.00000 
 43692.65567		 305.27265			43387.38302		66.19600		324.00000 
 43692.65567		 686.20710			43006.44858		222.40600		875.00000 
 43692.65567		 305.27265			43387.38302		66.19600		324.00000 
 43692.65567		 686.20710			43006.44858		222.40600		875.00000 
 43692.65567		 305.27265			43387.38302		66.19600		324.00000 
 43692.65567		 686.20710			43006.44858		222.40600		875.00000 
 43692.65567		 305.27265			43387.38302		66.19600		324.00000 
 43692.65567		 686.20710			43006.44858		222.40600		875.00000 
 43692.65567		 305.27265			43387.38302		66.19600		324.00000 
 43692.65567		 686.20710			43006.44858		222.40600		875.00000 
 43692.65567		 305.27265			43387.38302		66.19600		324.00000 
 43692.65567		 686.20710			43006.44858		222.40600		875.00000 
 43692.65567		 305.27265			43387.38302		66.19600		324.00000 
 43692.65567		 686.20710			43006.44858		222.40600		875.00000 
 43692.65567		 305.27265			43387.38302		66.19600		324.00000 
 43692.65567		 686.20710			43006.44858		222.40600		875.00000 
 43692.65567		 305.27265			43387.38302		66.19600		324.00000 
 43692.65567		 686.20710			43006.44858		222.40600		875.00000 
 43692.65567		 305.27265			43387.38302		66.19600		324.00000 
 43692.65567		 686.20710			43006.44858		222.40600		875.00000 
 43692.65567		 305.27265			43387.38302		66.19600		324.00000 
 43692.65567		 686.20710			43006.44858		222.40600		875.00000 
 43692.65567		 305.27265			43387.38302		66.19600		324.00000 
 43692.65567		 686.20710			43006.44858		222.40600		875.00000 
 43692.65567		 305.27265			43387.38302		66.19600		324.00000 
 43692.65567		 686.20710			43006.44858		222.40600		875.00000 
 43692.65567		 305.27265			43387.38302		66.19600		324.00000 
 43692.65567		 686.20710			43006.44858		222.40600		875.00000 
 43692.65567		 305.27265			43387.38302		66.19600		324.00000 
 43692.65567		 686.20710			43006.44858		222.40600		875.00000 
 43692.65567		 305.27265			43387.38302		66.19600		324.00000 
 43692.65567		 686.20710			43006.44858		222.40600		875.00000 
 43692.65567		 305.27265			43387.38302		66.19600		324.00000 
 43692.65567		 686.20710			43006.44858		222.40600		875.00000 
 43692.65567		 305.27265			43387.38302		66.19600		324.00000 
 43692.65567		 686.20710			43006.44858		222.40600		875.00000 
 43692.65567		 305.27265			43387.38302		66.19600		324.00000 
 43692.65567		 686.20710			43006.44858		222.40600		875.00000 
 43692.65567		 305.27265			43387.38302		66.19600		324.00000 
 43692.65567		 686.20710			43006.44858		222.40600		875.00000 
 43692.65567		 305.27265			43387.38302		66.19600		324.00000 
 43692.65567		 686.20710			43006.44858		222.40600		875.00000 
 43692.65567		 305.27265			43387.38302		66.19600		324.00000 
 43692.65567		 686.20710			43006.44858		223.81000		875.00000 
 43692.65567		 305.27265			43387.38302		66.19600		324.00000 
 43692.65567		 686.20710			43006.44858		223.81000		875.00000 
 43692.65567		 305.27265			43387.38302		66.19600		324.00000 
 43692.65567		 686.20710			43006.44858		223.81000		875.00000 
 43692.65567		 305.27265			43387.38302		66.19600		324.00000 
 43692.65567		 686.20710			43006.44858		223.81000		875.00000 
 43692.65567		 305.27265			43387.38302		66.19600		324.00000 
 43692.65567		 686.20710			43006.44858		223.81000		875.00000 
 43692.65567		 305.27265			43387.38302		66.19600		324.00000 
 43692.65567		 686.20710			43006.44858		223.81000		875.00000 
 43692.65567		 305.27265			43387.38302		66.19600		324.00000 
 43692.65567		 686.20710			43006.44858		223.81000		875.00000 
 43692.65567		 305.27265			43387.38302		66.19600		324.00000 
 43692.65567		 686.20710			43006.44858		223.81000		875.00000 
 43692.65567		 305.27265			43387.38302		66.19600		324.00000 
 43692.65567		 686.20710			43006.44858		223.81000		875.00000 
 43692.65567		 305.27265			43387.38302		66.19600		324.00000 
 43692.65567		 686.20710			43006.44858		223.81000		875.00000 
 43692.65567		 305.27265			43387.38302		66.19600		324.00000 
 43692.65567		 686.20710			43006.44858		223.81000		875.00000 
 43692.65567		 305.27265			43387.38302		66.19600		324.00000 
 43692.65567		 686.20710			43006.44858		223.81000		875.00000 
 43692.65567		 305.27265			43387.38302		66.19600		324.00000 
 43692.65567		 686.20710			43006.44858		223.81000		875.00000 
 43692.65567		 305.27265			43387.38302		66.19600		324.00000 
 43692.65567		 686.20710			43006.44858		223.81000		875.00000 
 43692.65567		 305.27265			43387.38302		66.19600		324.00000 
 43692.65567		 686.20710			43006.44858		223.81000		875.00000 
 43692.65567		 305.27265			43387.38302		66.19600		324.00000 
 43692.65567		 686.20710			43006.44858		223.81000		875.00000 
 43692.65567		 305.27265			43387.38302		66.19600		324.00000 
 43692.65567		 686.20710			43006.44858		223.81000		875.00000 
 43692.65567		 305.27265			43387.38302		66.19600		324.00000 
 43692.65567		 686.20710			43006.44858		223.81000		875.00000 
 43692.65567		 305.27265			43387.38302		66.19600		324.00000 
 43692.65567		 686.20710			43006.44858		223.81000		875.00000 
 43692.65567		 305.27265			43387.38302		66.19600		324.00000 
 43692.65567		 686.20710			43006.44858		223.81000		875.00000 
 43692.65567		 305.27265			43387.38302		66.19600		324.00000 
 43692.65567		 686.20710			43006.44858		223.81000		875.00000 
 43692.65567		 305.27265			43387.38302		66.19600		324.00000 
 43692.65567		 686.20710			43006.44858		223.81000		875.00000 
 43692.65567		 305.27265			43387.38302		66.19600		324.00000 
 43692.65567		 686.20710			43006.44858		223.81000		875.00000 
 43692.65567		 305.27265			43387.38302		66.19600		324.00000 
 43692.65567		 686.20710			43006.44858		223.81000		875.00000 
 43692.65567		 305.27265			43387.38302		66.19600		324.00000 
 43692.65567		 686.20710			43006.44858		223.81000		875.00000 
 43692.65567		 305.27265			43387.38302		66.19600		324.00000 
 43692.65567		 686.20710			43006.44858		223.81000		875.00000 
 43692.65567		 305.27265			43387.38302		66.19600		324.00000 
 43692.65567		 686.20710			43006.44858		223.81000		875.00000 
 43692.65567		 305.27265			43387.38302		66.19600		324.00000 
 43692.65567		 686.20710			43006.44858		223.81000		875.00000 
 43692.65567		 305.27265			43387.38302		66.19600		324.00000 
 43692.65567		 686.20710			43006.44858		223.81000		875.00000 
 43692.65567		 305.27265			43387.38302		66.19600		324.00000 
 43692.65567		 686.20710			43006.44858		223.81000		875.00000 
 43692.65567		 305.27265			43387.38302		66.19600		324.00000 
 43692.65567		 686.20710			43006.44858		223.81000		875.00000 
 43692.65567		 305.27265			43387.38302		66.19600		324.00000 
 43692.65567		 686.20710			43006.44858		223.81000		875.00000 
 43692.65567		 305.27265			43387.38302		66.19600		324.00000 
 43692.65567		 686.20710			43006.44858		223.81000		875.00000 
 43692.65567		 305.27265			43387.38302		66.19600		324.00000 
 43692.65567		 686.20710			43006.44858		223.81000		875.00000 
 43692.65567		 305.27265			43387.38302		66.19600		324.00000 
 43692.65567		 686.20710			43006.44858		223.81000		875.00000 
 43692.65567		 305.27265			43387.38302		66.19600		324.00000 
 43692.65567		 686.20710			43006.44858		223.81000		875.00000 
 43692.65567		 305.27265			43387.38302		66.19600		324.00000 
 43692.65567		 686.20710			43006.44858		223.81000		875.00000 
 43692.65567		 305.27265			43387.38302		66.19600		324.00000 
 43692.65567		 686.20710			43006.44858		223.81000		875.00000 
 43692.65567		 305.27265			43387.38302		66.19600		324.00000 
 43692.65567		 686.20710			43006.44858		223.81000		875.00000 
 43692.65567		 305.27265			43387.38302		66.19600		324.00000 
 43692.65567		 686.20710			43006.44858		223.81000		875.00000 
 43692.65567		 305.27265			43387.38302		66.19600		324.00000 
 43692.65567		 686.20710			43006.44858		223.81000		875.00000 
 43692.65567		 305.27265			43387.38302		66.19600		324.00000 
 43692.65567		 686.20710			43006.44858		223.81000		875.00000 
 43692.65567		 305.27265			43387.38302		66.19600		324.00000 
 43692.65567		 686.20710			43006.44858		223.81000		875.00000 
 43692.65567		 305.27265			43387.38302		66.19600		324.00000 
 43692.65567		 686.20710			43006.44858		223.81000		875.00000 
 43692.65567		 305.27265			43387.38302		66.19600		324.00000 
 43692.65567		 686.20710			43006.44858		223.81000		875.00000 
 43692.65567		 305.27265			43387.38302		66.19600		324.00000 
 43692.65567		 686.20710			43006.44858		223.81000		875.00000 
 43692.65567		 305.27265			43387.38302		66.19600		324.00000 
 43692.65567		 686.20710			43006.44858		223.81000		875.00000 
 43692.65567		 305.27265			43387.38302		66.19600		324.00000 
 43692.65567		 686.20710			43006.44858		223.81000		875.00000 
 43692.65567		 305.27265			43387.38302		66.19600		324.00000 
 43692.65567		 686.20710			43006.44858		223.81000		875.00000 
 43692.65567		 305.27265			43387.38302		66.19600		324.00000 
 43692.65567		 686.20710			43006.44858		223.81000		875.00000 
 43692.65567		 305.27265			43387.38302		66.19600		324.00000 
 43692.65567		 686.20710			43006.44858		223.81000		875.00000 
 43692.65567		 305.27265			43387.38302		66.19600		324.00000 
 43692.65567		 686.20710			43006.44858		223.81000		875.00000 
 43692.65567		 305.27265			43387.38302		66.19600		324.00000 
 43692.65567		 686.20710			43006.44858		223.81000		875.00000 
 43692.65567		 305.27265			43387.38302		66.19600		324.00000 
 43692.65567		 686.20710			43006.44858		223.81000		875.00000 
 43692.65567		 305.27265			43387.38302		66.19600		324.00000 
 43692.65567		 686.20710			43006.44858		223.81000		875.00000 
 43692.65567		 305.27265			43387.38302		66.19600		324.00000 
 43692.65567		 686.20710			43006.44858		223.81000		875.00000 
 43692.65567		 305.27265			43387.38302		66.19600		324.00000 
 43692.65567		 686.20710			43006.44858		223.81000		875.00000 
 43692.65567		 305.27265			43387.38302		66.19600		324.00000 
 43692.65567		 686.20710			43006.44858		223.81000		875.00000 
 43692.65567		 305.27265			43387.38302		66.19600		324.00000 
 43692.65567		 686.20710			43006.44858		223.81000		875.00000 
 43692.65567		 305.27265			43387.38302		66.19600		324.00000 
 43692.65567		 686.20710			43006.44858		223.81000		875.00000 
 43692.65567		 305.27265			43387.38302		66.19600		324.00000 
 43692.65567		 686.20710			43006.44858		223.81000		875.00000 
 43692.65567		 305.27265			43387.38302		66.19600		324.00000 
 43692.65567		 686.20710			43006.44858		223.81000		875.00000 
 43692.65567		 305.27265			43387.38302		66.19600		324.00000 
 43692.65567		 686.20710			43006.44858		223.81000		875.00000 
 43692.65567		 305.27265			43387.38302		66.19600		324.00000 
 43692.65567		 686.20710			43006.44858		223.81000		875.00000 
 43692.65567		 305.27265			43387.38302		66.19600		324.00000 
 43692.65567		 686.20710			43006.44858		225.58400		875.00000 
 43692.65567		 305.27265			43387.38302		66.19600		324.00000 
 43692.65567		 686.20710			43006.44858		225.58400		875.00000 
 43692.65567		 305.27265			43387.38302		66.19600		324.00000 
 43692.65567		 686.20710			43006.44858		225.58400		875.00000 
 43692.65567		 305.27265			43387.38302		66.19600		324.00000 
 43692.65567		 686.20710			43006.44858		225.58400		875.00000 
 43692.65567		 305.27265			43387.38302		66.19600		324.00000 
 43692.65567		 686.20710			43006.44858		225.58400		875.00000 
 43692.65567		 305.27265			43387.38302		66.19600		324.00000 
 43692.65567		 686.20710			43006.44858		225.58400		875.00000 
 43692.65567		 305.27265			43387.38302		66.19600		324.00000 
 43692.65567		 686.20710			43006.44858		225.58400		875.00000 
 43692.65567		 305.27265			43387.38302		66.19600		324.00000 
 43692.65567		 686.20710			43006.44858		225.58400		875.00000 
 43692.65567		 305.27265			43387.38302		66.19600		324.00000 
 43692.65567		 686.20710			43006.44858		225.58400		875.00000 
 43692.65567		 305.27265			43387.38302		66.19600		324.00000 
 43692.65567		 686.20710			43006.44858		225.58400		875.00000 
 43692.65567		 305.27265			43387.38302		66.19600		324.00000 
 43692.65567		 686.20710			43006.44858		225.58400		875.00000 
 43692.65567		 305.27265			43387.38302		66.19600		324.00000 
 43692.65567		 686.20710			43006.44858		225.58400		875.00000 
 43692.65567		 305.27265			43387.38302		66.19600		324.00000 
 43692.65567		 686.20710			43006.44858		225.58400		875.00000 
 43692.65567		 305.27265			43387.38302		66.19600		324.00000 
 43692.65567		 686.20710			43006.44858		225.58400		875.00000 
 43692.65567		 305.27265			43387.38302		66.19600		324.00000 
 43692.65567		 686.20710			43006.44858		225.58400		875.00000 
 43692.65567		 305.27265			43387.38302		66.19600		324.00000 
 43692.65567		 686.20710			43006.44858		225.58400		875.00000 
 43692.65567		 305.27265			43387.38302		66.19600		324.00000 
 43692.65567		 686.20710			43006.44858		225.58400		875.00000 
 43692.65567		 305.27265			43387.38302		66.19600		324.00000 
 43692.65567		 686.20710			43006.44858		225.58400		875.00000 
 43692.65567		 305.27265			43387.38302		66.19600		324.00000 
 43692.65567		 686.20710			43006.44858		225.58400		875.00000 
 43692.65567		 305.27265			43387.38302		66.19600		324.00000 
 43692.65567		 686.20710			43006.44858		225.58400		875.00000 
 43692.65567		 305.27265			43387.38302		66.19600		324.00000 
 43692.65567		 686.20710			43006.44858		225.58400		875.00000 
 43692.65567		 305.27265			43387.38302		66.19600		324.00000 
 43692.65567		 686.20710			43006.44858		225.58400		875.00000 
 43692.65567		 305.27265			43387.38302		66.19600		324.00000 
 43692.65567		 686.20710			43006.44858		225.58400		875.00000 
 43692.65567		 305.27265			43387.38302		66.19600		324.00000 
 43692.65567		 686.20710			43006.44858		225.58400		875.00000 
 43692.65567		 305.27265			43387.38302		66.19600		324.00000 
 43692.65567		 686.20710			43006.44858		225.58400		875.00000 
 43692.65567		 305.27265			43387.38302		66.19600		324.00000 
 43692.65567		 686.20710			43006.44858		225.58400		875.00000 
 43692.65567		 305.27265			43387.38302		66.19600		324.00000 
 43692.65567		 686.20710			43006.44858		225.58400		875.00000 
 43692.65567		 305.27265			43387.38302		66.19600		324.00000 
 43692.65567		 686.20710			43006.44858		225.58400		875.00000 
 43692.65567		 305.27265			43387.38302		66.19600		324.00000 
 43692.65567		 686.20710			43006.44858		225.58400		875.00000 
 43692.65567		 305.27265			43387.38302		66.19600		324.00000 
 43692.65567		 686.20710			43006.44858		225.58400		875.00000 
 43692.65567		 305.27265			43387.38302		66.19600		324.00000 
 43692.65567		 686.20710			43006.44858		225.58400		875.00000 
 43692.65567		 305.27265			43387.38302		66.19600		324.00000 
 43692.65567		 686.20710			43006.44858		225.58400		875.00000 
 43692.65567		 305.27265			43387.38302		66.19600		324.00000 
 43692.65567		 686.20710			43006.44858		225.58400		875.00000 
 43692.65567		 305.27265			43387.38302		66.19600		324.00000 
 43692.65567		 686.20710			43006.44858		225.58400		875.00000 
 43692.65567		 305.27265			43387.38302		66.19600		324.00000 
 43692.65567		 686.20710			43006.44858		225.58400		875.00000 
 43692.65567		 305.27265			43387.38302		66.19600		324.00000 
 43692.65567		 686.20710			43006.44858		225.58400		875.00000 
 43692.65567		 305.27265			43387.38302		66.19600		324.00000 
 43692.65567		 686.20710			43006.44858		225.58400		875.00000 
 43692.65567		 305.27265			43387.38302		66.19600		324.00000 
 43692.65567		 686.20710			43006.44858		225.58400		875.00000 
 43692.65567		 305.27265			43387.38302		66.19600		324.00000 
 43692.65567		 686.20710			43006.44858		225.58400		875.00000 
 43692.65567		 305.27265			43387.38302		66.19600		324.00000 
 43692.65567		 686.20710			43006.44858		225.58400		875.00000 
 43692.65567		 305.27265			43387.38302		66.19600		324.00000 
 43692.65567		 686.20710			43006.44858		225.58400		875.00000 
 43692.65567		 305.27265			43387.38302		66.19600		324.00000 
 43692.65567		 686.20710			43006.44858		225.58400		875.00000 
 43692.65567		 305.27265			43387.38302		66.19600		324.00000 
 43692.65567		 686.20710			43006.44858		225.58400		875.00000 
 43692.65567		 305.27265			43387.38302		66.19600		324.00000 
 43692.65567		 686.20710			43006.44858		225.58400		875.00000 
 43692.65567		 305.27265			43387.38302		66.19600		324.00000 
 43692.65567		 686.20710			43006.44858		225.58400		875.00000 
 43692.65567		 305.27265			43387.38302		66.19600		324.00000 
 43692.65567		 686.20710			43006.44858		225.58400		875.00000 
 43692.65567		 305.27265			43387.38302		66.19600		324.00000 
 43692.65567		 686.20710			43006.44858		225.58400		875.00000 
 43692.65567		 305.27265			43387.38302		66.19600		324.00000 
 43692.65567		 686.20710			43006.44858		225.58400		875.00000 
 43692.65567		 305.27265			43387.38302		66.19600		324.00000 
 43692.65567		 686.20710			43006.44858		225.58400		875.00000 
 43692.65567		 305.27265			43387.38302		66.19600		324.00000 
 43692.65567		 686.20710			43006.44858		225.58400		875.00000 
 43692.65567		 305.27265			43387.38302		66.19600		324.00000 
 43692.65567		 686.20710			43006.44858		225.58400		875.00000 
 43692.65567		 305.27265			43387.38302		66.19600		324.00000 
 43692.65567		 686.20710			43006.44858		225.58400		875.00000 
 43692.65567		 305.27265			43387.38302		66.19600		324.00000 
 43692.65567		 686.20710			43006.44858		225.58400		875.00000 
 43692.65567		 305.27265			43387.38302		66.19600		324.00000 
 43692.65567		 686.20710			43006.44858		225.58400		875.00000 
 43692.65567		 305.27265			43387.38302		66.19600		324.00000 
 43692.65567		 686.20710			43006.44858		225.58400		875.00000 
 43692.65567		 305.27265			43387.38302		66.19600		324.00000 
 43692.65567		 686.20710			43006.44858		225.58400		875.00000 
 43692.65567		 305.27265			43387.38302		66.19600		324.00000 
 43692.65567		 686.20710			43006.44858		225.58400		875.00000 
 43692.65567		 305.27265			43387.38302		66.19600		324.00000 
 43692.65567		 686.20710			43006.44858		225.58400		875.00000 
 43692.65567		 305.27265			43387.38302		66.19600		324.00000 
 43692.65567		 686.20710			43006.44858		225.58400		875.00000 
 43692.65567		 305.27265			43387.38302		66.19600		324.00000 
 43692.65567		 686.20710			43006.44858		225.58400		875.00000 
 43692.65567		 305.27265			43387.38302		66.19600		324.00000 
 43692.65567		 686.20710			43006.44858		225.58400		875.00000 
 43692.65567		 305.27265			43387.38302		66.19600		324.00000 
 43692.65567		 686.20710			43006.44858		225.58400		875.00000 
 43692.65567		 305.27265			43387.38302		66.19600		324.00000 
 43692.65567		 686.20710			43006.44858		225.58400		875.00000 
 43692.65567		 305.27265			43387.38302		66.19600		324.00000 
 43692.65567		 686.20710			43006.44858		225.58400		875.00000 
 43692.65567		 305.27265			43387.38302		66.19600		324.00000 
 43692.65567		 686.20710			43006.44858		224.98400		875.00000 
 43692.65567		 305.27265			43387.38302		66.19600		324.00000 
 43692.65567		 686.20710			43006.44858		224.98400		875.00000 
 43692.65567		 305.27265			43387.38302		66.19600		324.00000 
 43692.65567		 686.20710			43006.44858		224.98400		875.00000 
 43692.65567		 305.27265			43387.38302		66.19600		324.00000 
 43692.65567		 686.20710			43006.44858		224.98400		875.00000 
 43692.65567		 305.27265			43387.38302		66.19600		324.00000 
 43692.65567		 686.20710			43006.44858		224.98400		875.00000 
 43692.65567		 305.27265			43387.38302		66.19600		324.00000 
 43692.65567		 686.20710			43006.44858		224.98400		875.00000 
 43692.65567		 305.27265			43387.38302		66.19600		324.00000 
 43692.65567		 686.20710			43006.44858		224.98400		875.00000 
 43692.65567		 305.27265			43387.38302		66.19600		324.00000 
 43692.65567		 686.20710			43006.44858		224.98400		875.00000 
 43692.65567		 305.27265			43387.38302		66.19600		324.00000 
 43692.65567		 686.20710			43006.44858		224.98400		875.00000 
 43692.65567		 305.27265			43387.38302		66.19600		324.00000 
 43692.65567		 686.20710			43006.44858		224.98400		875.00000 
 43692.65567		 305.27265			43387.38302		66.19600		324.00000 
 43692.65567		 686.20710			43006.44858		224.98400		875.00000 
 43692.65567		 305.27265			43387.38302		66.19600		324.00000 
 43692.65567		 686.20710			43006.44858		224.98400		875.00000 
 43692.65567		 305.27265			43387.38302		66.19600		324.00000 
 43692.65567		 686.20710			43006.44858		224.98400		875.00000 
 43692.65567		 305.27265			43387.38302		66.19600		324.00000 
 43692.65567		 686.20710			43006.44858		224.98400		875.00000 
 43692.65567		 305.27265			43387.38302		66.19600		324.00000 
 43692.65567		 686.20710			43006.44858		224.98400		875.00000 
 43692.65567		 305.27265			43387.38302		66.19600		324.00000 
 43692.65567		 686.20710			43006.44858		224.98400		875.00000 
 43692.65567		 305.27265			43387.38302		66.19600		324.00000 
 43692.65567		 686.20710			43006.44858		224.98400		875.00000 
 43692.65567		 305.27265			43387.38302		66.19600		324.00000 
 43692.65567		 686.20710			43006.44858		224.98400		875.00000 
 43692.65567		 305.27265			43387.38302		66.19600		324.00000 
 43692.65567		 686.20710			43006.44858		224.98400		875.00000 
 43692.65567		 305.27265			43387.38302		66.19600		324.00000 
 43692.65567		 686.20710			43006.44858		224.98400		875.00000 
 43692.65567		 305.27265			43387.38302		66.19600		324.00000 
 43692.65567		 686.20710			43006.44858		224.98400		875.00000 
 43692.65567		 305.27265			43387.38302		66.19600		324.00000 
 43692.65567		 686.20710			43006.44858		224.98400		875.00000 
 43692.65567		 305.27265			43387.38302		66.19600		324.00000 
 43692.65567		 686.20710			43006.44858		224.98400		875.00000 
 43692.65567		 305.27265			43387.38302		66.19600		324.00000 
 43692.65567		 686.20710			43006.44858		224.98400		875.00000 
 43692.65567		 305.27265			43387.38302		66.19600		324.00000 
 43692.65567		 686.20710			43006.44858		224.98400		875.00000 
 43692.65567		 305.27265			43387.38302		66.19600		324.00000 
 43692.65567		 686.20710			43006.44858		224.98400		875.00000 
 43692.65567		 305.27265			43387.38302		66.19600		324.00000 
 43692.65567		 686.20710			43006.44858		224.98400		875.00000 
 43692.65567		 305.27265			43387.38302		66.19600		324.00000 
 43692.65567		 686.20710			43006.44858		224.98400		875.00000 
 43692.65567		 305.27265			43387.38302		66.19600		324.00000 
 43692.65567		 686.20710			43006.44858		224.98400		875.00000 
 43692.65567		 305.27265			43387.38302		66.19600		324.00000 
 43692.65567		 686.20710			43006.44858		224.98400		875.00000 
 43692.65567		 305.27265			43387.38302		66.19600		324.00000 
 43692.65567		 686.20710			43006.44858		224.98400		875.00000 
 43692.65567		 305.27265			43387.38302		66.19600		324.00000 
 43692.65567		 686.20710			43006.44858		224.98400		875.00000 
 43692.65567		 305.27265			43387.38302		66.19600		324.00000 
 43692.65567		 686.20710			43006.44858		224.98400		875.00000 
 43692.65567		 305.27265			43387.38302		66.19600		324.00000 
 43692.65567		 686.20710			43006.44858		224.98400		875.00000 
 43692.65567		 305.27265			43387.38302		66.19600		324.00000 
 43692.65567		 686.20710			43006.44858		224.98400		875.00000 
 43692.65567		 305.27265			43387.38302		66.19600		324.00000 
 43692.65567		 686.20710			43006.44858		224.98400		875.00000 
 43692.65567		 305.27265			43387.38302		66.19600		324.00000 
 43692.65567		 686.20710			43006.44858		224.98400		875.00000 
 43692.65567		 305.27265			43387.38302		66.19600		324.00000 
 43692.65567		 686.20710			43006.44858		224.98400		875.00000 
 43692.65567		 305.27265			43387.38302		66.19600		324.00000 
 43692.65567		 686.20710			43006.44858		224.98400		875.00000 
 43692.65567		 305.27265			43387.38302		66.19600		324.00000 
 43692.65567		 686.20710			43006.44858		224.98400		875.00000 
 43692.65567		 305.27265			43387.38302		66.19600		324.00000 
 43692.65567		 686.20710			43006.44858		224.98400		875.00000 
 43692.65567		 305.27265			43387.38302		66.19600		324.00000 
 43692.65567		 686.20710			43006.44858		224.98400		875.00000 
 43692.65567		 305.27265			43387.38302		66.19600		324.00000 
 43692.65567		 686.20710			43006.44858		224.98400		875.00000 
 43692.65567		 305.27265			43387.38302		66.19600		324.00000 
 43692.65567		 686.20710			43006.44858		224.98400		875.00000 
 43692.65567		 305.27265			43387.38302		66.19600		324.00000 
 43692.65567		 686.20710			43006.44858		224.98400		875.00000 
 43692.65567		 305.27265			43387.38302		66.19600		324.00000 
 43692.65567		 686.20710			43006.44858		224.98400		875.00000 
 43692.65567		 305.27265			43387.38302		66.19600		324.00000 
 43692.65567		 686.20710			43006.44858		224.98400		875.00000 
 43692.65567		 305.27265			43387.38302		66.19600		324.00000 
 43692.65567		 686.20710			43006.44858		224.98400		875.00000 
 43692.65567		 305.27265			43387.38302		66.19600		324.00000 
 43692.65567		 686.20710			43006.44858		224.98400		875.00000 
 43692.65567		 305.27265			43387.38302		66.19600		324.00000 
 43692.65567		 686.20710			43006.44858		224.98400		875.00000 
 43692.65567		 305.27265			43387.38302		66.19600		324.00000 
 43692.65567		 686.20710			43006.44858		224.98400		875.00000 
 43692.65567		 305.27265			43387.38302		66.19600		324.00000 
 43692.65567		 686.20710			43006.44858		224.98400		875.00000 
 43692.65567		 305.27265			43387.38302		66.19600		324.00000 
 43692.65567		 686.20710			43006.44858		224.98400		875.00000 
 43692.65567		 305.27265			43387.38302		66.19600		324.00000 
 43692.65567		 686.20710			43006.44858		224.98400		875.00000 
 43692.65567		 305.27265			43387.38302		66.19600		324.00000 
 43692.65567		 686.20710			43006.44858		224.98400		875.00000 
 43692.65567		 305.27265			43387.38302		66.19600		324.00000 
 43692.65567		 686.20710			43006.44858		224.98400		875.00000 
 43692.65567		 305.27265			43387.38302		66.19600		324.00000 
 43692.65567		 686.20710			43006.44858		224.98400		875.00000 
 43692.65567		 305.27265			43387.38302		66.19600		324.00000 
 43692.65567		 686.20710			43006.44858		224.98400		875.00000 
 43692.65567		 305.27265			43387.38302		66.19600		324.00000 
 43692.65567		 686.20710			43006.44858		224.98400		875.00000 
 43692.65567		 305.27265			43387.38302		66.19600		324.00000 
 43692.65567		 686.20710			43006.44858		224.98400		875.00000 
 43692.65567		 305.27265			43387.38302		66.19600		324.00000 
 43692.65567		 686.20710			43006.44858		224.98400		875.00000 
 43692.65567		 305.27265			43387.38302		66.19600		324.00000 
 43692.65567		 686.20710			43006.44858		224.98400		875.00000 
 43692.65567		 305.27265			43387.38302		66.19600		324.00000 
 43692.65567		 686.20710			43006.44858		224.98400		875.00000 
 43692.65567		 305.27265			43387.38302		66.19600		324.00000 
 43692.65567		 686.20710			43006.44858		224.98400		875.00000 
 43692.65567		 305.27265			43387.38302		66.19600		324.00000 
 43692.65567		 686.20710			43006.44858		225.58400		875.00000 
 43692.65567		 305.27265			43387.38302		66.19600		324.00000 
 43692.65567		 686.20710			43006.44858		225.58400		875.00000 
 43692.65567		 305.27265			43387.38302		66.19600		324.00000 
 43692.65567		 686.20710			43006.44858		225.58400		875.00000 
 43692.65567		 305.27265			43387.38302		66.19600		324.00000 
 43692.65567		 686.20710			43006.44858		225.58400		875.00000 
 43692.65567		 305.27265			43387.38302		66.19600		324.00000 
 43692.65567		 686.20710			43006.44858		225.58400		875.00000 
 43692.65567		 305.27265			43387.38302		66.19600		324.00000 
 43692.65567		 686.20710			43006.44858		225.58400		875.00000 
 43692.65567		 305.27265			43387.38302		66.19600		324.00000 
 43692.65567		 686.20710			43006.44858		225.58400		875.00000 
 43692.65567		 305.27265			43387.38302		66.19600		324.00000 
 43692.65567		 686.20710			43006.44858		225.58400		875.00000 
 43692.65567		 305.27265			43387.38302		66.19600		324.00000 
 43692.65567		 686.20710			43006.44858		225.58400		875.00000 
 43692.65567		 305.27265			43387.38302		66.19600		324.00000 
 43692.65567		 686.20710			43006.44858		225.58400		875.00000 
 43692.65567		 305.27265			43387.38302		66.19600		324.00000 
 43692.65567		 686.20710			43006.44858		225.58400		875.00000 
 43692.65567		 305.27265			43387.38302		66.19600		324.00000 
 43692.65567		 686.20710			43006.44858		225.58400		875.00000 
 43692.65567		 305.27265			43387.38302		66.19600		324.00000 
 43692.65567		 686.20710			43006.44858		225.58400		875.00000 
 43692.65567		 305.27265			43387.38302		66.19600		324.00000 
 43692.65567		 686.20710			43006.44858		225.58400		875.00000 
 43692.65567		 305.27265			43387.38302		66.19600		324.00000 
 43692.65567		 686.20710			43006.44858		225.58400		875.00000 
 43692.65567		 305.27265			43387.38302		66.19600		324.00000 
 43692.65567		 686.20710			43006.44858		225.58400		875.00000 
 43692.65567		 305.27265			43387.38302		66.19600		324.00000 
 43692.65567		 686.20710			43006.44858		225.58400		875.00000 
 43692.65567		 305.27265			43387.38302		66.19600		324.00000 
 43692.65567		 686.20710			43006.44858		225.58400		875.00000 
 43692.65567		 305.27265			43387.38302		66.19600		324.00000 
 43692.65567		 686.20710			43006.44858		225.58400		875.00000 
 43692.65567		 305.27265			43387.38302		66.19600		324.00000 
 43692.65567		 686.20710			43006.44858		225.58400		875.00000 
 43692.65567		 305.27265			43387.38302		66.19600		324.00000 
 43692.65567		 686.20710			43006.44858		225.58400		875.00000 
 43692.65567		 305.27265			43387.38302		66.19600		324.00000 
 43692.65567		 686.20710			43006.44858		225.58400		875.00000 
 43692.65567		 305.27265			43387.38302		66.19600		324.00000 
 43692.65567		 686.20710			43006.44858		225.58400		875.00000 
 43692.65567		 305.27265			43387.38302		66.19600		324.00000 
 43692.65567		 686.20710			43006.44858		225.58400		875.00000 
 43692.65567		 305.27265			43387.38302		66.19600		324.00000 
 43692.65567		 686.20710			43006.44858		225.58400		875.00000 
 43692.65567		 305.27265			43387.38302		66.19600		324.00000 
 43692.65567		 686.20710			43006.44858		225.58400		875.00000 
 43692.65567		 305.27265			43387.38302		66.19600		324.00000 
 43692.65567		 686.20710			43006.44858		225.58400		875.00000 
 43692.65567		 305.27265			43387.38302		66.19600		324.00000 
 43692.65567		 686.20710			43006.44858		225.58400		875.00000 
 43692.65567		 305.27265			43387.38302		66.19600		324.00000 
 43692.65567		 686.20710			43006.44858		225.58400		875.00000 
 43692.65567		 305.27265			43387.38302		66.19600		324.00000 
 43692.65567		 686.20710			43006.44858		225.58400		875.00000 
 43692.65567		 305.27265			43387.38302		66.19600		324.00000 
 43692.65567		 686.20710			43006.44858		225.58400		875.00000 
 43692.65567		 305.27265			43387.38302		66.19600		324.00000 
 43692.65567		 686.20710			43006.44858		225.58400		875.00000 
 43692.65567		 305.27265			43387.38302		66.19600		324.00000 
 43692.65567		 686.20710			43006.44858		225.58400		875.00000 
 43692.65567		 305.27265			43387.38302		66.19600		324.00000 
 43692.65567		 686.20710			43006.44858		225.58400		875.00000 
 43692.65567		 305.27265			43387.38302		66.19600		324.00000 
 43692.65567		 686.20710			43006.44858		225.58400		875.00000 
 43692.65567		 305.27265			43387.38302		66.19600		324.00000 
 43692.65567		 686.20710			43006.44858		225.58400		875.00000 
 43692.65567		 305.27265			43387.38302		66.19600		324.00000 
 43692.65567		 686.20710			43006.44858		225.58400		875.00000 
 43692.65567		 305.27265			43387.38302		66.19600		324.00000 
 43692.65567		 686.20710			43006.44858		225.58400		875.00000 
 43692.65567		 305.27265			43387.38302		66.19600		324.00000 
 43692.65567		 686.20710			43006.44858		225.58400		875.00000 
 43692.65567		 305.27265			43387.38302		66.19600		324.00000 
 43692.65567		 686.20710			43006.44858		225.58400		875.00000 
 43692.65567		 305.27265			43387.38302		66.19600		324.00000 
 43692.65567		 686.20710			43006.44858		225.58400		875.00000 
 43692.65567		 305.27265			43387.38302		66.19600		324.00000 
 43692.65567		 686.20710			43006.44858		225.58400		875.00000 
 43692.65567		 305.27265			43387.38302		66.19600		324.00000 
 43692.65567		 686.20710			43006.44858		225.58400		875.00000 
 43692.65567		 305.27265			43387.38302		66.19600		324.00000 
 43692.65567		 686.20710			43006.44858		225.58400		875.00000 
 43692.65567		 305.27265			43387.38302		66.19600		324.00000 
 43692.65567		 686.20710			43006.44858		225.58400		875.00000 
 43692.65567		 305.27265			43387.38302		66.19600		324.00000 
 43692.65567		 686.20710			43006.44858		225.58400		875.00000 
 43692.65567		 305.27265			43387.38302		66.19600		324.00000 
 43692.65567		 686.20710			43006.44858		225.58400		875.00000 
 43692.65567		 305.27265			43387.38302		66.19600		324.00000 
 43692.65567		 686.20710			43006.44858		225.58400		875.00000 
 43692.65567		 305.27265			43387.38302		66.19600		324.00000 
 43692.65567		 686.20710			43006.44858		225.58400		875.00000 
 43692.65567		 305.27265			43387.38302		66.19600		324.00000 
 43692.65567		 686.20710			43006.44858		225.58400		875.00000 
 43692.65567		 305.27265			43387.38302		66.19600		324.00000 
 43692.65567		 686.20710			43006.44858		225.58400		875.00000 
 43692.65567		 305.27265			43387.38302		66.19600		324.00000 
 43692.65567		 686.20710			43006.44858		225.58400		875.00000 
 43692.65567		 305.27265			43387.38302		66.19600		324.00000 
 43692.65567		 686.20710			43006.44858		225.58400		875.00000 
 43692.65567		 305.27265			43387.38302		66.19600		324.00000 
 43692.65567		 686.20710			43006.44858		225.58400		875.00000 
 43692.65567		 305.27265			43387.38302		66.19600		324.00000 
 43692.65567		 686.20710			43006.44858		225.58400		875.00000 
 43692.65567		 305.27265			43387.38302		66.19600		324.00000 
 43692.65567		 686.20710			43006.44858		225.58400		875.00000 
 43692.65567		 305.27265			43387.38302		66.19600		324.00000 
 43692.65567		 686.20710			43006.44858		225.58400		875.00000 
 43692.65567		 305.27265			43387.38302		66.19600		324.00000 
 43692.65567		 686.20710			43006.44858		225.58400		875.00000 
 43692.65567		 305.27265			43387.38302		66.19600		324.00000 
 43692.65567		 686.20710			43006.44858		225.58400		875.00000 
 43692.65567		 305.27265			43387.38302		66.19600		324.00000 
 43692.65567		 686.20710			43006.44858		225.58400		875.00000 
 43692.65567		 305.27265			43387.38302		66.19600		324.00000 
 43692.65567		 686.20710			43006.44858		225.58400		875.00000 
 43692.65567		 305.27265			43387.38302		66.19600		324.00000 
 43692.65567		 686.20710			43006.44858		225.58400		875.00000 
 43692.65567		 305.27265			43387.38302		66.19600		324.00000 
 43692.65567		 686.20710			43006.44858		225.58400		875.00000 
 43692.65567		 305.27265			43387.38302		66.19600		324.00000 
 43692.65567		 686.20710			43006.44858		225.58400		875.00000 
 43692.65567		 305.27265			43387.38302		66.19600		324.00000 
 43692.65567		 686.20710			43006.44858		224.98400		875.00000 
 43692.65567		 305.27265			43387.38302		66.19600		324.00000 
 43692.65567		 686.20710			43006.44858		224.98400		875.00000 
 43692.65567		 305.27265			43387.38302		66.19600		324.00000 
 43692.65567		 686.20710			43006.44858		224.98400		875.00000 
 43692.65567		 305.27265			43387.38302		66.19600		324.00000 
 43692.65567		 686.20710			43006.44858		224.98400		875.00000 
 43692.65567		 305.27265			43387.38302		66.19600		324.00000 
 43692.65567		 686.20710			43006.44858		224.98400		875.00000 
 43692.65567		 305.27265			43387.38302		66.19600		324.00000 
 43692.65567		 686.20710			43006.44858		224.98400		875.00000 
 43692.65567		 305.27265			43387.38302		66.19600		324.00000 
 43692.65567		 686.20710			43006.44858		224.98400		875.00000 
 43692.65567		 305.27265			43387.38302		66.19600		324.00000 
 43692.65567		 686.20710			43006.44858		224.98400		875.00000 
 43692.65567		 305.27265			43387.38302		66.19600		324.00000 
 43692.65567		 686.20710			43006.44858		224.98400		875.00000 
 43692.65567		 305.27265			43387.38302		66.19600		324.00000 
 43692.65567		 686.20710			43006.44858		224.98400		875.00000 
 43692.65567		 305.27265			43387.38302		66.19600		324.00000 
 43692.65567		 686.20710			43006.44858		224.98400		875.00000 
 43692.65567		 305.27265			43387.38302		66.19600		324.00000 
 43692.65567		 686.20710			43006.44858		224.98400		875.00000 
 43692.65567		 305.27265			43387.38302		66.19600		324.00000 
 43692.65567		 686.20710			43006.44858		224.98400		875.00000 
 43692.65567		 305.27265			43387.38302		66.19600		324.00000 
 43692.65567		 686.20710			43006.44858		224.98400		875.00000 
 43692.65567		 305.27265			43387.38302		66.19600		324.00000 
 43692.65567		 636.56151			43056.09417		224.98400		875.00000 
 43692.65567		 305.27265			43387.38302		66.19600		324.00000 
 43692.65567		 537.27032			43155.38535		224.98400		875.00000 
 43692.65567		 305.27265			43387.38302		66.19600		324.00000 
 43692.65567		 537.27032			43155.38535		224.98400		875.00000 
 43692.65567		 305.27265			43387.38302		66.19600		324.00000 
 43692.65567		 537.27032			43155.38535		224.98400		875.00000 
 43692.65567		 305.27265			43387.38302		66.19600		324.00000 
 43692.65567		 537.27032			43155.38535		224.98400		875.00000 
 43692.65567		 305.27265			43387.38302		66.19600		324.00000 
 43692.65567		 537.27032			43155.38535		224.98400		875.00000 
 43692.65567		 305.27265			43387.38302		66.19600		324.00000 
 43692.65567		 537.27032			43155.38535		224.98400		875.00000 
 43692.65567		 305.27265			43387.38302		66.19600		324.00000 
 43692.65567		 537.27032			43155.38535		224.98400		875.00000 
 43692.65567		 305.27265			43387.38302		66.19600		324.00000 
 43692.65567		 537.27032			43155.38535		224.98400		875.00000 
 43692.65567		 305.27265			43387.38302		66.19600		324.00000 
 43692.65567		 537.27032			43155.38535		224.98400		875.00000 
 43692.65567		 305.27265			43387.38302		66.19600		324.00000 
 43692.65567		 537.27032			43155.38535		224.98400		875.00000 
 43692.65567		 305.27265			43387.38302		66.19600		324.00000 
 43692.65567		 537.27032			43155.38535		224.98400		875.00000 
 43692.65567		 305.27265			43387.38302		66.19600		324.00000 
 43692.65567		 537.27032			43155.38535		224.98400		875.00000 
 43692.65567		 305.27265			43387.38302		66.19600		324.00000 
 43692.65567		 537.27032			43155.38535		224.98400		875.00000 
 43692.65567		 305.27265			43387.38302		66.19600		324.00000 
 43692.65567		 537.27032			43155.38535		224.98400		875.00000 
 43692.65567		 305.27265			43387.38302		66.19600		324.00000 
 43692.65567		 537.27032			43155.38535		224.98400		875.00000 
 43692.65567		 305.27265			43387.38302		66.19600		324.00000 
 43692.65567		 537.27032			43155.38535		224.98400		875.00000 
 43692.65567		 305.27265			43387.38302		66.19600		324.00000 
 43692.65567		 537.27032			43155.38535		224.98400		875.00000 
 43692.65567		 305.27265			43387.38302		66.19600		324.00000 
 43692.65567		 537.27032			43155.38535		224.98400		875.00000 
 43692.65567		 305.27265			43387.38302		66.19600		324.00000 
 43692.65567		 537.27032			43155.38535		224.98400		875.00000 
 43692.65567		 305.27265			43387.38302		66.19600		324.00000 
 43692.65567		 537.27032			43155.38535		224.98400		875.00000 
 43692.65567		 305.27265			43387.38302		66.19600		324.00000 
 43692.65567		 525.81365			43166.84203		224.98400		875.00000 
 43692.65567		 305.27265			43387.38302		66.19600		324.00000 
 43692.65567		 525.81365			43166.84203		224.98400		875.00000 
 43692.65567		 261.35540			43431.30027		66.19600		324.00000 
 43692.65567		 261.35540			43431.30027		176.95800		875.00000 
 43692.65567		 261.35540			43431.30027		66.19600		324.00000 
