Memory Total (MiB) 	 Memory Used (MiB) 	    Memory Free (MiB) 	 Power Drawed (W) 	 Clocks (Mhz) 	 
 43692.65567		 261.35540			43431.30027		185.80600		875.00000 
 43692.65567		 261.35540			43431.30027		69.66000		324.00000 
 43692.65567		 261.35540			43431.30027		185.80600		875.00000 
 43692.65567		 261.35540			43431.30027		69.66000		324.00000 
 43692.65567		 261.35540			43431.30027		185.80600		875.00000 
 43692.65567		 261.35540			43431.30027		69.66000		324.00000 
 43692.65567		 261.35540			43431.30027		185.80600		875.00000 
 43692.65567		 261.35540			43431.30027		69.66000		324.00000 
 43692.65567		 261.35540			43431.30027		185.80600		875.00000 
 43692.65567		 261.35540			43431.30027		69.66000		324.00000 
 43692.65567		 261.35540			43431.30027		185.80600		875.00000 
 43692.65567		 261.35540			43431.30027		69.66000		324.00000 
 43692.65567		 261.35540			43431.30027		185.80600		875.00000 
 43692.65567		 261.35540			43431.30027		69.66000		324.00000 
 43692.65567		 261.35540			43431.30027		185.80600		875.00000 
 43692.65567		 261.35540			43431.30027		69.66000		324.00000 
 43692.65567		 261.35540			43431.30027		185.80600		875.00000 
 43692.65567		 261.35540			43431.30027		69.66000		324.00000 
 43692.65567		 261.35540			43431.30027		185.80600		875.00000 
 43692.65567		 261.35540			43431.30027		69.66000		324.00000 
 43692.65567		 261.35540			43431.30027		185.80600		875.00000 
 43692.65567		 261.35540			43431.30027		69.66000		324.00000 
 43692.65567		 261.35540			43431.30027		185.80600		875.00000 
 43692.65567		 261.35540			43431.30027		69.66000		324.00000 
 43692.65567		 261.35540			43431.30027		185.80600		875.00000 
 43692.65567		 261.35540			43431.30027		69.66000		324.00000 
 43692.65567		 261.35540			43431.30027		185.80600		875.00000 
 43692.65567		 261.35540			43431.30027		69.66000		324.00000 
 43692.65567		 261.35540			43431.30027		185.80600		875.00000 
 43692.65567		 261.35540			43431.30027		69.66000		324.00000 
 43692.65567		 261.35540			43431.30027		185.80600		875.00000 
 43692.65567		 261.35540			43431.30027		69.66000		324.00000 
 43692.65567		 261.35540			43431.30027		185.80600		875.00000 
 43692.65567		 261.35540			43431.30027		69.66000		324.00000 
 43692.65567		 261.35540			43431.30027		185.80600		875.00000 
 43692.65567		 261.35540			43431.30027		69.66000		324.00000 
 43692.65567		 261.35540			43431.30027		185.80600		875.00000 
 43692.65567		 261.35540			43431.30027		69.66000		324.00000 
 43692.65567		 265.17429			43427.48138		185.80600		875.00000 
 43692.65567		 261.35540			43431.30027		69.66000		324.00000 
 43692.65567		 265.17429			43427.48138		185.80600		875.00000 
 43692.65567		 261.35540			43431.30027		69.66000		324.00000 
 43692.65567		 272.81207			43419.84360		185.80600		875.00000 
 43692.65567		 261.35540			43431.30027		69.66000		324.00000 
 43692.65567		 272.81207			43419.84360		185.80600		875.00000 
 43692.65567		 261.35540			43431.30027		69.66000		324.00000 
 43692.65567		 272.81207			43419.84360		152.29400		875.00000 
 43692.65567		 265.17429			43427.48138		69.66000		324.00000 
 43692.65567		 272.81207			43419.84360		152.29400		875.00000 
 43692.65567		 265.17429			43427.48138		69.66000		324.00000 
 43692.65567		 272.81207			43419.84360		152.29400		875.00000 
 43692.65567		 272.81207			43419.84360		69.66000		324.00000 
 43692.65567		 272.81207			43419.84360		152.29400		875.00000 
 43692.65567		 272.81207			43419.84360		69.66000		324.00000 
 43692.65567		 272.81207			43419.84360		152.29400		875.00000 
 43692.65567		 272.81207			43419.84360		69.66000		324.00000 
 43692.65567		 272.81207			43419.84360		152.29400		875.00000 
 43692.65567		 272.81207			43419.84360		69.66000		324.00000 
 43692.65567		 305.27265			43387.38302		152.29400		875.00000 
 43692.65567		 305.27265			43387.38302		69.66000		324.00000 
 43692.65567		 305.27265			43387.38302		152.29400		875.00000 
 43692.65567		 305.27265			43387.38302		69.66000		324.00000 
 43692.65567		 305.27265			43387.38302		152.29400		875.00000 
 43692.65567		 305.27265			43387.38302		69.66000		324.00000 
 43692.65567		 305.27265			43387.38302		152.29400		875.00000 
 43692.65567		 305.27265			43387.38302		69.66000		324.00000 
 43692.65567		 305.27265			43387.38302		152.29400		875.00000 
 43692.65567		 305.27265			43387.38302		69.66000		324.00000 
 43692.65567		 310.04627			43382.60941		152.29400		875.00000 
 43692.65567		 305.27265			43387.38302		69.66000		324.00000 
 43692.65567		 311.00099			43381.65468		152.29400		875.00000 
 43692.65567		 305.27265			43387.38302		69.66000		324.00000 
 43692.65567		 311.00099			43381.65468		152.29400		875.00000 
 43692.65567		 305.27265			43387.38302		69.66000		324.00000 
 43692.65567		 311.00099			43381.65468		152.29400		875.00000 
 43692.65567		 305.27265			43387.38302		69.66000		324.00000 
 43692.65567		 311.00099			43381.65468		152.29400		875.00000 
 43692.65567		 305.27265			43387.38302		69.66000		324.00000 
 43692.65567		 311.00099			43381.65468		152.29400		875.00000 
 43692.65567		 305.27265			43387.38302		69.66000		324.00000 
 43692.65567		 311.00099			43381.65468		152.29400		875.00000 
 43692.65567		 305.27265			43387.38302		69.66000		324.00000 
 43692.65567		 311.00099			43381.65468		152.29400		875.00000 
 43692.65567		 305.27265			43387.38302		69.66000		324.00000 
 43692.65567		 311.00099			43381.65468		152.29400		875.00000 
 43692.65567		 305.27265			43387.38302		69.66000		324.00000 
 43692.65567		 311.00099			43381.65468		152.29400		875.00000 
 43692.65567		 305.27265			43387.38302		69.66000		324.00000 
 43692.65567		 311.00099			43381.65468		152.29400		875.00000 
 43692.65567		 305.27265			43387.38302		69.66000		324.00000 
 43692.65567		 311.00099			43381.65468		152.29400		875.00000 
 43692.65567		 305.27265			43387.38302		69.66000		324.00000 
 43692.65567		 311.00099			43381.65468		152.29400		875.00000 
 43692.65567		 305.27265			43387.38302		69.66000		324.00000 
 43692.65567		 311.00099			43381.65468		152.29400		875.00000 
 43692.65567		 305.27265			43387.38302		69.66000		324.00000 
 43692.65567		 311.00099			43381.65468		152.29400		875.00000 
 43692.65567		 305.27265			43387.38302		69.66000		324.00000 
 43692.65567		 311.00099			43381.65468		152.29400		875.00000 
 43692.65567		 305.27265			43387.38302		69.66000		324.00000 
 43692.65567		 311.00099			43381.65468		152.29400		875.00000 
 43692.65567		 305.27265			43387.38302		69.66000		324.00000 
 43692.65567		 311.00099			43381.65468		152.29400		875.00000 
 43692.65567		 305.27265			43387.38302		69.66000		324.00000 
 43692.65567		 311.00099			43381.65468		152.29400		875.00000 
 43692.65567		 305.27265			43387.38302		69.66000		324.00000 
 43692.65567		 311.00099			43381.65468		152.29400		875.00000 
 43692.65567		 305.27265			43387.38302		69.66000		324.00000 
 43692.65567		 311.00099			43381.65468		152.29400		875.00000 
 43692.65567		 305.27265			43387.38302		69.66000		324.00000 
 43692.65567		 311.00099			43381.65468		139.24800		875.00000 
 43692.65567		 305.27265			43387.38302		69.66000		324.00000 
 43692.65567		 311.00099			43381.65468		139.24800		875.00000 
 43692.65567		 305.27265			43387.38302		69.66000		324.00000 
 43692.65567		 311.00099			43381.65468		139.24800		875.00000 
 43692.65567		 305.27265			43387.38302		69.66000		324.00000 
 43692.65567		 311.00099			43381.65468		139.24800		875.00000 
 43692.65567		 305.27265			43387.38302		69.66000		324.00000 
 43692.65567		 311.00099			43381.65468		139.24800		875.00000 
 43692.65567		 305.27265			43387.38302		69.66000		324.00000 
 43692.65567		 311.00099			43381.65468		139.24800		875.00000 
 43692.65567		 305.27265			43387.38302		69.66000		324.00000 
 43692.65567		 311.00099			43381.65468		139.24800		875.00000 
 43692.65567		 305.27265			43387.38302		69.66000		324.00000 
 43692.65567		 311.00099			43381.65468		139.24800		875.00000 
 43692.65567		 305.27265			43387.38302		69.66000		324.00000 
 43692.65567		 311.00099			43381.65468		139.24800		875.00000 
 43692.65567		 305.27265			43387.38302		69.66000		324.00000 
 43692.65567		 311.00099			43381.65468		139.24800		875.00000 
 43692.65567		 305.27265			43387.38302		69.66000		324.00000 
 43692.65567		 311.00099			43381.65468		139.24800		875.00000 
 43692.65567		 305.27265			43387.38302		69.66000		324.00000 
 43692.65567		 311.00099			43381.65468		139.24800		875.00000 
 43692.65567		 305.27265			43387.38302		69.66000		324.00000 
 43692.65567		 311.00099			43381.65468		139.24800		875.00000 
 43692.65567		 305.27265			43387.38302		69.66000		324.00000 
 43692.65567		 311.00099			43381.65468		139.24800		875.00000 
 43692.65567		 305.27265			43387.38302		69.66000		324.00000 
 43692.65567		 311.00099			43381.65468		139.24800		875.00000 
 43692.65567		 305.27265			43387.38302		69.66000		324.00000 
 43692.65567		 311.00099			43381.65468		139.24800		875.00000 
 43692.65567		 305.27265			43387.38302		69.66000		324.00000 
 43692.65567		 311.00099			43381.65468		139.24800		875.00000 
 43692.65567		 305.27265			43387.38302		69.66000		324.00000 
 43692.65567		 311.00099			43381.65468		139.24800		875.00000 
 43692.65567		 305.27265			43387.38302		69.66000		324.00000 
 43692.65567		 311.00099			43381.65468		139.24800		875.00000 
 43692.65567		 305.27265			43387.38302		69.66000		324.00000 
 43692.65567		 311.00099			43381.65468		139.24800		875.00000 
 43692.65567		 305.27265			43387.38302		69.66000		324.00000 
 43692.65567		 311.00099			43381.65468		139.24800		875.00000 
 43692.65567		 305.27265			43387.38302		69.66000		324.00000 
 43692.65567		 311.00099			43381.65468		139.24800		875.00000 
 43692.65567		 305.27265			43387.38302		69.66000		324.00000 
 43692.65567		 311.00099			43381.65468		139.24800		875.00000 
 43692.65567		 305.27265			43387.38302		69.66000		324.00000 
 43692.65567		 311.00099			43381.65468		139.24800		875.00000 
 43692.65567		 305.27265			43387.38302		69.66000		324.00000 
 43692.65567		 311.00099			43381.65468		139.24800		875.00000 
 43692.65567		 305.27265			43387.38302		69.66000		324.00000 
 43692.65567		 311.00099			43381.65468		139.24800		875.00000 
 43692.65567		 305.27265			43387.38302		69.66000		324.00000 
 43692.65567		 311.00099			43381.65468		139.24800		875.00000 
 43692.65567		 305.27265			43387.38302		69.66000		324.00000 
 43692.65567		 311.00099			43381.65468		139.24800		875.00000 
 43692.65567		 305.27265			43387.38302		69.66000		324.00000 
 43692.65567		 311.00099			43381.65468		139.24800		875.00000 
 43692.65567		 305.27265			43387.38302		69.66000		324.00000 
 43692.65567		 311.00099			43381.65468		139.24800		875.00000 
 43692.65567		 305.27265			43387.38302		69.66000		324.00000 
 43692.65567		 311.00099			43381.65468		139.24800		875.00000 
 43692.65567		 305.27265			43387.38302		69.66000		324.00000 
 43692.65567		 314.81988			43377.83579		139.24800		875.00000 
 43692.65567		 305.27265			43387.38302		69.66000		324.00000 
 43692.65567		 314.81988			43377.83579		135.03600		875.00000 
 43692.65567		 305.27265			43387.38302		69.66000		324.00000 
 43692.65567		 318.63877			43374.01690		135.03600		875.00000 
 43692.65567		 305.27265			43387.38302		69.66000		324.00000 
 43692.65567		 322.45767			43370.19801		135.03600		875.00000 
 43692.65567		 305.27265			43387.38302		69.66000		324.00000 
 43692.65567		 326.27656			43366.37912		135.03600		875.00000 
 43692.65567		 305.27265			43387.38302		69.66000		324.00000 
 43692.65567		 326.27656			43366.37912		135.03600		875.00000 
 43692.65567		 305.27265			43387.38302		69.66000		324.00000 
 43692.65567		 326.27656			43366.37912		135.03600		875.00000 
 43692.65567		 305.27265			43387.38302		69.66000		324.00000 
 43692.65567		 326.27656			43366.37912		135.03600		875.00000 
 43692.65567		 305.27265			43387.38302		69.66000		324.00000 
 43692.65567		 537.27032			43155.38535		135.03600		875.00000 
 43692.65567		 305.27265			43387.38302		69.66000		324.00000 
 43692.65567		 657.56541			43035.09026		135.03600		875.00000 
 43692.65567		 305.27265			43387.38302		69.66000		324.00000 
 43692.65567		 717.71295			42974.94272		135.03600		875.00000 
 43692.65567		 305.27265			43387.38302		69.66000		324.00000 
 43692.65567		 717.71295			42974.94272		135.03600		875.00000 
 43692.65567		 305.27265			43387.38302		69.66000		324.00000 
 43692.65567		 717.71295			42974.94272		135.03600		875.00000 
 43692.65567		 305.27265			43387.38302		69.66000		324.00000 
 43692.65567		 717.71295			42974.94272		135.03600		875.00000 
 43692.65567		 305.27265			43387.38302		69.66000		324.00000 
 43692.65567		 717.71295			42974.94272		135.03600		875.00000 
 43692.65567		 305.27265			43387.38302		69.66000		324.00000 
 43692.65567		 717.71295			42974.94272		135.03600		875.00000 
 43692.65567		 305.27265			43387.38302		69.66000		324.00000 
 43692.65567		 717.71295			42974.94272		135.03600		875.00000 
 43692.65567		 305.27265			43387.38302		69.66000		324.00000 
 43692.65567		 717.71295			42974.94272		135.03600		875.00000 
 43692.65567		 305.27265			43387.38302		69.66000		324.00000 
 43692.65567		 717.71295			42974.94272		135.03600		875.00000 
 43692.65567		 305.27265			43387.38302		69.66000		324.00000 
 43692.65567		 717.71295			42974.94272		135.03600		875.00000 
 43692.65567		 305.27265			43387.38302		69.66000		324.00000 
 43692.65567		 717.71295			42974.94272		135.03600		875.00000 
 43692.65567		 305.27265			43387.38302		69.66000		324.00000 
 43692.65567		 717.71295			42974.94272		135.03600		875.00000 
 43692.65567		 305.27265			43387.38302		69.66000		324.00000 
 43692.65567		 717.71295			42974.94272		135.03600		875.00000 
 43692.65567		 305.27265			43387.38302		69.66000		324.00000 
 43692.65567		 717.71295			42974.94272		135.03600		875.00000 
 43692.65567		 305.27265			43387.38302		69.66000		324.00000 
 43692.65567		 717.71295			42974.94272		135.03600		875.00000 
 43692.65567		 305.27265			43387.38302		69.66000		324.00000 
 43692.65567		 717.71295			42974.94272		135.03600		875.00000 
 43692.65567		 305.27265			43387.38302		69.66000		324.00000 
 43692.65567		 717.71295			42974.94272		135.03600		875.00000 
 43692.65567		 305.27265			43387.38302		69.66000		324.00000 
 43692.65567		 717.71295			42974.94272		135.03600		875.00000 
 43692.65567		 305.27265			43387.38302		69.66000		324.00000 
 43692.65567		 717.71295			42974.94272		135.03600		875.00000 
 43692.65567		 305.27265			43387.38302		69.66000		324.00000 
 43692.65567		 717.71295			42974.94272		135.03600		875.00000 
 43692.65567		 305.27265			43387.38302		69.66000		324.00000 
 43692.65567		 717.71295			42974.94272		135.03600		875.00000 
 43692.65567		 305.27265			43387.38302		69.66000		324.00000 
 43692.65567		 717.71295			42974.94272		135.03600		875.00000 
 43692.65567		 305.27265			43387.38302		69.66000		324.00000 
 43692.65567		 717.71295			42974.94272		135.03600		875.00000 
 43692.65567		 305.27265			43387.38302		69.66000		324.00000 
 43692.65567		 717.71295			42974.94272		135.03600		875.00000 
 43692.65567		 305.27265			43387.38302		69.66000		324.00000 
 43692.65567		 717.71295			42974.94272		135.03600		875.00000 
 43692.65567		 305.27265			43387.38302		69.66000		324.00000 
 43692.65567		 717.71295			42974.94272		135.03600		875.00000 
 43692.65567		 305.27265			43387.38302		69.66000		324.00000 
 43692.65567		 717.71295			42974.94272		135.03600		875.00000 
 43692.65567		 305.27265			43387.38302		69.66000		324.00000 
 43692.65567		 717.71295			42974.94272		135.03600		875.00000 
 43692.65567		 305.27265			43387.38302		69.66000		324.00000 
 43692.65567		 717.71295			42974.94272		135.03600		875.00000 
 43692.65567		 305.27265			43387.38302		69.66000		324.00000 
 43692.65567		 717.71295			42974.94272		135.03600		875.00000 
 43692.65567		 305.27265			43387.38302		69.66000		324.00000 
 43692.65567		 717.71295			42974.94272		135.03600		875.00000 
 43692.65567		 305.27265			43387.38302		69.66000		324.00000 
 43692.65567		 717.71295			42974.94272		135.03600		875.00000 
 43692.65567		 305.27265			43387.38302		69.66000		324.00000 
 43692.65567		 717.71295			42974.94272		135.03600		875.00000 
 43692.65567		 305.27265			43387.38302		69.66000		324.00000 
 43692.65567		 717.71295			42974.94272		135.03600		875.00000 
 43692.65567		 305.27265			43387.38302		69.66000		324.00000 
 43692.65567		 717.71295			42974.94272		135.03600		875.00000 
 43692.65567		 305.27265			43387.38302		69.66000		324.00000 
 43692.65567		 717.71295			42974.94272		135.03600		875.00000 
 43692.65567		 305.27265			43387.38302		69.66000		324.00000 
 43692.65567		 717.71295			42974.94272		135.03600		875.00000 
 43692.65567		 305.27265			43387.38302		69.66000		324.00000 
 43692.65567		 717.71295			42974.94272		135.03600		875.00000 
 43692.65567		 305.27265			43387.38302		69.66000		324.00000 
 43692.65567		 717.71295			42974.94272		135.03600		875.00000 
 43692.65567		 305.27265			43387.38302		69.66000		324.00000 
 43692.65567		 717.71295			42974.94272		135.03600		875.00000 
 43692.65567		 305.27265			43387.38302		69.66000		324.00000 
 43692.65567		 717.71295			42974.94272		135.03600		875.00000 
 43692.65567		 305.27265			43387.38302		69.66000		324.00000 
 43692.65567		 717.71295			42974.94272		135.03600		875.00000 
 43692.65567		 305.27265			43387.38302		69.66000		324.00000 
 43692.65567		 717.71295			42974.94272		135.03600		875.00000 
 43692.65567		 305.27265			43387.38302		69.66000		324.00000 
 43692.65567		 717.71295			42974.94272		135.03600		875.00000 
 43692.65567		 305.27265			43387.38302		69.66000		324.00000 
 43692.65567		 717.71295			42974.94272		135.03600		875.00000 
 43692.65567		 305.27265			43387.38302		69.66000		324.00000 
 43692.65567		 717.71295			42974.94272		135.03600		875.00000 
 43692.65567		 305.27265			43387.38302		69.66000		324.00000 
 43692.65567		 717.71295			42974.94272		135.03600		875.00000 
 43692.65567		 305.27265			43387.38302		69.66000		324.00000 
 43692.65567		 717.71295			42974.94272		135.03600		875.00000 
 43692.65567		 305.27265			43387.38302		69.66000		324.00000 
 43692.65567		 717.71295			42974.94272		135.03600		875.00000 
 43692.65567		 305.27265			43387.38302		69.66000		324.00000 
 43692.65567		 717.71295			42974.94272		135.03600		875.00000 
 43692.65567		 305.27265			43387.38302		69.66000		324.00000 
 43692.65567		 717.71295			42974.94272		135.03600		875.00000 
 43692.65567		 305.27265			43387.38302		69.66000		324.00000 
 43692.65567		 717.71295			42974.94272		184.86600		875.00000 
 43692.65567		 305.27265			43387.38302		69.66000		324.00000 
 43692.65567		 717.71295			42974.94272		184.86600		875.00000 
 43692.65567		 305.27265			43387.38302		69.66000		324.00000 
 43692.65567		 717.71295			42974.94272		184.86600		875.00000 
 43692.65567		 305.27265			43387.38302		69.66000		324.00000 
 43692.65567		 717.71295			42974.94272		184.86600		875.00000 
 43692.65567		 305.27265			43387.38302		69.66000		324.00000 
 43692.65567		 717.71295			42974.94272		184.86600		875.00000 
 43692.65567		 305.27265			43387.38302		69.66000		324.00000 
 43692.65567		 717.71295			42974.94272		184.86600		875.00000 
 43692.65567		 305.27265			43387.38302		69.66000		324.00000 
 43692.65567		 717.71295			42974.94272		184.86600		875.00000 
 43692.65567		 305.27265			43387.38302		69.66000		324.00000 
 43692.65567		 717.71295			42974.94272		184.86600		875.00000 
 43692.65567		 305.27265			43387.38302		69.66000		324.00000 
 43692.65567		 717.71295			42974.94272		184.86600		875.00000 
 43692.65567		 305.27265			43387.38302		69.66000		324.00000 
 43692.65567		 717.71295			42974.94272		184.86600		875.00000 
 43692.65567		 305.27265			43387.38302		69.66000		324.00000 
 43692.65567		 717.71295			42974.94272		184.86600		875.00000 
 43692.65567		 305.27265			43387.38302		69.66000		324.00000 
 43692.65567		 717.71295			42974.94272		184.86600		875.00000 
 43692.65567		 305.27265			43387.38302		69.66000		324.00000 
 43692.65567		 717.71295			42974.94272		184.86600		875.00000 
 43692.65567		 305.27265			43387.38302		69.66000		324.00000 
 43692.65567		 717.71295			42974.94272		184.86600		875.00000 
 43692.65567		 305.27265			43387.38302		69.66000		324.00000 
 43692.65567		 717.71295			42974.94272		184.86600		875.00000 
 43692.65567		 305.27265			43387.38302		69.66000		324.00000 
 43692.65567		 717.71295			42974.94272		184.86600		875.00000 
 43692.65567		 305.27265			43387.38302		69.66000		324.00000 
 43692.65567		 717.71295			42974.94272		184.86600		875.00000 
 43692.65567		 305.27265			43387.38302		69.66000		324.00000 
 43692.65567		 717.71295			42974.94272		184.86600		875.00000 
 43692.65567		 305.27265			43387.38302		69.66000		324.00000 
 43692.65567		 717.71295			42974.94272		184.86600		875.00000 
 43692.65567		 305.27265			43387.38302		69.66000		324.00000 
 43692.65567		 717.71295			42974.94272		184.86600		875.00000 
 43692.65567		 305.27265			43387.38302		69.66000		324.00000 
 43692.65567		 717.71295			42974.94272		184.86600		875.00000 
 43692.65567		 305.27265			43387.38302		69.66000		324.00000 
 43692.65567		 717.71295			42974.94272		184.86600		875.00000 
 43692.65567		 305.27265			43387.38302		69.66000		324.00000 
 43692.65567		 717.71295			42974.94272		184.86600		875.00000 
 43692.65567		 305.27265			43387.38302		69.66000		324.00000 
 43692.65567		 717.71295			42974.94272		184.86600		875.00000 
 43692.65567		 305.27265			43387.38302		69.66000		324.00000 
 43692.65567		 717.71295			42974.94272		184.86600		875.00000 
 43692.65567		 305.27265			43387.38302		69.66000		324.00000 
 43692.65567		 717.71295			42974.94272		184.86600		875.00000 
 43692.65567		 305.27265			43387.38302		69.66000		324.00000 
 43692.65567		 717.71295			42974.94272		184.86600		875.00000 
 43692.65567		 305.27265			43387.38302		69.66000		324.00000 
 43692.65567		 717.71295			42974.94272		184.86600		875.00000 
 43692.65567		 305.27265			43387.38302		69.66000		324.00000 
 43692.65567		 717.71295			42974.94272		184.86600		875.00000 
 43692.65567		 305.27265			43387.38302		69.66000		324.00000 
 43692.65567		 717.71295			42974.94272		184.86600		875.00000 
 43692.65567		 305.27265			43387.38302		69.66000		324.00000 
 43692.65567		 717.71295			42974.94272		184.86600		875.00000 
 43692.65567		 305.27265			43387.38302		69.66000		324.00000 
 43692.65567		 717.71295			42974.94272		184.86600		875.00000 
 43692.65567		 305.27265			43387.38302		69.66000		324.00000 
 43692.65567		 717.71295			42974.94272		184.86600		875.00000 
 43692.65567		 305.27265			43387.38302		69.66000		324.00000 
 43692.65567		 717.71295			42974.94272		184.86600		875.00000 
 43692.65567		 305.27265			43387.38302		69.66000		324.00000 
 43692.65567		 717.71295			42974.94272		184.86600		875.00000 
 43692.65567		 305.27265			43387.38302		69.66000		324.00000 
 43692.65567		 717.71295			42974.94272		184.86600		875.00000 
 43692.65567		 305.27265			43387.38302		69.66000		324.00000 
 43692.65567		 717.71295			42974.94272		184.86600		875.00000 
 43692.65567		 305.27265			43387.38302		69.66000		324.00000 
 43692.65567		 717.71295			42974.94272		184.86600		875.00000 
 43692.65567		 305.27265			43387.38302		69.66000		324.00000 
 43692.65567		 717.71295			42974.94272		184.86600		875.00000 
 43692.65567		 305.27265			43387.38302		69.66000		324.00000 
 43692.65567		 717.71295			42974.94272		184.86600		875.00000 
 43692.65567		 305.27265			43387.38302		69.66000		324.00000 
 43692.65567		 717.71295			42974.94272		184.86600		875.00000 
 43692.65567		 305.27265			43387.38302		69.66000		324.00000 
 43692.65567		 717.71295			42974.94272		184.86600		875.00000 
 43692.65567		 305.27265			43387.38302		69.66000		324.00000 
 43692.65567		 717.71295			42974.94272		184.86600		875.00000 
 43692.65567		 305.27265			43387.38302		69.66000		324.00000 
 43692.65567		 717.71295			42974.94272		184.86600		875.00000 
 43692.65567		 305.27265			43387.38302		69.66000		324.00000 
 43692.65567		 717.71295			42974.94272		184.86600		875.00000 
 43692.65567		 305.27265			43387.38302		69.66000		324.00000 
 43692.65567		 717.71295			42974.94272		184.86600		875.00000 
 43692.65567		 305.27265			43387.38302		69.66000		324.00000 
 43692.65567		 717.71295			42974.94272		184.86600		875.00000 
 43692.65567		 305.27265			43387.38302		69.66000		324.00000 
 43692.65567		 717.71295			42974.94272		184.86600		875.00000 
 43692.65567		 305.27265			43387.38302		69.66000		324.00000 
 43692.65567		 717.71295			42974.94272		184.86600		875.00000 
 43692.65567		 305.27265			43387.38302		69.66000		324.00000 
 43692.65567		 717.71295			42974.94272		184.86600		875.00000 
 43692.65567		 305.27265			43387.38302		69.66000		324.00000 
 43692.65567		 717.71295			42974.94272		184.86600		875.00000 
 43692.65567		 305.27265			43387.38302		69.66000		324.00000 
 43692.65567		 717.71295			42974.94272		184.86600		875.00000 
 43692.65567		 305.27265			43387.38302		69.66000		324.00000 
 43692.65567		 717.71295			42974.94272		184.86600		875.00000 
 43692.65567		 305.27265			43387.38302		69.66000		324.00000 
 43692.65567		 717.71295			42974.94272		184.86600		875.00000 
 43692.65567		 305.27265			43387.38302		69.66000		324.00000 
 43692.65567		 717.71295			42974.94272		184.86600		875.00000 
 43692.65567		 305.27265			43387.38302		69.66000		324.00000 
 43692.65567		 717.71295			42974.94272		184.86600		875.00000 
 43692.65567		 305.27265			43387.38302		69.66000		324.00000 
 43692.65567		 717.71295			42974.94272		184.86600		875.00000 
 43692.65567		 305.27265			43387.38302		69.66000		324.00000 
 43692.65567		 717.71295			42974.94272		184.86600		875.00000 
 43692.65567		 305.27265			43387.38302		69.66000		324.00000 
 43692.65567		 717.71295			42974.94272		184.86600		875.00000 
 43692.65567		 305.27265			43387.38302		69.66000		324.00000 
 43692.65567		 717.71295			42974.94272		184.86600		875.00000 
 43692.65567		 305.27265			43387.38302		69.66000		324.00000 
 43692.65567		 717.71295			42974.94272		184.86600		875.00000 
 43692.65567		 305.27265			43387.38302		69.66000		324.00000 
 43692.65567		 717.71295			42974.94272		184.86600		875.00000 
 43692.65567		 305.27265			43387.38302		69.66000		324.00000 
 43692.65567		 717.71295			42974.94272		184.86600		875.00000 
 43692.65567		 305.27265			43387.38302		69.66000		324.00000 
 43692.65567		 717.71295			42974.94272		184.86600		875.00000 
 43692.65567		 305.27265			43387.38302		69.66000		324.00000 
 43692.65567		 717.71295			42974.94272		184.86600		875.00000 
 43692.65567		 305.27265			43387.38302		69.66000		324.00000 
 43692.65567		 717.71295			42974.94272		211.17800		875.00000 
 43692.65567		 305.27265			43387.38302		69.66000		324.00000 
 43692.65567		 717.71295			42974.94272		211.17800		875.00000 
 43692.65567		 305.27265			43387.38302		69.66000		324.00000 
 43692.65567		 717.71295			42974.94272		211.17800		875.00000 
 43692.65567		 305.27265			43387.38302		69.66000		324.00000 
 43692.65567		 717.71295			42974.94272		211.17800		875.00000 
 43692.65567		 305.27265			43387.38302		69.66000		324.00000 
 43692.65567		 717.71295			42974.94272		211.17800		875.00000 
 43692.65567		 305.27265			43387.38302		69.66000		324.00000 
 43692.65567		 717.71295			42974.94272		211.17800		875.00000 
 43692.65567		 305.27265			43387.38302		69.66000		324.00000 
 43692.65567		 717.71295			42974.94272		211.17800		875.00000 
 43692.65567		 305.27265			43387.38302		69.66000		324.00000 
 43692.65567		 717.71295			42974.94272		211.17800		875.00000 
 43692.65567		 305.27265			43387.38302		69.66000		324.00000 
 43692.65567		 717.71295			42974.94272		211.17800		875.00000 
 43692.65567		 305.27265			43387.38302		69.66000		324.00000 
 43692.65567		 717.71295			42974.94272		211.17800		875.00000 
 43692.65567		 305.27265			43387.38302		69.66000		324.00000 
 43692.65567		 717.71295			42974.94272		211.17800		875.00000 
 43692.65567		 305.27265			43387.38302		69.66000		324.00000 
 43692.65567		 717.71295			42974.94272		211.17800		875.00000 
 43692.65567		 305.27265			43387.38302		69.66000		324.00000 
 43692.65567		 717.71295			42974.94272		211.17800		875.00000 
 43692.65567		 305.27265			43387.38302		69.66000		324.00000 
 43692.65567		 717.71295			42974.94272		211.17800		875.00000 
 43692.65567		 305.27265			43387.38302		69.66000		324.00000 
 43692.65567		 717.71295			42974.94272		211.17800		875.00000 
 43692.65567		 305.27265			43387.38302		69.66000		324.00000 
 43692.65567		 717.71295			42974.94272		211.17800		875.00000 
 43692.65567		 305.27265			43387.38302		69.66000		324.00000 
 43692.65567		 717.71295			42974.94272		211.17800		875.00000 
 43692.65567		 305.27265			43387.38302		69.66000		324.00000 
 43692.65567		 717.71295			42974.94272		211.17800		875.00000 
 43692.65567		 305.27265			43387.38302		69.66000		324.00000 
 43692.65567		 717.71295			42974.94272		211.17800		875.00000 
 43692.65567		 305.27265			43387.38302		69.66000		324.00000 
 43692.65567		 717.71295			42974.94272		211.17800		875.00000 
 43692.65567		 305.27265			43387.38302		69.66000		324.00000 
 43692.65567		 717.71295			42974.94272		211.17800		875.00000 
 43692.65567		 305.27265			43387.38302		69.66000		324.00000 
 43692.65567		 717.71295			42974.94272		211.17800		875.00000 
 43692.65567		 305.27265			43387.38302		69.66000		324.00000 
 43692.65567		 717.71295			42974.94272		211.17800		875.00000 
 43692.65567		 305.27265			43387.38302		69.66000		324.00000 
 43692.65567		 717.71295			42974.94272		211.17800		875.00000 
 43692.65567		 305.27265			43387.38302		69.66000		324.00000 
 43692.65567		 717.71295			42974.94272		211.17800		875.00000 
 43692.65567		 305.27265			43387.38302		69.66000		324.00000 
 43692.65567		 717.71295			42974.94272		211.17800		875.00000 
 43692.65567		 305.27265			43387.38302		69.66000		324.00000 
 43692.65567		 717.71295			42974.94272		211.17800		875.00000 
 43692.65567		 305.27265			43387.38302		69.66000		324.00000 
 43692.65567		 717.71295			42974.94272		211.17800		875.00000 
 43692.65567		 305.27265			43387.38302		69.66000		324.00000 
 43692.65567		 717.71295			42974.94272		211.17800		875.00000 
 43692.65567		 305.27265			43387.38302		69.66000		324.00000 
 43692.65567		 717.71295			42974.94272		211.17800		875.00000 
 43692.65567		 305.27265			43387.38302		69.66000		324.00000 
 43692.65567		 717.71295			42974.94272		211.17800		875.00000 
 43692.65567		 305.27265			43387.38302		69.66000		324.00000 
 43692.65567		 717.71295			42974.94272		211.17800		875.00000 
 43692.65567		 305.27265			43387.38302		69.66000		324.00000 
 43692.65567		 717.71295			42974.94272		211.17800		875.00000 
 43692.65567		 305.27265			43387.38302		69.66000		324.00000 
 43692.65567		 717.71295			42974.94272		211.17800		875.00000 
 43692.65567		 305.27265			43387.38302		69.66000		324.00000 
 43692.65567		 717.71295			42974.94272		211.17800		875.00000 
 43692.65567		 305.27265			43387.38302		69.66000		324.00000 
 43692.65567		 717.71295			42974.94272		211.17800		875.00000 
 43692.65567		 305.27265			43387.38302		69.66000		324.00000 
 43692.65567		 717.71295			42974.94272		211.17800		875.00000 
 43692.65567		 305.27265			43387.38302		69.66000		324.00000 
 43692.65567		 717.71295			42974.94272		211.17800		875.00000 
 43692.65567		 305.27265			43387.38302		69.66000		324.00000 
 43692.65567		 717.71295			42974.94272		211.17800		875.00000 
 43692.65567		 305.27265			43387.38302		69.66000		324.00000 
 43692.65567		 717.71295			42974.94272		211.17800		875.00000 
 43692.65567		 305.27265			43387.38302		69.66000		324.00000 
 43692.65567		 717.71295			42974.94272		211.17800		875.00000 
 43692.65567		 305.27265			43387.38302		69.66000		324.00000 
 43692.65567		 717.71295			42974.94272		211.17800		875.00000 
 43692.65567		 305.27265			43387.38302		69.66000		324.00000 
 43692.65567		 717.71295			42974.94272		211.17800		875.00000 
 43692.65567		 305.27265			43387.38302		69.66000		324.00000 
 43692.65567		 717.71295			42974.94272		211.17800		875.00000 
 43692.65567		 305.27265			43387.38302		69.66000		324.00000 
 43692.65567		 717.71295			42974.94272		211.17800		875.00000 
 43692.65567		 305.27265			43387.38302		69.66000		324.00000 
 43692.65567		 717.71295			42974.94272		211.17800		875.00000 
 43692.65567		 305.27265			43387.38302		69.66000		324.00000 
 43692.65567		 717.71295			42974.94272		211.17800		875.00000 
 43692.65567		 305.27265			43387.38302		69.66000		324.00000 
 43692.65567		 717.71295			42974.94272		211.17800		875.00000 
 43692.65567		 305.27265			43387.38302		69.66000		324.00000 
 43692.65567		 717.71295			42974.94272		211.17800		875.00000 
 43692.65567		 305.27265			43387.38302		69.66000		324.00000 
 43692.65567		 717.71295			42974.94272		211.17800		875.00000 
 43692.65567		 305.27265			43387.38302		69.66000		324.00000 
 43692.65567		 717.71295			42974.94272		211.17800		875.00000 
 43692.65567		 305.27265			43387.38302		69.66000		324.00000 
 43692.65567		 717.71295			42974.94272		211.17800		875.00000 
 43692.65567		 305.27265			43387.38302		69.66000		324.00000 
 43692.65567		 717.71295			42974.94272		211.17800		875.00000 
 43692.65567		 305.27265			43387.38302		69.66000		324.00000 
 43692.65567		 717.71295			42974.94272		211.17800		875.00000 
 43692.65567		 305.27265			43387.38302		69.66000		324.00000 
 43692.65567		 717.71295			42974.94272		211.17800		875.00000 
 43692.65567		 305.27265			43387.38302		69.66000		324.00000 
 43692.65567		 717.71295			42974.94272		211.17800		875.00000 
 43692.65567		 305.27265			43387.38302		69.66000		324.00000 
 43692.65567		 717.71295			42974.94272		211.17800		875.00000 
 43692.65567		 305.27265			43387.38302		69.66000		324.00000 
 43692.65567		 717.71295			42974.94272		211.17800		875.00000 
 43692.65567		 305.27265			43387.38302		69.66000		324.00000 
 43692.65567		 717.71295			42974.94272		211.17800		875.00000 
 43692.65567		 305.27265			43387.38302		69.66000		324.00000 
 43692.65567		 717.71295			42974.94272		211.17800		875.00000 
 43692.65567		 305.27265			43387.38302		69.66000		324.00000 
 43692.65567		 717.71295			42974.94272		211.17800		875.00000 
 43692.65567		 305.27265			43387.38302		69.66000		324.00000 
 43692.65567		 717.71295			42974.94272		211.17800		875.00000 
 43692.65567		 305.27265			43387.38302		69.66000		324.00000 
 43692.65567		 717.71295			42974.94272		211.17800		875.00000 
 43692.65567		 305.27265			43387.38302		69.66000		324.00000 
 43692.65567		 717.71295			42974.94272		211.17800		875.00000 
 43692.65567		 305.27265			43387.38302		69.66000		324.00000 
 43692.65567		 717.71295			42974.94272		221.22600		875.00000 
 43692.65567		 305.27265			43387.38302		69.66000		324.00000 
 43692.65567		 717.71295			42974.94272		221.22600		875.00000 
 43692.65567		 305.27265			43387.38302		69.66000		324.00000 
 43692.65567		 717.71295			42974.94272		221.22600		875.00000 
 43692.65567		 305.27265			43387.38302		69.66000		324.00000 
 43692.65567		 717.71295			42974.94272		221.22600		875.00000 
 43692.65567		 305.27265			43387.38302		69.66000		324.00000 
 43692.65567		 717.71295			42974.94272		221.22600		875.00000 
 43692.65567		 305.27265			43387.38302		69.66000		324.00000 
 43692.65567		 717.71295			42974.94272		221.22600		875.00000 
 43692.65567		 305.27265			43387.38302		69.66000		324.00000 
 43692.65567		 717.71295			42974.94272		221.22600		875.00000 
 43692.65567		 305.27265			43387.38302		69.66000		324.00000 
 43692.65567		 717.71295			42974.94272		221.22600		875.00000 
 43692.65567		 305.27265			43387.38302		69.66000		324.00000 
 43692.65567		 717.71295			42974.94272		221.22600		875.00000 
 43692.65567		 305.27265			43387.38302		69.66000		324.00000 
 43692.65567		 717.71295			42974.94272		221.22600		875.00000 
 43692.65567		 305.27265			43387.38302		69.66000		324.00000 
 43692.65567		 717.71295			42974.94272		221.22600		875.00000 
 43692.65567		 305.27265			43387.38302		69.66000		324.00000 
 43692.65567		 717.71295			42974.94272		221.22600		875.00000 
 43692.65567		 305.27265			43387.38302		69.66000		324.00000 
 43692.65567		 717.71295			42974.94272		221.22600		875.00000 
 43692.65567		 305.27265			43387.38302		69.66000		324.00000 
 43692.65567		 717.71295			42974.94272		221.22600		875.00000 
 43692.65567		 305.27265			43387.38302		69.66000		324.00000 
 43692.65567		 717.71295			42974.94272		221.22600		875.00000 
 43692.65567		 305.27265			43387.38302		69.66000		324.00000 
 43692.65567		 717.71295			42974.94272		221.22600		875.00000 
 43692.65567		 305.27265			43387.38302		69.66000		324.00000 
 43692.65567		 717.71295			42974.94272		221.22600		875.00000 
 43692.65567		 305.27265			43387.38302		69.66000		324.00000 
 43692.65567		 717.71295			42974.94272		221.22600		875.00000 
 43692.65567		 305.27265			43387.38302		69.66000		324.00000 
 43692.65567		 717.71295			42974.94272		221.22600		875.00000 
 43692.65567		 305.27265			43387.38302		69.66000		324.00000 
 43692.65567		 717.71295			42974.94272		221.22600		875.00000 
 43692.65567		 305.27265			43387.38302		69.66000		324.00000 
 43692.65567		 717.71295			42974.94272		221.22600		875.00000 
 43692.65567		 305.27265			43387.38302		69.66000		324.00000 
 43692.65567		 717.71295			42974.94272		221.22600		875.00000 
 43692.65567		 305.27265			43387.38302		69.66000		324.00000 
 43692.65567		 717.71295			42974.94272		221.22600		875.00000 
 43692.65567		 305.27265			43387.38302		69.66000		324.00000 
 43692.65567		 717.71295			42974.94272		221.22600		875.00000 
 43692.65567		 305.27265			43387.38302		69.66000		324.00000 
 43692.65567		 717.71295			42974.94272		221.22600		875.00000 
 43692.65567		 305.27265			43387.38302		69.66000		324.00000 
 43692.65567		 717.71295			42974.94272		221.22600		875.00000 
 43692.65567		 305.27265			43387.38302		69.66000		324.00000 
 43692.65567		 717.71295			42974.94272		221.22600		875.00000 
 43692.65567		 305.27265			43387.38302		69.66000		324.00000 
 43692.65567		 717.71295			42974.94272		221.22600		875.00000 
 43692.65567		 305.27265			43387.38302		69.66000		324.00000 
 43692.65567		 717.71295			42974.94272		221.22600		875.00000 
 43692.65567		 305.27265			43387.38302		69.66000		324.00000 
 43692.65567		 717.71295			42974.94272		221.22600		875.00000 
 43692.65567		 305.27265			43387.38302		69.66000		324.00000 
 43692.65567		 717.71295			42974.94272		221.22600		875.00000 
 43692.65567		 305.27265			43387.38302		69.66000		324.00000 
 43692.65567		 717.71295			42974.94272		221.22600		875.00000 
 43692.65567		 305.27265			43387.38302		69.66000		324.00000 
 43692.65567		 717.71295			42974.94272		221.22600		875.00000 
 43692.65567		 305.27265			43387.38302		69.66000		324.00000 
 43692.65567		 717.71295			42974.94272		221.22600		875.00000 
 43692.65567		 305.27265			43387.38302		69.66000		324.00000 
 43692.65567		 717.71295			42974.94272		221.22600		875.00000 
 43692.65567		 305.27265			43387.38302		69.66000		324.00000 
 43692.65567		 717.71295			42974.94272		221.22600		875.00000 
 43692.65567		 305.27265			43387.38302		69.66000		324.00000 
 43692.65567		 717.71295			42974.94272		221.22600		875.00000 
 43692.65567		 305.27265			43387.38302		69.66000		324.00000 
 43692.65567		 717.71295			42974.94272		221.22600		875.00000 
 43692.65567		 305.27265			43387.38302		69.66000		324.00000 
 43692.65567		 717.71295			42974.94272		221.22600		875.00000 
 43692.65567		 305.27265			43387.38302		69.66000		324.00000 
 43692.65567		 717.71295			42974.94272		221.22600		875.00000 
 43692.65567		 305.27265			43387.38302		69.66000		324.00000 
 43692.65567		 717.71295			42974.94272		221.22600		875.00000 
 43692.65567		 305.27265			43387.38302		69.66000		324.00000 
 43692.65567		 717.71295			42974.94272		221.22600		875.00000 
 43692.65567		 305.27265			43387.38302		69.66000		324.00000 
 43692.65567		 717.71295			42974.94272		221.22600		875.00000 
 43692.65567		 305.27265			43387.38302		69.66000		324.00000 
 43692.65567		 717.71295			42974.94272		221.22600		875.00000 
 43692.65567		 305.27265			43387.38302		69.66000		324.00000 
 43692.65567		 717.71295			42974.94272		221.22600		875.00000 
 43692.65567		 305.27265			43387.38302		69.66000		324.00000 
 43692.65567		 717.71295			42974.94272		221.22600		875.00000 
 43692.65567		 305.27265			43387.38302		69.66000		324.00000 
 43692.65567		 717.71295			42974.94272		221.22600		875.00000 
 43692.65567		 305.27265			43387.38302		69.66000		324.00000 
 43692.65567		 717.71295			42974.94272		221.22600		875.00000 
 43692.65567		 305.27265			43387.38302		69.66000		324.00000 
 43692.65567		 717.71295			42974.94272		221.22600		875.00000 
 43692.65567		 305.27265			43387.38302		69.66000		324.00000 
 43692.65567		 717.71295			42974.94272		221.22600		875.00000 
 43692.65567		 305.27265			43387.38302		69.66000		324.00000 
 43692.65567		 717.71295			42974.94272		221.22600		875.00000 
 43692.65567		 305.27265			43387.38302		69.66000		324.00000 
 43692.65567		 717.71295			42974.94272		221.22600		875.00000 
 43692.65567		 305.27265			43387.38302		69.66000		324.00000 
 43692.65567		 717.71295			42974.94272		221.22600		875.00000 
 43692.65567		 305.27265			43387.38302		69.66000		324.00000 
 43692.65567		 717.71295			42974.94272		221.22600		875.00000 
 43692.65567		 305.27265			43387.38302		69.66000		324.00000 
 43692.65567		 717.71295			42974.94272		221.22600		875.00000 
 43692.65567		 305.27265			43387.38302		69.66000		324.00000 
 43692.65567		 717.71295			42974.94272		221.22600		875.00000 
 43692.65567		 305.27265			43387.38302		69.66000		324.00000 
 43692.65567		 717.71295			42974.94272		221.22600		875.00000 
 43692.65567		 305.27265			43387.38302		69.66000		324.00000 
 43692.65567		 717.71295			42974.94272		221.22600		875.00000 
 43692.65567		 305.27265			43387.38302		69.66000		324.00000 
 43692.65567		 717.71295			42974.94272		221.22600		875.00000 
 43692.65567		 305.27265			43387.38302		69.66000		324.00000 
 43692.65567		 717.71295			42974.94272		221.22600		875.00000 
 43692.65567		 305.27265			43387.38302		69.66000		324.00000 
 43692.65567		 717.71295			42974.94272		221.22600		875.00000 
 43692.65567		 305.27265			43387.38302		69.66000		324.00000 
 43692.65567		 717.71295			42974.94272		221.22600		875.00000 
 43692.65567		 305.27265			43387.38302		69.66000		324.00000 
 43692.65567		 717.71295			42974.94272		221.22600		875.00000 
 43692.65567		 305.27265			43387.38302		69.66000		324.00000 
 43692.65567		 717.71295			42974.94272		221.22600		875.00000 
 43692.65567		 305.27265			43387.38302		69.66000		324.00000 
 43692.65567		 717.71295			42974.94272		224.77000		875.00000 
 43692.65567		 305.27265			43387.38302		69.66000		324.00000 
 43692.65567		 717.71295			42974.94272		224.77000		875.00000 
 43692.65567		 305.27265			43387.38302		69.66000		324.00000 
 43692.65567		 717.71295			42974.94272		224.77000		875.00000 
 43692.65567		 305.27265			43387.38302		69.66000		324.00000 
 43692.65567		 717.71295			42974.94272		224.77000		875.00000 
 43692.65567		 305.27265			43387.38302		69.66000		324.00000 
 43692.65567		 717.71295			42974.94272		224.77000		875.00000 
 43692.65567		 305.27265			43387.38302		69.66000		324.00000 
 43692.65567		 717.71295			42974.94272		224.77000		875.00000 
 43692.65567		 305.27265			43387.38302		69.66000		324.00000 
 43692.65567		 717.71295			42974.94272		224.77000		875.00000 
 43692.65567		 305.27265			43387.38302		69.66000		324.00000 
 43692.65567		 717.71295			42974.94272		224.77000		875.00000 
 43692.65567		 305.27265			43387.38302		69.66000		324.00000 
 43692.65567		 717.71295			42974.94272		224.77000		875.00000 
 43692.65567		 305.27265			43387.38302		69.66000		324.00000 
 43692.65567		 717.71295			42974.94272		224.77000		875.00000 
 43692.65567		 305.27265			43387.38302		69.66000		324.00000 
 43692.65567		 717.71295			42974.94272		224.77000		875.00000 
 43692.65567		 305.27265			43387.38302		69.66000		324.00000 
 43692.65567		 717.71295			42974.94272		224.77000		875.00000 
 43692.65567		 305.27265			43387.38302		69.66000		324.00000 
 43692.65567		 717.71295			42974.94272		224.77000		875.00000 
 43692.65567		 305.27265			43387.38302		69.66000		324.00000 
 43692.65567		 717.71295			42974.94272		224.77000		875.00000 
 43692.65567		 305.27265			43387.38302		69.66000		324.00000 
 43692.65567		 717.71295			42974.94272		224.77000		875.00000 
 43692.65567		 305.27265			43387.38302		69.66000		324.00000 
 43692.65567		 717.71295			42974.94272		224.77000		875.00000 
 43692.65567		 305.27265			43387.38302		69.66000		324.00000 
 43692.65567		 717.71295			42974.94272		224.77000		875.00000 
 43692.65567		 305.27265			43387.38302		69.66000		324.00000 
 43692.65567		 717.71295			42974.94272		224.77000		875.00000 
 43692.65567		 305.27265			43387.38302		69.66000		324.00000 
 43692.65567		 717.71295			42974.94272		224.77000		875.00000 
 43692.65567		 305.27265			43387.38302		69.66000		324.00000 
 43692.65567		 717.71295			42974.94272		224.77000		875.00000 
 43692.65567		 305.27265			43387.38302		69.66000		324.00000 
 43692.65567		 717.71295			42974.94272		224.77000		875.00000 
 43692.65567		 305.27265			43387.38302		69.66000		324.00000 
 43692.65567		 717.71295			42974.94272		224.77000		875.00000 
 43692.65567		 305.27265			43387.38302		69.66000		324.00000 
 43692.65567		 717.71295			42974.94272		224.77000		875.00000 
 43692.65567		 305.27265			43387.38302		69.66000		324.00000 
 43692.65567		 717.71295			42974.94272		224.77000		875.00000 
 43692.65567		 305.27265			43387.38302		69.66000		324.00000 
 43692.65567		 717.71295			42974.94272		224.77000		875.00000 
 43692.65567		 305.27265			43387.38302		69.66000		324.00000 
 43692.65567		 717.71295			42974.94272		224.77000		875.00000 
 43692.65567		 305.27265			43387.38302		69.66000		324.00000 
 43692.65567		 717.71295			42974.94272		224.77000		875.00000 
 43692.65567		 305.27265			43387.38302		69.66000		324.00000 
 43692.65567		 717.71295			42974.94272		224.77000		875.00000 
 43692.65567		 305.27265			43387.38302		69.66000		324.00000 
 43692.65567		 717.71295			42974.94272		224.77000		875.00000 
 43692.65567		 305.27265			43387.38302		69.66000		324.00000 
 43692.65567		 717.71295			42974.94272		224.77000		875.00000 
 43692.65567		 305.27265			43387.38302		69.66000		324.00000 
 43692.65567		 717.71295			42974.94272		224.77000		875.00000 
 43692.65567		 305.27265			43387.38302		69.66000		324.00000 
 43692.65567		 717.71295			42974.94272		224.77000		875.00000 
 43692.65567		 305.27265			43387.38302		69.66000		324.00000 
 43692.65567		 717.71295			42974.94272		224.77000		875.00000 
 43692.65567		 305.27265			43387.38302		69.66000		324.00000 
 43692.65567		 717.71295			42974.94272		224.77000		875.00000 
 43692.65567		 305.27265			43387.38302		69.66000		324.00000 
 43692.65567		 717.71295			42974.94272		224.77000		875.00000 
 43692.65567		 305.27265			43387.38302		69.66000		324.00000 
 43692.65567		 717.71295			42974.94272		224.77000		875.00000 
 43692.65567		 305.27265			43387.38302		69.66000		324.00000 
 43692.65567		 717.71295			42974.94272		224.77000		875.00000 
 43692.65567		 305.27265			43387.38302		69.66000		324.00000 
 43692.65567		 717.71295			42974.94272		224.77000		875.00000 
 43692.65567		 305.27265			43387.38302		69.66000		324.00000 
 43692.65567		 717.71295			42974.94272		224.77000		875.00000 
 43692.65567		 305.27265			43387.38302		69.66000		324.00000 
 43692.65567		 717.71295			42974.94272		224.77000		875.00000 
 43692.65567		 305.27265			43387.38302		69.66000		324.00000 
 43692.65567		 717.71295			42974.94272		224.77000		875.00000 
 43692.65567		 305.27265			43387.38302		69.66000		324.00000 
 43692.65567		 717.71295			42974.94272		224.77000		875.00000 
 43692.65567		 305.27265			43387.38302		69.66000		324.00000 
 43692.65567		 717.71295			42974.94272		224.77000		875.00000 
 43692.65567		 305.27265			43387.38302		69.66000		324.00000 
 43692.65567		 717.71295			42974.94272		224.77000		875.00000 
 43692.65567		 305.27265			43387.38302		69.66000		324.00000 
 43692.65567		 717.71295			42974.94272		224.77000		875.00000 
 43692.65567		 305.27265			43387.38302		69.66000		324.00000 
 43692.65567		 717.71295			42974.94272		224.77000		875.00000 
 43692.65567		 305.27265			43387.38302		69.66000		324.00000 
 43692.65567		 717.71295			42974.94272		224.77000		875.00000 
 43692.65567		 305.27265			43387.38302		69.66000		324.00000 
 43692.65567		 717.71295			42974.94272		224.77000		875.00000 
 43692.65567		 305.27265			43387.38302		69.66000		324.00000 
 43692.65567		 717.71295			42974.94272		224.77000		875.00000 
 43692.65567		 305.27265			43387.38302		69.66000		324.00000 
 43692.65567		 717.71295			42974.94272		224.77000		875.00000 
 43692.65567		 305.27265			43387.38302		69.66000		324.00000 
 43692.65567		 717.71295			42974.94272		224.77000		875.00000 
 43692.65567		 305.27265			43387.38302		69.66000		324.00000 
 43692.65567		 717.71295			42974.94272		224.77000		875.00000 
 43692.65567		 305.27265			43387.38302		69.66000		324.00000 
 43692.65567		 717.71295			42974.94272		224.77000		875.00000 
 43692.65567		 305.27265			43387.38302		69.66000		324.00000 
 43692.65567		 717.71295			42974.94272		224.77000		875.00000 
 43692.65567		 305.27265			43387.38302		69.66000		324.00000 
 43692.65567		 717.71295			42974.94272		224.77000		875.00000 
 43692.65567		 305.27265			43387.38302		69.66000		324.00000 
 43692.65567		 717.71295			42974.94272		224.77000		875.00000 
 43692.65567		 305.27265			43387.38302		69.66000		324.00000 
 43692.65567		 717.71295			42974.94272		224.77000		875.00000 
 43692.65567		 305.27265			43387.38302		69.66000		324.00000 
 43692.65567		 717.71295			42974.94272		224.77000		875.00000 
 43692.65567		 305.27265			43387.38302		69.66000		324.00000 
 43692.65567		 717.71295			42974.94272		224.77000		875.00000 
 43692.65567		 305.27265			43387.38302		69.66000		324.00000 
 43692.65567		 717.71295			42974.94272		224.77000		875.00000 
 43692.65567		 305.27265			43387.38302		69.66000		324.00000 
 43692.65567		 717.71295			42974.94272		224.77000		875.00000 
 43692.65567		 305.27265			43387.38302		69.66000		324.00000 
 43692.65567		 717.71295			42974.94272		224.77000		875.00000 
 43692.65567		 305.27265			43387.38302		69.66000		324.00000 
 43692.65567		 717.71295			42974.94272		224.77000		875.00000 
 43692.65567		 305.27265			43387.38302		69.66000		324.00000 
 43692.65567		 717.71295			42974.94272		224.77000		875.00000 
 43692.65567		 305.27265			43387.38302		69.66000		324.00000 
 43692.65567		 717.71295			42974.94272		225.58400		875.00000 
 43692.65567		 305.27265			43387.38302		69.66000		324.00000 
 43692.65567		 717.71295			42974.94272		225.58400		875.00000 
 43692.65567		 305.27265			43387.38302		69.66000		324.00000 
 43692.65567		 717.71295			42974.94272		225.58400		875.00000 
 43692.65567		 305.27265			43387.38302		69.66000		324.00000 
 43692.65567		 717.71295			42974.94272		225.58400		875.00000 
 43692.65567		 305.27265			43387.38302		69.66000		324.00000 
 43692.65567		 717.71295			42974.94272		225.58400		875.00000 
 43692.65567		 305.27265			43387.38302		69.66000		324.00000 
 43692.65567		 717.71295			42974.94272		225.58400		875.00000 
 43692.65567		 305.27265			43387.38302		69.66000		324.00000 
 43692.65567		 717.71295			42974.94272		225.58400		875.00000 
 43692.65567		 305.27265			43387.38302		69.66000		324.00000 
 43692.65567		 717.71295			42974.94272		225.58400		875.00000 
 43692.65567		 305.27265			43387.38302		69.66000		324.00000 
 43692.65567		 717.71295			42974.94272		225.58400		875.00000 
 43692.65567		 305.27265			43387.38302		69.66000		324.00000 
 43692.65567		 717.71295			42974.94272		225.58400		875.00000 
 43692.65567		 305.27265			43387.38302		69.66000		324.00000 
 43692.65567		 717.71295			42974.94272		225.58400		875.00000 
 43692.65567		 305.27265			43387.38302		69.66000		324.00000 
 43692.65567		 717.71295			42974.94272		225.58400		875.00000 
 43692.65567		 305.27265			43387.38302		69.66000		324.00000 
 43692.65567		 717.71295			42974.94272		225.58400		875.00000 
 43692.65567		 305.27265			43387.38302		69.66000		324.00000 
 43692.65567		 717.71295			42974.94272		225.58400		875.00000 
 43692.65567		 305.27265			43387.38302		69.66000		324.00000 
 43692.65567		 717.71295			42974.94272		225.58400		875.00000 
 43692.65567		 305.27265			43387.38302		69.66000		324.00000 
 43692.65567		 717.71295			42974.94272		225.58400		875.00000 
 43692.65567		 305.27265			43387.38302		69.66000		324.00000 
 43692.65567		 717.71295			42974.94272		225.58400		875.00000 
 43692.65567		 305.27265			43387.38302		69.66000		324.00000 
 43692.65567		 717.71295			42974.94272		225.58400		875.00000 
 43692.65567		 305.27265			43387.38302		69.66000		324.00000 
 43692.65567		 717.71295			42974.94272		225.58400		875.00000 
 43692.65567		 305.27265			43387.38302		69.66000		324.00000 
 43692.65567		 717.71295			42974.94272		225.58400		875.00000 
 43692.65567		 305.27265			43387.38302		69.66000		324.00000 
 43692.65567		 717.71295			42974.94272		225.58400		875.00000 
 43692.65567		 305.27265			43387.38302		69.66000		324.00000 
 43692.65567		 717.71295			42974.94272		225.58400		875.00000 
 43692.65567		 305.27265			43387.38302		69.66000		324.00000 
 43692.65567		 717.71295			42974.94272		225.58400		875.00000 
 43692.65567		 305.27265			43387.38302		69.66000		324.00000 
 43692.65567		 717.71295			42974.94272		225.58400		875.00000 
 43692.65567		 305.27265			43387.38302		69.66000		324.00000 
 43692.65567		 717.71295			42974.94272		225.58400		875.00000 
 43692.65567		 305.27265			43387.38302		69.66000		324.00000 
 43692.65567		 717.71295			42974.94272		225.58400		875.00000 
 43692.65567		 305.27265			43387.38302		69.66000		324.00000 
 43692.65567		 717.71295			42974.94272		225.58400		875.00000 
 43692.65567		 305.27265			43387.38302		69.66000		324.00000 
 43692.65567		 717.71295			42974.94272		225.58400		875.00000 
 43692.65567		 305.27265			43387.38302		69.66000		324.00000 
 43692.65567		 717.71295			42974.94272		225.58400		875.00000 
 43692.65567		 305.27265			43387.38302		69.66000		324.00000 
 43692.65567		 717.71295			42974.94272		225.58400		875.00000 
 43692.65567		 305.27265			43387.38302		69.66000		324.00000 
 43692.65567		 717.71295			42974.94272		225.58400		875.00000 
 43692.65567		 305.27265			43387.38302		69.66000		324.00000 
 43692.65567		 717.71295			42974.94272		225.58400		875.00000 
 43692.65567		 305.27265			43387.38302		69.66000		324.00000 
 43692.65567		 717.71295			42974.94272		225.58400		875.00000 
 43692.65567		 305.27265			43387.38302		69.66000		324.00000 
 43692.65567		 717.71295			42974.94272		225.58400		875.00000 
 43692.65567		 305.27265			43387.38302		69.66000		324.00000 
 43692.65567		 717.71295			42974.94272		225.58400		875.00000 
 43692.65567		 305.27265			43387.38302		69.66000		324.00000 
 43692.65567		 717.71295			42974.94272		225.58400		875.00000 
 43692.65567		 305.27265			43387.38302		69.66000		324.00000 
 43692.65567		 717.71295			42974.94272		225.58400		875.00000 
 43692.65567		 305.27265			43387.38302		69.66000		324.00000 
 43692.65567		 717.71295			42974.94272		225.58400		875.00000 
 43692.65567		 305.27265			43387.38302		69.66000		324.00000 
 43692.65567		 717.71295			42974.94272		225.58400		875.00000 
 43692.65567		 305.27265			43387.38302		69.66000		324.00000 
 43692.65567		 717.71295			42974.94272		225.58400		875.00000 
 43692.65567		 305.27265			43387.38302		69.66000		324.00000 
 43692.65567		 717.71295			42974.94272		225.58400		875.00000 
 43692.65567		 305.27265			43387.38302		69.66000		324.00000 
 43692.65567		 717.71295			42974.94272		225.58400		875.00000 
 43692.65567		 305.27265			43387.38302		69.66000		324.00000 
 43692.65567		 717.71295			42974.94272		225.58400		875.00000 
 43692.65567		 305.27265			43387.38302		69.66000		324.00000 
 43692.65567		 717.71295			42974.94272		225.58400		875.00000 
 43692.65567		 305.27265			43387.38302		69.66000		324.00000 
 43692.65567		 717.71295			42974.94272		225.58400		875.00000 
 43692.65567		 305.27265			43387.38302		69.66000		324.00000 
 43692.65567		 717.71295			42974.94272		225.58400		875.00000 
 43692.65567		 305.27265			43387.38302		69.66000		324.00000 
 43692.65567		 717.71295			42974.94272		225.58400		875.00000 
 43692.65567		 305.27265			43387.38302		69.66000		324.00000 
 43692.65567		 717.71295			42974.94272		225.58400		875.00000 
 43692.65567		 305.27265			43387.38302		69.66000		324.00000 
 43692.65567		 717.71295			42974.94272		225.58400		875.00000 
 43692.65567		 305.27265			43387.38302		69.66000		324.00000 
 43692.65567		 717.71295			42974.94272		225.58400		875.00000 
 43692.65567		 305.27265			43387.38302		69.66000		324.00000 
 43692.65567		 717.71295			42974.94272		225.58400		875.00000 
 43692.65567		 305.27265			43387.38302		69.66000		324.00000 
 43692.65567		 717.71295			42974.94272		225.58400		875.00000 
 43692.65567		 305.27265			43387.38302		69.66000		324.00000 
 43692.65567		 717.71295			42974.94272		225.58400		875.00000 
 43692.65567		 305.27265			43387.38302		69.66000		324.00000 
 43692.65567		 717.71295			42974.94272		225.58400		875.00000 
 43692.65567		 305.27265			43387.38302		69.66000		324.00000 
 43692.65567		 717.71295			42974.94272		225.58400		875.00000 
 43692.65567		 305.27265			43387.38302		69.66000		324.00000 
 43692.65567		 717.71295			42974.94272		225.58400		875.00000 
 43692.65567		 305.27265			43387.38302		69.66000		324.00000 
 43692.65567		 717.71295			42974.94272		225.58400		875.00000 
 43692.65567		 305.27265			43387.38302		69.66000		324.00000 
 43692.65567		 717.71295			42974.94272		225.58400		875.00000 
 43692.65567		 305.27265			43387.38302		69.66000		324.00000 
 43692.65567		 717.71295			42974.94272		225.58400		875.00000 
 43692.65567		 305.27265			43387.38302		69.66000		324.00000 
 43692.65567		 717.71295			42974.94272		225.58400		875.00000 
 43692.65567		 305.27265			43387.38302		69.66000		324.00000 
 43692.65567		 717.71295			42974.94272		225.58400		875.00000 
 43692.65567		 305.27265			43387.38302		69.66000		324.00000 
 43692.65567		 717.71295			42974.94272		225.58400		875.00000 
 43692.65567		 305.27265			43387.38302		69.66000		324.00000 
 43692.65567		 717.71295			42974.94272		225.58400		875.00000 
 43692.65567		 305.27265			43387.38302		69.66000		324.00000 
 43692.65567		 717.71295			42974.94272		225.58400		875.00000 
 43692.65567		 305.27265			43387.38302		69.66000		324.00000 
 43692.65567		 717.71295			42974.94272		225.58400		875.00000 
 43692.65567		 305.27265			43387.38302		69.66000		324.00000 
 43692.65567		 717.71295			42974.94272		225.58400		875.00000 
 43692.65567		 305.27265			43387.38302		69.66000		324.00000 
 43692.65567		 717.71295			42974.94272		225.58400		875.00000 
 43692.65567		 305.27265			43387.38302		69.66000		324.00000 
 43692.65567		 717.71295			42974.94272		225.58400		875.00000 
 43692.65567		 305.27265			43387.38302		69.66000		324.00000 
 43692.65567		 717.71295			42974.94272		225.58400		875.00000 
 43692.65567		 305.27265			43387.38302		69.66000		324.00000 
 43692.65567		 717.71295			42974.94272		225.58400		875.00000 
 43692.65567		 305.27265			43387.38302		69.66000		324.00000 
 43692.65567		 717.71295			42974.94272		225.58400		875.00000 
 43692.65567		 305.27265			43387.38302		69.66000		324.00000 
 43692.65567		 717.71295			42974.94272		225.58400		875.00000 
 43692.65567		 305.27265			43387.38302		69.66000		324.00000 
 43692.65567		 717.71295			42974.94272		225.58400		875.00000 
 43692.65567		 305.27265			43387.38302		69.66000		324.00000 
 43692.65567		 717.71295			42974.94272		225.58400		875.00000 
 43692.65567		 305.27265			43387.38302		69.66000		324.00000 
 43692.65567		 717.71295			42974.94272		225.58400		875.00000 
 43692.65567		 305.27265			43387.38302		69.66000		324.00000 
 43692.65567		 717.71295			42974.94272		225.58400		875.00000 
 43692.65567		 305.27265			43387.38302		69.66000		324.00000 
 43692.65567		 717.71295			42974.94272		225.58400		875.00000 
 43692.65567		 305.27265			43387.38302		69.66000		324.00000 
 43692.65567		 717.71295			42974.94272		225.58400		875.00000 
 43692.65567		 305.27265			43387.38302		69.66000		324.00000 
 43692.65567		 717.71295			42974.94272		225.58400		875.00000 
 43692.65567		 305.27265			43387.38302		69.66000		324.00000 
 43692.65567		 717.71295			42974.94272		225.58400		875.00000 
 43692.65567		 305.27265			43387.38302		69.66000		324.00000 
 43692.65567		 717.71295			42974.94272		225.58400		875.00000 
 43692.65567		 305.27265			43387.38302		69.66000		324.00000 
 43692.65567		 717.71295			42974.94272		225.58400		875.00000 
 43692.65567		 305.27265			43387.38302		69.66000		324.00000 
 43692.65567		 717.71295			42974.94272		225.58400		875.00000 
 43692.65567		 305.27265			43387.38302		69.66000		324.00000 
 43692.65567		 717.71295			42974.94272		225.58400		875.00000 
 43692.65567		 305.27265			43387.38302		69.66000		324.00000 
 43692.65567		 717.71295			42974.94272		225.58400		875.00000 
 43692.65567		 305.27265			43387.38302		69.66000		324.00000 
 43692.65567		 717.71295			42974.94272		225.58400		875.00000 
 43692.65567		 305.27265			43387.38302		69.66000		324.00000 
 43692.65567		 717.71295			42974.94272		225.58400		875.00000 
 43692.65567		 305.27265			43387.38302		69.66000		324.00000 
 43692.65567		 717.71295			42974.94272		225.58400		875.00000 
 43692.65567		 305.27265			43387.38302		69.66000		324.00000 
 43692.65567		 717.71295			42974.94272		225.58400		875.00000 
 43692.65567		 305.27265			43387.38302		69.66000		324.00000 
 43692.65567		 717.71295			42974.94272		225.58400		875.00000 
 43692.65567		 305.27265			43387.38302		69.66000		324.00000 
 43692.65567		 717.71295			42974.94272		225.58400		875.00000 
 43692.65567		 305.27265			43387.38302		69.66000		324.00000 
 43692.65567		 717.71295			42974.94272		225.58400		875.00000 
 43692.65567		 305.27265			43387.38302		69.66000		324.00000 
 43692.65567		 717.71295			42974.94272		225.58400		875.00000 
 43692.65567		 305.27265			43387.38302		69.66000		324.00000 
 43692.65567		 717.71295			42974.94272		225.58400		875.00000 
 43692.65567		 305.27265			43387.38302		69.66000		324.00000 
 43692.65567		 717.71295			42974.94272		225.58400		875.00000 
 43692.65567		 305.27265			43387.38302		69.66000		324.00000 
 43692.65567		 717.71295			42974.94272		225.58400		875.00000 
 43692.65567		 305.27265			43387.38302		69.66000		324.00000 
 43692.65567		 717.71295			42974.94272		225.58400		875.00000 
 43692.65567		 305.27265			43387.38302		69.66000		324.00000 
 43692.65567		 717.71295			42974.94272		225.58400		875.00000 
 43692.65567		 305.27265			43387.38302		69.66000		324.00000 
 43692.65567		 717.71295			42974.94272		225.58400		875.00000 
 43692.65567		 305.27265			43387.38302		69.66000		324.00000 
 43692.65567		 717.71295			42974.94272		225.58400		875.00000 
 43692.65567		 305.27265			43387.38302		69.66000		324.00000 
 43692.65567		 717.71295			42974.94272		225.58400		875.00000 
 43692.65567		 305.27265			43387.38302		69.66000		324.00000 
 43692.65567		 717.71295			42974.94272		225.58400		875.00000 
 43692.65567		 305.27265			43387.38302		69.66000		324.00000 
 43692.65567		 717.71295			42974.94272		225.58400		875.00000 
 43692.65567		 305.27265			43387.38302		69.66000		324.00000 
 43692.65567		 717.71295			42974.94272		225.58400		875.00000 
 43692.65567		 305.27265			43387.38302		69.66000		324.00000 
 43692.65567		 717.71295			42974.94272		225.58400		875.00000 
 43692.65567		 305.27265			43387.38302		69.66000		324.00000 
 43692.65567		 717.71295			42974.94272		225.58400		875.00000 
 43692.65567		 305.27265			43387.38302		69.66000		324.00000 
 43692.65567		 717.71295			42974.94272		225.58400		875.00000 
 43692.65567		 305.27265			43387.38302		69.66000		324.00000 
 43692.65567		 717.71295			42974.94272		225.58400		875.00000 
 43692.65567		 305.27265			43387.38302		69.66000		324.00000 
 43692.65567		 717.71295			42974.94272		225.58400		875.00000 
 43692.65567		 305.27265			43387.38302		69.66000		324.00000 
 43692.65567		 717.71295			42974.94272		225.58400		875.00000 
 43692.65567		 305.27265			43387.38302		69.66000		324.00000 
 43692.65567		 717.71295			42974.94272		225.58400		875.00000 
 43692.65567		 305.27265			43387.38302		69.66000		324.00000 
 43692.65567		 717.71295			42974.94272		225.58400		875.00000 
 43692.65567		 305.27265			43387.38302		69.66000		324.00000 
 43692.65567		 717.71295			42974.94272		225.58400		875.00000 
 43692.65567		 305.27265			43387.38302		69.66000		324.00000 
 43692.65567		 717.71295			42974.94272		225.58400		875.00000 
 43692.65567		 305.27265			43387.38302		69.66000		324.00000 
 43692.65567		 717.71295			42974.94272		225.58400		875.00000 
 43692.65567		 305.27265			43387.38302		69.66000		324.00000 
 43692.65567		 717.71295			42974.94272		225.58400		875.00000 
 43692.65567		 305.27265			43387.38302		69.66000		324.00000 
 43692.65567		 717.71295			42974.94272		225.58400		875.00000 
 43692.65567		 305.27265			43387.38302		69.66000		324.00000 
 43692.65567		 717.71295			42974.94272		225.58400		875.00000 
 43692.65567		 305.27265			43387.38302		69.66000		324.00000 
 43692.65567		 717.71295			42974.94272		225.58400		875.00000 
 43692.65567		 305.27265			43387.38302		69.66000		324.00000 
 43692.65567		 717.71295			42974.94272		225.58400		875.00000 
 43692.65567		 305.27265			43387.38302		69.66000		324.00000 
 43692.65567		 717.71295			42974.94272		225.58400		875.00000 
 43692.65567		 305.27265			43387.38302		69.66000		324.00000 
 43692.65567		 717.71295			42974.94272		225.58400		875.00000 
 43692.65567		 305.27265			43387.38302		70.12600		324.00000 
 43692.65567		 717.71295			42974.94272		225.58400		875.00000 
 43692.65567		 305.27265			43387.38302		70.12600		324.00000 
 43692.65567		 717.71295			42974.94272		225.58400		875.00000 
 43692.65567		 305.27265			43387.38302		70.12600		324.00000 
 43692.65567		 717.71295			42974.94272		225.58400		875.00000 
 43692.65567		 305.27265			43387.38302		70.12600		324.00000 
 43692.65567		 717.71295			42974.94272		225.58400		875.00000 
 43692.65567		 305.27265			43387.38302		70.12600		324.00000 
 43692.65567		 717.71295			42974.94272		225.58400		875.00000 
 43692.65567		 305.27265			43387.38302		70.12600		324.00000 
 43692.65567		 717.71295			42974.94272		225.58400		875.00000 
 43692.65567		 305.27265			43387.38302		70.12600		324.00000 
 43692.65567		 717.71295			42974.94272		225.58400		875.00000 
 43692.65567		 305.27265			43387.38302		70.12600		324.00000 
 43692.65567		 717.71295			42974.94272		225.58400		875.00000 
 43692.65567		 305.27265			43387.38302		70.12600		324.00000 
 43692.65567		 717.71295			42974.94272		225.58400		875.00000 
 43692.65567		 305.27265			43387.38302		70.12600		324.00000 
 43692.65567		 717.71295			42974.94272		225.58400		875.00000 
 43692.65567		 305.27265			43387.38302		70.12600		324.00000 
 43692.65567		 717.71295			42974.94272		225.58400		875.00000 
 43692.65567		 305.27265			43387.38302		70.12600		324.00000 
 43692.65567		 717.71295			42974.94272		225.58400		875.00000 
 43692.65567		 305.27265			43387.38302		70.12600		324.00000 
 43692.65567		 717.71295			42974.94272		225.58400		875.00000 
 43692.65567		 305.27265			43387.38302		70.12600		324.00000 
 43692.65567		 717.71295			42974.94272		225.58400		875.00000 
 43692.65567		 305.27265			43387.38302		70.12600		324.00000 
 43692.65567		 717.71295			42974.94272		225.58400		875.00000 
 43692.65567		 305.27265			43387.38302		70.12600		324.00000 
 43692.65567		 717.71295			42974.94272		225.58400		875.00000 
 43692.65567		 305.27265			43387.38302		70.12600		324.00000 
 43692.65567		 717.71295			42974.94272		225.58400		875.00000 
 43692.65567		 305.27265			43387.38302		70.12600		324.00000 
 43692.65567		 717.71295			42974.94272		225.58400		875.00000 
 43692.65567		 305.27265			43387.38302		70.12600		324.00000 
 43692.65567		 717.71295			42974.94272		225.58400		875.00000 
 43692.65567		 305.27265			43387.38302		70.12600		324.00000 
 43692.65567		 717.71295			42974.94272		225.58400		875.00000 
 43692.65567		 305.27265			43387.38302		70.12600		324.00000 
 43692.65567		 717.71295			42974.94272		225.58400		875.00000 
 43692.65567		 305.27265			43387.38302		70.12600		324.00000 
 43692.65567		 717.71295			42974.94272		225.58400		875.00000 
 43692.65567		 305.27265			43387.38302		70.12600		324.00000 
 43692.65567		 717.71295			42974.94272		225.58400		875.00000 
 43692.65567		 305.27265			43387.38302		70.12600		324.00000 
 43692.65567		 717.71295			42974.94272		225.58400		875.00000 
 43692.65567		 305.27265			43387.38302		70.12600		324.00000 
 43692.65567		 717.71295			42974.94272		225.58400		875.00000 
 43692.65567		 305.27265			43387.38302		70.12600		324.00000 
 43692.65567		 717.71295			42974.94272		225.58400		875.00000 
 43692.65567		 305.27265			43387.38302		70.12600		324.00000 
 43692.65567		 717.71295			42974.94272		225.58400		875.00000 
 43692.65567		 305.27265			43387.38302		70.12600		324.00000 
 43692.65567		 717.71295			42974.94272		225.58400		875.00000 
 43692.65567		 305.27265			43387.38302		70.12600		324.00000 
 43692.65567		 717.71295			42974.94272		225.58400		875.00000 
 43692.65567		 305.27265			43387.38302		70.12600		324.00000 
 43692.65567		 717.71295			42974.94272		225.58400		875.00000 
 43692.65567		 305.27265			43387.38302		70.12600		324.00000 
 43692.65567		 717.71295			42974.94272		225.58400		875.00000 
 43692.65567		 305.27265			43387.38302		70.12600		324.00000 
 43692.65567		 717.71295			42974.94272		225.58400		875.00000 
 43692.65567		 305.27265			43387.38302		70.12600		324.00000 
 43692.65567		 717.71295			42974.94272		225.58400		875.00000 
 43692.65567		 305.27265			43387.38302		70.12600		324.00000 
 43692.65567		 717.71295			42974.94272		225.58400		875.00000 
 43692.65567		 305.27265			43387.38302		70.12600		324.00000 
 43692.65567		 717.71295			42974.94272		225.58400		875.00000 
 43692.65567		 305.27265			43387.38302		70.12600		324.00000 
 43692.65567		 717.71295			42974.94272		225.58400		875.00000 
 43692.65567		 305.27265			43387.38302		70.12600		324.00000 
 43692.65567		 717.71295			42974.94272		225.58400		875.00000 
 43692.65567		 305.27265			43387.38302		70.12600		324.00000 
 43692.65567		 717.71295			42974.94272		225.58400		875.00000 
 43692.65567		 305.27265			43387.38302		70.12600		324.00000 
 43692.65567		 717.71295			42974.94272		225.58400		875.00000 
 43692.65567		 305.27265			43387.38302		70.12600		324.00000 
 43692.65567		 717.71295			42974.94272		225.58400		875.00000 
 43692.65567		 305.27265			43387.38302		70.12600		324.00000 
 43692.65567		 717.71295			42974.94272		225.58400		875.00000 
 43692.65567		 305.27265			43387.38302		70.12600		324.00000 
 43692.65567		 717.71295			42974.94272		225.58400		875.00000 
 43692.65567		 305.27265			43387.38302		70.12600		324.00000 
 43692.65567		 717.71295			42974.94272		225.58400		875.00000 
 43692.65567		 305.27265			43387.38302		70.12600		324.00000 
 43692.65567		 717.71295			42974.94272		225.58400		875.00000 
 43692.65567		 305.27265			43387.38302		70.12600		324.00000 
 43692.65567		 717.71295			42974.94272		225.58400		875.00000 
 43692.65567		 305.27265			43387.38302		70.12600		324.00000 
 43692.65567		 717.71295			42974.94272		225.58400		875.00000 
 43692.65567		 305.27265			43387.38302		70.12600		324.00000 
 43692.65567		 717.71295			42974.94272		225.58400		875.00000 
 43692.65567		 305.27265			43387.38302		70.12600		324.00000 
 43692.65567		 717.71295			42974.94272		225.58400		875.00000 
 43692.65567		 305.27265			43387.38302		70.12600		324.00000 
 43692.65567		 717.71295			42974.94272		225.58400		875.00000 
 43692.65567		 305.27265			43387.38302		70.12600		324.00000 
 43692.65567		 717.71295			42974.94272		225.58400		875.00000 
 43692.65567		 305.27265			43387.38302		70.12600		324.00000 
 43692.65567		 717.71295			42974.94272		225.58400		875.00000 
 43692.65567		 305.27265			43387.38302		70.12600		324.00000 
 43692.65567		 717.71295			42974.94272		225.58400		875.00000 
 43692.65567		 305.27265			43387.38302		70.12600		324.00000 
 43692.65567		 717.71295			42974.94272		225.58400		875.00000 
 43692.65567		 305.27265			43387.38302		70.12600		324.00000 
 43692.65567		 717.71295			42974.94272		225.58400		875.00000 
 43692.65567		 305.27265			43387.38302		70.12600		324.00000 
 43692.65567		 717.71295			42974.94272		225.58400		875.00000 
 43692.65567		 305.27265			43387.38302		70.12600		324.00000 
 43692.65567		 717.71295			42974.94272		225.58400		875.00000 
 43692.65567		 305.27265			43387.38302		70.12600		324.00000 
 43692.65567		 717.71295			42974.94272		225.58400		875.00000 
 43692.65567		 305.27265			43387.38302		70.12600		324.00000 
 43692.65567		 717.71295			42974.94272		225.58400		875.00000 
 43692.65567		 305.27265			43387.38302		70.12600		324.00000 
 43692.65567		 717.71295			42974.94272		225.58400		875.00000 
 43692.65567		 305.27265			43387.38302		70.12600		324.00000 
 43692.65567		 717.71295			42974.94272		225.58400		875.00000 
 43692.65567		 305.27265			43387.38302		70.12600		324.00000 
 43692.65567		 717.71295			42974.94272		225.58400		875.00000 
 43692.65567		 305.27265			43387.38302		70.12600		324.00000 
 43692.65567		 717.71295			42974.94272		225.58400		875.00000 
 43692.65567		 305.27265			43387.38302		70.12600		324.00000 
 43692.65567		 717.71295			42974.94272		225.58400		875.00000 
 43692.65567		 305.27265			43387.38302		70.12600		324.00000 
 43692.65567		 717.71295			42974.94272		225.58400		875.00000 
 43692.65567		 305.27265			43387.38302		70.12600		324.00000 
 43692.65567		 717.71295			42974.94272		225.58400		875.00000 
 43692.65567		 305.27265			43387.38302		70.12600		324.00000 
 43692.65567		 717.71295			42974.94272		225.58400		875.00000 
 43692.65567		 305.27265			43387.38302		70.12600		324.00000 
 43692.65567		 717.71295			42974.94272		225.58400		875.00000 
 43692.65567		 305.27265			43387.38302		70.12600		324.00000 
 43692.65567		 717.71295			42974.94272		225.58400		875.00000 
 43692.65567		 305.27265			43387.38302		70.12600		324.00000 
 43692.65567		 717.71295			42974.94272		225.58400		875.00000 
 43692.65567		 305.27265			43387.38302		70.12600		324.00000 
 43692.65567		 717.71295			42974.94272		225.58400		875.00000 
 43692.65567		 305.27265			43387.38302		70.12600		324.00000 
 43692.65567		 717.71295			42974.94272		225.58400		875.00000 
 43692.65567		 305.27265			43387.38302		70.12600		324.00000 
 43692.65567		 717.71295			42974.94272		225.58400		875.00000 
 43692.65567		 305.27265			43387.38302		70.12600		324.00000 
 43692.65567		 717.71295			42974.94272		225.58400		875.00000 
 43692.65567		 305.27265			43387.38302		70.12600		324.00000 
 43692.65567		 717.71295			42974.94272		225.58400		875.00000 
 43692.65567		 305.27265			43387.38302		70.12600		324.00000 
 43692.65567		 717.71295			42974.94272		225.58400		875.00000 
 43692.65567		 305.27265			43387.38302		70.12600		324.00000 
 43692.65567		 717.71295			42974.94272		225.58400		875.00000 
 43692.65567		 305.27265			43387.38302		70.12600		324.00000 
 43692.65567		 717.71295			42974.94272		225.58400		875.00000 
 43692.65567		 305.27265			43387.38302		70.12600		324.00000 
 43692.65567		 717.71295			42974.94272		225.58400		875.00000 
 43692.65567		 305.27265			43387.38302		70.12600		324.00000 
 43692.65567		 717.71295			42974.94272		225.58400		875.00000 
 43692.65567		 305.27265			43387.38302		70.12600		324.00000 
 43692.65567		 717.71295			42974.94272		225.58400		875.00000 
 43692.65567		 305.27265			43387.38302		70.12600		324.00000 
 43692.65567		 717.71295			42974.94272		225.58400		875.00000 
 43692.65567		 305.27265			43387.38302		70.12600		324.00000 
 43692.65567		 717.71295			42974.94272		225.58400		875.00000 
 43692.65567		 305.27265			43387.38302		70.12600		324.00000 
 43692.65567		 717.71295			42974.94272		225.58400		875.00000 
 43692.65567		 305.27265			43387.38302		70.12600		324.00000 
 43692.65567		 717.71295			42974.94272		225.58400		875.00000 
 43692.65567		 305.27265			43387.38302		70.12600		324.00000 
 43692.65567		 717.71295			42974.94272		225.58400		875.00000 
 43692.65567		 305.27265			43387.38302		70.12600		324.00000 
 43692.65567		 717.71295			42974.94272		225.58400		875.00000 
 43692.65567		 305.27265			43387.38302		70.12600		324.00000 
 43692.65567		 717.71295			42974.94272		225.58400		875.00000 
 43692.65567		 305.27265			43387.38302		70.12600		324.00000 
 43692.65567		 717.71295			42974.94272		225.58400		875.00000 
 43692.65567		 305.27265			43387.38302		70.12600		324.00000 
 43692.65567		 717.71295			42974.94272		225.58400		875.00000 
 43692.65567		 305.27265			43387.38302		70.12600		324.00000 
 43692.65567		 717.71295			42974.94272		225.58400		875.00000 
 43692.65567		 305.27265			43387.38302		70.12600		324.00000 
 43692.65567		 717.71295			42974.94272		225.58400		875.00000 
 43692.65567		 305.27265			43387.38302		70.12600		324.00000 
 43692.65567		 717.71295			42974.94272		225.58400		875.00000 
 43692.65567		 305.27265			43387.38302		70.12600		324.00000 
 43692.65567		 717.71295			42974.94272		225.58400		875.00000 
 43692.65567		 305.27265			43387.38302		70.12600		324.00000 
 43692.65567		 717.71295			42974.94272		225.58400		875.00000 
 43692.65567		 305.27265			43387.38302		70.12600		324.00000 
 43692.65567		 717.71295			42974.94272		225.58400		875.00000 
 43692.65567		 305.27265			43387.38302		70.12600		324.00000 
 43692.65567		 717.71295			42974.94272		225.58400		875.00000 
 43692.65567		 305.27265			43387.38302		70.12600		324.00000 
 43692.65567		 717.71295			42974.94272		225.58400		875.00000 
 43692.65567		 305.27265			43387.38302		70.12600		324.00000 
 43692.65567		 717.71295			42974.94272		225.58400		875.00000 
 43692.65567		 305.27265			43387.38302		70.12600		324.00000 
 43692.65567		 717.71295			42974.94272		225.58400		875.00000 
 43692.65567		 305.27265			43387.38302		70.12600		324.00000 
 43692.65567		 717.71295			42974.94272		225.58400		875.00000 
 43692.65567		 305.27265			43387.38302		70.12600		324.00000 
 43692.65567		 717.71295			42974.94272		225.58400		875.00000 
 43692.65567		 305.27265			43387.38302		70.12600		324.00000 
 43692.65567		 717.71295			42974.94272		225.58400		875.00000 
 43692.65567		 305.27265			43387.38302		70.12600		324.00000 
 43692.65567		 717.71295			42974.94272		225.58400		875.00000 
 43692.65567		 305.27265			43387.38302		70.12600		324.00000 
 43692.65567		 717.71295			42974.94272		225.58400		875.00000 
 43692.65567		 305.27265			43387.38302		70.12600		324.00000 
 43692.65567		 717.71295			42974.94272		225.58400		875.00000 
 43692.65567		 305.27265			43387.38302		70.12600		324.00000 
 43692.65567		 717.71295			42974.94272		225.58400		875.00000 
 43692.65567		 305.27265			43387.38302		70.12600		324.00000 
 43692.65567		 717.71295			42974.94272		225.58400		875.00000 
 43692.65567		 305.27265			43387.38302		70.12600		324.00000 
 43692.65567		 717.71295			42974.94272		225.58400		875.00000 
 43692.65567		 305.27265			43387.38302		70.12600		324.00000 
 43692.65567		 717.71295			42974.94272		225.58400		875.00000 
 43692.65567		 305.27265			43387.38302		70.12600		324.00000 
 43692.65567		 717.71295			42974.94272		225.58400		875.00000 
 43692.65567		 305.27265			43387.38302		70.12600		324.00000 
 43692.65567		 717.71295			42974.94272		225.58400		875.00000 
 43692.65567		 305.27265			43387.38302		70.12600		324.00000 
 43692.65567		 717.71295			42974.94272		225.58400		875.00000 
 43692.65567		 305.27265			43387.38302		70.12600		324.00000 
 43692.65567		 717.71295			42974.94272		225.58400		875.00000 
 43692.65567		 305.27265			43387.38302		70.12600		324.00000 
 43692.65567		 717.71295			42974.94272		225.58400		875.00000 
 43692.65567		 305.27265			43387.38302		70.12600		324.00000 
 43692.65567		 717.71295			42974.94272		225.58400		875.00000 
 43692.65567		 305.27265			43387.38302		70.12600		324.00000 
 43692.65567		 717.71295			42974.94272		225.58400		875.00000 
 43692.65567		 305.27265			43387.38302		70.12600		324.00000 
 43692.65567		 717.71295			42974.94272		225.58400		875.00000 
 43692.65567		 305.27265			43387.38302		70.12600		324.00000 
 43692.65567		 717.71295			42974.94272		225.58400		875.00000 
 43692.65567		 305.27265			43387.38302		70.12600		324.00000 
 43692.65567		 717.71295			42974.94272		225.58400		875.00000 
 43692.65567		 305.27265			43387.38302		70.12600		324.00000 
 43692.65567		 717.71295			42974.94272		225.58400		875.00000 
 43692.65567		 305.27265			43387.38302		70.12600		324.00000 
 43692.65567		 717.71295			42974.94272		225.58400		875.00000 
 43692.65567		 305.27265			43387.38302		70.12600		324.00000 
 43692.65567		 717.71295			42974.94272		225.58400		875.00000 
 43692.65567		 305.27265			43387.38302		70.12600		324.00000 
 43692.65567		 717.71295			42974.94272		225.58400		875.00000 
 43692.65567		 305.27265			43387.38302		70.12600		324.00000 
 43692.65567		 717.71295			42974.94272		225.58400		875.00000 
 43692.65567		 305.27265			43387.38302		70.12600		324.00000 
 43692.65567		 717.71295			42974.94272		225.58400		875.00000 
 43692.65567		 305.27265			43387.38302		70.12600		324.00000 
 43692.65567		 717.71295			42974.94272		225.58400		875.00000 
 43692.65567		 305.27265			43387.38302		70.12600		324.00000 
 43692.65567		 717.71295			42974.94272		225.58400		875.00000 
 43692.65567		 305.27265			43387.38302		70.12600		324.00000 
 43692.65567		 717.71295			42974.94272		225.58400		875.00000 
 43692.65567		 305.27265			43387.38302		70.12600		324.00000 
 43692.65567		 717.71295			42974.94272		225.58400		875.00000 
 43692.65567		 305.27265			43387.38302		70.12600		324.00000 
 43692.65567		 717.71295			42974.94272		225.58400		875.00000 
 43692.65567		 305.27265			43387.38302		70.12600		324.00000 
 43692.65567		 717.71295			42974.94272		225.58400		875.00000 
 43692.65567		 305.27265			43387.38302		70.12600		324.00000 
 43692.65567		 717.71295			42974.94272		225.58400		875.00000 
 43692.65567		 305.27265			43387.38302		70.12600		324.00000 
 43692.65567		 717.71295			42974.94272		225.58400		875.00000 
 43692.65567		 305.27265			43387.38302		70.12600		324.00000 
 43692.65567		 717.71295			42974.94272		225.58400		875.00000 
 43692.65567		 305.27265			43387.38302		70.12600		324.00000 
 43692.65567		 717.71295			42974.94272		225.58400		875.00000 
 43692.65567		 305.27265			43387.38302		70.12600		324.00000 
 43692.65567		 717.71295			42974.94272		225.58400		875.00000 
 43692.65567		 305.27265			43387.38302		70.12600		324.00000 
 43692.65567		 717.71295			42974.94272		225.58400		875.00000 
 43692.65567		 305.27265			43387.38302		70.12600		324.00000 
 43692.65567		 717.71295			42974.94272		225.58400		875.00000 
 43692.65567		 305.27265			43387.38302		70.12600		324.00000 
 43692.65567		 717.71295			42974.94272		225.58400		875.00000 
 43692.65567		 305.27265			43387.38302		70.12600		324.00000 
 43692.65567		 717.71295			42974.94272		225.58400		875.00000 
 43692.65567		 305.27265			43387.38302		70.12600		324.00000 
 43692.65567		 717.71295			42974.94272		225.58400		875.00000 
 43692.65567		 305.27265			43387.38302		70.12600		324.00000 
 43692.65567		 717.71295			42974.94272		225.58400		875.00000 
 43692.65567		 305.27265			43387.38302		70.12600		324.00000 
 43692.65567		 717.71295			42974.94272		225.58400		875.00000 
 43692.65567		 305.27265			43387.38302		70.12600		324.00000 
 43692.65567		 717.71295			42974.94272		225.58400		875.00000 
 43692.65567		 305.27265			43387.38302		70.12600		324.00000 
 43692.65567		 717.71295			42974.94272		225.58400		875.00000 
 43692.65567		 305.27265			43387.38302		70.12600		324.00000 
 43692.65567		 717.71295			42974.94272		225.58400		875.00000 
 43692.65567		 305.27265			43387.38302		70.12600		324.00000 
 43692.65567		 717.71295			42974.94272		225.58400		875.00000 
 43692.65567		 305.27265			43387.38302		70.12600		324.00000 
 43692.65567		 717.71295			42974.94272		225.58400		875.00000 
 43692.65567		 305.27265			43387.38302		70.12600		324.00000 
 43692.65567		 717.71295			42974.94272		225.58400		875.00000 
 43692.65567		 305.27265			43387.38302		70.12600		324.00000 
 43692.65567		 717.71295			42974.94272		225.58400		875.00000 
 43692.65567		 305.27265			43387.38302		70.12600		324.00000 
 43692.65567		 717.71295			42974.94272		225.58400		875.00000 
 43692.65567		 305.27265			43387.38302		70.12600		324.00000 
 43692.65567		 717.71295			42974.94272		225.58400		875.00000 
 43692.65567		 305.27265			43387.38302		70.12600		324.00000 
 43692.65567		 717.71295			42974.94272		225.58400		875.00000 
 43692.65567		 305.27265			43387.38302		70.12600		324.00000 
 43692.65567		 717.71295			42974.94272		225.58400		875.00000 
 43692.65567		 305.27265			43387.38302		70.12600		324.00000 
 43692.65567		 717.71295			42974.94272		225.58400		875.00000 
 43692.65567		 305.27265			43387.38302		70.12600		324.00000 
 43692.65567		 717.71295			42974.94272		225.58400		875.00000 
 43692.65567		 305.27265			43387.38302		70.12600		324.00000 
 43692.65567		 717.71295			42974.94272		225.58400		875.00000 
 43692.65567		 305.27265			43387.38302		70.12600		324.00000 
 43692.65567		 717.71295			42974.94272		225.58400		875.00000 
 43692.65567		 305.27265			43387.38302		70.12600		324.00000 
 43692.65567		 717.71295			42974.94272		225.58400		875.00000 
 43692.65567		 305.27265			43387.38302		70.12600		324.00000 
 43692.65567		 717.71295			42974.94272		225.58400		875.00000 
 43692.65567		 305.27265			43387.38302		70.12600		324.00000 
 43692.65567		 717.71295			42974.94272		225.58400		875.00000 
 43692.65567		 305.27265			43387.38302		70.12600		324.00000 
 43692.65567		 717.71295			42974.94272		225.58400		875.00000 
 43692.65567		 305.27265			43387.38302		70.12600		324.00000 
 43692.65567		 717.71295			42974.94272		225.58400		875.00000 
 43692.65567		 305.27265			43387.38302		70.12600		324.00000 
 43692.65567		 717.71295			42974.94272		225.58400		875.00000 
 43692.65567		 305.27265			43387.38302		70.12600		324.00000 
 43692.65567		 717.71295			42974.94272		225.58400		875.00000 
 43692.65567		 305.27265			43387.38302		70.12600		324.00000 
 43692.65567		 717.71295			42974.94272		225.58400		875.00000 
 43692.65567		 305.27265			43387.38302		70.12600		324.00000 
 43692.65567		 717.71295			42974.94272		225.58400		875.00000 
 43692.65567		 305.27265			43387.38302		70.12600		324.00000 
 43692.65567		 717.71295			42974.94272		225.58400		875.00000 
 43692.65567		 305.27265			43387.38302		70.12600		324.00000 
 43692.65567		 717.71295			42974.94272		225.58400		875.00000 
 43692.65567		 305.27265			43387.38302		70.12600		324.00000 
 43692.65567		 717.71295			42974.94272		225.58400		875.00000 
 43692.65567		 305.27265			43387.38302		70.12600		324.00000 
 43692.65567		 717.71295			42974.94272		225.58400		875.00000 
 43692.65567		 305.27265			43387.38302		70.12600		324.00000 
 43692.65567		 717.71295			42974.94272		225.58400		875.00000 
 43692.65567		 305.27265			43387.38302		70.12600		324.00000 
 43692.65567		 717.71295			42974.94272		225.58400		875.00000 
 43692.65567		 305.27265			43387.38302		70.12600		324.00000 
 43692.65567		 717.71295			42974.94272		225.58400		875.00000 
 43692.65567		 305.27265			43387.38302		70.12600		324.00000 
 43692.65567		 717.71295			42974.94272		225.58400		875.00000 
 43692.65567		 305.27265			43387.38302		70.12600		324.00000 
 43692.65567		 717.71295			42974.94272		225.58400		875.00000 
 43692.65567		 305.27265			43387.38302		70.12600		324.00000 
 43692.65567		 717.71295			42974.94272		225.58400		875.00000 
 43692.65567		 305.27265			43387.38302		70.12600		324.00000 
 43692.65567		 717.71295			42974.94272		225.58400		875.00000 
 43692.65567		 305.27265			43387.38302		70.12600		324.00000 
 43692.65567		 717.71295			42974.94272		225.58400		875.00000 
 43692.65567		 305.27265			43387.38302		70.12600		324.00000 
 43692.65567		 717.71295			42974.94272		225.58400		875.00000 
 43692.65567		 305.27265			43387.38302		70.12600		324.00000 
 43692.65567		 717.71295			42974.94272		225.58400		875.00000 
 43692.65567		 305.27265			43387.38302		70.12600		324.00000 
 43692.65567		 717.71295			42974.94272		225.58400		875.00000 
 43692.65567		 305.27265			43387.38302		70.12600		324.00000 
 43692.65567		 717.71295			42974.94272		225.58400		875.00000 
 43692.65567		 305.27265			43387.38302		70.12600		324.00000 
 43692.65567		 717.71295			42974.94272		225.58400		875.00000 
 43692.65567		 305.27265			43387.38302		70.12600		324.00000 
 43692.65567		 717.71295			42974.94272		225.58400		875.00000 
 43692.65567		 305.27265			43387.38302		70.12600		324.00000 
 43692.65567		 717.71295			42974.94272		225.58400		875.00000 
 43692.65567		 305.27265			43387.38302		70.12600		324.00000 
 43692.65567		 717.71295			42974.94272		225.58400		875.00000 
 43692.65567		 305.27265			43387.38302		70.12600		324.00000 
 43692.65567		 717.71295			42974.94272		225.58400		875.00000 
 43692.65567		 305.27265			43387.38302		70.12600		324.00000 
 43692.65567		 717.71295			42974.94272		225.58400		875.00000 
 43692.65567		 305.27265			43387.38302		70.12600		324.00000 
 43692.65567		 717.71295			42974.94272		225.58400		875.00000 
 43692.65567		 305.27265			43387.38302		70.12600		324.00000 
 43692.65567		 717.71295			42974.94272		225.58400		875.00000 
 43692.65567		 305.27265			43387.38302		70.12600		324.00000 
 43692.65567		 717.71295			42974.94272		225.58400		875.00000 
 43692.65567		 305.27265			43387.38302		70.12600		324.00000 
 43692.65567		 717.71295			42974.94272		225.58400		875.00000 
 43692.65567		 305.27265			43387.38302		70.12600		324.00000 
 43692.65567		 717.71295			42974.94272		225.58400		875.00000 
 43692.65567		 305.27265			43387.38302		70.12600		324.00000 
 43692.65567		 717.71295			42974.94272		225.58400		875.00000 
 43692.65567		 305.27265			43387.38302		70.12600		324.00000 
 43692.65567		 717.71295			42974.94272		225.58400		875.00000 
 43692.65567		 305.27265			43387.38302		70.12600		324.00000 
 43692.65567		 717.71295			42974.94272		225.58400		875.00000 
 43692.65567		 305.27265			43387.38302		70.12600		324.00000 
 43692.65567		 717.71295			42974.94272		225.58400		875.00000 
 43692.65567		 305.27265			43387.38302		70.12600		324.00000 
 43692.65567		 717.71295			42974.94272		226.18400		875.00000 
 43692.65567		 305.27265			43387.38302		70.12600		324.00000 
 43692.65567		 717.71295			42974.94272		226.18400		875.00000 
 43692.65567		 305.27265			43387.38302		70.12600		324.00000 
 43692.65567		 717.71295			42974.94272		226.18400		875.00000 
 43692.65567		 305.27265			43387.38302		70.12600		324.00000 
 43692.65567		 717.71295			42974.94272		226.18400		875.00000 
 43692.65567		 305.27265			43387.38302		70.12600		324.00000 
 43692.65567		 717.71295			42974.94272		226.18400		875.00000 
 43692.65567		 305.27265			43387.38302		70.12600		324.00000 
 43692.65567		 717.71295			42974.94272		226.18400		875.00000 
 43692.65567		 305.27265			43387.38302		70.12600		324.00000 
 43692.65567		 717.71295			42974.94272		226.18400		875.00000 
 43692.65567		 305.27265			43387.38302		70.12600		324.00000 
 43692.65567		 717.71295			42974.94272		226.18400		875.00000 
 43692.65567		 305.27265			43387.38302		70.12600		324.00000 
 43692.65567		 717.71295			42974.94272		226.18400		875.00000 
 43692.65567		 305.27265			43387.38302		70.12600		324.00000 
 43692.65567		 717.71295			42974.94272		226.18400		875.00000 
 43692.65567		 305.27265			43387.38302		70.12600		324.00000 
 43692.65567		 717.71295			42974.94272		226.18400		875.00000 
 43692.65567		 305.27265			43387.38302		70.12600		324.00000 
 43692.65567		 717.71295			42974.94272		226.18400		875.00000 
 43692.65567		 305.27265			43387.38302		70.12600		324.00000 
 43692.65567		 717.71295			42974.94272		226.18400		875.00000 
 43692.65567		 305.27265			43387.38302		70.12600		324.00000 
 43692.65567		 717.71295			42974.94272		226.18400		875.00000 
 43692.65567		 305.27265			43387.38302		70.12600		324.00000 
 43692.65567		 657.56541			43035.09026		226.18400		875.00000 
 43692.65567		 305.27265			43387.38302		70.12600		324.00000 
 43692.65567		 597.41787			43095.23781		226.18400		875.00000 
 43692.65567		 305.27265			43387.38302		70.12600		324.00000 
 43692.65567		 537.27032			43155.38535		226.18400		875.00000 
 43692.65567		 305.27265			43387.38302		70.12600		324.00000 
 43692.65567		 537.27032			43155.38535		226.18400		875.00000 
 43692.65567		 305.27265			43387.38302		70.12600		324.00000 
 43692.65567		 537.27032			43155.38535		226.18400		875.00000 
 43692.65567		 305.27265			43387.38302		70.12600		324.00000 
 43692.65567		 537.27032			43155.38535		226.18400		875.00000 
 43692.65567		 305.27265			43387.38302		70.12600		324.00000 
 43692.65567		 537.27032			43155.38535		226.18400		875.00000 
 43692.65567		 305.27265			43387.38302		70.12600		324.00000 
 43692.65567		 537.27032			43155.38535		226.18400		875.00000 
 43692.65567		 305.27265			43387.38302		70.12600		324.00000 
 43692.65567		 537.27032			43155.38535		226.18400		875.00000 
 43692.65567		 305.27265			43387.38302		70.12600		324.00000 
 43692.65567		 537.27032			43155.38535		226.18400		875.00000 
 43692.65567		 305.27265			43387.38302		70.12600		324.00000 
 43692.65567		 537.27032			43155.38535		226.18400		875.00000 
 43692.65567		 305.27265			43387.38302		70.12600		324.00000 
 43692.65567		 537.27032			43155.38535		226.18400		875.00000 
 43692.65567		 305.27265			43387.38302		70.12600		324.00000 
 43692.65567		 537.27032			43155.38535		226.18400		875.00000 
 43692.65567		 305.27265			43387.38302		70.12600		324.00000 
 43692.65567		 537.27032			43155.38535		226.18400		875.00000 
 43692.65567		 305.27265			43387.38302		70.12600		324.00000 
 43692.65567		 537.27032			43155.38535		226.18400		875.00000 
 43692.65567		 305.27265			43387.38302		70.12600		324.00000 
 43692.65567		 537.27032			43155.38535		226.18400		875.00000 
 43692.65567		 305.27265			43387.38302		70.12600		324.00000 
 43692.65567		 537.27032			43155.38535		226.18400		875.00000 
 43692.65567		 305.27265			43387.38302		70.12600		324.00000 
 43692.65567		 537.27032			43155.38535		226.18400		875.00000 
 43692.65567		 305.27265			43387.38302		70.12600		324.00000 
 43692.65567		 537.27032			43155.38535		226.18400		875.00000 
 43692.65567		 305.27265			43387.38302		70.12600		324.00000 
 43692.65567		 537.27032			43155.38535		226.18400		875.00000 
 43692.65567		 305.27265			43387.38302		70.12600		324.00000 
 43692.65567		 537.27032			43155.38535		226.18400		875.00000 
 43692.65567		 305.27265			43387.38302		70.12600		324.00000 
 43692.65567		 537.27032			43155.38535		226.18400		875.00000 
 43692.65567		 305.27265			43387.38302		70.12600		324.00000 
 43692.65567		 525.81365			43166.84203		226.18400		875.00000 
 43692.65567		 305.27265			43387.38302		70.12600		324.00000 
 43692.65567		 525.81365			43166.84203		226.18400		875.00000 
 43692.65567		 261.35540			43431.30027		70.12600		324.00000 
 43692.65567		 261.35540			43431.30027		176.95800		875.00000 
 43692.65567		 261.35540			43431.30027		70.12600		324.00000 
