Memory Total (MiB) 	 Memory Used (MiB) 	    Memory Free (MiB) 	 Power Drawed (W) 	 Clocks (Mhz) 	 
 43692.65567		 261.35540			43431.30027		212.40800		875.00000 
 43692.65567		 261.35540			43431.30027		65.60600		324.00000 
 43692.65567		 261.35540			43431.30027		212.40800		875.00000 
 43692.65567		 261.35540			43431.30027		65.60600		324.00000 
 43692.65567		 261.35540			43431.30027		212.40800		875.00000 
 43692.65567		 261.35540			43431.30027		65.60600		324.00000 
 43692.65567		 261.35540			43431.30027		212.40800		875.00000 
 43692.65567		 261.35540			43431.30027		65.60600		324.00000 
 43692.65567		 261.35540			43431.30027		212.40800		875.00000 
 43692.65567		 261.35540			43431.30027		65.60600		324.00000 
 43692.65567		 261.35540			43431.30027		212.40800		875.00000 
 43692.65567		 261.35540			43431.30027		65.60600		324.00000 
 43692.65567		 261.35540			43431.30027		212.40800		875.00000 
 43692.65567		 261.35540			43431.30027		65.60600		324.00000 
 43692.65567		 261.35540			43431.30027		163.37800		875.00000 
 43692.65567		 261.35540			43431.30027		65.60600		324.00000 
 43692.65567		 261.35540			43431.30027		163.37800		875.00000 
 43692.65567		 261.35540			43431.30027		65.60600		324.00000 
 43692.65567		 261.35540			43431.30027		163.37800		875.00000 
 43692.65567		 261.35540			43431.30027		65.60600		324.00000 
 43692.65567		 261.35540			43431.30027		163.37800		875.00000 
 43692.65567		 261.35540			43431.30027		65.60600		324.00000 
 43692.65567		 261.35540			43431.30027		163.37800		875.00000 
 43692.65567		 261.35540			43431.30027		65.60600		324.00000 
 43692.65567		 261.35540			43431.30027		163.37800		875.00000 
 43692.65567		 261.35540			43431.30027		65.60600		324.00000 
 43692.65567		 261.35540			43431.30027		163.37800		875.00000 
 43692.65567		 261.35540			43431.30027		65.60600		324.00000 
 43692.65567		 261.35540			43431.30027		163.37800		875.00000 
 43692.65567		 261.35540			43431.30027		65.60600		324.00000 
 43692.65567		 261.35540			43431.30027		163.37800		875.00000 
 43692.65567		 261.35540			43431.30027		65.60600		324.00000 
 43692.65567		 261.35540			43431.30027		163.37800		875.00000 
 43692.65567		 261.35540			43431.30027		65.60600		324.00000 
 43692.65567		 261.35540			43431.30027		163.37800		875.00000 
 43692.65567		 261.35540			43431.30027		65.60600		324.00000 
 43692.65567		 265.17429			43427.48138		163.37800		875.00000 
 43692.65567		 261.35540			43431.30027		65.60600		324.00000 
 43692.65567		 272.81207			43419.84360		163.37800		875.00000 
 43692.65567		 261.35540			43431.30027		65.60600		324.00000 
 43692.65567		 272.81207			43419.84360		163.37800		875.00000 
 43692.65567		 261.35540			43431.30027		65.60600		324.00000 
 43692.65567		 272.81207			43419.84360		163.37800		875.00000 
 43692.65567		 265.17429			43427.48138		65.60600		324.00000 
 43692.65567		 272.81207			43419.84360		163.37800		875.00000 
 43692.65567		 265.17429			43427.48138		65.60600		324.00000 
 43692.65567		 272.81207			43419.84360		163.37800		875.00000 
 43692.65567		 272.81207			43419.84360		65.60600		324.00000 
 43692.65567		 272.81207			43419.84360		163.37800		875.00000 
 43692.65567		 272.81207			43419.84360		65.60600		324.00000 
 43692.65567		 272.81207			43419.84360		163.37800		875.00000 
 43692.65567		 272.81207			43419.84360		65.60600		324.00000 
 43692.65567		 272.81207			43419.84360		163.37800		875.00000 
 43692.65567		 272.81207			43419.84360		65.60600		324.00000 
 43692.65567		 305.27265			43387.38302		163.37800		875.00000 
 43692.65567		 305.27265			43387.38302		65.60600		324.00000 
 43692.65567		 305.27265			43387.38302		163.37800		875.00000 
 43692.65567		 305.27265			43387.38302		65.60600		324.00000 
 43692.65567		 305.27265			43387.38302		163.37800		875.00000 
 43692.65567		 305.27265			43387.38302		65.60600		324.00000 
 43692.65567		 305.27265			43387.38302		163.37800		875.00000 
 43692.65567		 305.27265			43387.38302		65.60600		324.00000 
 43692.65567		 305.27265			43387.38302		163.37800		875.00000 
 43692.65567		 305.27265			43387.38302		65.60600		324.00000 
 43692.65567		 310.04627			43382.60941		163.37800		875.00000 
 43692.65567		 305.27265			43387.38302		65.60600		324.00000 
 43692.65567		 311.00099			43381.65468		163.37800		875.00000 
 43692.65567		 305.27265			43387.38302		65.60600		324.00000 
 43692.65567		 311.00099			43381.65468		163.37800		875.00000 
 43692.65567		 305.27265			43387.38302		65.60600		324.00000 
 43692.65567		 311.00099			43381.65468		163.37800		875.00000 
 43692.65567		 305.27265			43387.38302		65.60600		324.00000 
 43692.65567		 311.00099			43381.65468		163.37800		875.00000 
 43692.65567		 305.27265			43387.38302		65.60600		324.00000 
 43692.65567		 311.00099			43381.65468		163.37800		875.00000 
 43692.65567		 305.27265			43387.38302		65.60600		324.00000 
 43692.65567		 311.00099			43381.65468		163.37800		875.00000 
 43692.65567		 305.27265			43387.38302		65.60600		324.00000 
 43692.65567		 311.00099			43381.65468		163.37800		875.00000 
 43692.65567		 305.27265			43387.38302		65.60600		324.00000 
 43692.65567		 311.00099			43381.65468		163.37800		875.00000 
 43692.65567		 305.27265			43387.38302		65.60600		324.00000 
 43692.65567		 311.00099			43381.65468		142.94800		875.00000 
 43692.65567		 305.27265			43387.38302		65.60600		324.00000 
 43692.65567		 311.00099			43381.65468		142.94800		875.00000 
 43692.65567		 305.27265			43387.38302		65.60600		324.00000 
 43692.65567		 311.00099			43381.65468		142.94800		875.00000 
 43692.65567		 305.27265			43387.38302		65.60600		324.00000 
 43692.65567		 311.00099			43381.65468		142.94800		875.00000 
 43692.65567		 305.27265			43387.38302		65.60600		324.00000 
 43692.65567		 311.00099			43381.65468		142.94800		875.00000 
 43692.65567		 305.27265			43387.38302		65.60600		324.00000 
 43692.65567		 311.00099			43381.65468		142.94800		875.00000 
 43692.65567		 305.27265			43387.38302		65.60600		324.00000 
 43692.65567		 311.00099			43381.65468		142.94800		875.00000 
 43692.65567		 305.27265			43387.38302		65.60600		324.00000 
 43692.65567		 311.00099			43381.65468		142.94800		875.00000 
 43692.65567		 305.27265			43387.38302		65.60600		324.00000 
 43692.65567		 311.00099			43381.65468		142.94800		875.00000 
 43692.65567		 305.27265			43387.38302		65.60600		324.00000 
 43692.65567		 311.00099			43381.65468		142.94800		875.00000 
 43692.65567		 305.27265			43387.38302		65.60600		324.00000 
 43692.65567		 311.00099			43381.65468		142.94800		875.00000 
 43692.65567		 305.27265			43387.38302		65.60600		324.00000 
 43692.65567		 311.00099			43381.65468		142.94800		875.00000 
 43692.65567		 305.27265			43387.38302		65.60600		324.00000 
 43692.65567		 311.00099			43381.65468		142.94800		875.00000 
 43692.65567		 305.27265			43387.38302		65.60600		324.00000 
 43692.65567		 311.00099			43381.65468		142.94800		875.00000 
 43692.65567		 305.27265			43387.38302		65.60600		324.00000 
 43692.65567		 311.00099			43381.65468		142.94800		875.00000 
 43692.65567		 305.27265			43387.38302		65.60600		324.00000 
 43692.65567		 311.00099			43381.65468		142.94800		875.00000 
 43692.65567		 305.27265			43387.38302		65.60600		324.00000 
 43692.65567		 311.00099			43381.65468		142.94800		875.00000 
 43692.65567		 305.27265			43387.38302		65.60600		324.00000 
 43692.65567		 311.00099			43381.65468		142.94800		875.00000 
 43692.65567		 305.27265			43387.38302		65.60600		324.00000 
 43692.65567		 311.00099			43381.65468		142.94800		875.00000 
 43692.65567		 305.27265			43387.38302		65.60600		324.00000 
 43692.65567		 311.00099			43381.65468		142.94800		875.00000 
 43692.65567		 305.27265			43387.38302		65.60600		324.00000 
 43692.65567		 311.00099			43381.65468		142.94800		875.00000 
 43692.65567		 305.27265			43387.38302		65.60600		324.00000 
 43692.65567		 311.00099			43381.65468		142.94800		875.00000 
 43692.65567		 305.27265			43387.38302		65.60600		324.00000 
 43692.65567		 311.00099			43381.65468		142.94800		875.00000 
 43692.65567		 305.27265			43387.38302		65.60600		324.00000 
 43692.65567		 311.00099			43381.65468		142.94800		875.00000 
 43692.65567		 305.27265			43387.38302		65.60600		324.00000 
 43692.65567		 311.00099			43381.65468		142.94800		875.00000 
 43692.65567		 305.27265			43387.38302		65.60600		324.00000 
 43692.65567		 311.00099			43381.65468		142.94800		875.00000 
 43692.65567		 305.27265			43387.38302		65.60600		324.00000 
 43692.65567		 311.00099			43381.65468		142.94800		875.00000 
 43692.65567		 305.27265			43387.38302		65.60600		324.00000 
 43692.65567		 311.00099			43381.65468		142.94800		875.00000 
 43692.65567		 305.27265			43387.38302		65.60600		324.00000 
 43692.65567		 311.00099			43381.65468		142.94800		875.00000 
 43692.65567		 305.27265			43387.38302		65.60600		324.00000 
 43692.65567		 311.00099			43381.65468		142.94800		875.00000 
 43692.65567		 305.27265			43387.38302		65.60600		324.00000 
 43692.65567		 311.00099			43381.65468		142.94800		875.00000 
 43692.65567		 305.27265			43387.38302		65.60600		324.00000 
 43692.65567		 311.00099			43381.65468		135.34600		875.00000 
 43692.65567		 305.27265			43387.38302		65.60600		324.00000 
 43692.65567		 311.00099			43381.65468		135.34600		875.00000 
 43692.65567		 305.27265			43387.38302		65.60600		324.00000 
 43692.65567		 311.00099			43381.65468		135.34600		875.00000 
 43692.65567		 305.27265			43387.38302		65.60600		324.00000 
 43692.65567		 311.00099			43381.65468		135.34600		875.00000 
 43692.65567		 305.27265			43387.38302		65.60600		324.00000 
 43692.65567		 311.00099			43381.65468		135.34600		875.00000 
 43692.65567		 305.27265			43387.38302		65.60600		324.00000 
 43692.65567		 311.00099			43381.65468		135.34600		875.00000 
 43692.65567		 305.27265			43387.38302		65.60600		324.00000 
 43692.65567		 311.00099			43381.65468		135.34600		875.00000 
 43692.65567		 305.27265			43387.38302		65.60600		324.00000 
 43692.65567		 311.00099			43381.65468		135.34600		875.00000 
 43692.65567		 305.27265			43387.38302		65.60600		324.00000 
 43692.65567		 311.00099			43381.65468		135.34600		875.00000 
 43692.65567		 305.27265			43387.38302		65.60600		324.00000 
 43692.65567		 311.00099			43381.65468		135.34600		875.00000 
 43692.65567		 305.27265			43387.38302		65.60600		324.00000 
 43692.65567		 311.00099			43381.65468		135.34600		875.00000 
 43692.65567		 305.27265			43387.38302		65.60600		324.00000 
 43692.65567		 311.00099			43381.65468		135.34600		875.00000 
 43692.65567		 305.27265			43387.38302		65.60600		324.00000 
 43692.65567		 314.81988			43377.83579		135.34600		875.00000 
 43692.65567		 305.27265			43387.38302		65.60600		324.00000 
 43692.65567		 314.81988			43377.83579		135.34600		875.00000 
 43692.65567		 305.27265			43387.38302		65.60600		324.00000 
 43692.65567		 314.81988			43377.83579		135.34600		875.00000 
 43692.65567		 305.27265			43387.38302		65.60600		324.00000 
 43692.65567		 322.45767			43370.19801		135.34600		875.00000 
 43692.65567		 305.27265			43387.38302		65.60600		324.00000 
 43692.65567		 326.27656			43366.37912		135.34600		875.00000 
 43692.65567		 305.27265			43387.38302		65.60600		324.00000 
 43692.65567		 326.27656			43366.37912		135.34600		875.00000 
 43692.65567		 305.27265			43387.38302		65.60600		324.00000 
 43692.65567		 326.27656			43366.37912		135.34600		875.00000 
 43692.65567		 305.27265			43387.38302		65.60600		324.00000 
 43692.65567		 326.27656			43366.37912		135.34600		875.00000 
 43692.65567		 305.27265			43387.38302		65.60600		324.00000 
 43692.65567		 537.27032			43155.38535		135.34600		875.00000 
 43692.65567		 305.27265			43387.38302		65.60600		324.00000 
 43692.65567		 593.59897			43099.05670		135.34600		875.00000 
 43692.65567		 305.27265			43387.38302		65.60600		324.00000 
 43692.65567		 621.76330			43070.89237		135.34600		875.00000 
 43692.65567		 305.27265			43387.38302		65.60600		324.00000 
 43692.65567		 621.76330			43070.89237		135.34600		875.00000 
 43692.65567		 305.27265			43387.38302		65.60600		324.00000 
 43692.65567		 621.76330			43070.89237		135.34600		875.00000 
 43692.65567		 305.27265			43387.38302		65.60600		324.00000 
 43692.65567		 621.76330			43070.89237		135.34600		875.00000 
 43692.65567		 305.27265			43387.38302		65.60600		324.00000 
 43692.65567		 621.76330			43070.89237		135.34600		875.00000 
 43692.65567		 305.27265			43387.38302		65.60600		324.00000 
 43692.65567		 621.76330			43070.89237		135.34600		875.00000 
 43692.65567		 305.27265			43387.38302		65.60600		324.00000 
 43692.65567		 621.76330			43070.89237		135.34600		875.00000 
 43692.65567		 305.27265			43387.38302		65.60600		324.00000 
 43692.65567		 621.76330			43070.89237		135.34600		875.00000 
 43692.65567		 305.27265			43387.38302		65.72800		324.00000 
 43692.65567		 621.76330			43070.89237		135.34600		875.00000 
 43692.65567		 305.27265			43387.38302		65.72800		324.00000 
 43692.65567		 621.76330			43070.89237		135.34600		875.00000 
 43692.65567		 305.27265			43387.38302		65.72800		324.00000 
 43692.65567		 621.76330			43070.89237		135.34600		875.00000 
 43692.65567		 305.27265			43387.38302		65.72800		324.00000 
 43692.65567		 621.76330			43070.89237		135.34600		875.00000 
 43692.65567		 305.27265			43387.38302		65.72800		324.00000 
 43692.65567		 621.76330			43070.89237		135.34600		875.00000 
 43692.65567		 305.27265			43387.38302		65.72800		324.00000 
 43692.65567		 621.76330			43070.89237		135.34600		875.00000 
 43692.65567		 305.27265			43387.38302		65.72800		324.00000 
 43692.65567		 621.76330			43070.89237		135.34600		875.00000 
 43692.65567		 305.27265			43387.38302		65.72800		324.00000 
 43692.65567		 621.76330			43070.89237		135.34600		875.00000 
 43692.65567		 305.27265			43387.38302		65.72800		324.00000 
 43692.65567		 621.76330			43070.89237		135.34600		875.00000 
 43692.65567		 305.27265			43387.38302		65.72800		324.00000 
 43692.65567		 621.76330			43070.89237		135.34600		875.00000 
 43692.65567		 305.27265			43387.38302		65.72800		324.00000 
 43692.65567		 621.76330			43070.89237		135.34600		875.00000 
 43692.65567		 305.27265			43387.38302		65.72800		324.00000 
 43692.65567		 621.76330			43070.89237		135.34600		875.00000 
 43692.65567		 305.27265			43387.38302		65.72800		324.00000 
 43692.65567		 621.76330			43070.89237		135.34600		875.00000 
 43692.65567		 305.27265			43387.38302		65.72800		324.00000 
 43692.65567		 621.76330			43070.89237		135.34600		875.00000 
 43692.65567		 305.27265			43387.38302		65.72800		324.00000 
 43692.65567		 621.76330			43070.89237		161.62200		875.00000 
 43692.65567		 305.27265			43387.38302		65.72800		324.00000 
 43692.65567		 621.76330			43070.89237		161.62200		875.00000 
 43692.65567		 305.27265			43387.38302		65.72800		324.00000 
 43692.65567		 621.76330			43070.89237		161.62200		875.00000 
 43692.65567		 305.27265			43387.38302		65.72800		324.00000 
 43692.65567		 621.76330			43070.89237		161.62200		875.00000 
 43692.65567		 305.27265			43387.38302		65.72800		324.00000 
 43692.65567		 621.76330			43070.89237		161.62200		875.00000 
 43692.65567		 305.27265			43387.38302		65.72800		324.00000 
 43692.65567		 621.76330			43070.89237		161.62200		875.00000 
 43692.65567		 305.27265			43387.38302		65.72800		324.00000 
 43692.65567		 621.76330			43070.89237		161.62200		875.00000 
 43692.65567		 305.27265			43387.38302		65.72800		324.00000 
 43692.65567		 621.76330			43070.89237		161.62200		875.00000 
 43692.65567		 305.27265			43387.38302		65.72800		324.00000 
 43692.65567		 621.76330			43070.89237		161.62200		875.00000 
 43692.65567		 305.27265			43387.38302		65.72800		324.00000 
 43692.65567		 621.76330			43070.89237		161.62200		875.00000 
 43692.65567		 305.27265			43387.38302		65.72800		324.00000 
 43692.65567		 621.76330			43070.89237		161.62200		875.00000 
 43692.65567		 305.27265			43387.38302		65.72800		324.00000 
 43692.65567		 621.76330			43070.89237		161.62200		875.00000 
 43692.65567		 305.27265			43387.38302		65.72800		324.00000 
 43692.65567		 621.76330			43070.89237		161.62200		875.00000 
 43692.65567		 305.27265			43387.38302		65.72800		324.00000 
 43692.65567		 621.76330			43070.89237		161.62200		875.00000 
 43692.65567		 305.27265			43387.38302		65.72800		324.00000 
 43692.65567		 621.76330			43070.89237		161.62200		875.00000 
 43692.65567		 305.27265			43387.38302		65.72800		324.00000 
 43692.65567		 621.76330			43070.89237		161.62200		875.00000 
 43692.65567		 305.27265			43387.38302		65.72800		324.00000 
 43692.65567		 621.76330			43070.89237		161.62200		875.00000 
 43692.65567		 305.27265			43387.38302		65.72800		324.00000 
 43692.65567		 621.76330			43070.89237		161.62200		875.00000 
 43692.65567		 305.27265			43387.38302		65.72800		324.00000 
 43692.65567		 621.76330			43070.89237		161.62200		875.00000 
 43692.65567		 305.27265			43387.38302		65.72800		324.00000 
 43692.65567		 621.76330			43070.89237		161.62200		875.00000 
 43692.65567		 305.27265			43387.38302		65.72800		324.00000 
 43692.65567		 621.76330			43070.89237		161.62200		875.00000 
 43692.65567		 305.27265			43387.38302		65.72800		324.00000 
 43692.65567		 621.76330			43070.89237		161.62200		875.00000 
 43692.65567		 305.27265			43387.38302		65.72800		324.00000 
 43692.65567		 621.76330			43070.89237		161.62200		875.00000 
 43692.65567		 305.27265			43387.38302		65.72800		324.00000 
 43692.65567		 621.76330			43070.89237		161.62200		875.00000 
 43692.65567		 305.27265			43387.38302		65.72800		324.00000 
 43692.65567		 621.76330			43070.89237		161.62200		875.00000 
 43692.65567		 305.27265			43387.38302		65.72800		324.00000 
 43692.65567		 621.76330			43070.89237		161.62200		875.00000 
 43692.65567		 305.27265			43387.38302		65.72800		324.00000 
 43692.65567		 621.76330			43070.89237		161.62200		875.00000 
 43692.65567		 305.27265			43387.38302		65.72800		324.00000 
 43692.65567		 621.76330			43070.89237		161.62200		875.00000 
 43692.65567		 305.27265			43387.38302		65.72800		324.00000 
 43692.65567		 621.76330			43070.89237		161.62200		875.00000 
 43692.65567		 305.27265			43387.38302		65.72800		324.00000 
 43692.65567		 621.76330			43070.89237		161.62200		875.00000 
 43692.65567		 305.27265			43387.38302		65.72800		324.00000 
 43692.65567		 621.76330			43070.89237		161.62200		875.00000 
 43692.65567		 305.27265			43387.38302		65.72800		324.00000 
 43692.65567		 621.76330			43070.89237		161.62200		875.00000 
 43692.65567		 305.27265			43387.38302		65.72800		324.00000 
 43692.65567		 621.76330			43070.89237		161.62200		875.00000 
 43692.65567		 305.27265			43387.38302		65.72800		324.00000 
 43692.65567		 621.76330			43070.89237		161.62200		875.00000 
 43692.65567		 305.27265			43387.38302		65.72800		324.00000 
 43692.65567		 621.76330			43070.89237		161.62200		875.00000 
 43692.65567		 305.27265			43387.38302		65.72800		324.00000 
 43692.65567		 621.76330			43070.89237		161.62200		875.00000 
 43692.65567		 305.27265			43387.38302		65.72800		324.00000 
 43692.65567		 621.76330			43070.89237		161.62200		875.00000 
 43692.65567		 305.27265			43387.38302		65.72800		324.00000 
 43692.65567		 621.76330			43070.89237		161.62200		875.00000 
 43692.65567		 305.27265			43387.38302		65.72800		324.00000 
 43692.65567		 621.76330			43070.89237		161.62200		875.00000 
 43692.65567		 305.27265			43387.38302		65.72800		324.00000 
 43692.65567		 621.76330			43070.89237		161.62200		875.00000 
 43692.65567		 305.27265			43387.38302		65.72800		324.00000 
 43692.65567		 621.76330			43070.89237		161.62200		875.00000 
 43692.65567		 305.27265			43387.38302		65.72800		324.00000 
 43692.65567		 621.76330			43070.89237		161.62200		875.00000 
 43692.65567		 305.27265			43387.38302		65.72800		324.00000 
 43692.65567		 621.76330			43070.89237		161.62200		875.00000 
 43692.65567		 305.27265			43387.38302		65.72800		324.00000 
 43692.65567		 621.76330			43070.89237		161.62200		875.00000 
 43692.65567		 305.27265			43387.38302		65.72800		324.00000 
 43692.65567		 621.76330			43070.89237		161.62200		875.00000 
 43692.65567		 305.27265			43387.38302		65.72800		324.00000 
 43692.65567		 621.76330			43070.89237		161.62200		875.00000 
 43692.65567		 305.27265			43387.38302		65.72800		324.00000 
 43692.65567		 621.76330			43070.89237		161.62200		875.00000 
 43692.65567		 305.27265			43387.38302		65.72800		324.00000 
 43692.65567		 621.76330			43070.89237		161.62200		875.00000 
 43692.65567		 305.27265			43387.38302		65.72800		324.00000 
 43692.65567		 621.76330			43070.89237		161.62200		875.00000 
 43692.65567		 305.27265			43387.38302		65.72800		324.00000 
 43692.65567		 621.76330			43070.89237		161.62200		875.00000 
 43692.65567		 305.27265			43387.38302		65.72800		324.00000 
 43692.65567		 621.76330			43070.89237		161.62200		875.00000 
 43692.65567		 305.27265			43387.38302		65.72800		324.00000 
 43692.65567		 621.76330			43070.89237		161.62200		875.00000 
 43692.65567		 305.27265			43387.38302		65.72800		324.00000 
 43692.65567		 621.76330			43070.89237		161.62200		875.00000 
 43692.65567		 305.27265			43387.38302		65.72800		324.00000 
 43692.65567		 621.76330			43070.89237		161.62200		875.00000 
 43692.65567		 305.27265			43387.38302		65.72800		324.00000 
 43692.65567		 621.76330			43070.89237		161.62200		875.00000 
 43692.65567		 305.27265			43387.38302		65.72800		324.00000 
 43692.65567		 621.76330			43070.89237		161.62200		875.00000 
 43692.65567		 305.27265			43387.38302		65.72800		324.00000 
 43692.65567		 621.76330			43070.89237		161.62200		875.00000 
 43692.65567		 305.27265			43387.38302		65.72800		324.00000 
 43692.65567		 621.76330			43070.89237		161.62200		875.00000 
 43692.65567		 305.27265			43387.38302		65.72800		324.00000 
 43692.65567		 621.76330			43070.89237		161.62200		875.00000 
 43692.65567		 305.27265			43387.38302		65.72800		324.00000 
 43692.65567		 621.76330			43070.89237		161.62200		875.00000 
 43692.65567		 305.27265			43387.38302		65.72800		324.00000 
 43692.65567		 621.76330			43070.89237		161.62200		875.00000 
 43692.65567		 305.27265			43387.38302		65.72800		324.00000 
 43692.65567		 621.76330			43070.89237		161.62200		875.00000 
 43692.65567		 305.27265			43387.38302		65.72800		324.00000 
 43692.65567		 621.76330			43070.89237		161.62200		875.00000 
 43692.65567		 305.27265			43387.38302		65.72800		324.00000 
 43692.65567		 621.76330			43070.89237		161.62200		875.00000 
 43692.65567		 305.27265			43387.38302		65.72800		324.00000 
 43692.65567		 621.76330			43070.89237		198.48200		875.00000 
 43692.65567		 305.27265			43387.38302		65.72800		324.00000 
 43692.65567		 621.76330			43070.89237		198.48200		875.00000 
 43692.65567		 305.27265			43387.38302		65.72800		324.00000 
 43692.65567		 621.76330			43070.89237		198.48200		875.00000 
 43692.65567		 305.27265			43387.38302		65.72800		324.00000 
 43692.65567		 621.76330			43070.89237		198.48200		875.00000 
 43692.65567		 305.27265			43387.38302		65.72800		324.00000 
 43692.65567		 621.76330			43070.89237		198.48200		875.00000 
 43692.65567		 305.27265			43387.38302		65.72800		324.00000 
 43692.65567		 621.76330			43070.89237		198.48200		875.00000 
 43692.65567		 305.27265			43387.38302		65.72800		324.00000 
 43692.65567		 621.76330			43070.89237		198.48200		875.00000 
 43692.65567		 305.27265			43387.38302		65.72800		324.00000 
 43692.65567		 621.76330			43070.89237		198.48200		875.00000 
 43692.65567		 305.27265			43387.38302		65.72800		324.00000 
 43692.65567		 621.76330			43070.89237		198.48200		875.00000 
 43692.65567		 305.27265			43387.38302		65.72800		324.00000 
 43692.65567		 621.76330			43070.89237		198.48200		875.00000 
 43692.65567		 305.27265			43387.38302		65.72800		324.00000 
 43692.65567		 621.76330			43070.89237		198.48200		875.00000 
 43692.65567		 305.27265			43387.38302		65.72800		324.00000 
 43692.65567		 621.76330			43070.89237		198.48200		875.00000 
 43692.65567		 305.27265			43387.38302		65.72800		324.00000 
 43692.65567		 621.76330			43070.89237		198.48200		875.00000 
 43692.65567		 305.27265			43387.38302		65.72800		324.00000 
 43692.65567		 621.76330			43070.89237		198.48200		875.00000 
 43692.65567		 305.27265			43387.38302		65.72800		324.00000 
 43692.65567		 621.76330			43070.89237		198.48200		875.00000 
 43692.65567		 305.27265			43387.38302		65.72800		324.00000 
 43692.65567		 621.76330			43070.89237		198.48200		875.00000 
 43692.65567		 305.27265			43387.38302		65.72800		324.00000 
 43692.65567		 621.76330			43070.89237		198.48200		875.00000 
 43692.65567		 305.27265			43387.38302		65.72800		324.00000 
 43692.65567		 621.76330			43070.89237		198.48200		875.00000 
 43692.65567		 305.27265			43387.38302		65.72800		324.00000 
 43692.65567		 621.76330			43070.89237		198.48200		875.00000 
 43692.65567		 305.27265			43387.38302		65.72800		324.00000 
 43692.65567		 621.76330			43070.89237		198.48200		875.00000 
 43692.65567		 305.27265			43387.38302		65.72800		324.00000 
 43692.65567		 621.76330			43070.89237		198.48200		875.00000 
 43692.65567		 305.27265			43387.38302		65.72800		324.00000 
 43692.65567		 621.76330			43070.89237		198.48200		875.00000 
 43692.65567		 305.27265			43387.38302		65.72800		324.00000 
 43692.65567		 621.76330			43070.89237		198.48200		875.00000 
 43692.65567		 305.27265			43387.38302		65.72800		324.00000 
 43692.65567		 621.76330			43070.89237		198.48200		875.00000 
 43692.65567		 305.27265			43387.38302		65.72800		324.00000 
 43692.65567		 621.76330			43070.89237		198.48200		875.00000 
 43692.65567		 305.27265			43387.38302		65.72800		324.00000 
 43692.65567		 621.76330			43070.89237		198.48200		875.00000 
 43692.65567		 305.27265			43387.38302		65.72800		324.00000 
 43692.65567		 621.76330			43070.89237		198.48200		875.00000 
 43692.65567		 305.27265			43387.38302		65.72800		324.00000 
 43692.65567		 621.76330			43070.89237		198.48200		875.00000 
 43692.65567		 305.27265			43387.38302		65.72800		324.00000 
 43692.65567		 621.76330			43070.89237		198.48200		875.00000 
 43692.65567		 305.27265			43387.38302		65.72800		324.00000 
 43692.65567		 621.76330			43070.89237		198.48200		875.00000 
 43692.65567		 305.27265			43387.38302		65.72800		324.00000 
 43692.65567		 621.76330			43070.89237		198.48200		875.00000 
 43692.65567		 305.27265			43387.38302		65.72800		324.00000 
 43692.65567		 621.76330			43070.89237		198.48200		875.00000 
 43692.65567		 305.27265			43387.38302		65.72800		324.00000 
 43692.65567		 621.76330			43070.89237		198.48200		875.00000 
 43692.65567		 305.27265			43387.38302		65.72800		324.00000 
 43692.65567		 621.76330			43070.89237		198.48200		875.00000 
 43692.65567		 305.27265			43387.38302		65.72800		324.00000 
 43692.65567		 621.76330			43070.89237		198.48200		875.00000 
 43692.65567		 305.27265			43387.38302		65.72800		324.00000 
 43692.65567		 621.76330			43070.89237		198.48200		875.00000 
 43692.65567		 305.27265			43387.38302		65.72800		324.00000 
 43692.65567		 621.76330			43070.89237		198.48200		875.00000 
 43692.65567		 305.27265			43387.38302		65.72800		324.00000 
 43692.65567		 621.76330			43070.89237		198.48200		875.00000 
 43692.65567		 305.27265			43387.38302		65.72800		324.00000 
 43692.65567		 621.76330			43070.89237		198.48200		875.00000 
 43692.65567		 305.27265			43387.38302		65.72800		324.00000 
 43692.65567		 621.76330			43070.89237		198.48200		875.00000 
 43692.65567		 305.27265			43387.38302		65.72800		324.00000 
 43692.65567		 621.76330			43070.89237		198.48200		875.00000 
 43692.65567		 305.27265			43387.38302		65.72800		324.00000 
 43692.65567		 621.76330			43070.89237		198.48200		875.00000 
 43692.65567		 305.27265			43387.38302		65.72800		324.00000 
 43692.65567		 621.76330			43070.89237		198.48200		875.00000 
 43692.65567		 305.27265			43387.38302		65.72800		324.00000 
 43692.65567		 621.76330			43070.89237		198.48200		875.00000 
 43692.65567		 305.27265			43387.38302		65.72800		324.00000 
 43692.65567		 621.76330			43070.89237		198.48200		875.00000 
 43692.65567		 305.27265			43387.38302		65.72800		324.00000 
 43692.65567		 621.76330			43070.89237		198.48200		875.00000 
 43692.65567		 305.27265			43387.38302		65.72800		324.00000 
 43692.65567		 621.76330			43070.89237		198.48200		875.00000 
 43692.65567		 305.27265			43387.38302		65.72800		324.00000 
 43692.65567		 621.76330			43070.89237		198.48200		875.00000 
 43692.65567		 305.27265			43387.38302		65.72800		324.00000 
 43692.65567		 621.76330			43070.89237		198.48200		875.00000 
 43692.65567		 305.27265			43387.38302		65.72800		324.00000 
 43692.65567		 621.76330			43070.89237		198.48200		875.00000 
 43692.65567		 305.27265			43387.38302		65.72800		324.00000 
 43692.65567		 621.76330			43070.89237		198.48200		875.00000 
 43692.65567		 305.27265			43387.38302		65.72800		324.00000 
 43692.65567		 621.76330			43070.89237		198.48200		875.00000 
 43692.65567		 305.27265			43387.38302		65.72800		324.00000 
 43692.65567		 621.76330			43070.89237		198.48200		875.00000 
 43692.65567		 305.27265			43387.38302		65.72800		324.00000 
 43692.65567		 621.76330			43070.89237		198.48200		875.00000 
 43692.65567		 305.27265			43387.38302		65.72800		324.00000 
 43692.65567		 621.76330			43070.89237		198.48200		875.00000 
 43692.65567		 305.27265			43387.38302		65.72800		324.00000 
 43692.65567		 621.76330			43070.89237		198.48200		875.00000 
 43692.65567		 305.27265			43387.38302		65.72800		324.00000 
 43692.65567		 621.76330			43070.89237		198.48200		875.00000 
 43692.65567		 305.27265			43387.38302		65.72800		324.00000 
 43692.65567		 621.76330			43070.89237		198.48200		875.00000 
 43692.65567		 305.27265			43387.38302		65.72800		324.00000 
 43692.65567		 621.76330			43070.89237		198.48200		875.00000 
 43692.65567		 305.27265			43387.38302		65.72800		324.00000 
 43692.65567		 621.76330			43070.89237		198.48200		875.00000 
 43692.65567		 305.27265			43387.38302		65.72800		324.00000 
 43692.65567		 621.76330			43070.89237		198.48200		875.00000 
 43692.65567		 305.27265			43387.38302		65.72800		324.00000 
 43692.65567		 621.76330			43070.89237		198.48200		875.00000 
 43692.65567		 305.27265			43387.38302		65.72800		324.00000 
 43692.65567		 621.76330			43070.89237		198.48200		875.00000 
 43692.65567		 305.27265			43387.38302		65.72800		324.00000 
 43692.65567		 621.76330			43070.89237		198.48200		875.00000 
 43692.65567		 305.27265			43387.38302		65.72800		324.00000 
 43692.65567		 621.76330			43070.89237		198.48200		875.00000 
 43692.65567		 305.27265			43387.38302		65.72800		324.00000 
 43692.65567		 621.76330			43070.89237		213.31200		875.00000 
 43692.65567		 305.27265			43387.38302		65.72800		324.00000 
 43692.65567		 621.76330			43070.89237		213.31200		875.00000 
 43692.65567		 305.27265			43387.38302		65.72800		324.00000 
 43692.65567		 621.76330			43070.89237		213.31200		875.00000 
 43692.65567		 305.27265			43387.38302		65.72800		324.00000 
 43692.65567		 621.76330			43070.89237		213.31200		875.00000 
 43692.65567		 305.27265			43387.38302		65.72800		324.00000 
 43692.65567		 621.76330			43070.89237		213.31200		875.00000 
 43692.65567		 305.27265			43387.38302		65.72800		324.00000 
 43692.65567		 621.76330			43070.89237		213.31200		875.00000 
 43692.65567		 305.27265			43387.38302		65.72800		324.00000 
 43692.65567		 621.76330			43070.89237		213.31200		875.00000 
 43692.65567		 305.27265			43387.38302		65.72800		324.00000 
 43692.65567		 621.76330			43070.89237		213.31200		875.00000 
 43692.65567		 305.27265			43387.38302		65.72800		324.00000 
 43692.65567		 621.76330			43070.89237		213.31200		875.00000 
 43692.65567		 305.27265			43387.38302		65.72800		324.00000 
 43692.65567		 621.76330			43070.89237		213.31200		875.00000 
 43692.65567		 305.27265			43387.38302		65.72800		324.00000 
 43692.65567		 621.76330			43070.89237		213.31200		875.00000 
 43692.65567		 305.27265			43387.38302		65.72800		324.00000 
 43692.65567		 621.76330			43070.89237		213.31200		875.00000 
 43692.65567		 305.27265			43387.38302		65.72800		324.00000 
 43692.65567		 621.76330			43070.89237		213.31200		875.00000 
 43692.65567		 305.27265			43387.38302		65.72800		324.00000 
 43692.65567		 621.76330			43070.89237		213.31200		875.00000 
 43692.65567		 305.27265			43387.38302		65.72800		324.00000 
 43692.65567		 621.76330			43070.89237		213.31200		875.00000 
 43692.65567		 305.27265			43387.38302		65.72800		324.00000 
 43692.65567		 621.76330			43070.89237		213.31200		875.00000 
 43692.65567		 305.27265			43387.38302		65.72800		324.00000 
 43692.65567		 621.76330			43070.89237		213.31200		875.00000 
 43692.65567		 305.27265			43387.38302		65.72800		324.00000 
 43692.65567		 621.76330			43070.89237		213.31200		875.00000 
 43692.65567		 305.27265			43387.38302		65.72800		324.00000 
 43692.65567		 621.76330			43070.89237		213.31200		875.00000 
 43692.65567		 305.27265			43387.38302		65.72800		324.00000 
 43692.65567		 621.76330			43070.89237		213.31200		875.00000 
 43692.65567		 305.27265			43387.38302		65.72800		324.00000 
 43692.65567		 621.76330			43070.89237		213.31200		875.00000 
 43692.65567		 305.27265			43387.38302		65.72800		324.00000 
 43692.65567		 621.76330			43070.89237		213.31200		875.00000 
 43692.65567		 305.27265			43387.38302		65.72800		324.00000 
 43692.65567		 621.76330			43070.89237		213.31200		875.00000 
 43692.65567		 305.27265			43387.38302		65.72800		324.00000 
 43692.65567		 621.76330			43070.89237		213.31200		875.00000 
 43692.65567		 305.27265			43387.38302		65.72800		324.00000 
 43692.65567		 621.76330			43070.89237		213.31200		875.00000 
 43692.65567		 305.27265			43387.38302		65.72800		324.00000 
 43692.65567		 621.76330			43070.89237		213.31200		875.00000 
 43692.65567		 305.27265			43387.38302		65.72800		324.00000 
 43692.65567		 621.76330			43070.89237		213.31200		875.00000 
 43692.65567		 305.27265			43387.38302		65.72800		324.00000 
 43692.65567		 621.76330			43070.89237		213.31200		875.00000 
 43692.65567		 305.27265			43387.38302		65.72800		324.00000 
 43692.65567		 621.76330			43070.89237		213.31200		875.00000 
 43692.65567		 305.27265			43387.38302		65.72800		324.00000 
 43692.65567		 621.76330			43070.89237		213.31200		875.00000 
 43692.65567		 305.27265			43387.38302		65.72800		324.00000 
 43692.65567		 621.76330			43070.89237		213.31200		875.00000 
 43692.65567		 305.27265			43387.38302		65.72800		324.00000 
 43692.65567		 621.76330			43070.89237		213.31200		875.00000 
 43692.65567		 305.27265			43387.38302		65.72800		324.00000 
 43692.65567		 621.76330			43070.89237		213.31200		875.00000 
 43692.65567		 305.27265			43387.38302		65.72800		324.00000 
 43692.65567		 621.76330			43070.89237		213.31200		875.00000 
 43692.65567		 305.27265			43387.38302		65.72800		324.00000 
 43692.65567		 621.76330			43070.89237		213.31200		875.00000 
 43692.65567		 305.27265			43387.38302		65.72800		324.00000 
 43692.65567		 621.76330			43070.89237		213.31200		875.00000 
 43692.65567		 305.27265			43387.38302		65.72800		324.00000 
 43692.65567		 621.76330			43070.89237		213.31200		875.00000 
 43692.65567		 305.27265			43387.38302		65.72800		324.00000 
 43692.65567		 621.76330			43070.89237		213.31200		875.00000 
 43692.65567		 305.27265			43387.38302		65.72800		324.00000 
 43692.65567		 621.76330			43070.89237		213.31200		875.00000 
 43692.65567		 305.27265			43387.38302		65.72800		324.00000 
 43692.65567		 621.76330			43070.89237		213.31200		875.00000 
 43692.65567		 305.27265			43387.38302		65.72800		324.00000 
 43692.65567		 621.76330			43070.89237		213.31200		875.00000 
 43692.65567		 305.27265			43387.38302		65.72800		324.00000 
 43692.65567		 621.76330			43070.89237		213.31200		875.00000 
 43692.65567		 305.27265			43387.38302		65.72800		324.00000 
 43692.65567		 621.76330			43070.89237		213.31200		875.00000 
 43692.65567		 305.27265			43387.38302		65.72800		324.00000 
 43692.65567		 621.76330			43070.89237		213.31200		875.00000 
 43692.65567		 305.27265			43387.38302		65.72800		324.00000 
 43692.65567		 621.76330			43070.89237		213.31200		875.00000 
 43692.65567		 305.27265			43387.38302		65.72800		324.00000 
 43692.65567		 621.76330			43070.89237		213.31200		875.00000 
 43692.65567		 305.27265			43387.38302		65.72800		324.00000 
 43692.65567		 621.76330			43070.89237		213.31200		875.00000 
 43692.65567		 305.27265			43387.38302		65.72800		324.00000 
 43692.65567		 621.76330			43070.89237		213.31200		875.00000 
 43692.65567		 305.27265			43387.38302		65.72800		324.00000 
 43692.65567		 621.76330			43070.89237		213.31200		875.00000 
 43692.65567		 305.27265			43387.38302		65.72800		324.00000 
 43692.65567		 621.76330			43070.89237		213.31200		875.00000 
 43692.65567		 305.27265			43387.38302		65.72800		324.00000 
 43692.65567		 621.76330			43070.89237		213.31200		875.00000 
 43692.65567		 305.27265			43387.38302		65.72800		324.00000 
 43692.65567		 621.76330			43070.89237		213.31200		875.00000 
 43692.65567		 305.27265			43387.38302		65.72800		324.00000 
 43692.65567		 621.76330			43070.89237		213.31200		875.00000 
 43692.65567		 305.27265			43387.38302		65.72800		324.00000 
 43692.65567		 621.76330			43070.89237		213.31200		875.00000 
 43692.65567		 305.27265			43387.38302		65.72800		324.00000 
 43692.65567		 621.76330			43070.89237		213.31200		875.00000 
 43692.65567		 305.27265			43387.38302		65.72800		324.00000 
 43692.65567		 621.76330			43070.89237		213.31200		875.00000 
 43692.65567		 305.27265			43387.38302		65.72800		324.00000 
 43692.65567		 621.76330			43070.89237		213.31200		875.00000 
 43692.65567		 305.27265			43387.38302		65.72800		324.00000 
 43692.65567		 621.76330			43070.89237		213.31200		875.00000 
 43692.65567		 305.27265			43387.38302		65.72800		324.00000 
 43692.65567		 621.76330			43070.89237		213.31200		875.00000 
 43692.65567		 305.27265			43387.38302		65.72800		324.00000 
 43692.65567		 621.76330			43070.89237		213.31200		875.00000 
 43692.65567		 305.27265			43387.38302		65.72800		324.00000 
 43692.65567		 621.76330			43070.89237		213.31200		875.00000 
 43692.65567		 305.27265			43387.38302		65.72800		324.00000 
 43692.65567		 621.76330			43070.89237		213.31200		875.00000 
 43692.65567		 305.27265			43387.38302		65.72800		324.00000 
 43692.65567		 621.76330			43070.89237		213.31200		875.00000 
 43692.65567		 305.27265			43387.38302		65.72800		324.00000 
 43692.65567		 621.76330			43070.89237		213.31200		875.00000 
 43692.65567		 305.27265			43387.38302		65.72800		324.00000 
 43692.65567		 621.76330			43070.89237		218.56000		875.00000 
 43692.65567		 305.27265			43387.38302		65.72800		324.00000 
 43692.65567		 621.76330			43070.89237		218.56000		875.00000 
 43692.65567		 305.27265			43387.38302		65.72800		324.00000 
 43692.65567		 621.76330			43070.89237		218.56000		875.00000 
 43692.65567		 305.27265			43387.38302		65.72800		324.00000 
 43692.65567		 621.76330			43070.89237		218.56000		875.00000 
 43692.65567		 305.27265			43387.38302		65.72800		324.00000 
 43692.65567		 621.76330			43070.89237		218.56000		875.00000 
 43692.65567		 305.27265			43387.38302		65.72800		324.00000 
 43692.65567		 621.76330			43070.89237		218.56000		875.00000 
 43692.65567		 305.27265			43387.38302		65.72800		324.00000 
 43692.65567		 621.76330			43070.89237		218.56000		875.00000 
 43692.65567		 305.27265			43387.38302		65.72800		324.00000 
 43692.65567		 621.76330			43070.89237		218.56000		875.00000 
 43692.65567		 305.27265			43387.38302		65.72800		324.00000 
 43692.65567		 621.76330			43070.89237		218.56000		875.00000 
 43692.65567		 305.27265			43387.38302		65.72800		324.00000 
 43692.65567		 621.76330			43070.89237		218.56000		875.00000 
 43692.65567		 305.27265			43387.38302		65.72800		324.00000 
 43692.65567		 621.76330			43070.89237		218.56000		875.00000 
 43692.65567		 305.27265			43387.38302		65.72800		324.00000 
 43692.65567		 621.76330			43070.89237		218.56000		875.00000 
 43692.65567		 305.27265			43387.38302		65.72800		324.00000 
 43692.65567		 621.76330			43070.89237		218.56000		875.00000 
 43692.65567		 305.27265			43387.38302		65.72800		324.00000 
 43692.65567		 621.76330			43070.89237		218.56000		875.00000 
 43692.65567		 305.27265			43387.38302		65.72800		324.00000 
 43692.65567		 621.76330			43070.89237		218.56000		875.00000 
 43692.65567		 305.27265			43387.38302		65.72800		324.00000 
 43692.65567		 621.76330			43070.89237		218.56000		875.00000 
 43692.65567		 305.27265			43387.38302		65.72800		324.00000 
 43692.65567		 621.76330			43070.89237		218.56000		875.00000 
 43692.65567		 305.27265			43387.38302		65.72800		324.00000 
 43692.65567		 621.76330			43070.89237		218.56000		875.00000 
 43692.65567		 305.27265			43387.38302		65.72800		324.00000 
 43692.65567		 621.76330			43070.89237		218.56000		875.00000 
 43692.65567		 305.27265			43387.38302		65.72800		324.00000 
 43692.65567		 621.76330			43070.89237		218.56000		875.00000 
 43692.65567		 305.27265			43387.38302		65.72800		324.00000 
 43692.65567		 621.76330			43070.89237		218.56000		875.00000 
 43692.65567		 305.27265			43387.38302		65.72800		324.00000 
 43692.65567		 621.76330			43070.89237		218.56000		875.00000 
 43692.65567		 305.27265			43387.38302		65.72800		324.00000 
 43692.65567		 621.76330			43070.89237		218.56000		875.00000 
 43692.65567		 305.27265			43387.38302		65.72800		324.00000 
 43692.65567		 621.76330			43070.89237		218.56000		875.00000 
 43692.65567		 305.27265			43387.38302		65.72800		324.00000 
 43692.65567		 621.76330			43070.89237		218.56000		875.00000 
 43692.65567		 305.27265			43387.38302		65.72800		324.00000 
 43692.65567		 621.76330			43070.89237		218.56000		875.00000 
 43692.65567		 305.27265			43387.38302		65.72800		324.00000 
 43692.65567		 621.76330			43070.89237		218.56000		875.00000 
 43692.65567		 305.27265			43387.38302		65.72800		324.00000 
 43692.65567		 621.76330			43070.89237		218.56000		875.00000 
 43692.65567		 305.27265			43387.38302		65.72800		324.00000 
 43692.65567		 621.76330			43070.89237		218.56000		875.00000 
 43692.65567		 305.27265			43387.38302		65.72800		324.00000 
 43692.65567		 621.76330			43070.89237		218.56000		875.00000 
 43692.65567		 305.27265			43387.38302		65.72800		324.00000 
 43692.65567		 621.76330			43070.89237		218.56000		875.00000 
 43692.65567		 305.27265			43387.38302		65.72800		324.00000 
 43692.65567		 621.76330			43070.89237		218.56000		875.00000 
 43692.65567		 305.27265			43387.38302		65.72800		324.00000 
 43692.65567		 621.76330			43070.89237		218.56000		875.00000 
 43692.65567		 305.27265			43387.38302		65.72800		324.00000 
 43692.65567		 621.76330			43070.89237		218.56000		875.00000 
 43692.65567		 305.27265			43387.38302		65.72800		324.00000 
 43692.65567		 621.76330			43070.89237		218.56000		875.00000 
 43692.65567		 305.27265			43387.38302		65.72800		324.00000 
 43692.65567		 621.76330			43070.89237		218.56000		875.00000 
 43692.65567		 305.27265			43387.38302		65.72800		324.00000 
 43692.65567		 621.76330			43070.89237		218.56000		875.00000 
 43692.65567		 305.27265			43387.38302		65.72800		324.00000 
 43692.65567		 621.76330			43070.89237		218.56000		875.00000 
 43692.65567		 305.27265			43387.38302		65.72800		324.00000 
 43692.65567		 621.76330			43070.89237		218.56000		875.00000 
 43692.65567		 305.27265			43387.38302		65.72800		324.00000 
 43692.65567		 621.76330			43070.89237		218.56000		875.00000 
 43692.65567		 305.27265			43387.38302		65.72800		324.00000 
 43692.65567		 621.76330			43070.89237		218.56000		875.00000 
 43692.65567		 305.27265			43387.38302		65.72800		324.00000 
 43692.65567		 621.76330			43070.89237		218.56000		875.00000 
 43692.65567		 305.27265			43387.38302		65.72800		324.00000 
 43692.65567		 621.76330			43070.89237		218.56000		875.00000 
 43692.65567		 305.27265			43387.38302		65.72800		324.00000 
 43692.65567		 621.76330			43070.89237		218.56000		875.00000 
 43692.65567		 305.27265			43387.38302		65.72800		324.00000 
 43692.65567		 621.76330			43070.89237		218.56000		875.00000 
 43692.65567		 305.27265			43387.38302		65.72800		324.00000 
 43692.65567		 621.76330			43070.89237		218.56000		875.00000 
 43692.65567		 305.27265			43387.38302		65.72800		324.00000 
 43692.65567		 621.76330			43070.89237		218.56000		875.00000 
 43692.65567		 305.27265			43387.38302		65.72800		324.00000 
 43692.65567		 621.76330			43070.89237		218.56000		875.00000 
 43692.65567		 305.27265			43387.38302		65.72800		324.00000 
 43692.65567		 621.76330			43070.89237		218.56000		875.00000 
 43692.65567		 305.27265			43387.38302		65.72800		324.00000 
 43692.65567		 621.76330			43070.89237		218.56000		875.00000 
 43692.65567		 305.27265			43387.38302		65.72800		324.00000 
 43692.65567		 621.76330			43070.89237		218.56000		875.00000 
 43692.65567		 305.27265			43387.38302		65.72800		324.00000 
 43692.65567		 621.76330			43070.89237		218.56000		875.00000 
 43692.65567		 305.27265			43387.38302		65.72800		324.00000 
 43692.65567		 621.76330			43070.89237		218.56000		875.00000 
 43692.65567		 305.27265			43387.38302		65.72800		324.00000 
 43692.65567		 621.76330			43070.89237		218.56000		875.00000 
 43692.65567		 305.27265			43387.38302		65.72800		324.00000 
 43692.65567		 621.76330			43070.89237		218.56000		875.00000 
 43692.65567		 305.27265			43387.38302		65.72800		324.00000 
 43692.65567		 621.76330			43070.89237		218.56000		875.00000 
 43692.65567		 305.27265			43387.38302		65.72800		324.00000 
 43692.65567		 621.76330			43070.89237		218.56000		875.00000 
 43692.65567		 305.27265			43387.38302		65.72800		324.00000 
 43692.65567		 621.76330			43070.89237		218.56000		875.00000 
 43692.65567		 305.27265			43387.38302		65.72800		324.00000 
 43692.65567		 621.76330			43070.89237		218.56000		875.00000 
 43692.65567		 305.27265			43387.38302		65.72800		324.00000 
 43692.65567		 621.76330			43070.89237		218.56000		875.00000 
 43692.65567		 305.27265			43387.38302		65.72800		324.00000 
 43692.65567		 621.76330			43070.89237		218.56000		875.00000 
 43692.65567		 305.27265			43387.38302		65.72800		324.00000 
 43692.65567		 621.76330			43070.89237		218.56000		875.00000 
 43692.65567		 305.27265			43387.38302		65.72800		324.00000 
 43692.65567		 621.76330			43070.89237		218.56000		875.00000 
 43692.65567		 305.27265			43387.38302		65.72800		324.00000 
 43692.65567		 621.76330			43070.89237		218.56000		875.00000 
 43692.65567		 305.27265			43387.38302		65.72800		324.00000 
 43692.65567		 621.76330			43070.89237		220.90800		875.00000 
 43692.65567		 305.27265			43387.38302		65.72800		324.00000 
 43692.65567		 621.76330			43070.89237		220.90800		875.00000 
 43692.65567		 305.27265			43387.38302		65.72800		324.00000 
 43692.65567		 621.76330			43070.89237		220.90800		875.00000 
 43692.65567		 305.27265			43387.38302		65.72800		324.00000 
 43692.65567		 621.76330			43070.89237		220.90800		875.00000 
 43692.65567		 305.27265			43387.38302		65.72800		324.00000 
 43692.65567		 621.76330			43070.89237		220.90800		875.00000 
 43692.65567		 305.27265			43387.38302		65.72800		324.00000 
 43692.65567		 621.76330			43070.89237		220.90800		875.00000 
 43692.65567		 305.27265			43387.38302		65.72800		324.00000 
 43692.65567		 621.76330			43070.89237		220.90800		875.00000 
 43692.65567		 305.27265			43387.38302		65.72800		324.00000 
 43692.65567		 621.76330			43070.89237		220.90800		875.00000 
 43692.65567		 305.27265			43387.38302		65.72800		324.00000 
 43692.65567		 621.76330			43070.89237		220.90800		875.00000 
 43692.65567		 305.27265			43387.38302		65.72800		324.00000 
 43692.65567		 621.76330			43070.89237		220.90800		875.00000 
 43692.65567		 305.27265			43387.38302		65.72800		324.00000 
 43692.65567		 621.76330			43070.89237		220.90800		875.00000 
 43692.65567		 305.27265			43387.38302		65.72800		324.00000 
 43692.65567		 621.76330			43070.89237		220.90800		875.00000 
 43692.65567		 305.27265			43387.38302		65.72800		324.00000 
 43692.65567		 621.76330			43070.89237		220.90800		875.00000 
 43692.65567		 305.27265			43387.38302		65.72800		324.00000 
 43692.65567		 621.76330			43070.89237		220.90800		875.00000 
 43692.65567		 305.27265			43387.38302		65.72800		324.00000 
 43692.65567		 621.76330			43070.89237		220.90800		875.00000 
 43692.65567		 305.27265			43387.38302		65.72800		324.00000 
 43692.65567		 621.76330			43070.89237		220.90800		875.00000 
 43692.65567		 305.27265			43387.38302		65.72800		324.00000 
 43692.65567		 621.76330			43070.89237		220.90800		875.00000 
 43692.65567		 305.27265			43387.38302		65.72800		324.00000 
 43692.65567		 621.76330			43070.89237		220.90800		875.00000 
 43692.65567		 305.27265			43387.38302		65.72800		324.00000 
 43692.65567		 621.76330			43070.89237		220.90800		875.00000 
 43692.65567		 305.27265			43387.38302		65.72800		324.00000 
 43692.65567		 621.76330			43070.89237		220.90800		875.00000 
 43692.65567		 305.27265			43387.38302		65.72800		324.00000 
 43692.65567		 621.76330			43070.89237		220.90800		875.00000 
 43692.65567		 305.27265			43387.38302		65.72800		324.00000 
 43692.65567		 621.76330			43070.89237		220.90800		875.00000 
 43692.65567		 305.27265			43387.38302		65.72800		324.00000 
 43692.65567		 621.76330			43070.89237		220.90800		875.00000 
 43692.65567		 305.27265			43387.38302		65.72800		324.00000 
 43692.65567		 621.76330			43070.89237		220.90800		875.00000 
 43692.65567		 305.27265			43387.38302		65.72800		324.00000 
 43692.65567		 621.76330			43070.89237		220.90800		875.00000 
 43692.65567		 305.27265			43387.38302		65.72800		324.00000 
 43692.65567		 621.76330			43070.89237		220.90800		875.00000 
 43692.65567		 305.27265			43387.38302		65.72800		324.00000 
 43692.65567		 621.76330			43070.89237		220.90800		875.00000 
 43692.65567		 305.27265			43387.38302		65.72800		324.00000 
 43692.65567		 621.76330			43070.89237		220.90800		875.00000 
 43692.65567		 305.27265			43387.38302		65.72800		324.00000 
 43692.65567		 621.76330			43070.89237		220.90800		875.00000 
 43692.65567		 305.27265			43387.38302		65.72800		324.00000 
 43692.65567		 621.76330			43070.89237		220.90800		875.00000 
 43692.65567		 305.27265			43387.38302		65.72800		324.00000 
 43692.65567		 621.76330			43070.89237		220.90800		875.00000 
 43692.65567		 305.27265			43387.38302		65.72800		324.00000 
 43692.65567		 621.76330			43070.89237		220.90800		875.00000 
 43692.65567		 305.27265			43387.38302		65.72800		324.00000 
 43692.65567		 621.76330			43070.89237		220.90800		875.00000 
 43692.65567		 305.27265			43387.38302		65.72800		324.00000 
 43692.65567		 621.76330			43070.89237		220.90800		875.00000 
 43692.65567		 305.27265			43387.38302		65.72800		324.00000 
 43692.65567		 621.76330			43070.89237		220.90800		875.00000 
 43692.65567		 305.27265			43387.38302		65.72800		324.00000 
 43692.65567		 621.76330			43070.89237		220.90800		875.00000 
 43692.65567		 305.27265			43387.38302		65.72800		324.00000 
 43692.65567		 593.59897			43099.05670		220.90800		875.00000 
 43692.65567		 305.27265			43387.38302		65.72800		324.00000 
 43692.65567		 537.27032			43155.38535		220.90800		875.00000 
 43692.65567		 305.27265			43387.38302		65.72800		324.00000 
 43692.65567		 537.27032			43155.38535		220.90800		875.00000 
 43692.65567		 305.27265			43387.38302		65.72800		324.00000 
 43692.65567		 537.27032			43155.38535		220.90800		875.00000 
 43692.65567		 305.27265			43387.38302		65.72800		324.00000 
 43692.65567		 537.27032			43155.38535		220.90800		875.00000 
 43692.65567		 305.27265			43387.38302		65.72800		324.00000 
 43692.65567		 537.27032			43155.38535		220.90800		875.00000 
 43692.65567		 305.27265			43387.38302		65.72800		324.00000 
 43692.65567		 537.27032			43155.38535		220.90800		875.00000 
 43692.65567		 305.27265			43387.38302		65.72800		324.00000 
 43692.65567		 537.27032			43155.38535		220.90800		875.00000 
 43692.65567		 305.27265			43387.38302		65.72800		324.00000 
 43692.65567		 537.27032			43155.38535		220.90800		875.00000 
 43692.65567		 305.27265			43387.38302		65.72800		324.00000 
 43692.65567		 537.27032			43155.38535		220.90800		875.00000 
 43692.65567		 305.27265			43387.38302		65.72800		324.00000 
 43692.65567		 537.27032			43155.38535		220.90800		875.00000 
 43692.65567		 305.27265			43387.38302		65.72800		324.00000 
 43692.65567		 537.27032			43155.38535		220.90800		875.00000 
 43692.65567		 305.27265			43387.38302		65.72800		324.00000 
 43692.65567		 537.27032			43155.38535		220.90800		875.00000 
 43692.65567		 305.27265			43387.38302		65.72800		324.00000 
 43692.65567		 537.27032			43155.38535		220.90800		875.00000 
 43692.65567		 305.27265			43387.38302		65.72800		324.00000 
 43692.65567		 537.27032			43155.38535		220.90800		875.00000 
 43692.65567		 305.27265			43387.38302		65.72800		324.00000 
 43692.65567		 537.27032			43155.38535		220.90800		875.00000 
 43692.65567		 305.27265			43387.38302		65.72800		324.00000 
 43692.65567		 537.27032			43155.38535		220.90800		875.00000 
 43692.65567		 305.27265			43387.38302		65.72800		324.00000 
 43692.65567		 537.27032			43155.38535		220.90800		875.00000 
 43692.65567		 305.27265			43387.38302		65.72800		324.00000 
 43692.65567		 537.27032			43155.38535		220.90800		875.00000 
 43692.65567		 305.27265			43387.38302		65.72800		324.00000 
 43692.65567		 537.27032			43155.38535		220.90800		875.00000 
 43692.65567		 305.27265			43387.38302		65.72800		324.00000 
 43692.65567		 537.27032			43155.38535		190.01000		875.00000 
 43692.65567		 305.27265			43387.38302		65.72800		324.00000 
 43692.65567		 525.81365			43166.84203		190.01000		875.00000 
 43692.65567		 305.27265			43387.38302		65.72800		324.00000 
 43692.65567		 525.81365			43166.84203		190.01000		875.00000 
 43692.65567		 261.35540			43431.30027		65.72800		324.00000 
 43692.65567		 261.35540			43431.30027		190.01000		875.00000 
 43692.65567		 261.35540			43431.30027		65.72800		324.00000 
