Memory Total (MiB) 	 Memory Used (MiB) 	    Memory Free (MiB) 	 Power Drawed (W) 	 Clocks (Mhz) 	 
 43692.65567		 261.35540			43431.30027		181.88600		875.00000 
 43692.65567		 261.35540			43431.30027		69.65600		324.00000 
 43692.65567		 261.35540			43431.30027		181.88600		875.00000 
 43692.65567		 261.35540			43431.30027		69.65600		324.00000 
 43692.65567		 261.35540			43431.30027		181.88600		875.00000 
 43692.65567		 261.35540			43431.30027		69.65600		324.00000 
 43692.65567		 261.35540			43431.30027		181.88600		875.00000 
 43692.65567		 261.35540			43431.30027		69.65600		324.00000 
 43692.65567		 261.35540			43431.30027		181.88600		875.00000 
 43692.65567		 261.35540			43431.30027		69.65600		324.00000 
 43692.65567		 261.35540			43431.30027		181.88600		875.00000 
 43692.65567		 261.35540			43431.30027		69.65600		324.00000 
 43692.65567		 261.35540			43431.30027		181.88600		875.00000 
 43692.65567		 261.35540			43431.30027		69.65600		324.00000 
 43692.65567		 261.35540			43431.30027		181.88600		875.00000 
 43692.65567		 261.35540			43431.30027		69.65600		324.00000 
 43692.65567		 261.35540			43431.30027		181.88600		875.00000 
 43692.65567		 261.35540			43431.30027		69.65600		324.00000 
 43692.65567		 261.35540			43431.30027		181.88600		875.00000 
 43692.65567		 261.35540			43431.30027		69.65600		324.00000 
 43692.65567		 261.35540			43431.30027		181.88600		875.00000 
 43692.65567		 261.35540			43431.30027		69.65600		324.00000 
 43692.65567		 261.35540			43431.30027		181.88600		875.00000 
 43692.65567		 261.35540			43431.30027		69.65600		324.00000 
 43692.65567		 261.35540			43431.30027		181.88600		875.00000 
 43692.65567		 261.35540			43431.30027		69.65600		324.00000 
 43692.65567		 261.35540			43431.30027		181.88600		875.00000 
 43692.65567		 261.35540			43431.30027		69.65600		324.00000 
 43692.65567		 261.35540			43431.30027		181.88600		875.00000 
 43692.65567		 261.35540			43431.30027		69.65600		324.00000 
 43692.65567		 261.35540			43431.30027		181.88600		875.00000 
 43692.65567		 261.35540			43431.30027		69.65600		324.00000 
 43692.65567		 261.35540			43431.30027		181.88600		875.00000 
 43692.65567		 261.35540			43431.30027		69.65600		324.00000 
 43692.65567		 261.35540			43431.30027		181.88600		875.00000 
 43692.65567		 261.35540			43431.30027		69.65600		324.00000 
 43692.65567		 265.17429			43427.48138		181.88600		875.00000 
 43692.65567		 261.35540			43431.30027		69.65600		324.00000 
 43692.65567		 272.81207			43419.84360		181.88600		875.00000 
 43692.65567		 261.35540			43431.30027		69.65600		324.00000 
 43692.65567		 272.81207			43419.84360		181.88600		875.00000 
 43692.65567		 261.35540			43431.30027		69.65600		324.00000 
 43692.65567		 272.81207			43419.84360		181.88600		875.00000 
 43692.65567		 265.17429			43427.48138		69.65600		324.00000 
 43692.65567		 272.81207			43419.84360		181.88600		875.00000 
 43692.65567		 265.17429			43427.48138		69.65600		324.00000 
 43692.65567		 272.81207			43419.84360		181.88600		875.00000 
 43692.65567		 265.17429			43427.48138		69.65600		324.00000 
 43692.65567		 272.81207			43419.84360		150.85600		875.00000 
 43692.65567		 272.81207			43419.84360		69.65600		324.00000 
 43692.65567		 272.81207			43419.84360		150.85600		875.00000 
 43692.65567		 272.81207			43419.84360		69.65600		324.00000 
 43692.65567		 272.81207			43419.84360		150.85600		875.00000 
 43692.65567		 272.81207			43419.84360		69.65600		324.00000 
 43692.65567		 305.27265			43387.38302		150.85600		875.00000 
 43692.65567		 305.27265			43387.38302		69.65600		324.00000 
 43692.65567		 305.27265			43387.38302		150.85600		875.00000 
 43692.65567		 305.27265			43387.38302		69.65600		324.00000 
 43692.65567		 305.27265			43387.38302		150.85600		875.00000 
 43692.65567		 305.27265			43387.38302		69.65600		324.00000 
 43692.65567		 305.27265			43387.38302		150.85600		875.00000 
 43692.65567		 305.27265			43387.38302		69.65600		324.00000 
 43692.65567		 305.27265			43387.38302		150.85600		875.00000 
 43692.65567		 305.27265			43387.38302		69.65600		324.00000 
 43692.65567		 309.09154			43383.56413		150.85600		875.00000 
 43692.65567		 305.27265			43387.38302		69.65600		324.00000 
 43692.65567		 310.52363			43382.13204		150.85600		875.00000 
 43692.65567		 305.27265			43387.38302		69.65600		324.00000 
 43692.65567		 311.00099			43381.65468		150.85600		875.00000 
 43692.65567		 305.27265			43387.38302		69.65600		324.00000 
 43692.65567		 311.00099			43381.65468		150.85600		875.00000 
 43692.65567		 305.27265			43387.38302		69.65600		324.00000 
 43692.65567		 311.00099			43381.65468		150.85600		875.00000 
 43692.65567		 305.27265			43387.38302		69.65600		324.00000 
 43692.65567		 311.00099			43381.65468		150.85600		875.00000 
 43692.65567		 305.27265			43387.38302		69.65600		324.00000 
 43692.65567		 311.00099			43381.65468		150.85600		875.00000 
 43692.65567		 305.27265			43387.38302		69.65600		324.00000 
 43692.65567		 311.00099			43381.65468		150.85600		875.00000 
 43692.65567		 305.27265			43387.38302		69.65600		324.00000 
 43692.65567		 311.00099			43381.65468		150.85600		875.00000 
 43692.65567		 305.27265			43387.38302		69.65600		324.00000 
 43692.65567		 311.00099			43381.65468		150.85600		875.00000 
 43692.65567		 305.27265			43387.38302		69.65600		324.00000 
 43692.65567		 311.00099			43381.65468		150.85600		875.00000 
 43692.65567		 305.27265			43387.38302		69.65600		324.00000 
 43692.65567		 311.00099			43381.65468		150.85600		875.00000 
 43692.65567		 305.27265			43387.38302		69.65600		324.00000 
 43692.65567		 311.00099			43381.65468		150.85600		875.00000 
 43692.65567		 305.27265			43387.38302		69.65600		324.00000 
 43692.65567		 311.00099			43381.65468		150.85600		875.00000 
 43692.65567		 305.27265			43387.38302		69.65600		324.00000 
 43692.65567		 311.00099			43381.65468		150.85600		875.00000 
 43692.65567		 305.27265			43387.38302		69.65600		324.00000 
 43692.65567		 311.00099			43381.65468		150.85600		875.00000 
 43692.65567		 305.27265			43387.38302		69.65600		324.00000 
 43692.65567		 311.00099			43381.65468		150.85600		875.00000 
 43692.65567		 305.27265			43387.38302		69.65600		324.00000 
 43692.65567		 311.00099			43381.65468		150.85600		875.00000 
 43692.65567		 305.27265			43387.38302		69.65600		324.00000 
 43692.65567		 311.00099			43381.65468		150.85600		875.00000 
 43692.65567		 305.27265			43387.38302		69.65600		324.00000 
 43692.65567		 311.00099			43381.65468		150.85600		875.00000 
 43692.65567		 305.27265			43387.38302		69.65600		324.00000 
 43692.65567		 311.00099			43381.65468		150.85600		875.00000 
 43692.65567		 305.27265			43387.38302		69.65600		324.00000 
 43692.65567		 311.00099			43381.65468		150.85600		875.00000 
 43692.65567		 305.27265			43387.38302		69.65600		324.00000 
 43692.65567		 311.00099			43381.65468		150.85600		875.00000 
 43692.65567		 305.27265			43387.38302		69.65600		324.00000 
 43692.65567		 311.00099			43381.65468		150.85600		875.00000 
 43692.65567		 305.27265			43387.38302		69.65600		324.00000 
 43692.65567		 311.00099			43381.65468		150.85600		875.00000 
 43692.65567		 305.27265			43387.38302		69.65600		324.00000 
 43692.65567		 311.00099			43381.65468		150.85600		875.00000 
 43692.65567		 305.27265			43387.38302		69.65600		324.00000 
 43692.65567		 311.00099			43381.65468		150.85600		875.00000 
 43692.65567		 305.27265			43387.38302		69.65600		324.00000 
 43692.65567		 311.00099			43381.65468		139.28000		875.00000 
 43692.65567		 305.27265			43387.38302		69.65600		324.00000 
 43692.65567		 311.00099			43381.65468		139.28000		875.00000 
 43692.65567		 305.27265			43387.38302		69.65600		324.00000 
 43692.65567		 311.00099			43381.65468		139.28000		875.00000 
 43692.65567		 305.27265			43387.38302		69.65600		324.00000 
 43692.65567		 311.00099			43381.65468		139.28000		875.00000 
 43692.65567		 305.27265			43387.38302		69.65600		324.00000 
 43692.65567		 311.00099			43381.65468		139.28000		875.00000 
 43692.65567		 305.27265			43387.38302		69.65600		324.00000 
 43692.65567		 311.00099			43381.65468		139.28000		875.00000 
 43692.65567		 305.27265			43387.38302		69.65600		324.00000 
 43692.65567		 311.00099			43381.65468		139.28000		875.00000 
 43692.65567		 305.27265			43387.38302		69.65600		324.00000 
 43692.65567		 311.00099			43381.65468		139.28000		875.00000 
 43692.65567		 305.27265			43387.38302		69.65600		324.00000 
 43692.65567		 311.00099			43381.65468		139.28000		875.00000 
 43692.65567		 305.27265			43387.38302		69.65600		324.00000 
 43692.65567		 311.00099			43381.65468		139.28000		875.00000 
 43692.65567		 305.27265			43387.38302		69.65600		324.00000 
 43692.65567		 311.00099			43381.65468		139.28000		875.00000 
 43692.65567		 305.27265			43387.38302		69.65600		324.00000 
 43692.65567		 311.00099			43381.65468		139.28000		875.00000 
 43692.65567		 305.27265			43387.38302		69.65600		324.00000 
 43692.65567		 311.00099			43381.65468		139.28000		875.00000 
 43692.65567		 305.27265			43387.38302		69.65600		324.00000 
 43692.65567		 311.00099			43381.65468		139.28000		875.00000 
 43692.65567		 305.27265			43387.38302		69.65600		324.00000 
 43692.65567		 311.00099			43381.65468		139.28000		875.00000 
 43692.65567		 305.27265			43387.38302		69.65600		324.00000 
 43692.65567		 311.00099			43381.65468		139.28000		875.00000 
 43692.65567		 305.27265			43387.38302		69.65600		324.00000 
 43692.65567		 311.00099			43381.65468		139.28000		875.00000 
 43692.65567		 305.27265			43387.38302		69.65600		324.00000 
 43692.65567		 311.00099			43381.65468		139.28000		875.00000 
 43692.65567		 305.27265			43387.38302		69.65600		324.00000 
 43692.65567		 311.00099			43381.65468		139.28000		875.00000 
 43692.65567		 305.27265			43387.38302		69.65600		324.00000 
 43692.65567		 311.00099			43381.65468		139.28000		875.00000 
 43692.65567		 305.27265			43387.38302		69.65600		324.00000 
 43692.65567		 311.00099			43381.65468		139.28000		875.00000 
 43692.65567		 305.27265			43387.38302		69.65600		324.00000 
 43692.65567		 311.00099			43381.65468		139.28000		875.00000 
 43692.65567		 305.27265			43387.38302		69.65600		324.00000 
 43692.65567		 311.00099			43381.65468		139.28000		875.00000 
 43692.65567		 305.27265			43387.38302		69.65600		324.00000 
 43692.65567		 311.00099			43381.65468		139.28000		875.00000 
 43692.65567		 305.27265			43387.38302		69.65600		324.00000 
 43692.65567		 311.00099			43381.65468		139.28000		875.00000 
 43692.65567		 305.27265			43387.38302		69.65600		324.00000 
 43692.65567		 314.81988			43377.83579		139.28000		875.00000 
 43692.65567		 305.27265			43387.38302		69.65600		324.00000 
 43692.65567		 314.81988			43377.83579		139.28000		875.00000 
 43692.65567		 305.27265			43387.38302		69.65600		324.00000 
 43692.65567		 314.81988			43377.83579		139.28000		875.00000 
 43692.65567		 305.27265			43387.38302		69.65600		324.00000 
 43692.65567		 322.45767			43370.19801		139.28000		875.00000 
 43692.65567		 305.27265			43387.38302		69.65600		324.00000 
 43692.65567		 326.27656			43366.37912		139.28000		875.00000 
 43692.65567		 305.27265			43387.38302		69.65600		324.00000 
 43692.65567		 326.27656			43366.37912		139.28000		875.00000 
 43692.65567		 305.27265			43387.38302		69.65600		324.00000 
 43692.65567		 326.27656			43366.37912		139.28000		875.00000 
 43692.65567		 305.27265			43387.38302		69.65600		324.00000 
 43692.65567		 537.27032			43155.38535		134.07200		875.00000 
 43692.65567		 305.27265			43387.38302		69.65600		324.00000 
 43692.65567		 597.41787			43095.23781		134.07200		875.00000 
 43692.65567		 305.27265			43387.38302		69.65600		324.00000 
 43692.65567		 717.71295			42974.94272		134.07200		875.00000 
 43692.65567		 305.27265			43387.38302		69.65600		324.00000 
 43692.65567		 717.71295			42974.94272		134.07200		875.00000 
 43692.65567		 305.27265			43387.38302		69.65600		324.00000 
 43692.65567		 717.71295			42974.94272		134.07200		875.00000 
 43692.65567		 305.27265			43387.38302		69.65600		324.00000 
 43692.65567		 717.71295			42974.94272		134.07200		875.00000 
 43692.65567		 305.27265			43387.38302		69.65600		324.00000 
 43692.65567		 717.71295			42974.94272		134.07200		875.00000 
 43692.65567		 305.27265			43387.38302		69.65600		324.00000 
 43692.65567		 717.71295			42974.94272		134.07200		875.00000 
 43692.65567		 305.27265			43387.38302		69.65600		324.00000 
 43692.65567		 717.71295			42974.94272		134.07200		875.00000 
 43692.65567		 305.27265			43387.38302		69.65600		324.00000 
 43692.65567		 717.71295			42974.94272		134.07200		875.00000 
 43692.65567		 305.27265			43387.38302		69.65600		324.00000 
 43692.65567		 717.71295			42974.94272		134.07200		875.00000 
 43692.65567		 305.27265			43387.38302		69.65600		324.00000 
 43692.65567		 717.71295			42974.94272		134.07200		875.00000 
 43692.65567		 305.27265			43387.38302		69.65600		324.00000 
 43692.65567		 717.71295			42974.94272		134.07200		875.00000 
 43692.65567		 305.27265			43387.38302		69.65600		324.00000 
 43692.65567		 717.71295			42974.94272		134.07200		875.00000 
 43692.65567		 305.27265			43387.38302		69.65600		324.00000 
 43692.65567		 717.71295			42974.94272		134.07200		875.00000 
 43692.65567		 305.27265			43387.38302		69.65600		324.00000 
 43692.65567		 717.71295			42974.94272		134.07200		875.00000 
 43692.65567		 305.27265			43387.38302		69.65600		324.00000 
 43692.65567		 717.71295			42974.94272		134.07200		875.00000 
 43692.65567		 305.27265			43387.38302		69.65600		324.00000 
 43692.65567		 717.71295			42974.94272		134.07200		875.00000 
 43692.65567		 305.27265			43387.38302		69.65600		324.00000 
 43692.65567		 717.71295			42974.94272		134.07200		875.00000 
 43692.65567		 305.27265			43387.38302		69.65600		324.00000 
 43692.65567		 717.71295			42974.94272		134.07200		875.00000 
 43692.65567		 305.27265			43387.38302		69.65600		324.00000 
 43692.65567		 717.71295			42974.94272		134.07200		875.00000 
 43692.65567		 305.27265			43387.38302		69.65600		324.00000 
 43692.65567		 717.71295			42974.94272		134.07200		875.00000 
 43692.65567		 305.27265			43387.38302		66.67800		324.00000 
 43692.65567		 717.71295			42974.94272		134.07200		875.00000 
 43692.65567		 305.27265			43387.38302		66.67800		324.00000 
 43692.65567		 717.71295			42974.94272		134.07200		875.00000 
 43692.65567		 305.27265			43387.38302		66.67800		324.00000 
 43692.65567		 717.71295			42974.94272		134.07200		875.00000 
 43692.65567		 305.27265			43387.38302		66.67800		324.00000 
 43692.65567		 717.71295			42974.94272		134.07200		875.00000 
 43692.65567		 305.27265			43387.38302		66.67800		324.00000 
 43692.65567		 717.71295			42974.94272		134.07200		875.00000 
 43692.65567		 305.27265			43387.38302		66.67800		324.00000 
 43692.65567		 717.71295			42974.94272		134.07200		875.00000 
 43692.65567		 305.27265			43387.38302		66.67800		324.00000 
 43692.65567		 717.71295			42974.94272		134.07200		875.00000 
 43692.65567		 305.27265			43387.38302		66.67800		324.00000 
 43692.65567		 717.71295			42974.94272		134.07200		875.00000 
 43692.65567		 305.27265			43387.38302		66.67800		324.00000 
 43692.65567		 717.71295			42974.94272		134.07200		875.00000 
 43692.65567		 305.27265			43387.38302		66.67800		324.00000 
 43692.65567		 717.71295			42974.94272		134.07200		875.00000 
 43692.65567		 305.27265			43387.38302		66.67800		324.00000 
 43692.65567		 717.71295			42974.94272		134.07200		875.00000 
 43692.65567		 305.27265			43387.38302		66.67800		324.00000 
 43692.65567		 717.71295			42974.94272		134.07200		875.00000 
 43692.65567		 305.27265			43387.38302		66.67800		324.00000 
 43692.65567		 717.71295			42974.94272		134.07200		875.00000 
 43692.65567		 305.27265			43387.38302		66.67800		324.00000 
 43692.65567		 717.71295			42974.94272		134.07200		875.00000 
 43692.65567		 305.27265			43387.38302		66.67800		324.00000 
 43692.65567		 717.71295			42974.94272		134.07200		875.00000 
 43692.65567		 305.27265			43387.38302		66.67800		324.00000 
 43692.65567		 717.71295			42974.94272		134.07200		875.00000 
 43692.65567		 305.27265			43387.38302		66.67800		324.00000 
 43692.65567		 717.71295			42974.94272		134.07200		875.00000 
 43692.65567		 305.27265			43387.38302		66.67800		324.00000 
 43692.65567		 717.71295			42974.94272		134.07200		875.00000 
 43692.65567		 305.27265			43387.38302		66.67800		324.00000 
 43692.65567		 717.71295			42974.94272		134.07200		875.00000 
 43692.65567		 305.27265			43387.38302		66.67800		324.00000 
 43692.65567		 717.71295			42974.94272		134.07200		875.00000 
 43692.65567		 305.27265			43387.38302		66.67800		324.00000 
 43692.65567		 717.71295			42974.94272		134.07200		875.00000 
 43692.65567		 305.27265			43387.38302		66.67800		324.00000 
 43692.65567		 717.71295			42974.94272		134.07200		875.00000 
 43692.65567		 305.27265			43387.38302		66.67800		324.00000 
 43692.65567		 717.71295			42974.94272		134.07200		875.00000 
 43692.65567		 305.27265			43387.38302		66.67800		324.00000 
 43692.65567		 717.71295			42974.94272		134.07200		875.00000 
 43692.65567		 305.27265			43387.38302		66.67800		324.00000 
 43692.65567		 717.71295			42974.94272		134.07200		875.00000 
 43692.65567		 305.27265			43387.38302		66.67800		324.00000 
 43692.65567		 717.71295			42974.94272		134.07200		875.00000 
 43692.65567		 305.27265			43387.38302		66.67800		324.00000 
 43692.65567		 717.71295			42974.94272		134.07200		875.00000 
 43692.65567		 305.27265			43387.38302		66.67800		324.00000 
 43692.65567		 717.71295			42974.94272		134.07200		875.00000 
 43692.65567		 305.27265			43387.38302		66.67800		324.00000 
 43692.65567		 717.71295			42974.94272		134.07200		875.00000 
 43692.65567		 305.27265			43387.38302		66.67800		324.00000 
 43692.65567		 717.71295			42974.94272		134.07200		875.00000 
 43692.65567		 305.27265			43387.38302		66.67800		324.00000 
 43692.65567		 717.71295			42974.94272		134.07200		875.00000 
 43692.65567		 305.27265			43387.38302		66.67800		324.00000 
 43692.65567		 717.71295			42974.94272		134.07200		875.00000 
 43692.65567		 305.27265			43387.38302		66.67800		324.00000 
 43692.65567		 717.71295			42974.94272		134.07200		875.00000 
 43692.65567		 305.27265			43387.38302		66.67800		324.00000 
 43692.65567		 717.71295			42974.94272		134.07200		875.00000 
 43692.65567		 305.27265			43387.38302		66.67800		324.00000 
 43692.65567		 717.71295			42974.94272		134.07200		875.00000 
 43692.65567		 305.27265			43387.38302		66.67800		324.00000 
 43692.65567		 717.71295			42974.94272		134.07200		875.00000 
 43692.65567		 305.27265			43387.38302		66.67800		324.00000 
 43692.65567		 717.71295			42974.94272		134.07200		875.00000 
 43692.65567		 305.27265			43387.38302		66.67800		324.00000 
 43692.65567		 717.71295			42974.94272		134.07200		875.00000 
 43692.65567		 305.27265			43387.38302		66.67800		324.00000 
 43692.65567		 717.71295			42974.94272		185.24800		875.00000 
 43692.65567		 305.27265			43387.38302		66.67800		324.00000 
 43692.65567		 717.71295			42974.94272		185.24800		875.00000 
 43692.65567		 305.27265			43387.38302		66.67800		324.00000 
 43692.65567		 717.71295			42974.94272		185.24800		875.00000 
 43692.65567		 305.27265			43387.38302		66.67800		324.00000 
 43692.65567		 717.71295			42974.94272		185.24800		875.00000 
 43692.65567		 305.27265			43387.38302		66.67800		324.00000 
 43692.65567		 717.71295			42974.94272		185.24800		875.00000 
 43692.65567		 305.27265			43387.38302		66.67800		324.00000 
 43692.65567		 717.71295			42974.94272		185.24800		875.00000 
 43692.65567		 305.27265			43387.38302		66.67800		324.00000 
 43692.65567		 717.71295			42974.94272		185.24800		875.00000 
 43692.65567		 305.27265			43387.38302		66.67800		324.00000 
 43692.65567		 717.71295			42974.94272		185.24800		875.00000 
 43692.65567		 305.27265			43387.38302		66.67800		324.00000 
 43692.65567		 717.71295			42974.94272		185.24800		875.00000 
 43692.65567		 305.27265			43387.38302		66.67800		324.00000 
 43692.65567		 717.71295			42974.94272		185.24800		875.00000 
 43692.65567		 305.27265			43387.38302		66.67800		324.00000 
 43692.65567		 717.71295			42974.94272		185.24800		875.00000 
 43692.65567		 305.27265			43387.38302		66.67800		324.00000 
 43692.65567		 717.71295			42974.94272		185.24800		875.00000 
 43692.65567		 305.27265			43387.38302		66.67800		324.00000 
 43692.65567		 717.71295			42974.94272		185.24800		875.00000 
 43692.65567		 305.27265			43387.38302		66.67800		324.00000 
 43692.65567		 717.71295			42974.94272		185.24800		875.00000 
 43692.65567		 305.27265			43387.38302		66.67800		324.00000 
 43692.65567		 717.71295			42974.94272		185.24800		875.00000 
 43692.65567		 305.27265			43387.38302		66.67800		324.00000 
 43692.65567		 717.71295			42974.94272		185.24800		875.00000 
 43692.65567		 305.27265			43387.38302		66.67800		324.00000 
 43692.65567		 717.71295			42974.94272		185.24800		875.00000 
 43692.65567		 305.27265			43387.38302		66.67800		324.00000 
 43692.65567		 717.71295			42974.94272		185.24800		875.00000 
 43692.65567		 305.27265			43387.38302		66.67800		324.00000 
 43692.65567		 717.71295			42974.94272		185.24800		875.00000 
 43692.65567		 305.27265			43387.38302		66.67800		324.00000 
 43692.65567		 717.71295			42974.94272		185.24800		875.00000 
 43692.65567		 305.27265			43387.38302		66.67800		324.00000 
 43692.65567		 717.71295			42974.94272		185.24800		875.00000 
 43692.65567		 305.27265			43387.38302		66.67800		324.00000 
 43692.65567		 717.71295			42974.94272		185.24800		875.00000 
 43692.65567		 305.27265			43387.38302		66.67800		324.00000 
 43692.65567		 717.71295			42974.94272		185.24800		875.00000 
 43692.65567		 305.27265			43387.38302		66.67800		324.00000 
 43692.65567		 717.71295			42974.94272		185.24800		875.00000 
 43692.65567		 305.27265			43387.38302		66.67800		324.00000 
 43692.65567		 717.71295			42974.94272		185.24800		875.00000 
 43692.65567		 305.27265			43387.38302		66.67800		324.00000 
 43692.65567		 717.71295			42974.94272		185.24800		875.00000 
 43692.65567		 305.27265			43387.38302		66.67800		324.00000 
 43692.65567		 717.71295			42974.94272		185.24800		875.00000 
 43692.65567		 305.27265			43387.38302		66.67800		324.00000 
 43692.65567		 717.71295			42974.94272		185.24800		875.00000 
 43692.65567		 305.27265			43387.38302		66.67800		324.00000 
 43692.65567		 717.71295			42974.94272		185.24800		875.00000 
 43692.65567		 305.27265			43387.38302		66.67800		324.00000 
 43692.65567		 717.71295			42974.94272		185.24800		875.00000 
 43692.65567		 305.27265			43387.38302		66.67800		324.00000 
 43692.65567		 717.71295			42974.94272		185.24800		875.00000 
 43692.65567		 305.27265			43387.38302		66.67800		324.00000 
 43692.65567		 717.71295			42974.94272		185.24800		875.00000 
 43692.65567		 305.27265			43387.38302		66.67800		324.00000 
 43692.65567		 717.71295			42974.94272		185.24800		875.00000 
 43692.65567		 305.27265			43387.38302		66.67800		324.00000 
 43692.65567		 717.71295			42974.94272		185.24800		875.00000 
 43692.65567		 305.27265			43387.38302		66.67800		324.00000 
 43692.65567		 717.71295			42974.94272		185.24800		875.00000 
 43692.65567		 305.27265			43387.38302		66.67800		324.00000 
 43692.65567		 717.71295			42974.94272		185.24800		875.00000 
 43692.65567		 305.27265			43387.38302		66.67800		324.00000 
 43692.65567		 717.71295			42974.94272		185.24800		875.00000 
 43692.65567		 305.27265			43387.38302		66.67800		324.00000 
 43692.65567		 717.71295			42974.94272		185.24800		875.00000 
 43692.65567		 305.27265			43387.38302		66.67800		324.00000 
 43692.65567		 717.71295			42974.94272		185.24800		875.00000 
 43692.65567		 305.27265			43387.38302		66.67800		324.00000 
 43692.65567		 717.71295			42974.94272		185.24800		875.00000 
 43692.65567		 305.27265			43387.38302		66.67800		324.00000 
 43692.65567		 717.71295			42974.94272		185.24800		875.00000 
 43692.65567		 305.27265			43387.38302		66.67800		324.00000 
 43692.65567		 717.71295			42974.94272		185.24800		875.00000 
 43692.65567		 305.27265			43387.38302		66.67800		324.00000 
 43692.65567		 717.71295			42974.94272		185.24800		875.00000 
 43692.65567		 305.27265			43387.38302		66.67800		324.00000 
 43692.65567		 717.71295			42974.94272		185.24800		875.00000 
 43692.65567		 305.27265			43387.38302		66.67800		324.00000 
 43692.65567		 717.71295			42974.94272		185.24800		875.00000 
 43692.65567		 305.27265			43387.38302		66.67800		324.00000 
 43692.65567		 717.71295			42974.94272		185.24800		875.00000 
 43692.65567		 305.27265			43387.38302		66.67800		324.00000 
 43692.65567		 717.71295			42974.94272		185.24800		875.00000 
 43692.65567		 305.27265			43387.38302		66.67800		324.00000 
 43692.65567		 717.71295			42974.94272		185.24800		875.00000 
 43692.65567		 305.27265			43387.38302		66.67800		324.00000 
 43692.65567		 717.71295			42974.94272		185.24800		875.00000 
 43692.65567		 305.27265			43387.38302		66.67800		324.00000 
 43692.65567		 717.71295			42974.94272		185.24800		875.00000 
 43692.65567		 305.27265			43387.38302		66.67800		324.00000 
 43692.65567		 717.71295			42974.94272		185.24800		875.00000 
 43692.65567		 305.27265			43387.38302		66.67800		324.00000 
 43692.65567		 717.71295			42974.94272		185.24800		875.00000 
 43692.65567		 305.27265			43387.38302		66.67800		324.00000 
 43692.65567		 717.71295			42974.94272		185.24800		875.00000 
 43692.65567		 305.27265			43387.38302		66.67800		324.00000 
 43692.65567		 717.71295			42974.94272		185.24800		875.00000 
 43692.65567		 305.27265			43387.38302		66.67800		324.00000 
 43692.65567		 717.71295			42974.94272		185.24800		875.00000 
 43692.65567		 305.27265			43387.38302		66.67800		324.00000 
 43692.65567		 717.71295			42974.94272		185.24800		875.00000 
 43692.65567		 305.27265			43387.38302		66.67800		324.00000 
 43692.65567		 717.71295			42974.94272		185.24800		875.00000 
 43692.65567		 305.27265			43387.38302		66.67800		324.00000 
 43692.65567		 717.71295			42974.94272		185.24800		875.00000 
 43692.65567		 305.27265			43387.38302		66.67800		324.00000 
 43692.65567		 717.71295			42974.94272		185.24800		875.00000 
 43692.65567		 305.27265			43387.38302		66.67800		324.00000 
 43692.65567		 717.71295			42974.94272		185.24800		875.00000 
 43692.65567		 305.27265			43387.38302		66.67800		324.00000 
 43692.65567		 717.71295			42974.94272		185.24800		875.00000 
 43692.65567		 305.27265			43387.38302		66.67800		324.00000 
 43692.65567		 717.71295			42974.94272		185.24800		875.00000 
 43692.65567		 305.27265			43387.38302		66.67800		324.00000 
 43692.65567		 717.71295			42974.94272		185.24800		875.00000 
 43692.65567		 305.27265			43387.38302		66.67800		324.00000 
 43692.65567		 717.71295			42974.94272		185.24800		875.00000 
 43692.65567		 305.27265			43387.38302		66.67800		324.00000 
 43692.65567		 717.71295			42974.94272		185.24800		875.00000 
 43692.65567		 305.27265			43387.38302		66.67800		324.00000 
 43692.65567		 717.71295			42974.94272		206.65200		875.00000 
 43692.65567		 305.27265			43387.38302		66.67800		324.00000 
 43692.65567		 717.71295			42974.94272		206.65200		875.00000 
 43692.65567		 305.27265			43387.38302		66.67800		324.00000 
 43692.65567		 717.71295			42974.94272		206.65200		875.00000 
 43692.65567		 305.27265			43387.38302		66.67800		324.00000 
 43692.65567		 717.71295			42974.94272		206.65200		875.00000 
 43692.65567		 305.27265			43387.38302		66.67800		324.00000 
 43692.65567		 717.71295			42974.94272		206.65200		875.00000 
 43692.65567		 305.27265			43387.38302		66.67800		324.00000 
 43692.65567		 717.71295			42974.94272		206.65200		875.00000 
 43692.65567		 305.27265			43387.38302		66.67800		324.00000 
 43692.65567		 717.71295			42974.94272		206.65200		875.00000 
 43692.65567		 305.27265			43387.38302		66.67800		324.00000 
 43692.65567		 717.71295			42974.94272		206.65200		875.00000 
 43692.65567		 305.27265			43387.38302		66.67800		324.00000 
 43692.65567		 717.71295			42974.94272		206.65200		875.00000 
 43692.65567		 305.27265			43387.38302		66.67800		324.00000 
 43692.65567		 717.71295			42974.94272		206.65200		875.00000 
 43692.65567		 305.27265			43387.38302		66.67800		324.00000 
 43692.65567		 717.71295			42974.94272		206.65200		875.00000 
 43692.65567		 305.27265			43387.38302		66.67800		324.00000 
 43692.65567		 717.71295			42974.94272		206.65200		875.00000 
 43692.65567		 305.27265			43387.38302		66.67800		324.00000 
 43692.65567		 717.71295			42974.94272		206.65200		875.00000 
 43692.65567		 305.27265			43387.38302		66.67800		324.00000 
 43692.65567		 717.71295			42974.94272		206.65200		875.00000 
 43692.65567		 305.27265			43387.38302		66.67800		324.00000 
 43692.65567		 717.71295			42974.94272		206.65200		875.00000 
 43692.65567		 305.27265			43387.38302		66.67800		324.00000 
 43692.65567		 717.71295			42974.94272		206.65200		875.00000 
 43692.65567		 305.27265			43387.38302		66.67800		324.00000 
 43692.65567		 717.71295			42974.94272		206.65200		875.00000 
 43692.65567		 305.27265			43387.38302		66.67800		324.00000 
 43692.65567		 717.71295			42974.94272		206.65200		875.00000 
 43692.65567		 305.27265			43387.38302		66.67800		324.00000 
 43692.65567		 717.71295			42974.94272		206.65200		875.00000 
 43692.65567		 305.27265			43387.38302		66.67800		324.00000 
 43692.65567		 717.71295			42974.94272		206.65200		875.00000 
 43692.65567		 305.27265			43387.38302		66.67800		324.00000 
 43692.65567		 717.71295			42974.94272		206.65200		875.00000 
 43692.65567		 305.27265			43387.38302		66.67800		324.00000 
 43692.65567		 717.71295			42974.94272		206.65200		875.00000 
 43692.65567		 305.27265			43387.38302		66.67800		324.00000 
 43692.65567		 717.71295			42974.94272		206.65200		875.00000 
 43692.65567		 305.27265			43387.38302		66.67800		324.00000 
 43692.65567		 717.71295			42974.94272		206.65200		875.00000 
 43692.65567		 305.27265			43387.38302		66.67800		324.00000 
 43692.65567		 717.71295			42974.94272		206.65200		875.00000 
 43692.65567		 305.27265			43387.38302		66.67800		324.00000 
 43692.65567		 717.71295			42974.94272		206.65200		875.00000 
 43692.65567		 305.27265			43387.38302		66.67800		324.00000 
 43692.65567		 717.71295			42974.94272		206.65200		875.00000 
 43692.65567		 305.27265			43387.38302		66.67800		324.00000 
 43692.65567		 717.71295			42974.94272		206.65200		875.00000 
 43692.65567		 305.27265			43387.38302		66.67800		324.00000 
 43692.65567		 717.71295			42974.94272		206.65200		875.00000 
 43692.65567		 305.27265			43387.38302		66.67800		324.00000 
 43692.65567		 717.71295			42974.94272		206.65200		875.00000 
 43692.65567		 305.27265			43387.38302		66.67800		324.00000 
 43692.65567		 717.71295			42974.94272		206.65200		875.00000 
 43692.65567		 305.27265			43387.38302		66.67800		324.00000 
 43692.65567		 717.71295			42974.94272		206.65200		875.00000 
 43692.65567		 305.27265			43387.38302		66.67800		324.00000 
 43692.65567		 717.71295			42974.94272		206.65200		875.00000 
 43692.65567		 305.27265			43387.38302		66.67800		324.00000 
 43692.65567		 717.71295			42974.94272		206.65200		875.00000 
 43692.65567		 305.27265			43387.38302		66.67800		324.00000 
 43692.65567		 717.71295			42974.94272		206.65200		875.00000 
 43692.65567		 305.27265			43387.38302		66.67800		324.00000 
 43692.65567		 717.71295			42974.94272		206.65200		875.00000 
 43692.65567		 305.27265			43387.38302		66.67800		324.00000 
 43692.65567		 717.71295			42974.94272		206.65200		875.00000 
 43692.65567		 305.27265			43387.38302		66.67800		324.00000 
 43692.65567		 717.71295			42974.94272		206.65200		875.00000 
 43692.65567		 305.27265			43387.38302		66.67800		324.00000 
 43692.65567		 717.71295			42974.94272		206.65200		875.00000 
 43692.65567		 305.27265			43387.38302		66.67800		324.00000 
 43692.65567		 717.71295			42974.94272		206.65200		875.00000 
 43692.65567		 305.27265			43387.38302		66.67800		324.00000 
 43692.65567		 717.71295			42974.94272		206.65200		875.00000 
 43692.65567		 305.27265			43387.38302		66.67800		324.00000 
 43692.65567		 717.71295			42974.94272		206.65200		875.00000 
 43692.65567		 305.27265			43387.38302		66.67800		324.00000 
 43692.65567		 717.71295			42974.94272		206.65200		875.00000 
 43692.65567		 305.27265			43387.38302		66.67800		324.00000 
 43692.65567		 717.71295			42974.94272		206.65200		875.00000 
 43692.65567		 305.27265			43387.38302		66.67800		324.00000 
 43692.65567		 717.71295			42974.94272		206.65200		875.00000 
 43692.65567		 305.27265			43387.38302		66.67800		324.00000 
 43692.65567		 717.71295			42974.94272		206.65200		875.00000 
 43692.65567		 305.27265			43387.38302		66.67800		324.00000 
 43692.65567		 717.71295			42974.94272		206.65200		875.00000 
 43692.65567		 305.27265			43387.38302		66.67800		324.00000 
 43692.65567		 717.71295			42974.94272		206.65200		875.00000 
 43692.65567		 305.27265			43387.38302		66.67800		324.00000 
 43692.65567		 717.71295			42974.94272		206.65200		875.00000 
 43692.65567		 305.27265			43387.38302		66.67800		324.00000 
 43692.65567		 717.71295			42974.94272		206.65200		875.00000 
 43692.65567		 305.27265			43387.38302		66.67800		324.00000 
 43692.65567		 717.71295			42974.94272		206.65200		875.00000 
 43692.65567		 305.27265			43387.38302		66.67800		324.00000 
 43692.65567		 717.71295			42974.94272		206.65200		875.00000 
 43692.65567		 305.27265			43387.38302		66.67800		324.00000 
 43692.65567		 717.71295			42974.94272		206.65200		875.00000 
 43692.65567		 305.27265			43387.38302		66.67800		324.00000 
 43692.65567		 717.71295			42974.94272		206.65200		875.00000 
 43692.65567		 305.27265			43387.38302		66.67800		324.00000 
 43692.65567		 717.71295			42974.94272		206.65200		875.00000 
 43692.65567		 305.27265			43387.38302		66.67800		324.00000 
 43692.65567		 717.71295			42974.94272		206.65200		875.00000 
 43692.65567		 305.27265			43387.38302		66.67800		324.00000 
 43692.65567		 717.71295			42974.94272		206.65200		875.00000 
 43692.65567		 305.27265			43387.38302		66.67800		324.00000 
 43692.65567		 717.71295			42974.94272		206.65200		875.00000 
 43692.65567		 305.27265			43387.38302		66.67800		324.00000 
 43692.65567		 717.71295			42974.94272		206.65200		875.00000 
 43692.65567		 305.27265			43387.38302		66.67800		324.00000 
 43692.65567		 717.71295			42974.94272		206.65200		875.00000 
 43692.65567		 305.27265			43387.38302		66.67800		324.00000 
 43692.65567		 717.71295			42974.94272		206.65200		875.00000 
 43692.65567		 305.27265			43387.38302		66.67800		324.00000 
 43692.65567		 717.71295			42974.94272		206.65200		875.00000 
 43692.65567		 305.27265			43387.38302		66.67800		324.00000 
 43692.65567		 717.71295			42974.94272		206.65200		875.00000 
 43692.65567		 305.27265			43387.38302		66.67800		324.00000 
 43692.65567		 717.71295			42974.94272		206.65200		875.00000 
 43692.65567		 305.27265			43387.38302		66.67800		324.00000 
 43692.65567		 717.71295			42974.94272		214.42400		875.00000 
 43692.65567		 305.27265			43387.38302		66.67800		324.00000 
 43692.65567		 717.71295			42974.94272		214.42400		875.00000 
 43692.65567		 305.27265			43387.38302		66.67800		324.00000 
 43692.65567		 717.71295			42974.94272		214.42400		875.00000 
 43692.65567		 305.27265			43387.38302		66.67800		324.00000 
 43692.65567		 717.71295			42974.94272		214.42400		875.00000 
 43692.65567		 305.27265			43387.38302		66.67800		324.00000 
 43692.65567		 717.71295			42974.94272		214.42400		875.00000 
 43692.65567		 305.27265			43387.38302		66.67800		324.00000 
 43692.65567		 717.71295			42974.94272		214.42400		875.00000 
 43692.65567		 305.27265			43387.38302		66.67800		324.00000 
 43692.65567		 717.71295			42974.94272		214.42400		875.00000 
 43692.65567		 305.27265			43387.38302		66.67800		324.00000 
 43692.65567		 717.71295			42974.94272		214.42400		875.00000 
 43692.65567		 305.27265			43387.38302		66.67800		324.00000 
 43692.65567		 717.71295			42974.94272		214.42400		875.00000 
 43692.65567		 305.27265			43387.38302		66.67800		324.00000 
 43692.65567		 717.71295			42974.94272		214.42400		875.00000 
 43692.65567		 305.27265			43387.38302		66.67800		324.00000 
 43692.65567		 717.71295			42974.94272		214.42400		875.00000 
 43692.65567		 305.27265			43387.38302		66.67800		324.00000 
 43692.65567		 717.71295			42974.94272		214.42400		875.00000 
 43692.65567		 305.27265			43387.38302		66.67800		324.00000 
 43692.65567		 717.71295			42974.94272		214.42400		875.00000 
 43692.65567		 305.27265			43387.38302		66.67800		324.00000 
 43692.65567		 717.71295			42974.94272		214.42400		875.00000 
 43692.65567		 305.27265			43387.38302		66.67800		324.00000 
 43692.65567		 717.71295			42974.94272		214.42400		875.00000 
 43692.65567		 305.27265			43387.38302		66.67800		324.00000 
 43692.65567		 717.71295			42974.94272		214.42400		875.00000 
 43692.65567		 305.27265			43387.38302		66.67800		324.00000 
 43692.65567		 717.71295			42974.94272		214.42400		875.00000 
 43692.65567		 305.27265			43387.38302		66.67800		324.00000 
 43692.65567		 717.71295			42974.94272		214.42400		875.00000 
 43692.65567		 305.27265			43387.38302		66.67800		324.00000 
 43692.65567		 717.71295			42974.94272		214.42400		875.00000 
 43692.65567		 305.27265			43387.38302		66.67800		324.00000 
 43692.65567		 717.71295			42974.94272		214.42400		875.00000 
 43692.65567		 305.27265			43387.38302		66.67800		324.00000 
 43692.65567		 717.71295			42974.94272		214.42400		875.00000 
 43692.65567		 305.27265			43387.38302		66.67800		324.00000 
 43692.65567		 717.71295			42974.94272		214.42400		875.00000 
 43692.65567		 305.27265			43387.38302		66.67800		324.00000 
 43692.65567		 717.71295			42974.94272		214.42400		875.00000 
 43692.65567		 305.27265			43387.38302		66.67800		324.00000 
 43692.65567		 717.71295			42974.94272		214.42400		875.00000 
 43692.65567		 305.27265			43387.38302		66.67800		324.00000 
 43692.65567		 717.71295			42974.94272		214.42400		875.00000 
 43692.65567		 305.27265			43387.38302		66.67800		324.00000 
 43692.65567		 717.71295			42974.94272		214.42400		875.00000 
 43692.65567		 305.27265			43387.38302		66.67800		324.00000 
 43692.65567		 717.71295			42974.94272		214.42400		875.00000 
 43692.65567		 305.27265			43387.38302		66.67800		324.00000 
 43692.65567		 717.71295			42974.94272		214.42400		875.00000 
 43692.65567		 305.27265			43387.38302		66.67800		324.00000 
 43692.65567		 717.71295			42974.94272		214.42400		875.00000 
 43692.65567		 305.27265			43387.38302		66.67800		324.00000 
 43692.65567		 717.71295			42974.94272		214.42400		875.00000 
 43692.65567		 305.27265			43387.38302		66.67800		324.00000 
 43692.65567		 717.71295			42974.94272		214.42400		875.00000 
 43692.65567		 305.27265			43387.38302		66.67800		324.00000 
 43692.65567		 717.71295			42974.94272		214.42400		875.00000 
 43692.65567		 305.27265			43387.38302		66.67800		324.00000 
 43692.65567		 717.71295			42974.94272		214.42400		875.00000 
 43692.65567		 305.27265			43387.38302		66.67800		324.00000 
 43692.65567		 717.71295			42974.94272		214.42400		875.00000 
 43692.65567		 305.27265			43387.38302		66.67800		324.00000 
 43692.65567		 717.71295			42974.94272		214.42400		875.00000 
 43692.65567		 305.27265			43387.38302		66.67800		324.00000 
 43692.65567		 717.71295			42974.94272		214.42400		875.00000 
 43692.65567		 305.27265			43387.38302		66.67800		324.00000 
 43692.65567		 717.71295			42974.94272		214.42400		875.00000 
 43692.65567		 305.27265			43387.38302		66.67800		324.00000 
 43692.65567		 717.71295			42974.94272		214.42400		875.00000 
 43692.65567		 305.27265			43387.38302		66.67800		324.00000 
 43692.65567		 717.71295			42974.94272		214.42400		875.00000 
 43692.65567		 305.27265			43387.38302		66.67800		324.00000 
 43692.65567		 717.71295			42974.94272		214.42400		875.00000 
 43692.65567		 305.27265			43387.38302		66.67800		324.00000 
 43692.65567		 717.71295			42974.94272		214.42400		875.00000 
 43692.65567		 305.27265			43387.38302		66.67800		324.00000 
 43692.65567		 717.71295			42974.94272		214.42400		875.00000 
 43692.65567		 305.27265			43387.38302		66.67800		324.00000 
 43692.65567		 717.71295			42974.94272		214.42400		875.00000 
 43692.65567		 305.27265			43387.38302		66.67800		324.00000 
 43692.65567		 717.71295			42974.94272		214.42400		875.00000 
 43692.65567		 305.27265			43387.38302		66.67800		324.00000 
 43692.65567		 717.71295			42974.94272		214.42400		875.00000 
 43692.65567		 305.27265			43387.38302		66.67800		324.00000 
 43692.65567		 717.71295			42974.94272		214.42400		875.00000 
 43692.65567		 305.27265			43387.38302		66.67800		324.00000 
 43692.65567		 717.71295			42974.94272		214.42400		875.00000 
 43692.65567		 305.27265			43387.38302		66.67800		324.00000 
 43692.65567		 717.71295			42974.94272		214.42400		875.00000 
 43692.65567		 305.27265			43387.38302		66.67800		324.00000 
 43692.65567		 717.71295			42974.94272		214.42400		875.00000 
 43692.65567		 305.27265			43387.38302		66.67800		324.00000 
 43692.65567		 717.71295			42974.94272		214.42400		875.00000 
 43692.65567		 305.27265			43387.38302		66.67800		324.00000 
 43692.65567		 717.71295			42974.94272		214.42400		875.00000 
 43692.65567		 305.27265			43387.38302		66.67800		324.00000 
 43692.65567		 717.71295			42974.94272		214.42400		875.00000 
 43692.65567		 305.27265			43387.38302		66.67800		324.00000 
 43692.65567		 717.71295			42974.94272		214.42400		875.00000 
 43692.65567		 305.27265			43387.38302		66.67800		324.00000 
 43692.65567		 717.71295			42974.94272		214.42400		875.00000 
 43692.65567		 305.27265			43387.38302		66.67800		324.00000 
 43692.65567		 717.71295			42974.94272		214.42400		875.00000 
 43692.65567		 305.27265			43387.38302		66.67800		324.00000 
 43692.65567		 717.71295			42974.94272		214.42400		875.00000 
 43692.65567		 305.27265			43387.38302		66.67800		324.00000 
 43692.65567		 717.71295			42974.94272		214.42400		875.00000 
 43692.65567		 305.27265			43387.38302		66.67800		324.00000 
 43692.65567		 717.71295			42974.94272		214.42400		875.00000 
 43692.65567		 305.27265			43387.38302		66.67800		324.00000 
 43692.65567		 717.71295			42974.94272		214.42400		875.00000 
 43692.65567		 305.27265			43387.38302		66.67800		324.00000 
 43692.65567		 717.71295			42974.94272		214.42400		875.00000 
 43692.65567		 305.27265			43387.38302		66.67800		324.00000 
 43692.65567		 717.71295			42974.94272		214.42400		875.00000 
 43692.65567		 305.27265			43387.38302		66.67800		324.00000 
 43692.65567		 717.71295			42974.94272		214.42400		875.00000 
 43692.65567		 305.27265			43387.38302		66.67800		324.00000 
 43692.65567		 717.71295			42974.94272		214.42400		875.00000 
 43692.65567		 305.27265			43387.38302		66.67800		324.00000 
 43692.65567		 717.71295			42974.94272		214.42400		875.00000 
 43692.65567		 305.27265			43387.38302		66.67800		324.00000 
 43692.65567		 717.71295			42974.94272		217.33600		875.00000 
 43692.65567		 305.27265			43387.38302		66.67800		324.00000 
 43692.65567		 717.71295			42974.94272		217.33600		875.00000 
 43692.65567		 305.27265			43387.38302		66.67800		324.00000 
 43692.65567		 717.71295			42974.94272		217.33600		875.00000 
 43692.65567		 305.27265			43387.38302		66.67800		324.00000 
 43692.65567		 717.71295			42974.94272		217.33600		875.00000 
 43692.65567		 305.27265			43387.38302		66.67800		324.00000 
 43692.65567		 717.71295			42974.94272		217.33600		875.00000 
 43692.65567		 305.27265			43387.38302		66.67800		324.00000 
 43692.65567		 717.71295			42974.94272		217.33600		875.00000 
 43692.65567		 305.27265			43387.38302		66.67800		324.00000 
 43692.65567		 717.71295			42974.94272		217.33600		875.00000 
 43692.65567		 305.27265			43387.38302		66.67800		324.00000 
 43692.65567		 717.71295			42974.94272		217.33600		875.00000 
 43692.65567		 305.27265			43387.38302		66.67800		324.00000 
 43692.65567		 717.71295			42974.94272		217.33600		875.00000 
 43692.65567		 305.27265			43387.38302		66.67800		324.00000 
 43692.65567		 717.71295			42974.94272		217.33600		875.00000 
 43692.65567		 305.27265			43387.38302		66.67800		324.00000 
 43692.65567		 717.71295			42974.94272		217.33600		875.00000 
 43692.65567		 305.27265			43387.38302		66.67800		324.00000 
 43692.65567		 717.71295			42974.94272		217.33600		875.00000 
 43692.65567		 305.27265			43387.38302		66.67800		324.00000 
 43692.65567		 717.71295			42974.94272		217.33600		875.00000 
 43692.65567		 305.27265			43387.38302		66.67800		324.00000 
 43692.65567		 717.71295			42974.94272		217.33600		875.00000 
 43692.65567		 305.27265			43387.38302		66.67800		324.00000 
 43692.65567		 717.71295			42974.94272		217.33600		875.00000 
 43692.65567		 305.27265			43387.38302		66.67800		324.00000 
 43692.65567		 717.71295			42974.94272		217.33600		875.00000 
 43692.65567		 305.27265			43387.38302		66.67800		324.00000 
 43692.65567		 717.71295			42974.94272		217.33600		875.00000 
 43692.65567		 305.27265			43387.38302		66.67800		324.00000 
 43692.65567		 717.71295			42974.94272		217.33600		875.00000 
 43692.65567		 305.27265			43387.38302		66.67800		324.00000 
 43692.65567		 717.71295			42974.94272		217.33600		875.00000 
 43692.65567		 305.27265			43387.38302		66.67800		324.00000 
 43692.65567		 717.71295			42974.94272		217.33600		875.00000 
 43692.65567		 305.27265			43387.38302		66.67800		324.00000 
 43692.65567		 717.71295			42974.94272		217.33600		875.00000 
 43692.65567		 305.27265			43387.38302		66.67800		324.00000 
 43692.65567		 717.71295			42974.94272		217.33600		875.00000 
 43692.65567		 305.27265			43387.38302		66.67800		324.00000 
 43692.65567		 717.71295			42974.94272		217.33600		875.00000 
 43692.65567		 305.27265			43387.38302		66.67800		324.00000 
 43692.65567		 717.71295			42974.94272		217.33600		875.00000 
 43692.65567		 305.27265			43387.38302		66.67800		324.00000 
 43692.65567		 717.71295			42974.94272		217.33600		875.00000 
 43692.65567		 305.27265			43387.38302		66.67800		324.00000 
 43692.65567		 717.71295			42974.94272		217.33600		875.00000 
 43692.65567		 305.27265			43387.38302		66.67800		324.00000 
 43692.65567		 717.71295			42974.94272		217.33600		875.00000 
 43692.65567		 305.27265			43387.38302		66.67800		324.00000 
 43692.65567		 717.71295			42974.94272		217.33600		875.00000 
 43692.65567		 305.27265			43387.38302		66.67800		324.00000 
 43692.65567		 717.71295			42974.94272		217.33600		875.00000 
 43692.65567		 305.27265			43387.38302		66.67800		324.00000 
 43692.65567		 717.71295			42974.94272		217.33600		875.00000 
 43692.65567		 305.27265			43387.38302		66.67800		324.00000 
 43692.65567		 717.71295			42974.94272		217.33600		875.00000 
 43692.65567		 305.27265			43387.38302		66.67800		324.00000 
 43692.65567		 717.71295			42974.94272		217.33600		875.00000 
 43692.65567		 305.27265			43387.38302		66.67800		324.00000 
 43692.65567		 717.71295			42974.94272		217.33600		875.00000 
 43692.65567		 305.27265			43387.38302		66.67800		324.00000 
 43692.65567		 717.71295			42974.94272		217.33600		875.00000 
 43692.65567		 305.27265			43387.38302		66.67800		324.00000 
 43692.65567		 717.71295			42974.94272		217.33600		875.00000 
 43692.65567		 305.27265			43387.38302		66.67800		324.00000 
 43692.65567		 717.71295			42974.94272		217.33600		875.00000 
 43692.65567		 305.27265			43387.38302		66.67800		324.00000 
 43692.65567		 717.71295			42974.94272		217.33600		875.00000 
 43692.65567		 305.27265			43387.38302		66.67800		324.00000 
 43692.65567		 717.71295			42974.94272		217.33600		875.00000 
 43692.65567		 305.27265			43387.38302		66.67800		324.00000 
 43692.65567		 717.71295			42974.94272		217.33600		875.00000 
 43692.65567		 305.27265			43387.38302		66.67800		324.00000 
 43692.65567		 717.71295			42974.94272		217.33600		875.00000 
 43692.65567		 305.27265			43387.38302		66.67800		324.00000 
 43692.65567		 717.71295			42974.94272		217.33600		875.00000 
 43692.65567		 305.27265			43387.38302		66.67800		324.00000 
 43692.65567		 717.71295			42974.94272		217.33600		875.00000 
 43692.65567		 305.27265			43387.38302		66.67800		324.00000 
 43692.65567		 717.71295			42974.94272		217.33600		875.00000 
 43692.65567		 305.27265			43387.38302		66.67800		324.00000 
 43692.65567		 717.71295			42974.94272		217.33600		875.00000 
 43692.65567		 305.27265			43387.38302		66.67800		324.00000 
 43692.65567		 717.71295			42974.94272		217.33600		875.00000 
 43692.65567		 305.27265			43387.38302		66.67800		324.00000 
 43692.65567		 717.71295			42974.94272		217.33600		875.00000 
 43692.65567		 305.27265			43387.38302		66.67800		324.00000 
 43692.65567		 717.71295			42974.94272		217.33600		875.00000 
 43692.65567		 305.27265			43387.38302		66.67800		324.00000 
 43692.65567		 717.71295			42974.94272		217.33600		875.00000 
 43692.65567		 305.27265			43387.38302		66.67800		324.00000 
 43692.65567		 717.71295			42974.94272		217.33600		875.00000 
 43692.65567		 305.27265			43387.38302		66.67800		324.00000 
 43692.65567		 717.71295			42974.94272		217.33600		875.00000 
 43692.65567		 305.27265			43387.38302		66.67800		324.00000 
 43692.65567		 717.71295			42974.94272		217.33600		875.00000 
 43692.65567		 305.27265			43387.38302		66.67800		324.00000 
 43692.65567		 717.71295			42974.94272		217.33600		875.00000 
 43692.65567		 305.27265			43387.38302		66.67800		324.00000 
 43692.65567		 717.71295			42974.94272		217.33600		875.00000 
 43692.65567		 305.27265			43387.38302		66.67800		324.00000 
 43692.65567		 717.71295			42974.94272		217.33600		875.00000 
 43692.65567		 305.27265			43387.38302		66.67800		324.00000 
 43692.65567		 717.71295			42974.94272		217.33600		875.00000 
 43692.65567		 305.27265			43387.38302		66.67800		324.00000 
 43692.65567		 717.71295			42974.94272		217.33600		875.00000 
 43692.65567		 305.27265			43387.38302		66.67800		324.00000 
 43692.65567		 717.71295			42974.94272		217.33600		875.00000 
 43692.65567		 305.27265			43387.38302		66.67800		324.00000 
 43692.65567		 717.71295			42974.94272		217.33600		875.00000 
 43692.65567		 305.27265			43387.38302		66.67800		324.00000 
 43692.65567		 717.71295			42974.94272		217.33600		875.00000 
 43692.65567		 305.27265			43387.38302		66.67800		324.00000 
 43692.65567		 717.71295			42974.94272		217.33600		875.00000 
 43692.65567		 305.27265			43387.38302		66.67800		324.00000 
 43692.65567		 717.71295			42974.94272		217.33600		875.00000 
 43692.65567		 305.27265			43387.38302		66.67800		324.00000 
 43692.65567		 717.71295			42974.94272		217.33600		875.00000 
 43692.65567		 305.27265			43387.38302		66.67800		324.00000 
 43692.65567		 717.71295			42974.94272		217.33600		875.00000 
 43692.65567		 305.27265			43387.38302		66.67800		324.00000 
 43692.65567		 717.71295			42974.94272		217.33600		875.00000 
 43692.65567		 305.27265			43387.38302		66.67800		324.00000 
 43692.65567		 717.71295			42974.94272		219.06200		875.00000 
 43692.65567		 305.27265			43387.38302		66.67800		324.00000 
 43692.65567		 717.71295			42974.94272		219.06200		875.00000 
 43692.65567		 305.27265			43387.38302		66.67800		324.00000 
 43692.65567		 717.71295			42974.94272		219.06200		875.00000 
 43692.65567		 305.27265			43387.38302		66.67800		324.00000 
 43692.65567		 717.71295			42974.94272		219.06200		875.00000 
 43692.65567		 305.27265			43387.38302		66.67800		324.00000 
 43692.65567		 717.71295			42974.94272		219.06200		875.00000 
 43692.65567		 305.27265			43387.38302		66.67800		324.00000 
 43692.65567		 717.71295			42974.94272		219.06200		875.00000 
 43692.65567		 305.27265			43387.38302		66.67800		324.00000 
 43692.65567		 717.71295			42974.94272		219.06200		875.00000 
 43692.65567		 305.27265			43387.38302		66.67800		324.00000 
 43692.65567		 717.71295			42974.94272		219.06200		875.00000 
 43692.65567		 305.27265			43387.38302		66.67800		324.00000 
 43692.65567		 717.71295			42974.94272		219.06200		875.00000 
 43692.65567		 305.27265			43387.38302		66.67800		324.00000 
 43692.65567		 717.71295			42974.94272		219.06200		875.00000 
 43692.65567		 305.27265			43387.38302		66.67800		324.00000 
 43692.65567		 717.71295			42974.94272		219.06200		875.00000 
 43692.65567		 305.27265			43387.38302		66.67800		324.00000 
 43692.65567		 717.71295			42974.94272		219.06200		875.00000 
 43692.65567		 305.27265			43387.38302		66.67800		324.00000 
 43692.65567		 717.71295			42974.94272		219.06200		875.00000 
 43692.65567		 305.27265			43387.38302		66.67800		324.00000 
 43692.65567		 717.71295			42974.94272		219.06200		875.00000 
 43692.65567		 305.27265			43387.38302		66.67800		324.00000 
 43692.65567		 717.71295			42974.94272		219.06200		875.00000 
 43692.65567		 305.27265			43387.38302		66.67800		324.00000 
 43692.65567		 717.71295			42974.94272		219.06200		875.00000 
 43692.65567		 305.27265			43387.38302		66.67800		324.00000 
 43692.65567		 717.71295			42974.94272		219.06200		875.00000 
 43692.65567		 305.27265			43387.38302		66.67800		324.00000 
 43692.65567		 717.71295			42974.94272		219.06200		875.00000 
 43692.65567		 305.27265			43387.38302		66.67800		324.00000 
 43692.65567		 717.71295			42974.94272		219.06200		875.00000 
 43692.65567		 305.27265			43387.38302		66.67800		324.00000 
 43692.65567		 717.71295			42974.94272		219.06200		875.00000 
 43692.65567		 305.27265			43387.38302		66.67800		324.00000 
 43692.65567		 717.71295			42974.94272		219.06200		875.00000 
 43692.65567		 305.27265			43387.38302		66.67800		324.00000 
 43692.65567		 717.71295			42974.94272		219.06200		875.00000 
 43692.65567		 305.27265			43387.38302		66.67800		324.00000 
 43692.65567		 717.71295			42974.94272		219.06200		875.00000 
 43692.65567		 305.27265			43387.38302		66.67800		324.00000 
 43692.65567		 717.71295			42974.94272		219.06200		875.00000 
 43692.65567		 305.27265			43387.38302		66.67800		324.00000 
 43692.65567		 717.71295			42974.94272		219.06200		875.00000 
 43692.65567		 305.27265			43387.38302		66.67800		324.00000 
 43692.65567		 717.71295			42974.94272		219.06200		875.00000 
 43692.65567		 305.27265			43387.38302		66.67800		324.00000 
 43692.65567		 717.71295			42974.94272		219.06200		875.00000 
 43692.65567		 305.27265			43387.38302		66.67800		324.00000 
 43692.65567		 717.71295			42974.94272		219.06200		875.00000 
 43692.65567		 305.27265			43387.38302		66.67800		324.00000 
 43692.65567		 717.71295			42974.94272		219.06200		875.00000 
 43692.65567		 305.27265			43387.38302		66.67800		324.00000 
 43692.65567		 717.71295			42974.94272		219.06200		875.00000 
 43692.65567		 305.27265			43387.38302		66.67800		324.00000 
 43692.65567		 717.71295			42974.94272		219.06200		875.00000 
 43692.65567		 305.27265			43387.38302		66.67800		324.00000 
 43692.65567		 717.71295			42974.94272		219.06200		875.00000 
 43692.65567		 305.27265			43387.38302		66.67800		324.00000 
 43692.65567		 717.71295			42974.94272		219.06200		875.00000 
 43692.65567		 305.27265			43387.38302		66.67800		324.00000 
 43692.65567		 717.71295			42974.94272		219.06200		875.00000 
 43692.65567		 305.27265			43387.38302		66.67800		324.00000 
 43692.65567		 717.71295			42974.94272		219.06200		875.00000 
 43692.65567		 305.27265			43387.38302		66.67800		324.00000 
 43692.65567		 717.71295			42974.94272		219.06200		875.00000 
 43692.65567		 305.27265			43387.38302		66.67800		324.00000 
 43692.65567		 717.71295			42974.94272		219.06200		875.00000 
 43692.65567		 305.27265			43387.38302		66.67800		324.00000 
 43692.65567		 717.71295			42974.94272		219.06200		875.00000 
 43692.65567		 305.27265			43387.38302		66.67800		324.00000 
 43692.65567		 717.71295			42974.94272		219.06200		875.00000 
 43692.65567		 305.27265			43387.38302		66.67800		324.00000 
 43692.65567		 717.71295			42974.94272		219.06200		875.00000 
 43692.65567		 305.27265			43387.38302		66.67800		324.00000 
 43692.65567		 717.71295			42974.94272		219.06200		875.00000 
 43692.65567		 305.27265			43387.38302		66.67800		324.00000 
 43692.65567		 717.71295			42974.94272		219.06200		875.00000 
 43692.65567		 305.27265			43387.38302		66.67800		324.00000 
 43692.65567		 717.71295			42974.94272		219.06200		875.00000 
 43692.65567		 305.27265			43387.38302		66.67800		324.00000 
 43692.65567		 717.71295			42974.94272		219.06200		875.00000 
 43692.65567		 305.27265			43387.38302		66.67800		324.00000 
 43692.65567		 717.71295			42974.94272		219.06200		875.00000 
 43692.65567		 305.27265			43387.38302		66.67800		324.00000 
 43692.65567		 717.71295			42974.94272		219.06200		875.00000 
 43692.65567		 305.27265			43387.38302		66.67800		324.00000 
 43692.65567		 717.71295			42974.94272		219.06200		875.00000 
 43692.65567		 305.27265			43387.38302		66.67800		324.00000 
 43692.65567		 717.71295			42974.94272		219.06200		875.00000 
 43692.65567		 305.27265			43387.38302		66.67800		324.00000 
 43692.65567		 717.71295			42974.94272		219.06200		875.00000 
 43692.65567		 305.27265			43387.38302		66.67800		324.00000 
 43692.65567		 717.71295			42974.94272		219.06200		875.00000 
 43692.65567		 305.27265			43387.38302		66.67800		324.00000 
 43692.65567		 717.71295			42974.94272		219.06200		875.00000 
 43692.65567		 305.27265			43387.38302		66.67800		324.00000 
 43692.65567		 717.71295			42974.94272		219.06200		875.00000 
 43692.65567		 305.27265			43387.38302		66.67800		324.00000 
 43692.65567		 717.71295			42974.94272		219.06200		875.00000 
 43692.65567		 305.27265			43387.38302		66.67800		324.00000 
 43692.65567		 717.71295			42974.94272		219.06200		875.00000 
 43692.65567		 305.27265			43387.38302		66.67800		324.00000 
 43692.65567		 717.71295			42974.94272		219.06200		875.00000 
 43692.65567		 305.27265			43387.38302		66.67800		324.00000 
 43692.65567		 717.71295			42974.94272		219.06200		875.00000 
 43692.65567		 305.27265			43387.38302		66.67800		324.00000 
 43692.65567		 717.71295			42974.94272		219.06200		875.00000 
 43692.65567		 305.27265			43387.38302		66.67800		324.00000 
 43692.65567		 717.71295			42974.94272		219.06200		875.00000 
 43692.65567		 305.27265			43387.38302		66.67800		324.00000 
 43692.65567		 717.71295			42974.94272		219.06200		875.00000 
 43692.65567		 305.27265			43387.38302		66.67800		324.00000 
 43692.65567		 717.71295			42974.94272		219.06200		875.00000 
 43692.65567		 305.27265			43387.38302		66.67800		324.00000 
 43692.65567		 717.71295			42974.94272		219.06200		875.00000 
 43692.65567		 305.27265			43387.38302		66.67800		324.00000 
 43692.65567		 717.71295			42974.94272		219.06200		875.00000 
 43692.65567		 305.27265			43387.38302		66.67800		324.00000 
 43692.65567		 717.71295			42974.94272		219.06200		875.00000 
 43692.65567		 305.27265			43387.38302		66.67800		324.00000 
 43692.65567		 717.71295			42974.94272		219.06200		875.00000 
 43692.65567		 305.27265			43387.38302		66.67800		324.00000 
 43692.65567		 717.71295			42974.94272		219.06200		875.00000 
 43692.65567		 305.27265			43387.38302		66.67800		324.00000 
 43692.65567		 717.71295			42974.94272		219.06200		875.00000 
 43692.65567		 305.27265			43387.38302		66.67800		324.00000 
 43692.65567		 717.71295			42974.94272		219.06200		875.00000 
 43692.65567		 305.27265			43387.38302		66.67800		324.00000 
 43692.65567		 717.71295			42974.94272		219.06200		875.00000 
 43692.65567		 305.27265			43387.38302		66.67800		324.00000 
 43692.65567		 717.71295			42974.94272		219.06200		875.00000 
 43692.65567		 305.27265			43387.38302		66.67800		324.00000 
 43692.65567		 717.71295			42974.94272		219.06200		875.00000 
 43692.65567		 305.27265			43387.38302		66.67800		324.00000 
 43692.65567		 717.71295			42974.94272		219.06200		875.00000 
 43692.65567		 305.27265			43387.38302		66.67800		324.00000 
 43692.65567		 717.71295			42974.94272		219.06200		875.00000 
 43692.65567		 305.27265			43387.38302		66.67800		324.00000 
 43692.65567		 717.71295			42974.94272		219.06200		875.00000 
 43692.65567		 305.27265			43387.38302		66.67800		324.00000 
 43692.65567		 717.71295			42974.94272		219.06200		875.00000 
 43692.65567		 305.27265			43387.38302		66.67800		324.00000 
 43692.65567		 717.71295			42974.94272		219.06200		875.00000 
 43692.65567		 305.27265			43387.38302		66.67800		324.00000 
 43692.65567		 717.71295			42974.94272		219.06200		875.00000 
 43692.65567		 305.27265			43387.38302		66.67800		324.00000 
 43692.65567		 717.71295			42974.94272		219.06200		875.00000 
 43692.65567		 305.27265			43387.38302		66.67800		324.00000 
 43692.65567		 717.71295			42974.94272		219.06200		875.00000 
 43692.65567		 305.27265			43387.38302		66.67800		324.00000 
 43692.65567		 717.71295			42974.94272		219.06200		875.00000 
 43692.65567		 305.27265			43387.38302		66.67800		324.00000 
 43692.65567		 717.71295			42974.94272		219.06200		875.00000 
 43692.65567		 305.27265			43387.38302		66.67800		324.00000 
 43692.65567		 717.71295			42974.94272		219.06200		875.00000 
 43692.65567		 305.27265			43387.38302		66.67800		324.00000 
 43692.65567		 717.71295			42974.94272		219.06200		875.00000 
 43692.65567		 305.27265			43387.38302		66.67800		324.00000 
 43692.65567		 717.71295			42974.94272		219.06200		875.00000 
 43692.65567		 305.27265			43387.38302		66.67800		324.00000 
 43692.65567		 717.71295			42974.94272		219.06200		875.00000 
 43692.65567		 305.27265			43387.38302		66.67800		324.00000 
 43692.65567		 717.71295			42974.94272		219.06200		875.00000 
 43692.65567		 305.27265			43387.38302		66.67800		324.00000 
 43692.65567		 717.71295			42974.94272		219.06200		875.00000 
 43692.65567		 305.27265			43387.38302		66.67800		324.00000 
 43692.65567		 717.71295			42974.94272		219.06200		875.00000 
 43692.65567		 305.27265			43387.38302		66.67800		324.00000 
 43692.65567		 717.71295			42974.94272		219.06200		875.00000 
 43692.65567		 305.27265			43387.38302		66.67800		324.00000 
 43692.65567		 717.71295			42974.94272		219.06200		875.00000 
 43692.65567		 305.27265			43387.38302		66.67800		324.00000 
 43692.65567		 717.71295			42974.94272		219.06200		875.00000 
 43692.65567		 305.27265			43387.38302		66.67800		324.00000 
 43692.65567		 717.71295			42974.94272		219.06200		875.00000 
 43692.65567		 305.27265			43387.38302		66.67800		324.00000 
 43692.65567		 717.71295			42974.94272		219.06200		875.00000 
 43692.65567		 305.27265			43387.38302		66.67800		324.00000 
 43692.65567		 717.71295			42974.94272		219.06200		875.00000 
 43692.65567		 305.27265			43387.38302		66.67800		324.00000 
 43692.65567		 717.71295			42974.94272		219.06200		875.00000 
 43692.65567		 305.27265			43387.38302		66.67800		324.00000 
 43692.65567		 717.71295			42974.94272		219.06200		875.00000 
 43692.65567		 305.27265			43387.38302		66.67800		324.00000 
 43692.65567		 717.71295			42974.94272		219.06200		875.00000 
 43692.65567		 305.27265			43387.38302		66.67800		324.00000 
 43692.65567		 717.71295			42974.94272		219.06200		875.00000 
 43692.65567		 305.27265			43387.38302		66.67800		324.00000 
 43692.65567		 717.71295			42974.94272		219.06200		875.00000 
 43692.65567		 305.27265			43387.38302		66.67800		324.00000 
 43692.65567		 717.71295			42974.94272		219.06200		875.00000 
 43692.65567		 305.27265			43387.38302		66.67800		324.00000 
 43692.65567		 717.71295			42974.94272		219.06200		875.00000 
 43692.65567		 305.27265			43387.38302		66.67800		324.00000 
 43692.65567		 717.71295			42974.94272		219.06200		875.00000 
 43692.65567		 305.27265			43387.38302		66.67800		324.00000 
 43692.65567		 717.71295			42974.94272		219.06200		875.00000 
 43692.65567		 305.27265			43387.38302		66.67800		324.00000 
 43692.65567		 717.71295			42974.94272		219.06200		875.00000 
 43692.65567		 305.27265			43387.38302		66.67800		324.00000 
 43692.65567		 717.71295			42974.94272		219.06200		875.00000 
 43692.65567		 305.27265			43387.38302		66.67800		324.00000 
 43692.65567		 717.71295			42974.94272		219.06200		875.00000 
 43692.65567		 305.27265			43387.38302		66.67800		324.00000 
 43692.65567		 717.71295			42974.94272		219.06200		875.00000 
 43692.65567		 305.27265			43387.38302		66.67800		324.00000 
 43692.65567		 717.71295			42974.94272		219.06200		875.00000 
 43692.65567		 305.27265			43387.38302		66.67800		324.00000 
 43692.65567		 717.71295			42974.94272		219.06200		875.00000 
 43692.65567		 305.27265			43387.38302		66.67800		324.00000 
 43692.65567		 717.71295			42974.94272		219.06200		875.00000 
 43692.65567		 305.27265			43387.38302		66.67800		324.00000 
 43692.65567		 717.71295			42974.94272		219.06200		875.00000 
 43692.65567		 305.27265			43387.38302		66.67800		324.00000 
 43692.65567		 717.71295			42974.94272		219.06200		875.00000 
 43692.65567		 305.27265			43387.38302		66.67800		324.00000 
 43692.65567		 717.71295			42974.94272		219.06200		875.00000 
 43692.65567		 305.27265			43387.38302		66.67800		324.00000 
 43692.65567		 717.71295			42974.94272		219.06200		875.00000 
 43692.65567		 305.27265			43387.38302		66.67800		324.00000 
 43692.65567		 717.71295			42974.94272		219.06200		875.00000 
 43692.65567		 305.27265			43387.38302		66.67800		324.00000 
 43692.65567		 717.71295			42974.94272		219.06200		875.00000 
 43692.65567		 305.27265			43387.38302		66.67800		324.00000 
 43692.65567		 717.71295			42974.94272		219.06200		875.00000 
 43692.65567		 305.27265			43387.38302		66.67800		324.00000 
 43692.65567		 717.71295			42974.94272		219.06200		875.00000 
 43692.65567		 305.27265			43387.38302		66.67800		324.00000 
 43692.65567		 717.71295			42974.94272		219.06200		875.00000 
 43692.65567		 305.27265			43387.38302		66.67800		324.00000 
 43692.65567		 717.71295			42974.94272		219.06200		875.00000 
 43692.65567		 305.27265			43387.38302		66.67800		324.00000 
 43692.65567		 717.71295			42974.94272		219.06200		875.00000 
 43692.65567		 305.27265			43387.38302		66.67800		324.00000 
 43692.65567		 717.71295			42974.94272		219.06200		875.00000 
 43692.65567		 305.27265			43387.38302		66.67800		324.00000 
 43692.65567		 717.71295			42974.94272		219.06200		875.00000 
 43692.65567		 305.27265			43387.38302		66.67800		324.00000 
 43692.65567		 717.71295			42974.94272		219.06200		875.00000 
 43692.65567		 305.27265			43387.38302		66.67800		324.00000 
 43692.65567		 717.71295			42974.94272		219.06200		875.00000 
 43692.65567		 305.27265			43387.38302		66.67800		324.00000 
 43692.65567		 717.71295			42974.94272		219.06200		875.00000 
 43692.65567		 305.27265			43387.38302		66.67800		324.00000 
 43692.65567		 717.71295			42974.94272		219.06200		875.00000 
 43692.65567		 305.27265			43387.38302		66.67800		324.00000 
 43692.65567		 717.71295			42974.94272		219.06200		875.00000 
 43692.65567		 305.27265			43387.38302		66.67800		324.00000 
 43692.65567		 717.71295			42974.94272		219.06200		875.00000 
 43692.65567		 305.27265			43387.38302		66.67800		324.00000 
 43692.65567		 717.71295			42974.94272		218.46200		875.00000 
 43692.65567		 305.27265			43387.38302		66.67800		324.00000 
 43692.65567		 717.71295			42974.94272		218.46200		875.00000 
 43692.65567		 305.27265			43387.38302		66.67800		324.00000 
 43692.65567		 717.71295			42974.94272		218.46200		875.00000 
 43692.65567		 305.27265			43387.38302		66.67800		324.00000 
 43692.65567		 717.71295			42974.94272		218.46200		875.00000 
 43692.65567		 305.27265			43387.38302		66.67800		324.00000 
 43692.65567		 717.71295			42974.94272		218.46200		875.00000 
 43692.65567		 305.27265			43387.38302		66.67800		324.00000 
 43692.65567		 717.71295			42974.94272		218.46200		875.00000 
 43692.65567		 305.27265			43387.38302		66.67800		324.00000 
 43692.65567		 717.71295			42974.94272		218.46200		875.00000 
 43692.65567		 305.27265			43387.38302		66.67800		324.00000 
 43692.65567		 717.71295			42974.94272		218.46200		875.00000 
 43692.65567		 305.27265			43387.38302		66.67800		324.00000 
 43692.65567		 717.71295			42974.94272		218.46200		875.00000 
 43692.65567		 305.27265			43387.38302		66.67800		324.00000 
 43692.65567		 717.71295			42974.94272		218.46200		875.00000 
 43692.65567		 305.27265			43387.38302		66.67800		324.00000 
 43692.65567		 717.71295			42974.94272		218.46200		875.00000 
 43692.65567		 305.27265			43387.38302		66.67800		324.00000 
 43692.65567		 717.71295			42974.94272		218.46200		875.00000 
 43692.65567		 305.27265			43387.38302		66.67800		324.00000 
 43692.65567		 717.71295			42974.94272		218.46200		875.00000 
 43692.65567		 305.27265			43387.38302		66.67800		324.00000 
 43692.65567		 717.71295			42974.94272		218.46200		875.00000 
 43692.65567		 305.27265			43387.38302		66.67800		324.00000 
 43692.65567		 717.71295			42974.94272		218.46200		875.00000 
 43692.65567		 305.27265			43387.38302		66.67800		324.00000 
 43692.65567		 717.71295			42974.94272		218.46200		875.00000 
 43692.65567		 305.27265			43387.38302		66.67800		324.00000 
 43692.65567		 717.71295			42974.94272		218.46200		875.00000 
 43692.65567		 305.27265			43387.38302		66.67800		324.00000 
 43692.65567		 717.71295			42974.94272		218.46200		875.00000 
 43692.65567		 305.27265			43387.38302		66.67800		324.00000 
 43692.65567		 717.71295			42974.94272		218.46200		875.00000 
 43692.65567		 305.27265			43387.38302		66.67800		324.00000 
 43692.65567		 717.71295			42974.94272		218.46200		875.00000 
 43692.65567		 305.27265			43387.38302		66.67800		324.00000 
 43692.65567		 717.71295			42974.94272		218.46200		875.00000 
 43692.65567		 305.27265			43387.38302		66.67800		324.00000 
 43692.65567		 717.71295			42974.94272		218.46200		875.00000 
 43692.65567		 305.27265			43387.38302		66.67800		324.00000 
 43692.65567		 717.71295			42974.94272		218.46200		875.00000 
 43692.65567		 305.27265			43387.38302		66.67800		324.00000 
 43692.65567		 717.71295			42974.94272		218.46200		875.00000 
 43692.65567		 305.27265			43387.38302		66.67800		324.00000 
 43692.65567		 717.71295			42974.94272		218.46200		875.00000 
 43692.65567		 305.27265			43387.38302		66.67800		324.00000 
 43692.65567		 717.71295			42974.94272		218.46200		875.00000 
 43692.65567		 305.27265			43387.38302		66.67800		324.00000 
 43692.65567		 717.71295			42974.94272		218.46200		875.00000 
 43692.65567		 305.27265			43387.38302		66.67800		324.00000 
 43692.65567		 717.71295			42974.94272		218.46200		875.00000 
 43692.65567		 305.27265			43387.38302		66.67800		324.00000 
 43692.65567		 717.71295			42974.94272		218.46200		875.00000 
 43692.65567		 305.27265			43387.38302		66.67800		324.00000 
 43692.65567		 717.71295			42974.94272		218.46200		875.00000 
 43692.65567		 305.27265			43387.38302		66.67800		324.00000 
 43692.65567		 717.71295			42974.94272		218.46200		875.00000 
 43692.65567		 305.27265			43387.38302		66.67800		324.00000 
 43692.65567		 717.71295			42974.94272		218.46200		875.00000 
 43692.65567		 305.27265			43387.38302		66.67800		324.00000 
 43692.65567		 717.71295			42974.94272		218.46200		875.00000 
 43692.65567		 305.27265			43387.38302		66.67800		324.00000 
 43692.65567		 717.71295			42974.94272		218.46200		875.00000 
 43692.65567		 305.27265			43387.38302		66.67800		324.00000 
 43692.65567		 717.71295			42974.94272		218.46200		875.00000 
 43692.65567		 305.27265			43387.38302		66.67800		324.00000 
 43692.65567		 717.71295			42974.94272		218.46200		875.00000 
 43692.65567		 305.27265			43387.38302		66.67800		324.00000 
 43692.65567		 717.71295			42974.94272		218.46200		875.00000 
 43692.65567		 305.27265			43387.38302		66.67800		324.00000 
 43692.65567		 717.71295			42974.94272		218.46200		875.00000 
 43692.65567		 305.27265			43387.38302		66.67800		324.00000 
 43692.65567		 717.71295			42974.94272		218.46200		875.00000 
 43692.65567		 305.27265			43387.38302		66.67800		324.00000 
 43692.65567		 717.71295			42974.94272		218.46200		875.00000 
 43692.65567		 305.27265			43387.38302		66.67800		324.00000 
 43692.65567		 717.71295			42974.94272		218.46200		875.00000 
 43692.65567		 305.27265			43387.38302		66.67800		324.00000 
 43692.65567		 717.71295			42974.94272		218.46200		875.00000 
 43692.65567		 305.27265			43387.38302		66.67800		324.00000 
 43692.65567		 717.71295			42974.94272		218.46200		875.00000 
 43692.65567		 305.27265			43387.38302		66.67800		324.00000 
 43692.65567		 717.71295			42974.94272		218.46200		875.00000 
 43692.65567		 305.27265			43387.38302		66.67800		324.00000 
 43692.65567		 717.71295			42974.94272		218.46200		875.00000 
 43692.65567		 305.27265			43387.38302		66.67800		324.00000 
 43692.65567		 717.71295			42974.94272		218.46200		875.00000 
 43692.65567		 305.27265			43387.38302		66.67800		324.00000 
 43692.65567		 717.71295			42974.94272		218.46200		875.00000 
 43692.65567		 305.27265			43387.38302		66.67800		324.00000 
 43692.65567		 717.71295			42974.94272		218.46200		875.00000 
 43692.65567		 305.27265			43387.38302		66.67800		324.00000 
 43692.65567		 717.71295			42974.94272		218.46200		875.00000 
 43692.65567		 305.27265			43387.38302		66.67800		324.00000 
 43692.65567		 717.71295			42974.94272		218.46200		875.00000 
 43692.65567		 305.27265			43387.38302		66.67800		324.00000 
 43692.65567		 717.71295			42974.94272		218.46200		875.00000 
 43692.65567		 305.27265			43387.38302		66.67800		324.00000 
 43692.65567		 717.71295			42974.94272		218.46200		875.00000 
 43692.65567		 305.27265			43387.38302		66.67800		324.00000 
 43692.65567		 717.71295			42974.94272		218.46200		875.00000 
 43692.65567		 305.27265			43387.38302		66.67800		324.00000 
 43692.65567		 717.71295			42974.94272		218.46200		875.00000 
 43692.65567		 305.27265			43387.38302		66.67800		324.00000 
 43692.65567		 717.71295			42974.94272		218.46200		875.00000 
 43692.65567		 305.27265			43387.38302		66.67800		324.00000 
 43692.65567		 717.71295			42974.94272		218.46200		875.00000 
 43692.65567		 305.27265			43387.38302		66.67800		324.00000 
 43692.65567		 717.71295			42974.94272		218.46200		875.00000 
 43692.65567		 305.27265			43387.38302		66.67800		324.00000 
 43692.65567		 717.71295			42974.94272		218.46200		875.00000 
 43692.65567		 305.27265			43387.38302		66.67800		324.00000 
 43692.65567		 717.71295			42974.94272		218.46200		875.00000 
 43692.65567		 305.27265			43387.38302		66.67800		324.00000 
 43692.65567		 717.71295			42974.94272		218.46200		875.00000 
 43692.65567		 305.27265			43387.38302		66.67800		324.00000 
 43692.65567		 717.71295			42974.94272		218.46200		875.00000 
 43692.65567		 305.27265			43387.38302		66.67800		324.00000 
 43692.65567		 717.71295			42974.94272		218.46200		875.00000 
 43692.65567		 305.27265			43387.38302		66.67800		324.00000 
 43692.65567		 717.71295			42974.94272		218.46200		875.00000 
 43692.65567		 305.27265			43387.38302		66.67800		324.00000 
 43692.65567		 717.71295			42974.94272		218.46200		875.00000 
 43692.65567		 305.27265			43387.38302		66.67800		324.00000 
 43692.65567		 717.71295			42974.94272		219.06200		875.00000 
 43692.65567		 305.27265			43387.38302		66.67800		324.00000 
 43692.65567		 717.71295			42974.94272		219.06200		875.00000 
 43692.65567		 305.27265			43387.38302		66.67800		324.00000 
 43692.65567		 717.71295			42974.94272		219.06200		875.00000 
 43692.65567		 305.27265			43387.38302		66.67800		324.00000 
 43692.65567		 717.71295			42974.94272		219.06200		875.00000 
 43692.65567		 305.27265			43387.38302		66.67800		324.00000 
 43692.65567		 717.71295			42974.94272		219.06200		875.00000 
 43692.65567		 305.27265			43387.38302		66.67800		324.00000 
 43692.65567		 717.71295			42974.94272		219.06200		875.00000 
 43692.65567		 305.27265			43387.38302		66.67800		324.00000 
 43692.65567		 717.71295			42974.94272		219.06200		875.00000 
 43692.65567		 305.27265			43387.38302		66.67800		324.00000 
 43692.65567		 717.71295			42974.94272		219.06200		875.00000 
 43692.65567		 305.27265			43387.38302		66.67800		324.00000 
 43692.65567		 717.71295			42974.94272		219.06200		875.00000 
 43692.65567		 305.27265			43387.38302		66.67800		324.00000 
 43692.65567		 717.71295			42974.94272		219.06200		875.00000 
 43692.65567		 305.27265			43387.38302		66.67800		324.00000 
 43692.65567		 717.71295			42974.94272		219.06200		875.00000 
 43692.65567		 305.27265			43387.38302		66.67800		324.00000 
 43692.65567		 717.71295			42974.94272		219.06200		875.00000 
 43692.65567		 305.27265			43387.38302		66.67800		324.00000 
 43692.65567		 717.71295			42974.94272		219.06200		875.00000 
 43692.65567		 305.27265			43387.38302		66.67800		324.00000 
 43692.65567		 717.71295			42974.94272		219.06200		875.00000 
 43692.65567		 305.27265			43387.38302		66.67800		324.00000 
 43692.65567		 717.71295			42974.94272		219.06200		875.00000 
 43692.65567		 305.27265			43387.38302		66.67800		324.00000 
 43692.65567		 717.71295			42974.94272		219.06200		875.00000 
 43692.65567		 305.27265			43387.38302		66.67800		324.00000 
 43692.65567		 717.71295			42974.94272		219.06200		875.00000 
 43692.65567		 305.27265			43387.38302		66.67800		324.00000 
 43692.65567		 717.71295			42974.94272		219.06200		875.00000 
 43692.65567		 305.27265			43387.38302		66.67800		324.00000 
 43692.65567		 717.71295			42974.94272		219.06200		875.00000 
 43692.65567		 305.27265			43387.38302		66.67800		324.00000 
 43692.65567		 717.71295			42974.94272		219.06200		875.00000 
 43692.65567		 305.27265			43387.38302		66.67800		324.00000 
 43692.65567		 717.71295			42974.94272		219.06200		875.00000 
 43692.65567		 305.27265			43387.38302		66.67800		324.00000 
 43692.65567		 717.71295			42974.94272		219.06200		875.00000 
 43692.65567		 305.27265			43387.38302		66.67800		324.00000 
 43692.65567		 717.71295			42974.94272		219.06200		875.00000 
 43692.65567		 305.27265			43387.38302		66.67800		324.00000 
 43692.65567		 717.71295			42974.94272		219.06200		875.00000 
 43692.65567		 305.27265			43387.38302		66.67800		324.00000 
 43692.65567		 717.71295			42974.94272		219.06200		875.00000 
 43692.65567		 305.27265			43387.38302		66.67800		324.00000 
 43692.65567		 717.71295			42974.94272		219.06200		875.00000 
 43692.65567		 305.27265			43387.38302		66.67800		324.00000 
 43692.65567		 717.71295			42974.94272		219.06200		875.00000 
 43692.65567		 305.27265			43387.38302		66.67800		324.00000 
 43692.65567		 717.71295			42974.94272		219.06200		875.00000 
 43692.65567		 305.27265			43387.38302		66.67800		324.00000 
 43692.65567		 717.71295			42974.94272		219.06200		875.00000 
 43692.65567		 305.27265			43387.38302		66.67800		324.00000 
 43692.65567		 717.71295			42974.94272		219.06200		875.00000 
 43692.65567		 305.27265			43387.38302		66.67800		324.00000 
 43692.65567		 717.71295			42974.94272		219.06200		875.00000 
 43692.65567		 305.27265			43387.38302		66.67800		324.00000 
 43692.65567		 717.71295			42974.94272		219.06200		875.00000 
 43692.65567		 305.27265			43387.38302		66.67800		324.00000 
 43692.65567		 717.71295			42974.94272		219.06200		875.00000 
 43692.65567		 305.27265			43387.38302		66.67800		324.00000 
 43692.65567		 717.71295			42974.94272		219.06200		875.00000 
 43692.65567		 305.27265			43387.38302		66.67800		324.00000 
 43692.65567		 717.71295			42974.94272		219.06200		875.00000 
 43692.65567		 305.27265			43387.38302		66.67800		324.00000 
 43692.65567		 717.71295			42974.94272		219.06200		875.00000 
 43692.65567		 305.27265			43387.38302		66.67800		324.00000 
 43692.65567		 717.71295			42974.94272		219.06200		875.00000 
 43692.65567		 305.27265			43387.38302		66.67800		324.00000 
 43692.65567		 717.71295			42974.94272		219.06200		875.00000 
 43692.65567		 305.27265			43387.38302		66.67800		324.00000 
 43692.65567		 717.71295			42974.94272		219.06200		875.00000 
 43692.65567		 305.27265			43387.38302		66.67800		324.00000 
 43692.65567		 717.71295			42974.94272		219.06200		875.00000 
 43692.65567		 305.27265			43387.38302		66.67800		324.00000 
 43692.65567		 717.71295			42974.94272		219.06200		875.00000 
 43692.65567		 305.27265			43387.38302		66.67800		324.00000 
 43692.65567		 717.71295			42974.94272		219.06200		875.00000 
 43692.65567		 305.27265			43387.38302		66.67800		324.00000 
 43692.65567		 717.71295			42974.94272		219.06200		875.00000 
 43692.65567		 305.27265			43387.38302		66.67800		324.00000 
 43692.65567		 717.71295			42974.94272		219.06200		875.00000 
 43692.65567		 305.27265			43387.38302		66.67800		324.00000 
 43692.65567		 717.71295			42974.94272		219.06200		875.00000 
 43692.65567		 305.27265			43387.38302		66.67800		324.00000 
 43692.65567		 717.71295			42974.94272		219.06200		875.00000 
 43692.65567		 305.27265			43387.38302		66.67800		324.00000 
 43692.65567		 717.71295			42974.94272		219.06200		875.00000 
 43692.65567		 305.27265			43387.38302		66.67800		324.00000 
 43692.65567		 717.71295			42974.94272		219.06200		875.00000 
 43692.65567		 305.27265			43387.38302		66.67800		324.00000 
 43692.65567		 717.71295			42974.94272		219.06200		875.00000 
 43692.65567		 305.27265			43387.38302		66.67800		324.00000 
 43692.65567		 717.71295			42974.94272		219.06200		875.00000 
 43692.65567		 305.27265			43387.38302		66.67800		324.00000 
 43692.65567		 717.71295			42974.94272		219.06200		875.00000 
 43692.65567		 305.27265			43387.38302		66.67800		324.00000 
 43692.65567		 717.71295			42974.94272		219.06200		875.00000 
 43692.65567		 305.27265			43387.38302		66.67800		324.00000 
 43692.65567		 717.71295			42974.94272		219.06200		875.00000 
 43692.65567		 305.27265			43387.38302		66.67800		324.00000 
 43692.65567		 717.71295			42974.94272		219.06200		875.00000 
 43692.65567		 305.27265			43387.38302		66.67800		324.00000 
 43692.65567		 717.71295			42974.94272		219.06200		875.00000 
 43692.65567		 305.27265			43387.38302		66.67800		324.00000 
 43692.65567		 717.71295			42974.94272		219.06200		875.00000 
 43692.65567		 305.27265			43387.38302		66.67800		324.00000 
 43692.65567		 717.71295			42974.94272		219.06200		875.00000 
 43692.65567		 305.27265			43387.38302		66.67800		324.00000 
 43692.65567		 717.71295			42974.94272		219.06200		875.00000 
 43692.65567		 305.27265			43387.38302		66.67800		324.00000 
 43692.65567		 717.71295			42974.94272		219.06200		875.00000 
 43692.65567		 305.27265			43387.38302		66.67800		324.00000 
 43692.65567		 717.71295			42974.94272		219.06200		875.00000 
 43692.65567		 305.27265			43387.38302		66.67800		324.00000 
 43692.65567		 717.71295			42974.94272		219.06200		875.00000 
 43692.65567		 305.27265			43387.38302		66.67800		324.00000 
 43692.65567		 717.71295			42974.94272		219.06200		875.00000 
 43692.65567		 305.27265			43387.38302		66.67800		324.00000 
 43692.65567		 717.71295			42974.94272		219.06200		875.00000 
 43692.65567		 305.27265			43387.38302		66.67800		324.00000 
 43692.65567		 717.71295			42974.94272		219.06200		875.00000 
 43692.65567		 305.27265			43387.38302		66.67800		324.00000 
 43692.65567		 717.71295			42974.94272		218.46200		875.00000 
 43692.65567		 305.27265			43387.38302		66.67800		324.00000 
 43692.65567		 717.71295			42974.94272		218.46200		875.00000 
 43692.65567		 305.27265			43387.38302		66.67800		324.00000 
 43692.65567		 717.71295			42974.94272		218.46200		875.00000 
 43692.65567		 305.27265			43387.38302		66.67800		324.00000 
 43692.65567		 717.71295			42974.94272		218.46200		875.00000 
 43692.65567		 305.27265			43387.38302		66.67800		324.00000 
 43692.65567		 717.71295			42974.94272		218.46200		875.00000 
 43692.65567		 305.27265			43387.38302		66.67800		324.00000 
 43692.65567		 717.71295			42974.94272		218.46200		875.00000 
 43692.65567		 305.27265			43387.38302		66.67800		324.00000 
 43692.65567		 717.71295			42974.94272		218.46200		875.00000 
 43692.65567		 305.27265			43387.38302		66.67800		324.00000 
 43692.65567		 717.71295			42974.94272		218.46200		875.00000 
 43692.65567		 305.27265			43387.38302		66.67800		324.00000 
 43692.65567		 717.71295			42974.94272		218.46200		875.00000 
 43692.65567		 305.27265			43387.38302		66.67800		324.00000 
 43692.65567		 717.71295			42974.94272		218.46200		875.00000 
 43692.65567		 305.27265			43387.38302		66.67800		324.00000 
 43692.65567		 717.71295			42974.94272		218.46200		875.00000 
 43692.65567		 305.27265			43387.38302		66.67800		324.00000 
 43692.65567		 717.71295			42974.94272		218.46200		875.00000 
 43692.65567		 305.27265			43387.38302		66.67800		324.00000 
 43692.65567		 717.71295			42974.94272		218.46200		875.00000 
 43692.65567		 305.27265			43387.38302		66.67800		324.00000 
 43692.65567		 717.71295			42974.94272		218.46200		875.00000 
 43692.65567		 305.27265			43387.38302		66.67800		324.00000 
 43692.65567		 717.71295			42974.94272		218.46200		875.00000 
 43692.65567		 305.27265			43387.38302		66.67800		324.00000 
 43692.65567		 717.71295			42974.94272		218.46200		875.00000 
 43692.65567		 305.27265			43387.38302		66.67800		324.00000 
 43692.65567		 717.71295			42974.94272		218.46200		875.00000 
 43692.65567		 305.27265			43387.38302		66.67800		324.00000 
 43692.65567		 717.71295			42974.94272		218.46200		875.00000 
 43692.65567		 305.27265			43387.38302		66.67800		324.00000 
 43692.65567		 717.71295			42974.94272		218.46200		875.00000 
 43692.65567		 305.27265			43387.38302		66.67800		324.00000 
 43692.65567		 717.71295			42974.94272		218.46200		875.00000 
 43692.65567		 305.27265			43387.38302		66.67800		324.00000 
 43692.65567		 717.71295			42974.94272		218.46200		875.00000 
 43692.65567		 305.27265			43387.38302		66.67800		324.00000 
 43692.65567		 717.71295			42974.94272		218.46200		875.00000 
 43692.65567		 305.27265			43387.38302		66.67800		324.00000 
 43692.65567		 717.71295			42974.94272		218.46200		875.00000 
 43692.65567		 305.27265			43387.38302		66.67800		324.00000 
 43692.65567		 717.71295			42974.94272		218.46200		875.00000 
 43692.65567		 305.27265			43387.38302		66.67800		324.00000 
 43692.65567		 717.71295			42974.94272		218.46200		875.00000 
 43692.65567		 305.27265			43387.38302		66.67800		324.00000 
 43692.65567		 717.71295			42974.94272		218.46200		875.00000 
 43692.65567		 305.27265			43387.38302		66.67800		324.00000 
 43692.65567		 717.71295			42974.94272		218.46200		875.00000 
 43692.65567		 305.27265			43387.38302		66.67800		324.00000 
 43692.65567		 717.71295			42974.94272		218.46200		875.00000 
 43692.65567		 305.27265			43387.38302		66.67800		324.00000 
 43692.65567		 717.71295			42974.94272		218.46200		875.00000 
 43692.65567		 305.27265			43387.38302		66.67800		324.00000 
 43692.65567		 717.71295			42974.94272		218.46200		875.00000 
 43692.65567		 305.27265			43387.38302		66.67800		324.00000 
 43692.65567		 717.71295			42974.94272		218.46200		875.00000 
 43692.65567		 305.27265			43387.38302		66.67800		324.00000 
 43692.65567		 717.71295			42974.94272		218.46200		875.00000 
 43692.65567		 305.27265			43387.38302		66.67800		324.00000 
 43692.65567		 717.71295			42974.94272		218.46200		875.00000 
 43692.65567		 305.27265			43387.38302		66.67800		324.00000 
 43692.65567		 717.71295			42974.94272		218.46200		875.00000 
 43692.65567		 305.27265			43387.38302		66.67800		324.00000 
 43692.65567		 717.71295			42974.94272		218.46200		875.00000 
 43692.65567		 305.27265			43387.38302		66.67800		324.00000 
 43692.65567		 717.71295			42974.94272		218.46200		875.00000 
 43692.65567		 305.27265			43387.38302		66.67800		324.00000 
 43692.65567		 717.71295			42974.94272		218.46200		875.00000 
 43692.65567		 305.27265			43387.38302		66.67800		324.00000 
 43692.65567		 717.71295			42974.94272		218.46200		875.00000 
 43692.65567		 305.27265			43387.38302		66.67800		324.00000 
 43692.65567		 717.71295			42974.94272		218.46200		875.00000 
 43692.65567		 305.27265			43387.38302		66.67800		324.00000 
 43692.65567		 717.71295			42974.94272		218.46200		875.00000 
 43692.65567		 305.27265			43387.38302		66.67800		324.00000 
 43692.65567		 717.71295			42974.94272		218.46200		875.00000 
 43692.65567		 305.27265			43387.38302		66.67800		324.00000 
 43692.65567		 717.71295			42974.94272		218.46200		875.00000 
 43692.65567		 305.27265			43387.38302		66.67800		324.00000 
 43692.65567		 717.71295			42974.94272		218.46200		875.00000 
 43692.65567		 305.27265			43387.38302		66.67800		324.00000 
 43692.65567		 717.71295			42974.94272		218.46200		875.00000 
 43692.65567		 305.27265			43387.38302		66.67800		324.00000 
 43692.65567		 717.71295			42974.94272		218.46200		875.00000 
 43692.65567		 305.27265			43387.38302		66.67800		324.00000 
 43692.65567		 717.71295			42974.94272		218.46200		875.00000 
 43692.65567		 305.27265			43387.38302		66.67800		324.00000 
 43692.65567		 717.71295			42974.94272		218.46200		875.00000 
 43692.65567		 305.27265			43387.38302		66.67800		324.00000 
 43692.65567		 717.71295			42974.94272		218.46200		875.00000 
 43692.65567		 305.27265			43387.38302		66.67800		324.00000 
 43692.65567		 717.71295			42974.94272		218.46200		875.00000 
 43692.65567		 305.27265			43387.38302		66.67800		324.00000 
 43692.65567		 717.71295			42974.94272		218.46200		875.00000 
 43692.65567		 305.27265			43387.38302		66.67800		324.00000 
 43692.65567		 717.71295			42974.94272		218.46200		875.00000 
 43692.65567		 305.27265			43387.38302		66.67800		324.00000 
 43692.65567		 717.71295			42974.94272		218.46200		875.00000 
 43692.65567		 305.27265			43387.38302		66.67800		324.00000 
 43692.65567		 717.71295			42974.94272		218.46200		875.00000 
 43692.65567		 305.27265			43387.38302		66.67800		324.00000 
 43692.65567		 717.71295			42974.94272		218.46200		875.00000 
 43692.65567		 305.27265			43387.38302		66.67800		324.00000 
 43692.65567		 717.71295			42974.94272		218.46200		875.00000 
 43692.65567		 305.27265			43387.38302		66.67800		324.00000 
 43692.65567		 717.71295			42974.94272		218.46200		875.00000 
 43692.65567		 305.27265			43387.38302		66.67800		324.00000 
 43692.65567		 717.71295			42974.94272		218.46200		875.00000 
 43692.65567		 305.27265			43387.38302		66.67800		324.00000 
 43692.65567		 717.71295			42974.94272		218.46200		875.00000 
 43692.65567		 305.27265			43387.38302		66.67800		324.00000 
 43692.65567		 717.71295			42974.94272		218.46200		875.00000 
 43692.65567		 305.27265			43387.38302		66.67800		324.00000 
 43692.65567		 717.71295			42974.94272		218.46200		875.00000 
 43692.65567		 305.27265			43387.38302		66.67800		324.00000 
 43692.65567		 717.71295			42974.94272		218.46200		875.00000 
 43692.65567		 305.27265			43387.38302		66.67800		324.00000 
 43692.65567		 717.71295			42974.94272		218.46200		875.00000 
 43692.65567		 305.27265			43387.38302		66.67800		324.00000 
 43692.65567		 717.71295			42974.94272		218.46200		875.00000 
 43692.65567		 305.27265			43387.38302		66.67800		324.00000 
 43692.65567		 717.71295			42974.94272		218.46200		875.00000 
 43692.65567		 305.27265			43387.38302		66.67800		324.00000 
 43692.65567		 717.71295			42974.94272		218.46200		875.00000 
 43692.65567		 305.27265			43387.38302		66.67800		324.00000 
 43692.65567		 717.71295			42974.94272		218.46200		875.00000 
 43692.65567		 305.27265			43387.38302		66.67800		324.00000 
 43692.65567		 717.71295			42974.94272		218.46200		875.00000 
 43692.65567		 305.27265			43387.38302		66.67800		324.00000 
 43692.65567		 717.71295			42974.94272		218.46200		875.00000 
 43692.65567		 305.27265			43387.38302		66.67800		324.00000 
 43692.65567		 717.71295			42974.94272		218.46200		875.00000 
 43692.65567		 305.27265			43387.38302		66.67800		324.00000 
 43692.65567		 717.71295			42974.94272		218.46200		875.00000 
 43692.65567		 305.27265			43387.38302		66.67800		324.00000 
 43692.65567		 717.71295			42974.94272		218.46200		875.00000 
 43692.65567		 305.27265			43387.38302		66.67800		324.00000 
 43692.65567		 717.71295			42974.94272		218.46200		875.00000 
 43692.65567		 305.27265			43387.38302		66.67800		324.00000 
 43692.65567		 717.71295			42974.94272		218.46200		875.00000 
 43692.65567		 305.27265			43387.38302		66.67800		324.00000 
 43692.65567		 717.71295			42974.94272		218.46200		875.00000 
 43692.65567		 305.27265			43387.38302		66.67800		324.00000 
 43692.65567		 717.71295			42974.94272		218.46200		875.00000 
 43692.65567		 305.27265			43387.38302		66.67800		324.00000 
 43692.65567		 717.71295			42974.94272		218.46200		875.00000 
 43692.65567		 305.27265			43387.38302		66.67800		324.00000 
 43692.65567		 717.71295			42974.94272		218.46200		875.00000 
 43692.65567		 305.27265			43387.38302		66.67800		324.00000 
 43692.65567		 717.71295			42974.94272		218.46200		875.00000 
 43692.65567		 305.27265			43387.38302		66.67800		324.00000 
 43692.65567		 717.71295			42974.94272		218.46200		875.00000 
 43692.65567		 305.27265			43387.38302		66.67800		324.00000 
 43692.65567		 717.71295			42974.94272		218.46200		875.00000 
 43692.65567		 305.27265			43387.38302		66.67800		324.00000 
 43692.65567		 717.71295			42974.94272		218.46200		875.00000 
 43692.65567		 305.27265			43387.38302		66.67800		324.00000 
 43692.65567		 717.71295			42974.94272		218.46200		875.00000 
 43692.65567		 305.27265			43387.38302		66.67800		324.00000 
 43692.65567		 717.71295			42974.94272		218.46200		875.00000 
 43692.65567		 305.27265			43387.38302		66.67800		324.00000 
 43692.65567		 717.71295			42974.94272		218.46200		875.00000 
 43692.65567		 305.27265			43387.38302		66.67800		324.00000 
 43692.65567		 717.71295			42974.94272		218.46200		875.00000 
 43692.65567		 305.27265			43387.38302		66.67800		324.00000 
 43692.65567		 717.71295			42974.94272		218.46200		875.00000 
 43692.65567		 305.27265			43387.38302		66.67800		324.00000 
 43692.65567		 717.71295			42974.94272		218.46200		875.00000 
 43692.65567		 305.27265			43387.38302		66.67800		324.00000 
 43692.65567		 717.71295			42974.94272		218.46200		875.00000 
 43692.65567		 305.27265			43387.38302		66.67800		324.00000 
 43692.65567		 717.71295			42974.94272		218.46200		875.00000 
 43692.65567		 305.27265			43387.38302		66.67800		324.00000 
 43692.65567		 717.71295			42974.94272		218.46200		875.00000 
 43692.65567		 305.27265			43387.38302		66.67800		324.00000 
 43692.65567		 717.71295			42974.94272		218.46200		875.00000 
 43692.65567		 305.27265			43387.38302		66.67800		324.00000 
 43692.65567		 717.71295			42974.94272		218.46200		875.00000 
 43692.65567		 305.27265			43387.38302		66.67800		324.00000 
 43692.65567		 717.71295			42974.94272		218.46200		875.00000 
 43692.65567		 305.27265			43387.38302		66.67800		324.00000 
 43692.65567		 717.71295			42974.94272		218.46200		875.00000 
 43692.65567		 305.27265			43387.38302		66.67800		324.00000 
 43692.65567		 717.71295			42974.94272		218.46200		875.00000 
 43692.65567		 305.27265			43387.38302		66.67800		324.00000 
 43692.65567		 717.71295			42974.94272		218.46200		875.00000 
 43692.65567		 305.27265			43387.38302		66.67800		324.00000 
 43692.65567		 717.71295			42974.94272		218.46200		875.00000 
 43692.65567		 305.27265			43387.38302		66.67800		324.00000 
 43692.65567		 657.56541			43035.09026		218.46200		875.00000 
 43692.65567		 305.27265			43387.38302		66.67800		324.00000 
 43692.65567		 597.41787			43095.23781		218.46200		875.00000 
 43692.65567		 305.27265			43387.38302		66.67800		324.00000 
 43692.65567		 537.27032			43155.38535		218.46200		875.00000 
 43692.65567		 305.27265			43387.38302		66.67800		324.00000 
 43692.65567		 537.27032			43155.38535		218.46200		875.00000 
 43692.65567		 305.27265			43387.38302		66.67800		324.00000 
 43692.65567		 537.27032			43155.38535		218.46200		875.00000 
 43692.65567		 305.27265			43387.38302		66.67800		324.00000 
 43692.65567		 537.27032			43155.38535		218.46200		875.00000 
 43692.65567		 305.27265			43387.38302		66.67800		324.00000 
 43692.65567		 537.27032			43155.38535		218.46200		875.00000 
 43692.65567		 305.27265			43387.38302		66.67800		324.00000 
 43692.65567		 537.27032			43155.38535		218.46200		875.00000 
 43692.65567		 305.27265			43387.38302		66.67800		324.00000 
 43692.65567		 537.27032			43155.38535		218.46200		875.00000 
 43692.65567		 305.27265			43387.38302		69.66000		324.00000 
 43692.65567		 537.27032			43155.38535		218.46200		875.00000 
 43692.65567		 305.27265			43387.38302		69.66000		324.00000 
 43692.65567		 537.27032			43155.38535		218.46200		875.00000 
 43692.65567		 305.27265			43387.38302		69.66000		324.00000 
 43692.65567		 537.27032			43155.38535		218.46200		875.00000 
 43692.65567		 305.27265			43387.38302		69.66000		324.00000 
 43692.65567		 537.27032			43155.38535		218.46200		875.00000 
 43692.65567		 305.27265			43387.38302		69.66000		324.00000 
 43692.65567		 537.27032			43155.38535		218.46200		875.00000 
 43692.65567		 305.27265			43387.38302		69.66000		324.00000 
 43692.65567		 537.27032			43155.38535		218.46200		875.00000 
 43692.65567		 305.27265			43387.38302		69.66000		324.00000 
 43692.65567		 537.27032			43155.38535		218.46200		875.00000 
 43692.65567		 305.27265			43387.38302		69.66000		324.00000 
 43692.65567		 537.27032			43155.38535		218.46200		875.00000 
 43692.65567		 305.27265			43387.38302		69.66000		324.00000 
 43692.65567		 537.27032			43155.38535		218.46200		875.00000 
 43692.65567		 305.27265			43387.38302		69.66000		324.00000 
 43692.65567		 537.27032			43155.38535		218.46200		875.00000 
 43692.65567		 305.27265			43387.38302		69.66000		324.00000 
 43692.65567		 537.27032			43155.38535		218.46200		875.00000 
 43692.65567		 305.27265			43387.38302		69.66000		324.00000 
 43692.65567		 537.27032			43155.38535		218.46200		875.00000 
 43692.65567		 305.27265			43387.38302		69.66000		324.00000 
 43692.65567		 537.27032			43155.38535		218.46200		875.00000 
 43692.65567		 305.27265			43387.38302		69.66000		324.00000 
 43692.65567		 529.63254			43163.02313		218.46200		875.00000 
 43692.65567		 305.27265			43387.38302		69.66000		324.00000 
 43692.65567		 525.81365			43166.84203		185.80600		875.00000 
 43692.65567		 297.63487			43395.02080		69.66000		324.00000 
 43692.65567		 261.35540			43431.30027		185.80600		875.00000 
 43692.65567		 261.35540			43431.30027		69.66000		324.00000 
