Memory Total (MiB) 	 Memory Used (MiB) 	    Memory Free (MiB) 	 Power Drawed (W) 	 Clocks (Mhz) 	 
 43692.65567		 261.35540			43431.30027		184.84200		875.00000 
 43692.65567		 261.35540			43431.30027		65.24000		324.00000 
 43692.65567		 261.35540			43431.30027		184.84200		875.00000 
 43692.65567		 261.35540			43431.30027		65.24000		324.00000 
 43692.65567		 261.35540			43431.30027		184.84200		875.00000 
 43692.65567		 261.35540			43431.30027		65.24000		324.00000 
 43692.65567		 261.35540			43431.30027		184.84200		875.00000 
 43692.65567		 261.35540			43431.30027		65.24000		324.00000 
 43692.65567		 261.35540			43431.30027		184.84200		875.00000 
 43692.65567		 261.35540			43431.30027		65.24000		324.00000 
 43692.65567		 261.35540			43431.30027		184.84200		875.00000 
 43692.65567		 261.35540			43431.30027		65.24000		324.00000 
 43692.65567		 261.35540			43431.30027		184.84200		875.00000 
 43692.65567		 261.35540			43431.30027		65.24000		324.00000 
 43692.65567		 261.35540			43431.30027		184.84200		875.00000 
 43692.65567		 261.35540			43431.30027		65.24000		324.00000 
 43692.65567		 261.35540			43431.30027		184.84200		875.00000 
 43692.65567		 261.35540			43431.30027		65.24000		324.00000 
 43692.65567		 261.35540			43431.30027		184.84200		875.00000 
 43692.65567		 261.35540			43431.30027		65.24000		324.00000 
 43692.65567		 261.35540			43431.30027		184.84200		875.00000 
 43692.65567		 261.35540			43431.30027		65.24000		324.00000 
 43692.65567		 261.35540			43431.30027		184.84200		875.00000 
 43692.65567		 261.35540			43431.30027		65.24000		324.00000 
 43692.65567		 261.35540			43431.30027		184.84200		875.00000 
 43692.65567		 261.35540			43431.30027		65.24000		324.00000 
 43692.65567		 261.35540			43431.30027		184.84200		875.00000 
 43692.65567		 261.35540			43431.30027		65.24000		324.00000 
 43692.65567		 265.17429			43427.48138		184.84200		875.00000 
 43692.65567		 261.35540			43431.30027		65.24000		324.00000 
 43692.65567		 265.17429			43427.48138		152.01600		875.00000 
 43692.65567		 261.35540			43431.30027		65.24000		324.00000 
 43692.65567		 272.81207			43419.84360		152.01600		875.00000 
 43692.65567		 261.35540			43431.30027		65.24000		324.00000 
 43692.65567		 272.81207			43419.84360		152.01600		875.00000 
 43692.65567		 261.35540			43431.30027		65.24000		324.00000 
 43692.65567		 272.81207			43419.84360		152.01600		875.00000 
 43692.65567		 265.17429			43427.48138		65.24000		324.00000 
 43692.65567		 272.81207			43419.84360		152.01600		875.00000 
 43692.65567		 265.17429			43427.48138		65.24000		324.00000 
 43692.65567		 272.81207			43419.84360		152.01600		875.00000 
 43692.65567		 265.17429			43427.48138		65.24000		324.00000 
 43692.65567		 272.81207			43419.84360		152.01600		875.00000 
 43692.65567		 272.81207			43419.84360		65.24000		324.00000 
 43692.65567		 272.81207			43419.84360		152.01600		875.00000 
 43692.65567		 272.81207			43419.84360		65.24000		324.00000 
 43692.65567		 272.81207			43419.84360		152.01600		875.00000 
 43692.65567		 272.81207			43419.84360		65.24000		324.00000 
 43692.65567		 305.27265			43387.38302		152.01600		875.00000 
 43692.65567		 305.27265			43387.38302		65.24000		324.00000 
 43692.65567		 305.27265			43387.38302		152.01600		875.00000 
 43692.65567		 305.27265			43387.38302		65.24000		324.00000 
 43692.65567		 305.27265			43387.38302		152.01600		875.00000 
 43692.65567		 305.27265			43387.38302		65.24000		324.00000 
 43692.65567		 305.27265			43387.38302		152.01600		875.00000 
 43692.65567		 305.27265			43387.38302		65.24000		324.00000 
 43692.65567		 305.27265			43387.38302		152.01600		875.00000 
 43692.65567		 305.27265			43387.38302		65.24000		324.00000 
 43692.65567		 309.56891			43383.08677		152.01600		875.00000 
 43692.65567		 305.27265			43387.38302		65.24000		324.00000 
 43692.65567		 311.00099			43381.65468		152.01600		875.00000 
 43692.65567		 305.27265			43387.38302		65.24000		324.00000 
 43692.65567		 311.00099			43381.65468		152.01600		875.00000 
 43692.65567		 305.27265			43387.38302		65.24000		324.00000 
 43692.65567		 311.00099			43381.65468		152.01600		875.00000 
 43692.65567		 305.27265			43387.38302		65.24000		324.00000 
 43692.65567		 311.00099			43381.65468		152.01600		875.00000 
 43692.65567		 305.27265			43387.38302		65.24000		324.00000 
 43692.65567		 311.00099			43381.65468		152.01600		875.00000 
 43692.65567		 305.27265			43387.38302		65.24000		324.00000 
 43692.65567		 311.00099			43381.65468		152.01600		875.00000 
 43692.65567		 305.27265			43387.38302		65.24000		324.00000 
 43692.65567		 311.00099			43381.65468		152.01600		875.00000 
 43692.65567		 305.27265			43387.38302		65.24000		324.00000 
 43692.65567		 311.00099			43381.65468		152.01600		875.00000 
 43692.65567		 305.27265			43387.38302		65.24000		324.00000 
 43692.65567		 311.00099			43381.65468		152.01600		875.00000 
 43692.65567		 305.27265			43387.38302		65.24000		324.00000 
 43692.65567		 311.00099			43381.65468		152.01600		875.00000 
 43692.65567		 305.27265			43387.38302		65.24000		324.00000 
 43692.65567		 311.00099			43381.65468		152.01600		875.00000 
 43692.65567		 305.27265			43387.38302		65.24000		324.00000 
 43692.65567		 311.00099			43381.65468		152.01600		875.00000 
 43692.65567		 305.27265			43387.38302		65.24000		324.00000 
 43692.65567		 311.00099			43381.65468		152.01600		875.00000 
 43692.65567		 305.27265			43387.38302		65.24000		324.00000 
 43692.65567		 311.00099			43381.65468		152.01600		875.00000 
 43692.65567		 305.27265			43387.38302		65.24000		324.00000 
 43692.65567		 311.00099			43381.65468		152.01600		875.00000 
 43692.65567		 305.27265			43387.38302		65.24000		324.00000 
 43692.65567		 311.00099			43381.65468		152.01600		875.00000 
 43692.65567		 305.27265			43387.38302		65.24000		324.00000 
 43692.65567		 311.00099			43381.65468		152.01600		875.00000 
 43692.65567		 305.27265			43387.38302		65.24000		324.00000 
 43692.65567		 311.00099			43381.65468		139.84200		875.00000 
 43692.65567		 305.27265			43387.38302		65.24000		324.00000 
 43692.65567		 311.00099			43381.65468		139.84200		875.00000 
 43692.65567		 305.27265			43387.38302		65.24000		324.00000 
 43692.65567		 311.00099			43381.65468		139.84200		875.00000 
 43692.65567		 305.27265			43387.38302		65.24000		324.00000 
 43692.65567		 311.00099			43381.65468		139.84200		875.00000 
 43692.65567		 305.27265			43387.38302		65.24000		324.00000 
 43692.65567		 311.00099			43381.65468		139.84200		875.00000 
 43692.65567		 305.27265			43387.38302		65.24000		324.00000 
 43692.65567		 311.00099			43381.65468		139.84200		875.00000 
 43692.65567		 305.27265			43387.38302		65.24000		324.00000 
 43692.65567		 311.00099			43381.65468		139.84200		875.00000 
 43692.65567		 305.27265			43387.38302		65.24000		324.00000 
 43692.65567		 311.00099			43381.65468		139.84200		875.00000 
 43692.65567		 305.27265			43387.38302		65.24000		324.00000 
 43692.65567		 311.00099			43381.65468		139.84200		875.00000 
 43692.65567		 305.27265			43387.38302		65.24000		324.00000 
 43692.65567		 311.00099			43381.65468		139.84200		875.00000 
 43692.65567		 305.27265			43387.38302		65.24000		324.00000 
 43692.65567		 311.00099			43381.65468		139.84200		875.00000 
 43692.65567		 305.27265			43387.38302		65.24000		324.00000 
 43692.65567		 311.00099			43381.65468		139.84200		875.00000 
 43692.65567		 305.27265			43387.38302		65.24000		324.00000 
 43692.65567		 311.00099			43381.65468		139.84200		875.00000 
 43692.65567		 305.27265			43387.38302		65.24000		324.00000 
 43692.65567		 311.00099			43381.65468		139.84200		875.00000 
 43692.65567		 305.27265			43387.38302		65.24000		324.00000 
 43692.65567		 311.00099			43381.65468		139.84200		875.00000 
 43692.65567		 305.27265			43387.38302		65.24000		324.00000 
 43692.65567		 311.00099			43381.65468		139.84200		875.00000 
 43692.65567		 305.27265			43387.38302		65.24000		324.00000 
 43692.65567		 311.00099			43381.65468		139.84200		875.00000 
 43692.65567		 305.27265			43387.38302		65.24000		324.00000 
 43692.65567		 311.00099			43381.65468		139.84200		875.00000 
 43692.65567		 305.27265			43387.38302		65.24000		324.00000 
 43692.65567		 311.00099			43381.65468		139.84200		875.00000 
 43692.65567		 305.27265			43387.38302		65.24000		324.00000 
 43692.65567		 311.00099			43381.65468		139.84200		875.00000 
 43692.65567		 305.27265			43387.38302		65.24000		324.00000 
 43692.65567		 311.00099			43381.65468		139.84200		875.00000 
 43692.65567		 305.27265			43387.38302		65.24000		324.00000 
 43692.65567		 311.00099			43381.65468		139.84200		875.00000 
 43692.65567		 305.27265			43387.38302		65.24000		324.00000 
 43692.65567		 311.00099			43381.65468		139.84200		875.00000 
 43692.65567		 305.27265			43387.38302		65.24000		324.00000 
 43692.65567		 311.00099			43381.65468		139.84200		875.00000 
 43692.65567		 305.27265			43387.38302		65.24000		324.00000 
 43692.65567		 311.00099			43381.65468		139.84200		875.00000 
 43692.65567		 305.27265			43387.38302		65.24000		324.00000 
 43692.65567		 311.00099			43381.65468		139.84200		875.00000 
 43692.65567		 305.27265			43387.38302		65.24000		324.00000 
 43692.65567		 311.00099			43381.65468		139.84200		875.00000 
 43692.65567		 305.27265			43387.38302		65.24000		324.00000 
 43692.65567		 311.00099			43381.65468		139.84200		875.00000 
 43692.65567		 305.27265			43387.38302		65.24000		324.00000 
 43692.65567		 311.00099			43381.65468		139.84200		875.00000 
 43692.65567		 305.27265			43387.38302		65.24000		324.00000 
 43692.65567		 311.00099			43381.65468		139.84200		875.00000 
 43692.65567		 305.27265			43387.38302		65.24000		324.00000 
 43692.65567		 311.00099			43381.65468		139.84200		875.00000 
 43692.65567		 305.27265			43387.38302		65.24000		324.00000 
 43692.65567		 311.00099			43381.65468		135.03600		875.00000 
 43692.65567		 305.27265			43387.38302		65.24000		324.00000 
 43692.65567		 311.00099			43381.65468		135.03600		875.00000 
 43692.65567		 305.27265			43387.38302		65.24000		324.00000 
 43692.65567		 314.81988			43377.83579		135.03600		875.00000 
 43692.65567		 305.27265			43387.38302		65.24000		324.00000 
 43692.65567		 314.81988			43377.83579		135.03600		875.00000 
 43692.65567		 305.27265			43387.38302		65.24000		324.00000 
 43692.65567		 314.81988			43377.83579		135.03600		875.00000 
 43692.65567		 305.27265			43387.38302		65.24000		324.00000 
 43692.65567		 318.63877			43374.01690		135.03600		875.00000 
 43692.65567		 305.27265			43387.38302		65.24000		324.00000 
 43692.65567		 322.45767			43370.19801		135.03600		875.00000 
 43692.65567		 305.27265			43387.38302		65.24000		324.00000 
 43692.65567		 326.27656			43366.37912		135.03600		875.00000 
 43692.65567		 305.27265			43387.38302		65.24000		324.00000 
 43692.65567		 326.27656			43366.37912		135.03600		875.00000 
 43692.65567		 305.27265			43387.38302		65.24000		324.00000 
 43692.65567		 326.27656			43366.37912		135.03600		875.00000 
 43692.65567		 305.27265			43387.38302		65.24000		324.00000 
 43692.65567		 537.27032			43155.38535		135.03600		875.00000 
 43692.65567		 305.27265			43387.38302		65.24000		324.00000 
 43692.65567		 772.13216			42920.52351		135.03600		875.00000 
 43692.65567		 305.27265			43387.38302		65.24000		324.00000 
 43692.65567		 889.56308			42803.09259		135.03600		875.00000 
 43692.65567		 305.27265			43387.38302		65.24000		324.00000 
 43692.65567		 889.56308			42803.09259		135.03600		875.00000 
 43692.65567		 305.27265			43387.38302		65.24000		324.00000 
 43692.65567		 889.56308			42803.09259		135.03600		875.00000 
 43692.65567		 305.27265			43387.38302		65.24000		324.00000 
 43692.65567		 889.56308			42803.09259		135.03600		875.00000 
 43692.65567		 305.27265			43387.38302		65.24000		324.00000 
 43692.65567		 889.56308			42803.09259		135.03600		875.00000 
 43692.65567		 305.27265			43387.38302		65.24000		324.00000 
 43692.65567		 889.56308			42803.09259		135.03600		875.00000 
 43692.65567		 305.27265			43387.38302		65.24000		324.00000 
 43692.65567		 889.56308			42803.09259		135.03600		875.00000 
 43692.65567		 305.27265			43387.38302		65.24000		324.00000 
 43692.65567		 889.56308			42803.09259		135.03600		875.00000 
 43692.65567		 305.27265			43387.38302		65.24000		324.00000 
 43692.65567		 889.56308			42803.09259		135.03600		875.00000 
 43692.65567		 305.27265			43387.38302		65.24000		324.00000 
 43692.65567		 889.56308			42803.09259		135.03600		875.00000 
 43692.65567		 305.27265			43387.38302		65.24000		324.00000 
 43692.65567		 889.56308			42803.09259		135.03600		875.00000 
 43692.65567		 305.27265			43387.38302		65.24000		324.00000 
 43692.65567		 889.56308			42803.09259		135.03600		875.00000 
 43692.65567		 305.27265			43387.38302		65.24000		324.00000 
 43692.65567		 889.56308			42803.09259		135.03600		875.00000 
 43692.65567		 305.27265			43387.38302		65.24000		324.00000 
 43692.65567		 889.56308			42803.09259		135.03600		875.00000 
 43692.65567		 305.27265			43387.38302		65.24000		324.00000 
 43692.65567		 889.56308			42803.09259		135.03600		875.00000 
 43692.65567		 305.27265			43387.38302		65.24000		324.00000 
 43692.65567		 889.56308			42803.09259		135.03600		875.00000 
 43692.65567		 305.27265			43387.38302		65.24000		324.00000 
 43692.65567		 889.56308			42803.09259		135.03600		875.00000 
 43692.65567		 305.27265			43387.38302		65.24000		324.00000 
 43692.65567		 889.56308			42803.09259		135.03600		875.00000 
 43692.65567		 305.27265			43387.38302		65.24000		324.00000 
 43692.65567		 889.56308			42803.09259		135.03600		875.00000 
 43692.65567		 305.27265			43387.38302		65.24000		324.00000 
 43692.65567		 889.56308			42803.09259		135.03600		875.00000 
 43692.65567		 305.27265			43387.38302		65.24000		324.00000 
 43692.65567		 889.56308			42803.09259		135.03600		875.00000 
 43692.65567		 305.27265			43387.38302		65.24000		324.00000 
 43692.65567		 889.56308			42803.09259		135.03600		875.00000 
 43692.65567		 305.27265			43387.38302		65.24000		324.00000 
 43692.65567		 889.56308			42803.09259		135.03600		875.00000 
 43692.65567		 305.27265			43387.38302		65.24000		324.00000 
 43692.65567		 889.56308			42803.09259		135.03600		875.00000 
 43692.65567		 305.27265			43387.38302		65.24000		324.00000 
 43692.65567		 889.56308			42803.09259		135.03600		875.00000 
 43692.65567		 305.27265			43387.38302		65.24000		324.00000 
 43692.65567		 889.56308			42803.09259		135.03600		875.00000 
 43692.65567		 305.27265			43387.38302		65.24000		324.00000 
 43692.65567		 889.56308			42803.09259		135.03600		875.00000 
 43692.65567		 305.27265			43387.38302		65.24000		324.00000 
 43692.65567		 889.56308			42803.09259		135.03600		875.00000 
 43692.65567		 305.27265			43387.38302		65.24000		324.00000 
 43692.65567		 889.56308			42803.09259		135.03600		875.00000 
 43692.65567		 305.27265			43387.38302		65.24000		324.00000 
 43692.65567		 889.56308			42803.09259		135.03600		875.00000 
 43692.65567		 305.27265			43387.38302		65.24000		324.00000 
 43692.65567		 889.56308			42803.09259		135.03600		875.00000 
 43692.65567		 305.27265			43387.38302		65.24000		324.00000 
 43692.65567		 889.56308			42803.09259		135.03600		875.00000 
 43692.65567		 305.27265			43387.38302		65.24000		324.00000 
 43692.65567		 889.56308			42803.09259		135.03600		875.00000 
 43692.65567		 305.27265			43387.38302		65.24000		324.00000 
 43692.65567		 889.56308			42803.09259		135.03600		875.00000 
 43692.65567		 305.27265			43387.38302		65.24000		324.00000 
 43692.65567		 889.56308			42803.09259		135.03600		875.00000 
 43692.65567		 305.27265			43387.38302		65.24000		324.00000 
 43692.65567		 889.56308			42803.09259		135.03600		875.00000 
 43692.65567		 305.27265			43387.38302		65.24000		324.00000 
 43692.65567		 889.56308			42803.09259		135.03600		875.00000 
 43692.65567		 305.27265			43387.38302		65.24000		324.00000 
 43692.65567		 889.56308			42803.09259		135.03600		875.00000 
 43692.65567		 305.27265			43387.38302		65.24000		324.00000 
 43692.65567		 889.56308			42803.09259		135.03600		875.00000 
 43692.65567		 305.27265			43387.38302		65.24000		324.00000 
 43692.65567		 889.56308			42803.09259		135.03600		875.00000 
 43692.65567		 305.27265			43387.38302		65.24000		324.00000 
 43692.65567		 889.56308			42803.09259		135.03600		875.00000 
 43692.65567		 305.27265			43387.38302		65.24000		324.00000 
 43692.65567		 889.56308			42803.09259		135.03600		875.00000 
 43692.65567		 305.27265			43387.38302		65.24000		324.00000 
 43692.65567		 889.56308			42803.09259		135.03600		875.00000 
 43692.65567		 305.27265			43387.38302		65.24000		324.00000 
 43692.65567		 889.56308			42803.09259		135.03600		875.00000 
 43692.65567		 305.27265			43387.38302		65.24000		324.00000 
 43692.65567		 889.56308			42803.09259		135.03600		875.00000 
 43692.65567		 305.27265			43387.38302		65.24000		324.00000 
 43692.65567		 889.56308			42803.09259		180.98800		875.00000 
 43692.65567		 305.27265			43387.38302		65.24000		324.00000 
 43692.65567		 889.56308			42803.09259		180.98800		875.00000 
 43692.65567		 305.27265			43387.38302		65.24000		324.00000 
 43692.65567		 889.56308			42803.09259		180.98800		875.00000 
 43692.65567		 305.27265			43387.38302		65.24000		324.00000 
 43692.65567		 889.56308			42803.09259		180.98800		875.00000 
 43692.65567		 305.27265			43387.38302		65.24000		324.00000 
 43692.65567		 889.56308			42803.09259		180.98800		875.00000 
 43692.65567		 305.27265			43387.38302		65.24000		324.00000 
 43692.65567		 889.56308			42803.09259		180.98800		875.00000 
 43692.65567		 305.27265			43387.38302		65.24000		324.00000 
 43692.65567		 889.56308			42803.09259		180.98800		875.00000 
 43692.65567		 305.27265			43387.38302		65.24000		324.00000 
 43692.65567		 889.56308			42803.09259		180.98800		875.00000 
 43692.65567		 305.27265			43387.38302		65.24000		324.00000 
 43692.65567		 889.56308			42803.09259		180.98800		875.00000 
 43692.65567		 305.27265			43387.38302		65.24000		324.00000 
 43692.65567		 889.56308			42803.09259		180.98800		875.00000 
 43692.65567		 305.27265			43387.38302		65.24000		324.00000 
 43692.65567		 889.56308			42803.09259		180.98800		875.00000 
 43692.65567		 305.27265			43387.38302		65.24000		324.00000 
 43692.65567		 889.56308			42803.09259		180.98800		875.00000 
 43692.65567		 305.27265			43387.38302		65.24000		324.00000 
 43692.65567		 889.56308			42803.09259		180.98800		875.00000 
 43692.65567		 305.27265			43387.38302		65.24000		324.00000 
 43692.65567		 889.56308			42803.09259		180.98800		875.00000 
 43692.65567		 305.27265			43387.38302		65.24000		324.00000 
 43692.65567		 889.56308			42803.09259		180.98800		875.00000 
 43692.65567		 305.27265			43387.38302		65.24000		324.00000 
 43692.65567		 889.56308			42803.09259		180.98800		875.00000 
 43692.65567		 305.27265			43387.38302		65.24000		324.00000 
 43692.65567		 889.56308			42803.09259		180.98800		875.00000 
 43692.65567		 305.27265			43387.38302		65.24000		324.00000 
 43692.65567		 889.56308			42803.09259		180.98800		875.00000 
 43692.65567		 305.27265			43387.38302		65.24000		324.00000 
 43692.65567		 889.56308			42803.09259		180.98800		875.00000 
 43692.65567		 305.27265			43387.38302		65.24000		324.00000 
 43692.65567		 889.56308			42803.09259		180.98800		875.00000 
 43692.65567		 305.27265			43387.38302		65.24000		324.00000 
 43692.65567		 889.56308			42803.09259		180.98800		875.00000 
 43692.65567		 305.27265			43387.38302		65.24000		324.00000 
 43692.65567		 889.56308			42803.09259		180.98800		875.00000 
 43692.65567		 305.27265			43387.38302		65.24000		324.00000 
 43692.65567		 889.56308			42803.09259		180.98800		875.00000 
 43692.65567		 305.27265			43387.38302		65.24000		324.00000 
 43692.65567		 889.56308			42803.09259		180.98800		875.00000 
 43692.65567		 305.27265			43387.38302		65.24000		324.00000 
 43692.65567		 889.56308			42803.09259		180.98800		875.00000 
 43692.65567		 305.27265			43387.38302		65.24000		324.00000 
 43692.65567		 889.56308			42803.09259		180.98800		875.00000 
 43692.65567		 305.27265			43387.38302		65.24000		324.00000 
 43692.65567		 889.56308			42803.09259		180.98800		875.00000 
 43692.65567		 305.27265			43387.38302		65.24000		324.00000 
 43692.65567		 889.56308			42803.09259		180.98800		875.00000 
 43692.65567		 305.27265			43387.38302		65.24000		324.00000 
 43692.65567		 889.56308			42803.09259		180.98800		875.00000 
 43692.65567		 305.27265			43387.38302		65.24000		324.00000 
 43692.65567		 889.56308			42803.09259		180.98800		875.00000 
 43692.65567		 305.27265			43387.38302		65.24000		324.00000 
 43692.65567		 889.56308			42803.09259		180.98800		875.00000 
 43692.65567		 305.27265			43387.38302		65.24000		324.00000 
 43692.65567		 889.56308			42803.09259		180.98800		875.00000 
 43692.65567		 305.27265			43387.38302		65.24000		324.00000 
 43692.65567		 889.56308			42803.09259		180.98800		875.00000 
 43692.65567		 305.27265			43387.38302		65.24000		324.00000 
 43692.65567		 889.56308			42803.09259		180.98800		875.00000 
 43692.65567		 305.27265			43387.38302		65.24000		324.00000 
 43692.65567		 889.56308			42803.09259		180.98800		875.00000 
 43692.65567		 305.27265			43387.38302		65.24000		324.00000 
 43692.65567		 889.56308			42803.09259		180.98800		875.00000 
 43692.65567		 305.27265			43387.38302		65.24000		324.00000 
 43692.65567		 889.56308			42803.09259		180.98800		875.00000 
 43692.65567		 305.27265			43387.38302		65.24000		324.00000 
 43692.65567		 889.56308			42803.09259		180.98800		875.00000 
 43692.65567		 305.27265			43387.38302		65.24000		324.00000 
 43692.65567		 889.56308			42803.09259		180.98800		875.00000 
 43692.65567		 305.27265			43387.38302		65.24000		324.00000 
 43692.65567		 889.56308			42803.09259		180.98800		875.00000 
 43692.65567		 305.27265			43387.38302		65.24000		324.00000 
 43692.65567		 889.56308			42803.09259		180.98800		875.00000 
 43692.65567		 305.27265			43387.38302		65.24000		324.00000 
 43692.65567		 889.56308			42803.09259		180.98800		875.00000 
 43692.65567		 305.27265			43387.38302		65.24000		324.00000 
 43692.65567		 889.56308			42803.09259		180.98800		875.00000 
 43692.65567		 305.27265			43387.38302		65.24000		324.00000 
 43692.65567		 889.56308			42803.09259		180.98800		875.00000 
 43692.65567		 305.27265			43387.38302		65.24000		324.00000 
 43692.65567		 889.56308			42803.09259		180.98800		875.00000 
 43692.65567		 305.27265			43387.38302		65.24000		324.00000 
 43692.65567		 889.56308			42803.09259		180.98800		875.00000 
 43692.65567		 305.27265			43387.38302		65.24000		324.00000 
 43692.65567		 889.56308			42803.09259		180.98800		875.00000 
 43692.65567		 305.27265			43387.38302		65.24000		324.00000 
 43692.65567		 889.56308			42803.09259		180.98800		875.00000 
 43692.65567		 305.27265			43387.38302		65.24000		324.00000 
 43692.65567		 889.56308			42803.09259		180.98800		875.00000 
 43692.65567		 305.27265			43387.38302		65.24000		324.00000 
 43692.65567		 889.56308			42803.09259		180.98800		875.00000 
 43692.65567		 305.27265			43387.38302		65.24000		324.00000 
 43692.65567		 889.56308			42803.09259		180.98800		875.00000 
 43692.65567		 305.27265			43387.38302		65.24000		324.00000 
 43692.65567		 889.56308			42803.09259		180.98800		875.00000 
 43692.65567		 305.27265			43387.38302		65.24000		324.00000 
 43692.65567		 889.56308			42803.09259		180.98800		875.00000 
 43692.65567		 305.27265			43387.38302		65.24000		324.00000 
 43692.65567		 889.56308			42803.09259		180.98800		875.00000 
 43692.65567		 305.27265			43387.38302		65.24000		324.00000 
 43692.65567		 889.56308			42803.09259		180.98800		875.00000 
 43692.65567		 305.27265			43387.38302		65.24000		324.00000 
 43692.65567		 889.56308			42803.09259		180.98800		875.00000 
 43692.65567		 305.27265			43387.38302		65.24000		324.00000 
 43692.65567		 889.56308			42803.09259		180.98800		875.00000 
 43692.65567		 305.27265			43387.38302		65.24000		324.00000 
 43692.65567		 889.56308			42803.09259		180.98800		875.00000 
 43692.65567		 305.27265			43387.38302		65.24000		324.00000 
 43692.65567		 889.56308			42803.09259		180.98800		875.00000 
 43692.65567		 305.27265			43387.38302		65.24000		324.00000 
 43692.65567		 889.56308			42803.09259		180.98800		875.00000 
 43692.65567		 305.27265			43387.38302		65.24000		324.00000 
 43692.65567		 889.56308			42803.09259		180.98800		875.00000 
 43692.65567		 305.27265			43387.38302		65.24000		324.00000 
 43692.65567		 889.56308			42803.09259		180.98800		875.00000 
 43692.65567		 305.27265			43387.38302		65.24000		324.00000 
 43692.65567		 889.56308			42803.09259		180.98800		875.00000 
 43692.65567		 305.27265			43387.38302		65.24000		324.00000 
 43692.65567		 889.56308			42803.09259		180.98800		875.00000 
 43692.65567		 305.27265			43387.38302		65.24000		324.00000 
 43692.65567		 889.56308			42803.09259		180.98800		875.00000 
 43692.65567		 305.27265			43387.38302		65.24000		324.00000 
 43692.65567		 889.56308			42803.09259		210.91000		875.00000 
 43692.65567		 305.27265			43387.38302		65.24000		324.00000 
 43692.65567		 889.56308			42803.09259		210.91000		875.00000 
 43692.65567		 305.27265			43387.38302		65.24000		324.00000 
 43692.65567		 889.56308			42803.09259		210.91000		875.00000 
 43692.65567		 305.27265			43387.38302		65.24000		324.00000 
 43692.65567		 889.56308			42803.09259		210.91000		875.00000 
 43692.65567		 305.27265			43387.38302		65.24000		324.00000 
 43692.65567		 889.56308			42803.09259		210.91000		875.00000 
 43692.65567		 305.27265			43387.38302		65.24000		324.00000 
 43692.65567		 889.56308			42803.09259		210.91000		875.00000 
 43692.65567		 305.27265			43387.38302		65.24000		324.00000 
 43692.65567		 889.56308			42803.09259		210.91000		875.00000 
 43692.65567		 305.27265			43387.38302		65.24000		324.00000 
 43692.65567		 889.56308			42803.09259		210.91000		875.00000 
 43692.65567		 305.27265			43387.38302		65.24000		324.00000 
 43692.65567		 889.56308			42803.09259		210.91000		875.00000 
 43692.65567		 305.27265			43387.38302		65.24000		324.00000 
 43692.65567		 889.56308			42803.09259		210.91000		875.00000 
 43692.65567		 305.27265			43387.38302		65.24000		324.00000 
 43692.65567		 889.56308			42803.09259		210.91000		875.00000 
 43692.65567		 305.27265			43387.38302		65.24000		324.00000 
 43692.65567		 889.56308			42803.09259		210.91000		875.00000 
 43692.65567		 305.27265			43387.38302		65.24000		324.00000 
 43692.65567		 889.56308			42803.09259		210.91000		875.00000 
 43692.65567		 305.27265			43387.38302		65.24000		324.00000 
 43692.65567		 889.56308			42803.09259		210.91000		875.00000 
 43692.65567		 305.27265			43387.38302		65.24000		324.00000 
 43692.65567		 889.56308			42803.09259		210.91000		875.00000 
 43692.65567		 305.27265			43387.38302		65.24000		324.00000 
 43692.65567		 889.56308			42803.09259		210.91000		875.00000 
 43692.65567		 305.27265			43387.38302		65.24000		324.00000 
 43692.65567		 889.56308			42803.09259		210.91000		875.00000 
 43692.65567		 305.27265			43387.38302		65.24000		324.00000 
 43692.65567		 889.56308			42803.09259		210.91000		875.00000 
 43692.65567		 305.27265			43387.38302		65.24000		324.00000 
 43692.65567		 889.56308			42803.09259		210.91000		875.00000 
 43692.65567		 305.27265			43387.38302		65.24000		324.00000 
 43692.65567		 889.56308			42803.09259		210.91000		875.00000 
 43692.65567		 305.27265			43387.38302		65.24000		324.00000 
 43692.65567		 889.56308			42803.09259		210.91000		875.00000 
 43692.65567		 305.27265			43387.38302		65.24000		324.00000 
 43692.65567		 889.56308			42803.09259		210.91000		875.00000 
 43692.65567		 305.27265			43387.38302		65.24000		324.00000 
 43692.65567		 889.56308			42803.09259		210.91000		875.00000 
 43692.65567		 305.27265			43387.38302		65.24000		324.00000 
 43692.65567		 889.56308			42803.09259		210.91000		875.00000 
 43692.65567		 305.27265			43387.38302		65.24000		324.00000 
 43692.65567		 889.56308			42803.09259		210.91000		875.00000 
 43692.65567		 305.27265			43387.38302		65.24000		324.00000 
 43692.65567		 889.56308			42803.09259		210.91000		875.00000 
 43692.65567		 305.27265			43387.38302		65.24000		324.00000 
 43692.65567		 889.56308			42803.09259		210.91000		875.00000 
 43692.65567		 305.27265			43387.38302		65.24000		324.00000 
 43692.65567		 889.56308			42803.09259		210.91000		875.00000 
 43692.65567		 305.27265			43387.38302		65.24000		324.00000 
 43692.65567		 889.56308			42803.09259		210.91000		875.00000 
 43692.65567		 305.27265			43387.38302		65.24000		324.00000 
 43692.65567		 889.56308			42803.09259		210.91000		875.00000 
 43692.65567		 305.27265			43387.38302		65.24000		324.00000 
 43692.65567		 889.56308			42803.09259		210.91000		875.00000 
 43692.65567		 305.27265			43387.38302		65.24000		324.00000 
 43692.65567		 889.56308			42803.09259		210.91000		875.00000 
 43692.65567		 305.27265			43387.38302		65.24000		324.00000 
 43692.65567		 889.56308			42803.09259		210.91000		875.00000 
 43692.65567		 305.27265			43387.38302		65.24000		324.00000 
 43692.65567		 889.56308			42803.09259		210.91000		875.00000 
 43692.65567		 305.27265			43387.38302		65.24000		324.00000 
 43692.65567		 889.56308			42803.09259		210.91000		875.00000 
 43692.65567		 305.27265			43387.38302		65.24000		324.00000 
 43692.65567		 889.56308			42803.09259		210.91000		875.00000 
 43692.65567		 305.27265			43387.38302		65.24000		324.00000 
 43692.65567		 889.56308			42803.09259		210.91000		875.00000 
 43692.65567		 305.27265			43387.38302		65.24000		324.00000 
 43692.65567		 889.56308			42803.09259		210.91000		875.00000 
 43692.65567		 305.27265			43387.38302		65.24000		324.00000 
 43692.65567		 889.56308			42803.09259		210.91000		875.00000 
 43692.65567		 305.27265			43387.38302		65.24000		324.00000 
 43692.65567		 889.56308			42803.09259		210.91000		875.00000 
 43692.65567		 305.27265			43387.38302		65.24000		324.00000 
 43692.65567		 889.56308			42803.09259		210.91000		875.00000 
 43692.65567		 305.27265			43387.38302		65.24000		324.00000 
 43692.65567		 889.56308			42803.09259		210.91000		875.00000 
 43692.65567		 305.27265			43387.38302		65.24000		324.00000 
 43692.65567		 889.56308			42803.09259		210.91000		875.00000 
 43692.65567		 305.27265			43387.38302		65.24000		324.00000 
 43692.65567		 889.56308			42803.09259		210.91000		875.00000 
 43692.65567		 305.27265			43387.38302		65.24000		324.00000 
 43692.65567		 889.56308			42803.09259		210.91000		875.00000 
 43692.65567		 305.27265			43387.38302		65.24000		324.00000 
 43692.65567		 889.56308			42803.09259		210.91000		875.00000 
 43692.65567		 305.27265			43387.38302		65.24000		324.00000 
 43692.65567		 889.56308			42803.09259		210.91000		875.00000 
 43692.65567		 305.27265			43387.38302		65.24000		324.00000 
 43692.65567		 889.56308			42803.09259		210.91000		875.00000 
 43692.65567		 305.27265			43387.38302		65.24000		324.00000 
 43692.65567		 889.56308			42803.09259		210.91000		875.00000 
 43692.65567		 305.27265			43387.38302		65.24000		324.00000 
 43692.65567		 889.56308			42803.09259		210.91000		875.00000 
 43692.65567		 305.27265			43387.38302		65.24000		324.00000 
 43692.65567		 889.56308			42803.09259		210.91000		875.00000 
 43692.65567		 305.27265			43387.38302		65.24000		324.00000 
 43692.65567		 889.56308			42803.09259		210.91000		875.00000 
 43692.65567		 305.27265			43387.38302		65.24000		324.00000 
 43692.65567		 889.56308			42803.09259		210.91000		875.00000 
 43692.65567		 305.27265			43387.38302		65.24000		324.00000 
 43692.65567		 889.56308			42803.09259		210.91000		875.00000 
 43692.65567		 305.27265			43387.38302		65.24000		324.00000 
 43692.65567		 889.56308			42803.09259		210.91000		875.00000 
 43692.65567		 305.27265			43387.38302		65.24000		324.00000 
 43692.65567		 889.56308			42803.09259		210.91000		875.00000 
 43692.65567		 305.27265			43387.38302		65.24000		324.00000 
 43692.65567		 889.56308			42803.09259		210.91000		875.00000 
 43692.65567		 305.27265			43387.38302		65.24000		324.00000 
 43692.65567		 889.56308			42803.09259		210.91000		875.00000 
 43692.65567		 305.27265			43387.38302		65.24000		324.00000 
 43692.65567		 889.56308			42803.09259		210.91000		875.00000 
 43692.65567		 305.27265			43387.38302		65.24000		324.00000 
 43692.65567		 889.56308			42803.09259		210.91000		875.00000 
 43692.65567		 305.27265			43387.38302		65.24000		324.00000 
 43692.65567		 889.56308			42803.09259		210.91000		875.00000 
 43692.65567		 305.27265			43387.38302		65.24000		324.00000 
 43692.65567		 889.56308			42803.09259		210.91000		875.00000 
 43692.65567		 305.27265			43387.38302		65.24000		324.00000 
 43692.65567		 889.56308			42803.09259		210.91000		875.00000 
 43692.65567		 305.27265			43387.38302		65.24000		324.00000 
 43692.65567		 889.56308			42803.09259		210.91000		875.00000 
 43692.65567		 305.27265			43387.38302		65.24000		324.00000 
 43692.65567		 889.56308			42803.09259		210.91000		875.00000 
 43692.65567		 305.27265			43387.38302		65.24000		324.00000 
 43692.65567		 889.56308			42803.09259		221.43400		875.00000 
 43692.65567		 305.27265			43387.38302		65.24000		324.00000 
 43692.65567		 889.56308			42803.09259		221.43400		875.00000 
 43692.65567		 305.27265			43387.38302		65.24000		324.00000 
 43692.65567		 889.56308			42803.09259		221.43400		875.00000 
 43692.65567		 305.27265			43387.38302		65.24000		324.00000 
 43692.65567		 889.56308			42803.09259		221.43400		875.00000 
 43692.65567		 305.27265			43387.38302		65.24000		324.00000 
 43692.65567		 889.56308			42803.09259		221.43400		875.00000 
 43692.65567		 305.27265			43387.38302		65.24000		324.00000 
 43692.65567		 889.56308			42803.09259		221.43400		875.00000 
 43692.65567		 305.27265			43387.38302		65.24000		324.00000 
 43692.65567		 889.56308			42803.09259		221.43400		875.00000 
 43692.65567		 305.27265			43387.38302		65.24000		324.00000 
 43692.65567		 889.56308			42803.09259		221.43400		875.00000 
 43692.65567		 305.27265			43387.38302		65.24000		324.00000 
 43692.65567		 889.56308			42803.09259		221.43400		875.00000 
 43692.65567		 305.27265			43387.38302		65.24000		324.00000 
 43692.65567		 889.56308			42803.09259		221.43400		875.00000 
 43692.65567		 305.27265			43387.38302		65.24000		324.00000 
 43692.65567		 889.56308			42803.09259		221.43400		875.00000 
 43692.65567		 305.27265			43387.38302		65.24000		324.00000 
 43692.65567		 889.56308			42803.09259		221.43400		875.00000 
 43692.65567		 305.27265			43387.38302		65.24000		324.00000 
 43692.65567		 889.56308			42803.09259		221.43400		875.00000 
 43692.65567		 305.27265			43387.38302		65.24000		324.00000 
 43692.65567		 889.56308			42803.09259		221.43400		875.00000 
 43692.65567		 305.27265			43387.38302		65.24000		324.00000 
 43692.65567		 889.56308			42803.09259		221.43400		875.00000 
 43692.65567		 305.27265			43387.38302		65.24000		324.00000 
 43692.65567		 889.56308			42803.09259		221.43400		875.00000 
 43692.65567		 305.27265			43387.38302		65.24000		324.00000 
 43692.65567		 889.56308			42803.09259		221.43400		875.00000 
 43692.65567		 305.27265			43387.38302		65.24000		324.00000 
 43692.65567		 889.56308			42803.09259		221.43400		875.00000 
 43692.65567		 305.27265			43387.38302		65.24000		324.00000 
 43692.65567		 889.56308			42803.09259		221.43400		875.00000 
 43692.65567		 305.27265			43387.38302		65.24000		324.00000 
 43692.65567		 889.56308			42803.09259		221.43400		875.00000 
 43692.65567		 305.27265			43387.38302		65.24000		324.00000 
 43692.65567		 889.56308			42803.09259		221.43400		875.00000 
 43692.65567		 305.27265			43387.38302		65.24000		324.00000 
 43692.65567		 889.56308			42803.09259		221.43400		875.00000 
 43692.65567		 305.27265			43387.38302		65.24000		324.00000 
 43692.65567		 889.56308			42803.09259		221.43400		875.00000 
 43692.65567		 305.27265			43387.38302		65.24000		324.00000 
 43692.65567		 889.56308			42803.09259		221.43400		875.00000 
 43692.65567		 305.27265			43387.38302		65.24000		324.00000 
 43692.65567		 889.56308			42803.09259		221.43400		875.00000 
 43692.65567		 305.27265			43387.38302		65.24000		324.00000 
 43692.65567		 889.56308			42803.09259		221.43400		875.00000 
 43692.65567		 305.27265			43387.38302		65.24000		324.00000 
 43692.65567		 889.56308			42803.09259		221.43400		875.00000 
 43692.65567		 305.27265			43387.38302		65.24000		324.00000 
 43692.65567		 889.56308			42803.09259		221.43400		875.00000 
 43692.65567		 305.27265			43387.38302		65.24000		324.00000 
 43692.65567		 889.56308			42803.09259		221.43400		875.00000 
 43692.65567		 305.27265			43387.38302		65.24000		324.00000 
 43692.65567		 889.56308			42803.09259		221.43400		875.00000 
 43692.65567		 305.27265			43387.38302		65.24000		324.00000 
 43692.65567		 889.56308			42803.09259		221.43400		875.00000 
 43692.65567		 305.27265			43387.38302		65.24000		324.00000 
 43692.65567		 889.56308			42803.09259		221.43400		875.00000 
 43692.65567		 305.27265			43387.38302		65.24000		324.00000 
 43692.65567		 889.56308			42803.09259		221.43400		875.00000 
 43692.65567		 305.27265			43387.38302		65.24000		324.00000 
 43692.65567		 889.56308			42803.09259		221.43400		875.00000 
 43692.65567		 305.27265			43387.38302		65.24000		324.00000 
 43692.65567		 889.56308			42803.09259		221.43400		875.00000 
 43692.65567		 305.27265			43387.38302		65.24000		324.00000 
 43692.65567		 889.56308			42803.09259		221.43400		875.00000 
 43692.65567		 305.27265			43387.38302		65.24000		324.00000 
 43692.65567		 889.56308			42803.09259		221.43400		875.00000 
 43692.65567		 305.27265			43387.38302		65.24000		324.00000 
 43692.65567		 889.56308			42803.09259		221.43400		875.00000 
 43692.65567		 305.27265			43387.38302		65.24000		324.00000 
 43692.65567		 889.56308			42803.09259		221.43400		875.00000 
 43692.65567		 305.27265			43387.38302		65.24000		324.00000 
 43692.65567		 889.56308			42803.09259		221.43400		875.00000 
 43692.65567		 305.27265			43387.38302		65.24000		324.00000 
 43692.65567		 889.56308			42803.09259		221.43400		875.00000 
 43692.65567		 305.27265			43387.38302		65.24000		324.00000 
 43692.65567		 889.56308			42803.09259		221.43400		875.00000 
 43692.65567		 305.27265			43387.38302		65.24000		324.00000 
 43692.65567		 889.56308			42803.09259		221.43400		875.00000 
 43692.65567		 305.27265			43387.38302		65.24000		324.00000 
 43692.65567		 889.56308			42803.09259		221.43400		875.00000 
 43692.65567		 305.27265			43387.38302		65.24000		324.00000 
 43692.65567		 889.56308			42803.09259		221.43400		875.00000 
 43692.65567		 305.27265			43387.38302		65.24000		324.00000 
 43692.65567		 889.56308			42803.09259		221.43400		875.00000 
 43692.65567		 305.27265			43387.38302		65.24000		324.00000 
 43692.65567		 889.56308			42803.09259		221.43400		875.00000 
 43692.65567		 305.27265			43387.38302		65.24000		324.00000 
 43692.65567		 889.56308			42803.09259		221.43400		875.00000 
 43692.65567		 305.27265			43387.38302		65.24000		324.00000 
 43692.65567		 889.56308			42803.09259		221.43400		875.00000 
 43692.65567		 305.27265			43387.38302		65.24000		324.00000 
 43692.65567		 889.56308			42803.09259		221.43400		875.00000 
 43692.65567		 305.27265			43387.38302		65.24000		324.00000 
 43692.65567		 889.56308			42803.09259		221.43400		875.00000 
 43692.65567		 305.27265			43387.38302		65.24000		324.00000 
 43692.65567		 889.56308			42803.09259		221.43400		875.00000 
 43692.65567		 305.27265			43387.38302		65.24000		324.00000 
 43692.65567		 889.56308			42803.09259		221.43400		875.00000 
 43692.65567		 305.27265			43387.38302		65.24000		324.00000 
 43692.65567		 889.56308			42803.09259		221.43400		875.00000 
 43692.65567		 305.27265			43387.38302		65.24000		324.00000 
 43692.65567		 889.56308			42803.09259		221.43400		875.00000 
 43692.65567		 305.27265			43387.38302		65.24000		324.00000 
 43692.65567		 889.56308			42803.09259		221.43400		875.00000 
 43692.65567		 305.27265			43387.38302		65.24000		324.00000 
 43692.65567		 889.56308			42803.09259		221.43400		875.00000 
 43692.65567		 305.27265			43387.38302		65.24000		324.00000 
 43692.65567		 889.56308			42803.09259		221.43400		875.00000 
 43692.65567		 305.27265			43387.38302		65.24000		324.00000 
 43692.65567		 889.56308			42803.09259		221.43400		875.00000 
 43692.65567		 305.27265			43387.38302		65.24000		324.00000 
 43692.65567		 889.56308			42803.09259		221.43400		875.00000 
 43692.65567		 305.27265			43387.38302		65.24000		324.00000 
 43692.65567		 889.56308			42803.09259		221.43400		875.00000 
 43692.65567		 305.27265			43387.38302		65.24000		324.00000 
 43692.65567		 889.56308			42803.09259		221.43400		875.00000 
 43692.65567		 305.27265			43387.38302		65.24000		324.00000 
 43692.65567		 889.56308			42803.09259		221.43400		875.00000 
 43692.65567		 305.27265			43387.38302		65.24000		324.00000 
 43692.65567		 889.56308			42803.09259		221.43400		875.00000 
 43692.65567		 305.27265			43387.38302		65.24000		324.00000 
 43692.65567		 889.56308			42803.09259		225.51000		875.00000 
 43692.65567		 305.27265			43387.38302		65.24000		324.00000 
 43692.65567		 889.56308			42803.09259		225.51000		875.00000 
 43692.65567		 305.27265			43387.38302		65.24000		324.00000 
 43692.65567		 889.56308			42803.09259		225.51000		875.00000 
 43692.65567		 305.27265			43387.38302		65.24000		324.00000 
 43692.65567		 889.56308			42803.09259		225.51000		875.00000 
 43692.65567		 305.27265			43387.38302		65.24000		324.00000 
 43692.65567		 889.56308			42803.09259		225.51000		875.00000 
 43692.65567		 305.27265			43387.38302		65.24000		324.00000 
 43692.65567		 889.56308			42803.09259		225.51000		875.00000 
 43692.65567		 305.27265			43387.38302		65.24000		324.00000 
 43692.65567		 889.56308			42803.09259		225.51000		875.00000 
 43692.65567		 305.27265			43387.38302		65.24000		324.00000 
 43692.65567		 889.56308			42803.09259		225.51000		875.00000 
 43692.65567		 305.27265			43387.38302		65.24000		324.00000 
 43692.65567		 889.56308			42803.09259		225.51000		875.00000 
 43692.65567		 305.27265			43387.38302		65.24000		324.00000 
 43692.65567		 889.56308			42803.09259		225.51000		875.00000 
 43692.65567		 305.27265			43387.38302		65.24000		324.00000 
 43692.65567		 889.56308			42803.09259		225.51000		875.00000 
 43692.65567		 305.27265			43387.38302		65.24000		324.00000 
 43692.65567		 889.56308			42803.09259		225.51000		875.00000 
 43692.65567		 305.27265			43387.38302		65.24000		324.00000 
 43692.65567		 889.56308			42803.09259		225.51000		875.00000 
 43692.65567		 305.27265			43387.38302		65.24000		324.00000 
 43692.65567		 889.56308			42803.09259		225.51000		875.00000 
 43692.65567		 305.27265			43387.38302		65.24000		324.00000 
 43692.65567		 889.56308			42803.09259		225.51000		875.00000 
 43692.65567		 305.27265			43387.38302		65.24000		324.00000 
 43692.65567		 889.56308			42803.09259		225.51000		875.00000 
 43692.65567		 305.27265			43387.38302		65.24000		324.00000 
 43692.65567		 889.56308			42803.09259		225.51000		875.00000 
 43692.65567		 305.27265			43387.38302		65.24000		324.00000 
 43692.65567		 889.56308			42803.09259		225.51000		875.00000 
 43692.65567		 305.27265			43387.38302		65.24000		324.00000 
 43692.65567		 889.56308			42803.09259		225.51000		875.00000 
 43692.65567		 305.27265			43387.38302		65.24000		324.00000 
 43692.65567		 889.56308			42803.09259		225.51000		875.00000 
 43692.65567		 305.27265			43387.38302		65.24000		324.00000 
 43692.65567		 889.56308			42803.09259		225.51000		875.00000 
 43692.65567		 305.27265			43387.38302		65.24000		324.00000 
 43692.65567		 889.56308			42803.09259		225.51000		875.00000 
 43692.65567		 305.27265			43387.38302		65.24000		324.00000 
 43692.65567		 889.56308			42803.09259		225.51000		875.00000 
 43692.65567		 305.27265			43387.38302		65.24000		324.00000 
 43692.65567		 889.56308			42803.09259		225.51000		875.00000 
 43692.65567		 305.27265			43387.38302		65.24000		324.00000 
 43692.65567		 889.56308			42803.09259		225.51000		875.00000 
 43692.65567		 305.27265			43387.38302		65.24000		324.00000 
 43692.65567		 889.56308			42803.09259		225.51000		875.00000 
 43692.65567		 305.27265			43387.38302		65.24000		324.00000 
 43692.65567		 889.56308			42803.09259		225.51000		875.00000 
 43692.65567		 305.27265			43387.38302		65.24000		324.00000 
 43692.65567		 889.56308			42803.09259		225.51000		875.00000 
 43692.65567		 305.27265			43387.38302		65.24000		324.00000 
 43692.65567		 889.56308			42803.09259		225.51000		875.00000 
 43692.65567		 305.27265			43387.38302		65.24000		324.00000 
 43692.65567		 889.56308			42803.09259		225.51000		875.00000 
 43692.65567		 305.27265			43387.38302		65.24000		324.00000 
 43692.65567		 889.56308			42803.09259		225.51000		875.00000 
 43692.65567		 305.27265			43387.38302		65.24000		324.00000 
 43692.65567		 889.56308			42803.09259		225.51000		875.00000 
 43692.65567		 305.27265			43387.38302		65.24000		324.00000 
 43692.65567		 889.56308			42803.09259		225.51000		875.00000 
 43692.65567		 305.27265			43387.38302		65.24000		324.00000 
 43692.65567		 889.56308			42803.09259		225.51000		875.00000 
 43692.65567		 305.27265			43387.38302		65.24000		324.00000 
 43692.65567		 889.56308			42803.09259		225.51000		875.00000 
 43692.65567		 305.27265			43387.38302		65.24000		324.00000 
 43692.65567		 889.56308			42803.09259		225.51000		875.00000 
 43692.65567		 305.27265			43387.38302		65.24000		324.00000 
 43692.65567		 889.56308			42803.09259		225.51000		875.00000 
 43692.65567		 305.27265			43387.38302		65.24000		324.00000 
 43692.65567		 889.56308			42803.09259		225.51000		875.00000 
 43692.65567		 305.27265			43387.38302		65.24000		324.00000 
 43692.65567		 889.56308			42803.09259		225.51000		875.00000 
 43692.65567		 305.27265			43387.38302		65.24000		324.00000 
 43692.65567		 889.56308			42803.09259		225.51000		875.00000 
 43692.65567		 305.27265			43387.38302		65.24000		324.00000 
 43692.65567		 889.56308			42803.09259		225.51000		875.00000 
 43692.65567		 305.27265			43387.38302		65.24000		324.00000 
 43692.65567		 889.56308			42803.09259		225.51000		875.00000 
 43692.65567		 305.27265			43387.38302		65.24000		324.00000 
 43692.65567		 889.56308			42803.09259		225.51000		875.00000 
 43692.65567		 305.27265			43387.38302		65.24000		324.00000 
 43692.65567		 889.56308			42803.09259		225.51000		875.00000 
 43692.65567		 305.27265			43387.38302		65.24000		324.00000 
 43692.65567		 889.56308			42803.09259		225.51000		875.00000 
 43692.65567		 305.27265			43387.38302		65.24000		324.00000 
 43692.65567		 889.56308			42803.09259		225.51000		875.00000 
 43692.65567		 305.27265			43387.38302		65.24000		324.00000 
 43692.65567		 889.56308			42803.09259		225.51000		875.00000 
 43692.65567		 305.27265			43387.38302		65.24000		324.00000 
 43692.65567		 889.56308			42803.09259		225.51000		875.00000 
 43692.65567		 305.27265			43387.38302		65.24000		324.00000 
 43692.65567		 889.56308			42803.09259		225.51000		875.00000 
 43692.65567		 305.27265			43387.38302		65.24000		324.00000 
 43692.65567		 889.56308			42803.09259		225.51000		875.00000 
 43692.65567		 305.27265			43387.38302		65.24000		324.00000 
 43692.65567		 889.56308			42803.09259		225.51000		875.00000 
 43692.65567		 305.27265			43387.38302		65.24000		324.00000 
 43692.65567		 889.56308			42803.09259		225.51000		875.00000 
 43692.65567		 305.27265			43387.38302		65.24000		324.00000 
 43692.65567		 889.56308			42803.09259		225.51000		875.00000 
 43692.65567		 305.27265			43387.38302		65.24000		324.00000 
 43692.65567		 889.56308			42803.09259		225.51000		875.00000 
 43692.65567		 305.27265			43387.38302		65.24000		324.00000 
 43692.65567		 889.56308			42803.09259		225.51000		875.00000 
 43692.65567		 305.27265			43387.38302		65.24000		324.00000 
 43692.65567		 889.56308			42803.09259		225.51000		875.00000 
 43692.65567		 305.27265			43387.38302		65.24000		324.00000 
 43692.65567		 889.56308			42803.09259		225.51000		875.00000 
 43692.65567		 305.27265			43387.38302		65.24000		324.00000 
 43692.65567		 889.56308			42803.09259		225.51000		875.00000 
 43692.65567		 305.27265			43387.38302		65.24000		324.00000 
 43692.65567		 889.56308			42803.09259		225.51000		875.00000 
 43692.65567		 305.27265			43387.38302		65.24000		324.00000 
 43692.65567		 889.56308			42803.09259		225.51000		875.00000 
 43692.65567		 305.27265			43387.38302		65.24000		324.00000 
 43692.65567		 889.56308			42803.09259		225.51000		875.00000 
 43692.65567		 305.27265			43387.38302		65.24000		324.00000 
 43692.65567		 889.56308			42803.09259		225.51000		875.00000 
 43692.65567		 305.27265			43387.38302		65.24000		324.00000 
 43692.65567		 889.56308			42803.09259		225.51000		875.00000 
 43692.65567		 305.27265			43387.38302		65.24000		324.00000 
 43692.65567		 889.56308			42803.09259		225.51000		875.00000 
 43692.65567		 305.27265			43387.38302		65.24000		324.00000 
 43692.65567		 889.56308			42803.09259		225.51000		875.00000 
 43692.65567		 305.27265			43387.38302		65.24000		324.00000 
 43692.65567		 889.56308			42803.09259		226.31800		875.00000 
 43692.65567		 305.27265			43387.38302		65.24000		324.00000 
 43692.65567		 889.56308			42803.09259		226.31800		875.00000 
 43692.65567		 305.27265			43387.38302		65.24000		324.00000 
 43692.65567		 889.56308			42803.09259		226.31800		875.00000 
 43692.65567		 305.27265			43387.38302		65.24000		324.00000 
 43692.65567		 889.56308			42803.09259		226.31800		875.00000 
 43692.65567		 305.27265			43387.38302		65.24000		324.00000 
 43692.65567		 889.56308			42803.09259		226.31800		875.00000 
 43692.65567		 305.27265			43387.38302		65.24000		324.00000 
 43692.65567		 889.56308			42803.09259		226.31800		875.00000 
 43692.65567		 305.27265			43387.38302		65.24000		324.00000 
 43692.65567		 889.56308			42803.09259		226.31800		875.00000 
 43692.65567		 305.27265			43387.38302		65.24000		324.00000 
 43692.65567		 889.56308			42803.09259		226.31800		875.00000 
 43692.65567		 305.27265			43387.38302		65.24000		324.00000 
 43692.65567		 889.56308			42803.09259		226.31800		875.00000 
 43692.65567		 305.27265			43387.38302		65.24000		324.00000 
 43692.65567		 889.56308			42803.09259		226.31800		875.00000 
 43692.65567		 305.27265			43387.38302		65.24000		324.00000 
 43692.65567		 889.56308			42803.09259		226.31800		875.00000 
 43692.65567		 305.27265			43387.38302		65.24000		324.00000 
 43692.65567		 889.56308			42803.09259		226.31800		875.00000 
 43692.65567		 305.27265			43387.38302		65.24000		324.00000 
 43692.65567		 889.56308			42803.09259		226.31800		875.00000 
 43692.65567		 305.27265			43387.38302		65.24000		324.00000 
 43692.65567		 889.56308			42803.09259		226.31800		875.00000 
 43692.65567		 305.27265			43387.38302		65.24000		324.00000 
 43692.65567		 889.56308			42803.09259		226.31800		875.00000 
 43692.65567		 305.27265			43387.38302		65.24000		324.00000 
 43692.65567		 889.56308			42803.09259		226.31800		875.00000 
 43692.65567		 305.27265			43387.38302		65.24000		324.00000 
 43692.65567		 889.56308			42803.09259		226.31800		875.00000 
 43692.65567		 305.27265			43387.38302		65.24000		324.00000 
 43692.65567		 889.56308			42803.09259		226.31800		875.00000 
 43692.65567		 305.27265			43387.38302		65.24000		324.00000 
 43692.65567		 889.56308			42803.09259		226.31800		875.00000 
 43692.65567		 305.27265			43387.38302		65.24000		324.00000 
 43692.65567		 889.56308			42803.09259		226.31800		875.00000 
 43692.65567		 305.27265			43387.38302		65.24000		324.00000 
 43692.65567		 889.56308			42803.09259		226.31800		875.00000 
 43692.65567		 305.27265			43387.38302		65.24000		324.00000 
 43692.65567		 889.56308			42803.09259		226.31800		875.00000 
 43692.65567		 305.27265			43387.38302		65.24000		324.00000 
 43692.65567		 889.56308			42803.09259		226.31800		875.00000 
 43692.65567		 305.27265			43387.38302		65.24000		324.00000 
 43692.65567		 889.56308			42803.09259		226.31800		875.00000 
 43692.65567		 305.27265			43387.38302		65.24000		324.00000 
 43692.65567		 889.56308			42803.09259		226.31800		875.00000 
 43692.65567		 305.27265			43387.38302		65.24000		324.00000 
 43692.65567		 889.56308			42803.09259		226.31800		875.00000 
 43692.65567		 305.27265			43387.38302		65.24000		324.00000 
 43692.65567		 889.56308			42803.09259		226.31800		875.00000 
 43692.65567		 305.27265			43387.38302		65.24000		324.00000 
 43692.65567		 889.56308			42803.09259		226.31800		875.00000 
 43692.65567		 305.27265			43387.38302		65.24000		324.00000 
 43692.65567		 889.56308			42803.09259		226.31800		875.00000 
 43692.65567		 305.27265			43387.38302		65.24000		324.00000 
 43692.65567		 889.56308			42803.09259		226.31800		875.00000 
 43692.65567		 305.27265			43387.38302		65.24000		324.00000 
 43692.65567		 889.56308			42803.09259		226.31800		875.00000 
 43692.65567		 305.27265			43387.38302		65.24000		324.00000 
 43692.65567		 889.56308			42803.09259		226.31800		875.00000 
 43692.65567		 305.27265			43387.38302		65.24000		324.00000 
 43692.65567		 889.56308			42803.09259		226.31800		875.00000 
 43692.65567		 305.27265			43387.38302		65.24000		324.00000 
 43692.65567		 889.56308			42803.09259		226.31800		875.00000 
 43692.65567		 305.27265			43387.38302		65.24000		324.00000 
 43692.65567		 889.56308			42803.09259		226.31800		875.00000 
 43692.65567		 305.27265			43387.38302		65.24000		324.00000 
 43692.65567		 889.56308			42803.09259		226.31800		875.00000 
 43692.65567		 305.27265			43387.38302		65.24000		324.00000 
 43692.65567		 889.56308			42803.09259		226.31800		875.00000 
 43692.65567		 305.27265			43387.38302		65.24000		324.00000 
 43692.65567		 889.56308			42803.09259		226.31800		875.00000 
 43692.65567		 305.27265			43387.38302		65.24000		324.00000 
 43692.65567		 889.56308			42803.09259		226.31800		875.00000 
 43692.65567		 305.27265			43387.38302		65.24000		324.00000 
 43692.65567		 889.56308			42803.09259		226.31800		875.00000 
 43692.65567		 305.27265			43387.38302		65.24000		324.00000 
 43692.65567		 889.56308			42803.09259		226.31800		875.00000 
 43692.65567		 305.27265			43387.38302		65.24000		324.00000 
 43692.65567		 889.56308			42803.09259		226.31800		875.00000 
 43692.65567		 305.27265			43387.38302		65.24000		324.00000 
 43692.65567		 889.56308			42803.09259		226.31800		875.00000 
 43692.65567		 305.27265			43387.38302		65.24000		324.00000 
 43692.65567		 889.56308			42803.09259		226.31800		875.00000 
 43692.65567		 305.27265			43387.38302		65.24000		324.00000 
 43692.65567		 889.56308			42803.09259		226.31800		875.00000 
 43692.65567		 305.27265			43387.38302		65.24000		324.00000 
 43692.65567		 889.56308			42803.09259		226.31800		875.00000 
 43692.65567		 305.27265			43387.38302		65.24000		324.00000 
 43692.65567		 889.56308			42803.09259		226.31800		875.00000 
 43692.65567		 305.27265			43387.38302		65.24000		324.00000 
 43692.65567		 889.56308			42803.09259		226.31800		875.00000 
 43692.65567		 305.27265			43387.38302		65.24000		324.00000 
 43692.65567		 889.56308			42803.09259		226.31800		875.00000 
 43692.65567		 305.27265			43387.38302		65.24000		324.00000 
 43692.65567		 889.56308			42803.09259		226.31800		875.00000 
 43692.65567		 305.27265			43387.38302		65.24000		324.00000 
 43692.65567		 889.56308			42803.09259		226.31800		875.00000 
 43692.65567		 305.27265			43387.38302		65.24000		324.00000 
 43692.65567		 889.56308			42803.09259		226.31800		875.00000 
 43692.65567		 305.27265			43387.38302		65.24000		324.00000 
 43692.65567		 889.56308			42803.09259		226.31800		875.00000 
 43692.65567		 305.27265			43387.38302		65.24000		324.00000 
 43692.65567		 889.56308			42803.09259		226.31800		875.00000 
 43692.65567		 305.27265			43387.38302		65.24000		324.00000 
 43692.65567		 889.56308			42803.09259		226.31800		875.00000 
 43692.65567		 305.27265			43387.38302		65.24000		324.00000 
 43692.65567		 889.56308			42803.09259		226.31800		875.00000 
 43692.65567		 305.27265			43387.38302		65.24000		324.00000 
 43692.65567		 889.56308			42803.09259		226.31800		875.00000 
 43692.65567		 305.27265			43387.38302		65.24000		324.00000 
 43692.65567		 889.56308			42803.09259		226.31800		875.00000 
 43692.65567		 305.27265			43387.38302		65.24000		324.00000 
 43692.65567		 889.56308			42803.09259		226.31800		875.00000 
 43692.65567		 305.27265			43387.38302		65.24000		324.00000 
 43692.65567		 889.56308			42803.09259		226.31800		875.00000 
 43692.65567		 305.27265			43387.38302		65.24000		324.00000 
 43692.65567		 889.56308			42803.09259		226.31800		875.00000 
 43692.65567		 305.27265			43387.38302		65.24000		324.00000 
 43692.65567		 889.56308			42803.09259		226.31800		875.00000 
 43692.65567		 305.27265			43387.38302		65.24000		324.00000 
 43692.65567		 889.56308			42803.09259		226.31800		875.00000 
 43692.65567		 305.27265			43387.38302		65.24000		324.00000 
 43692.65567		 889.56308			42803.09259		226.31800		875.00000 
 43692.65567		 305.27265			43387.38302		65.24000		324.00000 
 43692.65567		 889.56308			42803.09259		227.51800		875.00000 
 43692.65567		 305.27265			43387.38302		65.24000		324.00000 
 43692.65567		 889.56308			42803.09259		227.51800		875.00000 
 43692.65567		 305.27265			43387.38302		65.24000		324.00000 
 43692.65567		 889.56308			42803.09259		227.51800		875.00000 
 43692.65567		 305.27265			43387.38302		65.24000		324.00000 
 43692.65567		 889.56308			42803.09259		227.51800		875.00000 
 43692.65567		 305.27265			43387.38302		65.24000		324.00000 
 43692.65567		 889.56308			42803.09259		227.51800		875.00000 
 43692.65567		 305.27265			43387.38302		65.24000		324.00000 
 43692.65567		 889.56308			42803.09259		227.51800		875.00000 
 43692.65567		 305.27265			43387.38302		65.24000		324.00000 
 43692.65567		 889.56308			42803.09259		227.51800		875.00000 
 43692.65567		 305.27265			43387.38302		65.24000		324.00000 
 43692.65567		 889.56308			42803.09259		227.51800		875.00000 
 43692.65567		 305.27265			43387.38302		65.24000		324.00000 
 43692.65567		 889.56308			42803.09259		227.51800		875.00000 
 43692.65567		 305.27265			43387.38302		65.24000		324.00000 
 43692.65567		 889.56308			42803.09259		227.51800		875.00000 
 43692.65567		 305.27265			43387.38302		65.24000		324.00000 
 43692.65567		 889.56308			42803.09259		227.51800		875.00000 
 43692.65567		 305.27265			43387.38302		65.24000		324.00000 
 43692.65567		 889.56308			42803.09259		227.51800		875.00000 
 43692.65567		 305.27265			43387.38302		65.24000		324.00000 
 43692.65567		 889.56308			42803.09259		227.51800		875.00000 
 43692.65567		 305.27265			43387.38302		65.24000		324.00000 
 43692.65567		 889.56308			42803.09259		227.51800		875.00000 
 43692.65567		 305.27265			43387.38302		65.24000		324.00000 
 43692.65567		 889.56308			42803.09259		227.51800		875.00000 
 43692.65567		 305.27265			43387.38302		65.24000		324.00000 
 43692.65567		 889.56308			42803.09259		227.51800		875.00000 
 43692.65567		 305.27265			43387.38302		65.24000		324.00000 
 43692.65567		 889.56308			42803.09259		227.51800		875.00000 
 43692.65567		 305.27265			43387.38302		65.24000		324.00000 
 43692.65567		 889.56308			42803.09259		227.51800		875.00000 
 43692.65567		 305.27265			43387.38302		65.24000		324.00000 
 43692.65567		 889.56308			42803.09259		227.51800		875.00000 
 43692.65567		 305.27265			43387.38302		65.24000		324.00000 
 43692.65567		 889.56308			42803.09259		227.51800		875.00000 
 43692.65567		 305.27265			43387.38302		65.24000		324.00000 
 43692.65567		 889.56308			42803.09259		227.51800		875.00000 
 43692.65567		 305.27265			43387.38302		65.24000		324.00000 
 43692.65567		 889.56308			42803.09259		227.51800		875.00000 
 43692.65567		 305.27265			43387.38302		65.24000		324.00000 
 43692.65567		 889.56308			42803.09259		227.51800		875.00000 
 43692.65567		 305.27265			43387.38302		65.24000		324.00000 
 43692.65567		 889.56308			42803.09259		227.51800		875.00000 
 43692.65567		 305.27265			43387.38302		65.24000		324.00000 
 43692.65567		 889.56308			42803.09259		227.51800		875.00000 
 43692.65567		 305.27265			43387.38302		65.24000		324.00000 
 43692.65567		 889.56308			42803.09259		227.51800		875.00000 
 43692.65567		 305.27265			43387.38302		65.24000		324.00000 
 43692.65567		 889.56308			42803.09259		227.51800		875.00000 
 43692.65567		 305.27265			43387.38302		65.24000		324.00000 
 43692.65567		 889.56308			42803.09259		227.51800		875.00000 
 43692.65567		 305.27265			43387.38302		65.24000		324.00000 
 43692.65567		 889.56308			42803.09259		227.51800		875.00000 
 43692.65567		 305.27265			43387.38302		65.24000		324.00000 
 43692.65567		 889.56308			42803.09259		227.51800		875.00000 
 43692.65567		 305.27265			43387.38302		65.24000		324.00000 
 43692.65567		 889.56308			42803.09259		227.51800		875.00000 
 43692.65567		 305.27265			43387.38302		65.24000		324.00000 
 43692.65567		 889.56308			42803.09259		227.51800		875.00000 
 43692.65567		 305.27265			43387.38302		65.24000		324.00000 
 43692.65567		 889.56308			42803.09259		227.51800		875.00000 
 43692.65567		 305.27265			43387.38302		65.24000		324.00000 
 43692.65567		 889.56308			42803.09259		227.51800		875.00000 
 43692.65567		 305.27265			43387.38302		65.24000		324.00000 
 43692.65567		 889.56308			42803.09259		227.51800		875.00000 
 43692.65567		 305.27265			43387.38302		65.24000		324.00000 
 43692.65567		 889.56308			42803.09259		227.51800		875.00000 
 43692.65567		 305.27265			43387.38302		65.24000		324.00000 
 43692.65567		 889.56308			42803.09259		227.51800		875.00000 
 43692.65567		 305.27265			43387.38302		65.24000		324.00000 
 43692.65567		 889.56308			42803.09259		227.51800		875.00000 
 43692.65567		 305.27265			43387.38302		65.24000		324.00000 
 43692.65567		 889.56308			42803.09259		227.51800		875.00000 
 43692.65567		 305.27265			43387.38302		65.24000		324.00000 
 43692.65567		 889.56308			42803.09259		227.51800		875.00000 
 43692.65567		 305.27265			43387.38302		65.24000		324.00000 
 43692.65567		 889.56308			42803.09259		227.51800		875.00000 
 43692.65567		 305.27265			43387.38302		65.24000		324.00000 
 43692.65567		 889.56308			42803.09259		227.51800		875.00000 
 43692.65567		 305.27265			43387.38302		65.24000		324.00000 
 43692.65567		 889.56308			42803.09259		227.51800		875.00000 
 43692.65567		 305.27265			43387.38302		65.24000		324.00000 
 43692.65567		 889.56308			42803.09259		227.51800		875.00000 
 43692.65567		 305.27265			43387.38302		65.24000		324.00000 
 43692.65567		 889.56308			42803.09259		227.51800		875.00000 
 43692.65567		 305.27265			43387.38302		65.24000		324.00000 
 43692.65567		 889.56308			42803.09259		227.51800		875.00000 
 43692.65567		 305.27265			43387.38302		65.24000		324.00000 
 43692.65567		 889.56308			42803.09259		227.51800		875.00000 
 43692.65567		 305.27265			43387.38302		65.24000		324.00000 
 43692.65567		 889.56308			42803.09259		227.51800		875.00000 
 43692.65567		 305.27265			43387.38302		65.24000		324.00000 
 43692.65567		 889.56308			42803.09259		227.51800		875.00000 
 43692.65567		 305.27265			43387.38302		65.24000		324.00000 
 43692.65567		 889.56308			42803.09259		227.51800		875.00000 
 43692.65567		 305.27265			43387.38302		65.24000		324.00000 
 43692.65567		 889.56308			42803.09259		227.51800		875.00000 
 43692.65567		 305.27265			43387.38302		65.24000		324.00000 
 43692.65567		 889.56308			42803.09259		227.51800		875.00000 
 43692.65567		 305.27265			43387.38302		65.24000		324.00000 
 43692.65567		 889.56308			42803.09259		227.51800		875.00000 
 43692.65567		 305.27265			43387.38302		65.24000		324.00000 
 43692.65567		 889.56308			42803.09259		227.51800		875.00000 
 43692.65567		 305.27265			43387.38302		65.24000		324.00000 
 43692.65567		 889.56308			42803.09259		227.51800		875.00000 
 43692.65567		 305.27265			43387.38302		65.24000		324.00000 
 43692.65567		 889.56308			42803.09259		227.51800		875.00000 
 43692.65567		 305.27265			43387.38302		65.24000		324.00000 
 43692.65567		 889.56308			42803.09259		227.51800		875.00000 
 43692.65567		 305.27265			43387.38302		65.24000		324.00000 
 43692.65567		 889.56308			42803.09259		227.51800		875.00000 
 43692.65567		 305.27265			43387.38302		65.24000		324.00000 
 43692.65567		 889.56308			42803.09259		227.51800		875.00000 
 43692.65567		 305.27265			43387.38302		65.24000		324.00000 
 43692.65567		 889.56308			42803.09259		227.51800		875.00000 
 43692.65567		 305.27265			43387.38302		65.24000		324.00000 
 43692.65567		 889.56308			42803.09259		227.51800		875.00000 
 43692.65567		 305.27265			43387.38302		65.24000		324.00000 
 43692.65567		 889.56308			42803.09259		227.51800		875.00000 
 43692.65567		 305.27265			43387.38302		65.24000		324.00000 
 43692.65567		 889.56308			42803.09259		227.51800		875.00000 
 43692.65567		 305.27265			43387.38302		65.24000		324.00000 
 43692.65567		 889.56308			42803.09259		227.51800		875.00000 
 43692.65567		 305.27265			43387.38302		65.24000		324.00000 
 43692.65567		 889.56308			42803.09259		227.14800		875.00000 
 43692.65567		 305.27265			43387.38302		65.24000		324.00000 
 43692.65567		 889.56308			42803.09259		227.14800		875.00000 
 43692.65567		 305.27265			43387.38302		65.24000		324.00000 
 43692.65567		 889.56308			42803.09259		227.14800		875.00000 
 43692.65567		 305.27265			43387.38302		65.24000		324.00000 
 43692.65567		 889.56308			42803.09259		227.14800		875.00000 
 43692.65567		 305.27265			43387.38302		65.24000		324.00000 
 43692.65567		 889.56308			42803.09259		227.14800		875.00000 
 43692.65567		 305.27265			43387.38302		65.24000		324.00000 
 43692.65567		 889.56308			42803.09259		227.14800		875.00000 
 43692.65567		 305.27265			43387.38302		65.24000		324.00000 
 43692.65567		 889.56308			42803.09259		227.14800		875.00000 
 43692.65567		 305.27265			43387.38302		65.24000		324.00000 
 43692.65567		 889.56308			42803.09259		227.14800		875.00000 
 43692.65567		 305.27265			43387.38302		65.24000		324.00000 
 43692.65567		 889.56308			42803.09259		227.14800		875.00000 
 43692.65567		 305.27265			43387.38302		65.24000		324.00000 
 43692.65567		 889.56308			42803.09259		227.14800		875.00000 
 43692.65567		 305.27265			43387.38302		65.24000		324.00000 
 43692.65567		 889.56308			42803.09259		227.14800		875.00000 
 43692.65567		 305.27265			43387.38302		65.24000		324.00000 
 43692.65567		 889.56308			42803.09259		227.14800		875.00000 
 43692.65567		 305.27265			43387.38302		65.24000		324.00000 
 43692.65567		 889.56308			42803.09259		227.14800		875.00000 
 43692.65567		 305.27265			43387.38302		65.24000		324.00000 
 43692.65567		 889.56308			42803.09259		227.14800		875.00000 
 43692.65567		 305.27265			43387.38302		65.24000		324.00000 
 43692.65567		 889.56308			42803.09259		227.14800		875.00000 
 43692.65567		 305.27265			43387.38302		65.24000		324.00000 
 43692.65567		 889.56308			42803.09259		227.14800		875.00000 
 43692.65567		 305.27265			43387.38302		65.24000		324.00000 
 43692.65567		 889.56308			42803.09259		227.14800		875.00000 
 43692.65567		 305.27265			43387.38302		65.24000		324.00000 
 43692.65567		 889.56308			42803.09259		227.14800		875.00000 
 43692.65567		 305.27265			43387.38302		65.24000		324.00000 
 43692.65567		 889.56308			42803.09259		227.14800		875.00000 
 43692.65567		 305.27265			43387.38302		65.24000		324.00000 
 43692.65567		 889.56308			42803.09259		227.14800		875.00000 
 43692.65567		 305.27265			43387.38302		65.24000		324.00000 
 43692.65567		 889.56308			42803.09259		227.14800		875.00000 
 43692.65567		 305.27265			43387.38302		65.24000		324.00000 
 43692.65567		 889.56308			42803.09259		227.14800		875.00000 
 43692.65567		 305.27265			43387.38302		65.24000		324.00000 
 43692.65567		 889.56308			42803.09259		227.14800		875.00000 
 43692.65567		 305.27265			43387.38302		65.24000		324.00000 
 43692.65567		 889.56308			42803.09259		227.14800		875.00000 
 43692.65567		 305.27265			43387.38302		65.24000		324.00000 
 43692.65567		 889.56308			42803.09259		227.14800		875.00000 
 43692.65567		 305.27265			43387.38302		65.24000		324.00000 
 43692.65567		 889.56308			42803.09259		227.14800		875.00000 
 43692.65567		 305.27265			43387.38302		65.24000		324.00000 
 43692.65567		 889.56308			42803.09259		227.14800		875.00000 
 43692.65567		 305.27265			43387.38302		65.24000		324.00000 
 43692.65567		 889.56308			42803.09259		227.14800		875.00000 
 43692.65567		 305.27265			43387.38302		65.24000		324.00000 
 43692.65567		 889.56308			42803.09259		227.14800		875.00000 
 43692.65567		 305.27265			43387.38302		65.24000		324.00000 
 43692.65567		 889.56308			42803.09259		227.14800		875.00000 
 43692.65567		 305.27265			43387.38302		65.24000		324.00000 
 43692.65567		 889.56308			42803.09259		227.14800		875.00000 
 43692.65567		 305.27265			43387.38302		65.24000		324.00000 
 43692.65567		 889.56308			42803.09259		227.14800		875.00000 
 43692.65567		 305.27265			43387.38302		65.24000		324.00000 
 43692.65567		 889.56308			42803.09259		227.14800		875.00000 
 43692.65567		 305.27265			43387.38302		65.24000		324.00000 
 43692.65567		 889.56308			42803.09259		227.14800		875.00000 
 43692.65567		 305.27265			43387.38302		65.24000		324.00000 
 43692.65567		 889.56308			42803.09259		227.14800		875.00000 
 43692.65567		 305.27265			43387.38302		65.24000		324.00000 
 43692.65567		 889.56308			42803.09259		227.14800		875.00000 
 43692.65567		 305.27265			43387.38302		65.24000		324.00000 
 43692.65567		 889.56308			42803.09259		227.14800		875.00000 
 43692.65567		 305.27265			43387.38302		65.24000		324.00000 
 43692.65567		 889.56308			42803.09259		227.14800		875.00000 
 43692.65567		 305.27265			43387.38302		65.24000		324.00000 
 43692.65567		 889.56308			42803.09259		227.14800		875.00000 
 43692.65567		 305.27265			43387.38302		65.24000		324.00000 
 43692.65567		 889.56308			42803.09259		227.14800		875.00000 
 43692.65567		 305.27265			43387.38302		65.24000		324.00000 
 43692.65567		 889.56308			42803.09259		227.14800		875.00000 
 43692.65567		 305.27265			43387.38302		65.24000		324.00000 
 43692.65567		 889.56308			42803.09259		227.14800		875.00000 
 43692.65567		 305.27265			43387.38302		65.24000		324.00000 
 43692.65567		 889.56308			42803.09259		227.14800		875.00000 
 43692.65567		 305.27265			43387.38302		65.24000		324.00000 
 43692.65567		 889.56308			42803.09259		227.14800		875.00000 
 43692.65567		 305.27265			43387.38302		65.24000		324.00000 
 43692.65567		 889.56308			42803.09259		227.14800		875.00000 
 43692.65567		 305.27265			43387.38302		65.24000		324.00000 
 43692.65567		 889.56308			42803.09259		227.14800		875.00000 
 43692.65567		 305.27265			43387.38302		65.24000		324.00000 
 43692.65567		 889.56308			42803.09259		227.14800		875.00000 
 43692.65567		 305.27265			43387.38302		65.24000		324.00000 
 43692.65567		 889.56308			42803.09259		227.14800		875.00000 
 43692.65567		 305.27265			43387.38302		65.24000		324.00000 
 43692.65567		 889.56308			42803.09259		227.14800		875.00000 
 43692.65567		 305.27265			43387.38302		65.24000		324.00000 
 43692.65567		 889.56308			42803.09259		227.14800		875.00000 
 43692.65567		 305.27265			43387.38302		65.24000		324.00000 
 43692.65567		 889.56308			42803.09259		227.14800		875.00000 
 43692.65567		 305.27265			43387.38302		65.24000		324.00000 
 43692.65567		 889.56308			42803.09259		227.14800		875.00000 
 43692.65567		 305.27265			43387.38302		65.24000		324.00000 
 43692.65567		 889.56308			42803.09259		227.14800		875.00000 
 43692.65567		 305.27265			43387.38302		65.24000		324.00000 
 43692.65567		 889.56308			42803.09259		227.14800		875.00000 
 43692.65567		 305.27265			43387.38302		65.24000		324.00000 
 43692.65567		 889.56308			42803.09259		227.14800		875.00000 
 43692.65567		 305.27265			43387.38302		70.72800		324.00000 
 43692.65567		 889.56308			42803.09259		227.14800		875.00000 
 43692.65567		 305.27265			43387.38302		70.72800		324.00000 
 43692.65567		 889.56308			42803.09259		227.14800		875.00000 
 43692.65567		 305.27265			43387.38302		70.72800		324.00000 
 43692.65567		 889.56308			42803.09259		227.14800		875.00000 
 43692.65567		 305.27265			43387.38302		70.72800		324.00000 
 43692.65567		 889.56308			42803.09259		227.14800		875.00000 
 43692.65567		 305.27265			43387.38302		70.72800		324.00000 
 43692.65567		 889.56308			42803.09259		227.14800		875.00000 
 43692.65567		 305.27265			43387.38302		70.72800		324.00000 
 43692.65567		 889.56308			42803.09259		227.14800		875.00000 
 43692.65567		 305.27265			43387.38302		70.72800		324.00000 
 43692.65567		 889.56308			42803.09259		226.54800		875.00000 
 43692.65567		 305.27265			43387.38302		70.72800		324.00000 
 43692.65567		 889.56308			42803.09259		226.54800		875.00000 
 43692.65567		 305.27265			43387.38302		70.72800		324.00000 
 43692.65567		 889.56308			42803.09259		226.54800		875.00000 
 43692.65567		 305.27265			43387.38302		70.72800		324.00000 
 43692.65567		 889.56308			42803.09259		226.54800		875.00000 
 43692.65567		 305.27265			43387.38302		70.72800		324.00000 
 43692.65567		 889.56308			42803.09259		226.54800		875.00000 
 43692.65567		 305.27265			43387.38302		70.72800		324.00000 
 43692.65567		 889.56308			42803.09259		226.54800		875.00000 
 43692.65567		 305.27265			43387.38302		70.72800		324.00000 
 43692.65567		 889.56308			42803.09259		226.54800		875.00000 
 43692.65567		 305.27265			43387.38302		70.72800		324.00000 
 43692.65567		 889.56308			42803.09259		226.54800		875.00000 
 43692.65567		 305.27265			43387.38302		70.72800		324.00000 
 43692.65567		 889.56308			42803.09259		226.54800		875.00000 
 43692.65567		 305.27265			43387.38302		70.72800		324.00000 
 43692.65567		 889.56308			42803.09259		226.54800		875.00000 
 43692.65567		 305.27265			43387.38302		70.72800		324.00000 
 43692.65567		 889.56308			42803.09259		226.54800		875.00000 
 43692.65567		 305.27265			43387.38302		70.72800		324.00000 
 43692.65567		 889.56308			42803.09259		226.54800		875.00000 
 43692.65567		 305.27265			43387.38302		70.72800		324.00000 
 43692.65567		 889.56308			42803.09259		226.54800		875.00000 
 43692.65567		 305.27265			43387.38302		70.72800		324.00000 
 43692.65567		 889.56308			42803.09259		226.54800		875.00000 
 43692.65567		 305.27265			43387.38302		70.72800		324.00000 
 43692.65567		 889.56308			42803.09259		226.54800		875.00000 
 43692.65567		 305.27265			43387.38302		70.72800		324.00000 
 43692.65567		 889.56308			42803.09259		226.54800		875.00000 
 43692.65567		 305.27265			43387.38302		70.72800		324.00000 
 43692.65567		 889.56308			42803.09259		226.54800		875.00000 
 43692.65567		 305.27265			43387.38302		70.72800		324.00000 
 43692.65567		 889.56308			42803.09259		226.54800		875.00000 
 43692.65567		 305.27265			43387.38302		70.72800		324.00000 
 43692.65567		 889.56308			42803.09259		226.54800		875.00000 
 43692.65567		 305.27265			43387.38302		70.72800		324.00000 
 43692.65567		 889.56308			42803.09259		226.54800		875.00000 
 43692.65567		 305.27265			43387.38302		70.72800		324.00000 
 43692.65567		 889.56308			42803.09259		226.54800		875.00000 
 43692.65567		 305.27265			43387.38302		70.72800		324.00000 
 43692.65567		 889.56308			42803.09259		226.54800		875.00000 
 43692.65567		 305.27265			43387.38302		70.72800		324.00000 
 43692.65567		 889.56308			42803.09259		226.54800		875.00000 
 43692.65567		 305.27265			43387.38302		70.72800		324.00000 
 43692.65567		 889.56308			42803.09259		226.54800		875.00000 
 43692.65567		 305.27265			43387.38302		70.72800		324.00000 
 43692.65567		 889.56308			42803.09259		226.54800		875.00000 
 43692.65567		 305.27265			43387.38302		70.72800		324.00000 
 43692.65567		 889.56308			42803.09259		226.54800		875.00000 
 43692.65567		 305.27265			43387.38302		70.72800		324.00000 
 43692.65567		 889.56308			42803.09259		226.54800		875.00000 
 43692.65567		 305.27265			43387.38302		70.72800		324.00000 
 43692.65567		 889.56308			42803.09259		226.54800		875.00000 
 43692.65567		 305.27265			43387.38302		70.72800		324.00000 
 43692.65567		 889.56308			42803.09259		226.54800		875.00000 
 43692.65567		 305.27265			43387.38302		70.72800		324.00000 
 43692.65567		 889.56308			42803.09259		226.54800		875.00000 
 43692.65567		 305.27265			43387.38302		70.72800		324.00000 
 43692.65567		 889.56308			42803.09259		226.54800		875.00000 
 43692.65567		 305.27265			43387.38302		70.72800		324.00000 
 43692.65567		 889.56308			42803.09259		226.54800		875.00000 
 43692.65567		 305.27265			43387.38302		70.72800		324.00000 
 43692.65567		 889.56308			42803.09259		226.54800		875.00000 
 43692.65567		 305.27265			43387.38302		70.72800		324.00000 
 43692.65567		 889.56308			42803.09259		226.54800		875.00000 
 43692.65567		 305.27265			43387.38302		70.72800		324.00000 
 43692.65567		 889.56308			42803.09259		226.54800		875.00000 
 43692.65567		 305.27265			43387.38302		70.72800		324.00000 
 43692.65567		 889.56308			42803.09259		226.54800		875.00000 
 43692.65567		 305.27265			43387.38302		70.72800		324.00000 
 43692.65567		 889.56308			42803.09259		226.54800		875.00000 
 43692.65567		 305.27265			43387.38302		70.72800		324.00000 
 43692.65567		 889.56308			42803.09259		226.54800		875.00000 
 43692.65567		 305.27265			43387.38302		70.72800		324.00000 
 43692.65567		 889.56308			42803.09259		226.54800		875.00000 
 43692.65567		 305.27265			43387.38302		70.72800		324.00000 
 43692.65567		 889.56308			42803.09259		226.54800		875.00000 
 43692.65567		 305.27265			43387.38302		70.72800		324.00000 
 43692.65567		 889.56308			42803.09259		226.54800		875.00000 
 43692.65567		 305.27265			43387.38302		70.72800		324.00000 
 43692.65567		 889.56308			42803.09259		226.54800		875.00000 
 43692.65567		 305.27265			43387.38302		70.72800		324.00000 
 43692.65567		 889.56308			42803.09259		226.54800		875.00000 
 43692.65567		 305.27265			43387.38302		70.72800		324.00000 
 43692.65567		 889.56308			42803.09259		226.54800		875.00000 
 43692.65567		 305.27265			43387.38302		70.72800		324.00000 
 43692.65567		 889.56308			42803.09259		226.54800		875.00000 
 43692.65567		 305.27265			43387.38302		70.72800		324.00000 
 43692.65567		 889.56308			42803.09259		226.54800		875.00000 
 43692.65567		 305.27265			43387.38302		70.72800		324.00000 
 43692.65567		 889.56308			42803.09259		226.54800		875.00000 
 43692.65567		 305.27265			43387.38302		70.72800		324.00000 
 43692.65567		 889.56308			42803.09259		226.54800		875.00000 
 43692.65567		 305.27265			43387.38302		70.72800		324.00000 
 43692.65567		 889.56308			42803.09259		226.54800		875.00000 
 43692.65567		 305.27265			43387.38302		70.72800		324.00000 
 43692.65567		 889.56308			42803.09259		226.54800		875.00000 
 43692.65567		 305.27265			43387.38302		70.72800		324.00000 
 43692.65567		 889.56308			42803.09259		226.54800		875.00000 
 43692.65567		 305.27265			43387.38302		70.72800		324.00000 
 43692.65567		 889.56308			42803.09259		226.54800		875.00000 
 43692.65567		 305.27265			43387.38302		70.72800		324.00000 
 43692.65567		 889.56308			42803.09259		226.54800		875.00000 
 43692.65567		 305.27265			43387.38302		70.72800		324.00000 
 43692.65567		 889.56308			42803.09259		226.54800		875.00000 
 43692.65567		 305.27265			43387.38302		70.72800		324.00000 
 43692.65567		 889.56308			42803.09259		226.54800		875.00000 
 43692.65567		 305.27265			43387.38302		70.72800		324.00000 
 43692.65567		 889.56308			42803.09259		226.54800		875.00000 
 43692.65567		 305.27265			43387.38302		70.72800		324.00000 
 43692.65567		 889.56308			42803.09259		226.54800		875.00000 
 43692.65567		 305.27265			43387.38302		70.72800		324.00000 
 43692.65567		 889.56308			42803.09259		226.54800		875.00000 
 43692.65567		 305.27265			43387.38302		70.72800		324.00000 
 43692.65567		 889.56308			42803.09259		226.54800		875.00000 
 43692.65567		 305.27265			43387.38302		70.72800		324.00000 
 43692.65567		 889.56308			42803.09259		226.54800		875.00000 
 43692.65567		 305.27265			43387.38302		70.72800		324.00000 
 43692.65567		 889.56308			42803.09259		226.54800		875.00000 
 43692.65567		 305.27265			43387.38302		70.72800		324.00000 
 43692.65567		 889.56308			42803.09259		226.54800		875.00000 
 43692.65567		 305.27265			43387.38302		70.72800		324.00000 
 43692.65567		 889.56308			42803.09259		226.54800		875.00000 
 43692.65567		 305.27265			43387.38302		70.72800		324.00000 
 43692.65567		 889.56308			42803.09259		226.54800		875.00000 
 43692.65567		 305.27265			43387.38302		70.72800		324.00000 
 43692.65567		 889.56308			42803.09259		226.54800		875.00000 
 43692.65567		 305.27265			43387.38302		70.72800		324.00000 
 43692.65567		 889.56308			42803.09259		226.54800		875.00000 
 43692.65567		 305.27265			43387.38302		70.72800		324.00000 
 43692.65567		 889.56308			42803.09259		226.54800		875.00000 
 43692.65567		 305.27265			43387.38302		70.72800		324.00000 
 43692.65567		 889.56308			42803.09259		226.54800		875.00000 
 43692.65567		 305.27265			43387.38302		70.72800		324.00000 
 43692.65567		 889.56308			42803.09259		226.54800		875.00000 
 43692.65567		 305.27265			43387.38302		70.72800		324.00000 
 43692.65567		 889.56308			42803.09259		226.54800		875.00000 
 43692.65567		 305.27265			43387.38302		70.72800		324.00000 
 43692.65567		 889.56308			42803.09259		226.54800		875.00000 
 43692.65567		 305.27265			43387.38302		70.72800		324.00000 
 43692.65567		 889.56308			42803.09259		226.54800		875.00000 
 43692.65567		 305.27265			43387.38302		70.72800		324.00000 
 43692.65567		 889.56308			42803.09259		226.54800		875.00000 
 43692.65567		 305.27265			43387.38302		70.72800		324.00000 
 43692.65567		 889.56308			42803.09259		226.54800		875.00000 
 43692.65567		 305.27265			43387.38302		70.72800		324.00000 
 43692.65567		 889.56308			42803.09259		226.54800		875.00000 
 43692.65567		 305.27265			43387.38302		70.72800		324.00000 
 43692.65567		 889.56308			42803.09259		226.54800		875.00000 
 43692.65567		 305.27265			43387.38302		70.72800		324.00000 
 43692.65567		 889.56308			42803.09259		226.54800		875.00000 
 43692.65567		 305.27265			43387.38302		70.72800		324.00000 
 43692.65567		 889.56308			42803.09259		226.54800		875.00000 
 43692.65567		 305.27265			43387.38302		70.72800		324.00000 
 43692.65567		 889.56308			42803.09259		226.54800		875.00000 
 43692.65567		 305.27265			43387.38302		70.72800		324.00000 
 43692.65567		 889.56308			42803.09259		226.54800		875.00000 
 43692.65567		 305.27265			43387.38302		70.72800		324.00000 
 43692.65567		 889.56308			42803.09259		226.54800		875.00000 
 43692.65567		 305.27265			43387.38302		70.72800		324.00000 
 43692.65567		 889.56308			42803.09259		226.54800		875.00000 
 43692.65567		 305.27265			43387.38302		70.72800		324.00000 
 43692.65567		 889.56308			42803.09259		226.54800		875.00000 
 43692.65567		 305.27265			43387.38302		70.72800		324.00000 
 43692.65567		 889.56308			42803.09259		226.54800		875.00000 
 43692.65567		 305.27265			43387.38302		70.72800		324.00000 
 43692.65567		 889.56308			42803.09259		226.54800		875.00000 
 43692.65567		 305.27265			43387.38302		70.72800		324.00000 
 43692.65567		 889.56308			42803.09259		226.54800		875.00000 
 43692.65567		 305.27265			43387.38302		70.72800		324.00000 
 43692.65567		 889.56308			42803.09259		226.54800		875.00000 
 43692.65567		 305.27265			43387.38302		70.72800		324.00000 
 43692.65567		 889.56308			42803.09259		226.54800		875.00000 
 43692.65567		 305.27265			43387.38302		70.72800		324.00000 
 43692.65567		 889.56308			42803.09259		226.54800		875.00000 
 43692.65567		 305.27265			43387.38302		70.72800		324.00000 
 43692.65567		 889.56308			42803.09259		226.54800		875.00000 
 43692.65567		 305.27265			43387.38302		70.72800		324.00000 
 43692.65567		 889.56308			42803.09259		226.54800		875.00000 
 43692.65567		 305.27265			43387.38302		70.72800		324.00000 
 43692.65567		 889.56308			42803.09259		226.54800		875.00000 
 43692.65567		 305.27265			43387.38302		70.72800		324.00000 
 43692.65567		 889.56308			42803.09259		226.54800		875.00000 
 43692.65567		 305.27265			43387.38302		70.72800		324.00000 
 43692.65567		 889.56308			42803.09259		226.54800		875.00000 
 43692.65567		 305.27265			43387.38302		70.72800		324.00000 
 43692.65567		 889.56308			42803.09259		226.54800		875.00000 
 43692.65567		 305.27265			43387.38302		70.72800		324.00000 
 43692.65567		 889.56308			42803.09259		226.54800		875.00000 
 43692.65567		 305.27265			43387.38302		70.72800		324.00000 
 43692.65567		 889.56308			42803.09259		226.54800		875.00000 
 43692.65567		 305.27265			43387.38302		70.72800		324.00000 
 43692.65567		 889.56308			42803.09259		226.54800		875.00000 
 43692.65567		 305.27265			43387.38302		70.72800		324.00000 
 43692.65567		 889.56308			42803.09259		226.54800		875.00000 
 43692.65567		 305.27265			43387.38302		70.72800		324.00000 
 43692.65567		 889.56308			42803.09259		226.54800		875.00000 
 43692.65567		 305.27265			43387.38302		70.72800		324.00000 
 43692.65567		 889.56308			42803.09259		226.54800		875.00000 
 43692.65567		 305.27265			43387.38302		70.72800		324.00000 
 43692.65567		 889.56308			42803.09259		226.54800		875.00000 
 43692.65567		 305.27265			43387.38302		70.72800		324.00000 
 43692.65567		 889.56308			42803.09259		226.54800		875.00000 
 43692.65567		 305.27265			43387.38302		70.72800		324.00000 
 43692.65567		 889.56308			42803.09259		226.54800		875.00000 
 43692.65567		 305.27265			43387.38302		70.72800		324.00000 
 43692.65567		 889.56308			42803.09259		226.54800		875.00000 
 43692.65567		 305.27265			43387.38302		70.72800		324.00000 
 43692.65567		 889.56308			42803.09259		226.54800		875.00000 
 43692.65567		 305.27265			43387.38302		70.72800		324.00000 
 43692.65567		 889.56308			42803.09259		226.54800		875.00000 
 43692.65567		 305.27265			43387.38302		70.72800		324.00000 
 43692.65567		 889.56308			42803.09259		226.54800		875.00000 
 43692.65567		 305.27265			43387.38302		70.72800		324.00000 
 43692.65567		 889.56308			42803.09259		226.54800		875.00000 
 43692.65567		 305.27265			43387.38302		70.72800		324.00000 
 43692.65567		 889.56308			42803.09259		226.54800		875.00000 
 43692.65567		 305.27265			43387.38302		70.72800		324.00000 
 43692.65567		 889.56308			42803.09259		226.54800		875.00000 
 43692.65567		 305.27265			43387.38302		70.72800		324.00000 
 43692.65567		 889.56308			42803.09259		226.54800		875.00000 
 43692.65567		 305.27265			43387.38302		70.72800		324.00000 
 43692.65567		 889.56308			42803.09259		226.54800		875.00000 
 43692.65567		 305.27265			43387.38302		70.72800		324.00000 
 43692.65567		 889.56308			42803.09259		226.54800		875.00000 
 43692.65567		 305.27265			43387.38302		70.72800		324.00000 
 43692.65567		 889.56308			42803.09259		226.54800		875.00000 
 43692.65567		 305.27265			43387.38302		70.72800		324.00000 
 43692.65567		 889.56308			42803.09259		226.54800		875.00000 
 43692.65567		 305.27265			43387.38302		70.72800		324.00000 
 43692.65567		 889.56308			42803.09259		226.54800		875.00000 
 43692.65567		 305.27265			43387.38302		70.72800		324.00000 
 43692.65567		 889.56308			42803.09259		226.54800		875.00000 
 43692.65567		 305.27265			43387.38302		70.72800		324.00000 
 43692.65567		 889.56308			42803.09259		226.54800		875.00000 
 43692.65567		 305.27265			43387.38302		70.72800		324.00000 
 43692.65567		 889.56308			42803.09259		226.54800		875.00000 
 43692.65567		 305.27265			43387.38302		70.72800		324.00000 
 43692.65567		 889.56308			42803.09259		226.54800		875.00000 
 43692.65567		 305.27265			43387.38302		70.72800		324.00000 
 43692.65567		 889.56308			42803.09259		226.54800		875.00000 
 43692.65567		 305.27265			43387.38302		70.72800		324.00000 
 43692.65567		 889.56308			42803.09259		226.54800		875.00000 
 43692.65567		 305.27265			43387.38302		70.72800		324.00000 
 43692.65567		 889.56308			42803.09259		226.54800		875.00000 
 43692.65567		 305.27265			43387.38302		70.72800		324.00000 
 43692.65567		 889.56308			42803.09259		226.54800		875.00000 
 43692.65567		 305.27265			43387.38302		70.72800		324.00000 
 43692.65567		 889.56308			42803.09259		226.54800		875.00000 
 43692.65567		 305.27265			43387.38302		70.72800		324.00000 
 43692.65567		 889.56308			42803.09259		226.54800		875.00000 
 43692.65567		 305.27265			43387.38302		70.72800		324.00000 
 43692.65567		 889.56308			42803.09259		226.54800		875.00000 
 43692.65567		 305.27265			43387.38302		70.72800		324.00000 
 43692.65567		 889.56308			42803.09259		227.14800		875.00000 
 43692.65567		 305.27265			43387.38302		70.72800		324.00000 
 43692.65567		 889.56308			42803.09259		227.14800		875.00000 
 43692.65567		 305.27265			43387.38302		70.72800		324.00000 
 43692.65567		 889.56308			42803.09259		227.14800		875.00000 
 43692.65567		 305.27265			43387.38302		70.72800		324.00000 
 43692.65567		 889.56308			42803.09259		227.14800		875.00000 
 43692.65567		 305.27265			43387.38302		70.72800		324.00000 
 43692.65567		 889.56308			42803.09259		227.14800		875.00000 
 43692.65567		 305.27265			43387.38302		70.72800		324.00000 
 43692.65567		 889.56308			42803.09259		227.14800		875.00000 
 43692.65567		 305.27265			43387.38302		70.72800		324.00000 
 43692.65567		 889.56308			42803.09259		227.14800		875.00000 
 43692.65567		 305.27265			43387.38302		70.72800		324.00000 
 43692.65567		 889.56308			42803.09259		227.14800		875.00000 
 43692.65567		 305.27265			43387.38302		70.72800		324.00000 
 43692.65567		 889.56308			42803.09259		227.14800		875.00000 
 43692.65567		 305.27265			43387.38302		70.72800		324.00000 
 43692.65567		 889.56308			42803.09259		227.14800		875.00000 
 43692.65567		 305.27265			43387.38302		70.72800		324.00000 
 43692.65567		 889.56308			42803.09259		227.14800		875.00000 
 43692.65567		 305.27265			43387.38302		70.72800		324.00000 
 43692.65567		 889.56308			42803.09259		227.14800		875.00000 
 43692.65567		 305.27265			43387.38302		70.72800		324.00000 
 43692.65567		 889.56308			42803.09259		227.14800		875.00000 
 43692.65567		 305.27265			43387.38302		70.72800		324.00000 
 43692.65567		 889.56308			42803.09259		227.14800		875.00000 
 43692.65567		 305.27265			43387.38302		70.72800		324.00000 
 43692.65567		 889.56308			42803.09259		227.14800		875.00000 
 43692.65567		 305.27265			43387.38302		70.72800		324.00000 
 43692.65567		 889.56308			42803.09259		227.14800		875.00000 
 43692.65567		 305.27265			43387.38302		70.72800		324.00000 
 43692.65567		 889.56308			42803.09259		227.14800		875.00000 
 43692.65567		 305.27265			43387.38302		70.72800		324.00000 
 43692.65567		 889.56308			42803.09259		227.14800		875.00000 
 43692.65567		 305.27265			43387.38302		70.72800		324.00000 
 43692.65567		 889.56308			42803.09259		227.14800		875.00000 
 43692.65567		 305.27265			43387.38302		70.72800		324.00000 
 43692.65567		 889.56308			42803.09259		227.14800		875.00000 
 43692.65567		 305.27265			43387.38302		70.72800		324.00000 
 43692.65567		 889.56308			42803.09259		227.14800		875.00000 
 43692.65567		 305.27265			43387.38302		70.72800		324.00000 
 43692.65567		 889.56308			42803.09259		227.14800		875.00000 
 43692.65567		 305.27265			43387.38302		70.72800		324.00000 
 43692.65567		 889.56308			42803.09259		227.14800		875.00000 
 43692.65567		 305.27265			43387.38302		70.72800		324.00000 
 43692.65567		 889.56308			42803.09259		227.14800		875.00000 
 43692.65567		 305.27265			43387.38302		70.72800		324.00000 
 43692.65567		 889.56308			42803.09259		227.14800		875.00000 
 43692.65567		 305.27265			43387.38302		70.72800		324.00000 
 43692.65567		 889.56308			42803.09259		227.14800		875.00000 
 43692.65567		 305.27265			43387.38302		70.72800		324.00000 
 43692.65567		 889.56308			42803.09259		227.14800		875.00000 
 43692.65567		 305.27265			43387.38302		70.72800		324.00000 
 43692.65567		 889.56308			42803.09259		227.14800		875.00000 
 43692.65567		 305.27265			43387.38302		70.72800		324.00000 
 43692.65567		 889.56308			42803.09259		227.14800		875.00000 
 43692.65567		 305.27265			43387.38302		70.72800		324.00000 
 43692.65567		 889.56308			42803.09259		227.14800		875.00000 
 43692.65567		 305.27265			43387.38302		70.72800		324.00000 
 43692.65567		 889.56308			42803.09259		227.14800		875.00000 
 43692.65567		 305.27265			43387.38302		70.72800		324.00000 
 43692.65567		 889.56308			42803.09259		227.14800		875.00000 
 43692.65567		 305.27265			43387.38302		70.72800		324.00000 
 43692.65567		 889.56308			42803.09259		227.14800		875.00000 
 43692.65567		 305.27265			43387.38302		70.72800		324.00000 
 43692.65567		 889.56308			42803.09259		227.14800		875.00000 
 43692.65567		 305.27265			43387.38302		70.72800		324.00000 
 43692.65567		 889.56308			42803.09259		227.14800		875.00000 
 43692.65567		 305.27265			43387.38302		70.72800		324.00000 
 43692.65567		 889.56308			42803.09259		227.14800		875.00000 
 43692.65567		 305.27265			43387.38302		70.72800		324.00000 
 43692.65567		 889.56308			42803.09259		227.14800		875.00000 
 43692.65567		 305.27265			43387.38302		70.72800		324.00000 
 43692.65567		 889.56308			42803.09259		227.14800		875.00000 
 43692.65567		 305.27265			43387.38302		70.72800		324.00000 
 43692.65567		 889.56308			42803.09259		227.14800		875.00000 
 43692.65567		 305.27265			43387.38302		70.72800		324.00000 
 43692.65567		 889.56308			42803.09259		227.14800		875.00000 
 43692.65567		 305.27265			43387.38302		70.72800		324.00000 
 43692.65567		 889.56308			42803.09259		227.14800		875.00000 
 43692.65567		 305.27265			43387.38302		70.72800		324.00000 
 43692.65567		 889.56308			42803.09259		227.14800		875.00000 
 43692.65567		 305.27265			43387.38302		70.72800		324.00000 
 43692.65567		 889.56308			42803.09259		227.14800		875.00000 
 43692.65567		 305.27265			43387.38302		70.72800		324.00000 
 43692.65567		 889.56308			42803.09259		227.14800		875.00000 
 43692.65567		 305.27265			43387.38302		70.72800		324.00000 
 43692.65567		 889.56308			42803.09259		227.14800		875.00000 
 43692.65567		 305.27265			43387.38302		70.72800		324.00000 
 43692.65567		 889.56308			42803.09259		227.14800		875.00000 
 43692.65567		 305.27265			43387.38302		70.72800		324.00000 
 43692.65567		 889.56308			42803.09259		227.14800		875.00000 
 43692.65567		 305.27265			43387.38302		70.72800		324.00000 
 43692.65567		 889.56308			42803.09259		227.14800		875.00000 
 43692.65567		 305.27265			43387.38302		70.72800		324.00000 
 43692.65567		 889.56308			42803.09259		227.14800		875.00000 
 43692.65567		 305.27265			43387.38302		70.72800		324.00000 
 43692.65567		 889.56308			42803.09259		227.14800		875.00000 
 43692.65567		 305.27265			43387.38302		70.72800		324.00000 
 43692.65567		 889.56308			42803.09259		227.14800		875.00000 
 43692.65567		 305.27265			43387.38302		70.72800		324.00000 
 43692.65567		 889.56308			42803.09259		227.14800		875.00000 
 43692.65567		 305.27265			43387.38302		70.72800		324.00000 
 43692.65567		 889.56308			42803.09259		227.14800		875.00000 
 43692.65567		 305.27265			43387.38302		70.72800		324.00000 
 43692.65567		 889.56308			42803.09259		227.14800		875.00000 
 43692.65567		 305.27265			43387.38302		70.72800		324.00000 
 43692.65567		 889.56308			42803.09259		227.14800		875.00000 
 43692.65567		 305.27265			43387.38302		70.72800		324.00000 
 43692.65567		 889.56308			42803.09259		227.14800		875.00000 
 43692.65567		 305.27265			43387.38302		70.72800		324.00000 
 43692.65567		 889.56308			42803.09259		227.14800		875.00000 
 43692.65567		 305.27265			43387.38302		70.72800		324.00000 
 43692.65567		 889.56308			42803.09259		227.14800		875.00000 
 43692.65567		 305.27265			43387.38302		70.72800		324.00000 
 43692.65567		 889.56308			42803.09259		227.14800		875.00000 
 43692.65567		 305.27265			43387.38302		70.72800		324.00000 
 43692.65567		 889.56308			42803.09259		227.14800		875.00000 
 43692.65567		 305.27265			43387.38302		70.72800		324.00000 
 43692.65567		 889.56308			42803.09259		227.14800		875.00000 
 43692.65567		 305.27265			43387.38302		70.72800		324.00000 
 43692.65567		 889.56308			42803.09259		227.14800		875.00000 
 43692.65567		 305.27265			43387.38302		70.72800		324.00000 
 43692.65567		 889.56308			42803.09259		227.14800		875.00000 
 43692.65567		 305.27265			43387.38302		70.72800		324.00000 
 43692.65567		 889.56308			42803.09259		227.14800		875.00000 
 43692.65567		 305.27265			43387.38302		70.72800		324.00000 
 43692.65567		 889.56308			42803.09259		226.54800		875.00000 
 43692.65567		 305.27265			43387.38302		70.72800		324.00000 
 43692.65567		 889.56308			42803.09259		226.54800		875.00000 
 43692.65567		 305.27265			43387.38302		70.72800		324.00000 
 43692.65567		 889.56308			42803.09259		226.54800		875.00000 
 43692.65567		 305.27265			43387.38302		70.72800		324.00000 
 43692.65567		 889.56308			42803.09259		226.54800		875.00000 
 43692.65567		 305.27265			43387.38302		70.72800		324.00000 
 43692.65567		 889.56308			42803.09259		226.54800		875.00000 
 43692.65567		 305.27265			43387.38302		70.72800		324.00000 
 43692.65567		 889.56308			42803.09259		226.54800		875.00000 
 43692.65567		 305.27265			43387.38302		70.72800		324.00000 
 43692.65567		 889.56308			42803.09259		226.54800		875.00000 
 43692.65567		 305.27265			43387.38302		70.72800		324.00000 
 43692.65567		 889.56308			42803.09259		226.54800		875.00000 
 43692.65567		 305.27265			43387.38302		70.72800		324.00000 
 43692.65567		 889.56308			42803.09259		226.54800		875.00000 
 43692.65567		 305.27265			43387.38302		70.72800		324.00000 
 43692.65567		 889.56308			42803.09259		226.54800		875.00000 
 43692.65567		 305.27265			43387.38302		70.72800		324.00000 
 43692.65567		 889.56308			42803.09259		226.54800		875.00000 
 43692.65567		 305.27265			43387.38302		70.72800		324.00000 
 43692.65567		 889.56308			42803.09259		226.54800		875.00000 
 43692.65567		 305.27265			43387.38302		70.72800		324.00000 
 43692.65567		 889.56308			42803.09259		226.54800		875.00000 
 43692.65567		 305.27265			43387.38302		70.72800		324.00000 
 43692.65567		 889.56308			42803.09259		226.54800		875.00000 
 43692.65567		 305.27265			43387.38302		70.72800		324.00000 
 43692.65567		 889.56308			42803.09259		226.54800		875.00000 
 43692.65567		 305.27265			43387.38302		70.72800		324.00000 
 43692.65567		 889.56308			42803.09259		226.54800		875.00000 
 43692.65567		 305.27265			43387.38302		70.72800		324.00000 
 43692.65567		 889.56308			42803.09259		226.54800		875.00000 
 43692.65567		 305.27265			43387.38302		70.72800		324.00000 
 43692.65567		 889.56308			42803.09259		226.54800		875.00000 
 43692.65567		 305.27265			43387.38302		70.72800		324.00000 
 43692.65567		 889.56308			42803.09259		226.54800		875.00000 
 43692.65567		 305.27265			43387.38302		70.72800		324.00000 
 43692.65567		 889.56308			42803.09259		226.54800		875.00000 
 43692.65567		 305.27265			43387.38302		70.72800		324.00000 
 43692.65567		 889.56308			42803.09259		226.54800		875.00000 
 43692.65567		 305.27265			43387.38302		70.72800		324.00000 
 43692.65567		 889.56308			42803.09259		226.54800		875.00000 
 43692.65567		 305.27265			43387.38302		70.72800		324.00000 
 43692.65567		 889.56308			42803.09259		226.54800		875.00000 
 43692.65567		 305.27265			43387.38302		70.72800		324.00000 
 43692.65567		 889.56308			42803.09259		226.54800		875.00000 
 43692.65567		 305.27265			43387.38302		70.72800		324.00000 
 43692.65567		 889.56308			42803.09259		226.54800		875.00000 
 43692.65567		 305.27265			43387.38302		70.72800		324.00000 
 43692.65567		 889.56308			42803.09259		226.54800		875.00000 
 43692.65567		 305.27265			43387.38302		70.72800		324.00000 
 43692.65567		 889.56308			42803.09259		226.54800		875.00000 
 43692.65567		 305.27265			43387.38302		70.72800		324.00000 
 43692.65567		 889.56308			42803.09259		226.54800		875.00000 
 43692.65567		 305.27265			43387.38302		70.72800		324.00000 
 43692.65567		 889.56308			42803.09259		226.54800		875.00000 
 43692.65567		 305.27265			43387.38302		70.72800		324.00000 
 43692.65567		 889.56308			42803.09259		226.54800		875.00000 
 43692.65567		 305.27265			43387.38302		70.72800		324.00000 
 43692.65567		 889.56308			42803.09259		226.54800		875.00000 
 43692.65567		 305.27265			43387.38302		70.72800		324.00000 
 43692.65567		 889.56308			42803.09259		226.54800		875.00000 
 43692.65567		 305.27265			43387.38302		70.72800		324.00000 
 43692.65567		 889.56308			42803.09259		226.54800		875.00000 
 43692.65567		 305.27265			43387.38302		70.72800		324.00000 
 43692.65567		 889.56308			42803.09259		226.54800		875.00000 
 43692.65567		 305.27265			43387.38302		70.72800		324.00000 
 43692.65567		 889.56308			42803.09259		226.54800		875.00000 
 43692.65567		 305.27265			43387.38302		70.72800		324.00000 
 43692.65567		 889.56308			42803.09259		226.54800		875.00000 
 43692.65567		 305.27265			43387.38302		70.72800		324.00000 
 43692.65567		 889.56308			42803.09259		226.54800		875.00000 
 43692.65567		 305.27265			43387.38302		70.72800		324.00000 
 43692.65567		 889.56308			42803.09259		226.54800		875.00000 
 43692.65567		 305.27265			43387.38302		70.72800		324.00000 
 43692.65567		 889.56308			42803.09259		226.54800		875.00000 
 43692.65567		 305.27265			43387.38302		70.72800		324.00000 
 43692.65567		 889.56308			42803.09259		226.54800		875.00000 
 43692.65567		 305.27265			43387.38302		70.72800		324.00000 
 43692.65567		 889.56308			42803.09259		226.54800		875.00000 
 43692.65567		 305.27265			43387.38302		70.72800		324.00000 
 43692.65567		 889.56308			42803.09259		226.54800		875.00000 
 43692.65567		 305.27265			43387.38302		70.72800		324.00000 
 43692.65567		 889.56308			42803.09259		226.54800		875.00000 
 43692.65567		 305.27265			43387.38302		70.72800		324.00000 
 43692.65567		 889.56308			42803.09259		226.54800		875.00000 
 43692.65567		 305.27265			43387.38302		70.72800		324.00000 
 43692.65567		 889.56308			42803.09259		226.54800		875.00000 
 43692.65567		 305.27265			43387.38302		70.72800		324.00000 
 43692.65567		 889.56308			42803.09259		226.54800		875.00000 
 43692.65567		 305.27265			43387.38302		70.72800		324.00000 
 43692.65567		 889.56308			42803.09259		226.54800		875.00000 
 43692.65567		 305.27265			43387.38302		70.72800		324.00000 
 43692.65567		 889.56308			42803.09259		226.54800		875.00000 
 43692.65567		 305.27265			43387.38302		70.72800		324.00000 
 43692.65567		 889.56308			42803.09259		226.54800		875.00000 
 43692.65567		 305.27265			43387.38302		70.72800		324.00000 
 43692.65567		 889.56308			42803.09259		226.54800		875.00000 
 43692.65567		 305.27265			43387.38302		70.72800		324.00000 
 43692.65567		 889.56308			42803.09259		226.54800		875.00000 
 43692.65567		 305.27265			43387.38302		70.72800		324.00000 
 43692.65567		 889.56308			42803.09259		226.54800		875.00000 
 43692.65567		 305.27265			43387.38302		70.72800		324.00000 
 43692.65567		 889.56308			42803.09259		226.54800		875.00000 
 43692.65567		 305.27265			43387.38302		70.72800		324.00000 
 43692.65567		 889.56308			42803.09259		226.54800		875.00000 
 43692.65567		 305.27265			43387.38302		70.72800		324.00000 
 43692.65567		 889.56308			42803.09259		226.54800		875.00000 
 43692.65567		 305.27265			43387.38302		70.72800		324.00000 
 43692.65567		 889.56308			42803.09259		226.54800		875.00000 
 43692.65567		 305.27265			43387.38302		70.72800		324.00000 
 43692.65567		 889.56308			42803.09259		226.54800		875.00000 
 43692.65567		 305.27265			43387.38302		70.72800		324.00000 
 43692.65567		 889.56308			42803.09259		226.54800		875.00000 
 43692.65567		 305.27265			43387.38302		70.72800		324.00000 
 43692.65567		 889.56308			42803.09259		226.54800		875.00000 
 43692.65567		 305.27265			43387.38302		70.72800		324.00000 
 43692.65567		 889.56308			42803.09259		226.54800		875.00000 
 43692.65567		 305.27265			43387.38302		70.72800		324.00000 
 43692.65567		 889.56308			42803.09259		226.54800		875.00000 
 43692.65567		 305.27265			43387.38302		70.72800		324.00000 
 43692.65567		 889.56308			42803.09259		226.54800		875.00000 
 43692.65567		 305.27265			43387.38302		70.72800		324.00000 
 43692.65567		 889.56308			42803.09259		226.54800		875.00000 
 43692.65567		 305.27265			43387.38302		70.72800		324.00000 
 43692.65567		 889.56308			42803.09259		226.54800		875.00000 
 43692.65567		 305.27265			43387.38302		70.72800		324.00000 
 43692.65567		 889.56308			42803.09259		226.54800		875.00000 
 43692.65567		 305.27265			43387.38302		70.72800		324.00000 
 43692.65567		 889.56308			42803.09259		226.54800		875.00000 
 43692.65567		 305.27265			43387.38302		70.72800		324.00000 
 43692.65567		 889.56308			42803.09259		226.54800		875.00000 
 43692.65567		 305.27265			43387.38302		70.72800		324.00000 
 43692.65567		 889.56308			42803.09259		226.54800		875.00000 
 43692.65567		 305.27265			43387.38302		70.72800		324.00000 
 43692.65567		 889.56308			42803.09259		226.54800		875.00000 
 43692.65567		 305.27265			43387.38302		70.72800		324.00000 
 43692.65567		 889.56308			42803.09259		226.54800		875.00000 
 43692.65567		 305.27265			43387.38302		70.72800		324.00000 
 43692.65567		 889.56308			42803.09259		226.54800		875.00000 
 43692.65567		 305.27265			43387.38302		70.72800		324.00000 
 43692.65567		 889.56308			42803.09259		226.54800		875.00000 
 43692.65567		 305.27265			43387.38302		70.72800		324.00000 
 43692.65567		 889.56308			42803.09259		226.54800		875.00000 
 43692.65567		 305.27265			43387.38302		70.72800		324.00000 
 43692.65567		 889.56308			42803.09259		226.54800		875.00000 
 43692.65567		 305.27265			43387.38302		70.72800		324.00000 
 43692.65567		 889.56308			42803.09259		226.54800		875.00000 
 43692.65567		 305.27265			43387.38302		70.72800		324.00000 
 43692.65567		 889.56308			42803.09259		226.54800		875.00000 
 43692.65567		 305.27265			43387.38302		70.72800		324.00000 
 43692.65567		 889.56308			42803.09259		226.54800		875.00000 
 43692.65567		 305.27265			43387.38302		70.72800		324.00000 
 43692.65567		 889.56308			42803.09259		226.54800		875.00000 
 43692.65567		 305.27265			43387.38302		70.72800		324.00000 
 43692.65567		 889.56308			42803.09259		226.54800		875.00000 
 43692.65567		 305.27265			43387.38302		70.72800		324.00000 
 43692.65567		 889.56308			42803.09259		226.54800		875.00000 
 43692.65567		 305.27265			43387.38302		70.72800		324.00000 
 43692.65567		 889.56308			42803.09259		226.54800		875.00000 
 43692.65567		 305.27265			43387.38302		70.72800		324.00000 
 43692.65567		 889.56308			42803.09259		226.54800		875.00000 
 43692.65567		 305.27265			43387.38302		70.72800		324.00000 
 43692.65567		 889.56308			42803.09259		226.54800		875.00000 
 43692.65567		 305.27265			43387.38302		70.72800		324.00000 
 43692.65567		 889.56308			42803.09259		226.54800		875.00000 
 43692.65567		 305.27265			43387.38302		70.72800		324.00000 
 43692.65567		 889.56308			42803.09259		226.54800		875.00000 
 43692.65567		 305.27265			43387.38302		70.72800		324.00000 
 43692.65567		 889.56308			42803.09259		226.54800		875.00000 
 43692.65567		 305.27265			43387.38302		70.72800		324.00000 
 43692.65567		 889.56308			42803.09259		226.54800		875.00000 
 43692.65567		 305.27265			43387.38302		70.72800		324.00000 
 43692.65567		 889.56308			42803.09259		226.54800		875.00000 
 43692.65567		 305.27265			43387.38302		70.72800		324.00000 
 43692.65567		 889.56308			42803.09259		226.54800		875.00000 
 43692.65567		 305.27265			43387.38302		70.72800		324.00000 
 43692.65567		 889.56308			42803.09259		226.54800		875.00000 
 43692.65567		 305.27265			43387.38302		70.72800		324.00000 
 43692.65567		 889.56308			42803.09259		226.54800		875.00000 
 43692.65567		 305.27265			43387.38302		70.72800		324.00000 
 43692.65567		 889.56308			42803.09259		226.54800		875.00000 
 43692.65567		 305.27265			43387.38302		70.72800		324.00000 
 43692.65567		 889.56308			42803.09259		226.54800		875.00000 
 43692.65567		 305.27265			43387.38302		70.72800		324.00000 
 43692.65567		 889.56308			42803.09259		226.54800		875.00000 
 43692.65567		 305.27265			43387.38302		70.72800		324.00000 
 43692.65567		 889.56308			42803.09259		226.54800		875.00000 
 43692.65567		 305.27265			43387.38302		70.72800		324.00000 
 43692.65567		 889.56308			42803.09259		226.54800		875.00000 
 43692.65567		 305.27265			43387.38302		70.72800		324.00000 
 43692.65567		 889.56308			42803.09259		226.54800		875.00000 
 43692.65567		 305.27265			43387.38302		70.72800		324.00000 
 43692.65567		 889.56308			42803.09259		226.54800		875.00000 
 43692.65567		 305.27265			43387.38302		70.72800		324.00000 
 43692.65567		 889.56308			42803.09259		226.54800		875.00000 
 43692.65567		 305.27265			43387.38302		70.72800		324.00000 
 43692.65567		 889.56308			42803.09259		226.54800		875.00000 
 43692.65567		 305.27265			43387.38302		70.72800		324.00000 
 43692.65567		 889.56308			42803.09259		226.54800		875.00000 
 43692.65567		 305.27265			43387.38302		70.72800		324.00000 
 43692.65567		 889.56308			42803.09259		226.54800		875.00000 
 43692.65567		 305.27265			43387.38302		70.72800		324.00000 
 43692.65567		 889.56308			42803.09259		226.54800		875.00000 
 43692.65567		 305.27265			43387.38302		70.72800		324.00000 
 43692.65567		 889.56308			42803.09259		226.54800		875.00000 
 43692.65567		 305.27265			43387.38302		70.72800		324.00000 
 43692.65567		 889.56308			42803.09259		226.54800		875.00000 
 43692.65567		 305.27265			43387.38302		70.72800		324.00000 
 43692.65567		 889.56308			42803.09259		226.54800		875.00000 
 43692.65567		 305.27265			43387.38302		70.72800		324.00000 
 43692.65567		 889.56308			42803.09259		226.54800		875.00000 
 43692.65567		 305.27265			43387.38302		70.72800		324.00000 
 43692.65567		 889.56308			42803.09259		226.54800		875.00000 
 43692.65567		 305.27265			43387.38302		70.72800		324.00000 
 43692.65567		 889.56308			42803.09259		226.54800		875.00000 
 43692.65567		 305.27265			43387.38302		70.72800		324.00000 
 43692.65567		 889.56308			42803.09259		226.54800		875.00000 
 43692.65567		 305.27265			43387.38302		70.72800		324.00000 
 43692.65567		 889.56308			42803.09259		226.54800		875.00000 
 43692.65567		 305.27265			43387.38302		70.72800		324.00000 
 43692.65567		 889.56308			42803.09259		226.54800		875.00000 
 43692.65567		 305.27265			43387.38302		70.72800		324.00000 
 43692.65567		 889.56308			42803.09259		226.54800		875.00000 
 43692.65567		 305.27265			43387.38302		70.72800		324.00000 
 43692.65567		 889.56308			42803.09259		226.54800		875.00000 
 43692.65567		 305.27265			43387.38302		70.72800		324.00000 
 43692.65567		 889.56308			42803.09259		226.54800		875.00000 
 43692.65567		 305.27265			43387.38302		70.72800		324.00000 
 43692.65567		 889.56308			42803.09259		226.54800		875.00000 
 43692.65567		 305.27265			43387.38302		70.72800		324.00000 
 43692.65567		 889.56308			42803.09259		226.54800		875.00000 
 43692.65567		 305.27265			43387.38302		70.72800		324.00000 
 43692.65567		 889.56308			42803.09259		226.54800		875.00000 
 43692.65567		 305.27265			43387.38302		70.72800		324.00000 
 43692.65567		 889.56308			42803.09259		226.54800		875.00000 
 43692.65567		 305.27265			43387.38302		70.72800		324.00000 
 43692.65567		 889.56308			42803.09259		226.54800		875.00000 
 43692.65567		 305.27265			43387.38302		70.72800		324.00000 
 43692.65567		 889.56308			42803.09259		226.54800		875.00000 
 43692.65567		 305.27265			43387.38302		70.72800		324.00000 
 43692.65567		 889.56308			42803.09259		226.54800		875.00000 
 43692.65567		 305.27265			43387.38302		70.72800		324.00000 
 43692.65567		 889.56308			42803.09259		226.54800		875.00000 
 43692.65567		 305.27265			43387.38302		70.72800		324.00000 
 43692.65567		 889.56308			42803.09259		226.54800		875.00000 
 43692.65567		 305.27265			43387.38302		70.72800		324.00000 
 43692.65567		 889.56308			42803.09259		226.54800		875.00000 
 43692.65567		 305.27265			43387.38302		70.72800		324.00000 
 43692.65567		 889.56308			42803.09259		226.54800		875.00000 
 43692.65567		 305.27265			43387.38302		70.72800		324.00000 
 43692.65567		 889.56308			42803.09259		226.54800		875.00000 
 43692.65567		 305.27265			43387.38302		70.72800		324.00000 
 43692.65567		 889.56308			42803.09259		226.54800		875.00000 
 43692.65567		 305.27265			43387.38302		70.72800		324.00000 
 43692.65567		 889.56308			42803.09259		226.54800		875.00000 
 43692.65567		 305.27265			43387.38302		70.72800		324.00000 
 43692.65567		 889.56308			42803.09259		226.54800		875.00000 
 43692.65567		 305.27265			43387.38302		70.72800		324.00000 
 43692.65567		 889.56308			42803.09259		226.54800		875.00000 
 43692.65567		 305.27265			43387.38302		70.72800		324.00000 
 43692.65567		 889.56308			42803.09259		226.54800		875.00000 
 43692.65567		 305.27265			43387.38302		70.72800		324.00000 
 43692.65567		 889.56308			42803.09259		226.54800		875.00000 
 43692.65567		 305.27265			43387.38302		70.72800		324.00000 
 43692.65567		 889.56308			42803.09259		226.54800		875.00000 
 43692.65567		 305.27265			43387.38302		70.72800		324.00000 
 43692.65567		 889.56308			42803.09259		226.54800		875.00000 
 43692.65567		 305.27265			43387.38302		70.72800		324.00000 
 43692.65567		 889.56308			42803.09259		226.54800		875.00000 
 43692.65567		 305.27265			43387.38302		70.72800		324.00000 
 43692.65567		 889.56308			42803.09259		226.54800		875.00000 
 43692.65567		 305.27265			43387.38302		70.72800		324.00000 
 43692.65567		 889.56308			42803.09259		226.54800		875.00000 
 43692.65567		 305.27265			43387.38302		70.72800		324.00000 
 43692.65567		 889.56308			42803.09259		226.54800		875.00000 
 43692.65567		 305.27265			43387.38302		70.72800		324.00000 
 43692.65567		 889.56308			42803.09259		226.54800		875.00000 
 43692.65567		 305.27265			43387.38302		70.72800		324.00000 
 43692.65567		 889.56308			42803.09259		226.54800		875.00000 
 43692.65567		 305.27265			43387.38302		70.72800		324.00000 
 43692.65567		 889.56308			42803.09259		226.54800		875.00000 
 43692.65567		 305.27265			43387.38302		70.72800		324.00000 
 43692.65567		 889.56308			42803.09259		226.54800		875.00000 
 43692.65567		 305.27265			43387.38302		70.72800		324.00000 
 43692.65567		 889.56308			42803.09259		226.54800		875.00000 
 43692.65567		 305.27265			43387.38302		70.72800		324.00000 
 43692.65567		 889.56308			42803.09259		226.54800		875.00000 
 43692.65567		 305.27265			43387.38302		70.72800		324.00000 
 43692.65567		 889.56308			42803.09259		226.54800		875.00000 
 43692.65567		 305.27265			43387.38302		70.72800		324.00000 
 43692.65567		 889.56308			42803.09259		226.54800		875.00000 
 43692.65567		 305.27265			43387.38302		70.72800		324.00000 
 43692.65567		 889.56308			42803.09259		226.54800		875.00000 
 43692.65567		 305.27265			43387.38302		70.72800		324.00000 
 43692.65567		 889.56308			42803.09259		226.54800		875.00000 
 43692.65567		 305.27265			43387.38302		70.72800		324.00000 
 43692.65567		 889.56308			42803.09259		226.54800		875.00000 
 43692.65567		 305.27265			43387.38302		70.72800		324.00000 
 43692.65567		 889.56308			42803.09259		226.54800		875.00000 
 43692.65567		 305.27265			43387.38302		70.72800		324.00000 
 43692.65567		 889.56308			42803.09259		226.54800		875.00000 
 43692.65567		 305.27265			43387.38302		70.72800		324.00000 
 43692.65567		 889.56308			42803.09259		226.54800		875.00000 
 43692.65567		 305.27265			43387.38302		70.72800		324.00000 
 43692.65567		 889.56308			42803.09259		226.54800		875.00000 
 43692.65567		 305.27265			43387.38302		70.72800		324.00000 
 43692.65567		 889.56308			42803.09259		226.54800		875.00000 
 43692.65567		 305.27265			43387.38302		70.72800		324.00000 
 43692.65567		 889.56308			42803.09259		226.54800		875.00000 
 43692.65567		 305.27265			43387.38302		70.72800		324.00000 
 43692.65567		 889.56308			42803.09259		226.54800		875.00000 
 43692.65567		 305.27265			43387.38302		70.72800		324.00000 
 43692.65567		 889.56308			42803.09259		226.54800		875.00000 
 43692.65567		 305.27265			43387.38302		70.72800		324.00000 
 43692.65567		 889.56308			42803.09259		226.54800		875.00000 
 43692.65567		 305.27265			43387.38302		70.72800		324.00000 
 43692.65567		 889.56308			42803.09259		226.54800		875.00000 
 43692.65567		 305.27265			43387.38302		70.72800		324.00000 
 43692.65567		 889.56308			42803.09259		226.54800		875.00000 
 43692.65567		 305.27265			43387.38302		70.72800		324.00000 
 43692.65567		 889.56308			42803.09259		226.54800		875.00000 
 43692.65567		 305.27265			43387.38302		70.72800		324.00000 
 43692.65567		 889.56308			42803.09259		226.54800		875.00000 
 43692.65567		 305.27265			43387.38302		70.72800		324.00000 
 43692.65567		 889.56308			42803.09259		226.54800		875.00000 
 43692.65567		 305.27265			43387.38302		70.72800		324.00000 
 43692.65567		 889.56308			42803.09259		226.54800		875.00000 
 43692.65567		 305.27265			43387.38302		70.72800		324.00000 
 43692.65567		 889.56308			42803.09259		226.54800		875.00000 
 43692.65567		 305.27265			43387.38302		70.72800		324.00000 
 43692.65567		 889.56308			42803.09259		226.54800		875.00000 
 43692.65567		 305.27265			43387.38302		70.72800		324.00000 
 43692.65567		 889.56308			42803.09259		226.54800		875.00000 
 43692.65567		 305.27265			43387.38302		70.72800		324.00000 
 43692.65567		 889.56308			42803.09259		226.54800		875.00000 
 43692.65567		 305.27265			43387.38302		70.72800		324.00000 
 43692.65567		 889.56308			42803.09259		226.54800		875.00000 
 43692.65567		 305.27265			43387.38302		70.72800		324.00000 
 43692.65567		 889.56308			42803.09259		226.54800		875.00000 
 43692.65567		 305.27265			43387.38302		70.72800		324.00000 
 43692.65567		 889.56308			42803.09259		226.54800		875.00000 
 43692.65567		 305.27265			43387.38302		70.72800		324.00000 
 43692.65567		 889.56308			42803.09259		226.54800		875.00000 
 43692.65567		 305.27265			43387.38302		70.72800		324.00000 
 43692.65567		 889.56308			42803.09259		226.54800		875.00000 
 43692.65567		 305.27265			43387.38302		70.72800		324.00000 
 43692.65567		 889.56308			42803.09259		226.54800		875.00000 
 43692.65567		 305.27265			43387.38302		70.72800		324.00000 
 43692.65567		 889.56308			42803.09259		226.54800		875.00000 
 43692.65567		 305.27265			43387.38302		70.72800		324.00000 
 43692.65567		 889.56308			42803.09259		226.54800		875.00000 
 43692.65567		 305.27265			43387.38302		70.72800		324.00000 
 43692.65567		 889.56308			42803.09259		226.54800		875.00000 
 43692.65567		 305.27265			43387.38302		70.72800		324.00000 
 43692.65567		 889.56308			42803.09259		226.54800		875.00000 
 43692.65567		 305.27265			43387.38302		70.72800		324.00000 
 43692.65567		 889.56308			42803.09259		226.54800		875.00000 
 43692.65567		 305.27265			43387.38302		70.72800		324.00000 
 43692.65567		 889.56308			42803.09259		226.54800		875.00000 
 43692.65567		 305.27265			43387.38302		70.72800		324.00000 
 43692.65567		 889.56308			42803.09259		226.54800		875.00000 
 43692.65567		 305.27265			43387.38302		70.72800		324.00000 
 43692.65567		 889.56308			42803.09259		226.54800		875.00000 
 43692.65567		 305.27265			43387.38302		70.72800		324.00000 
 43692.65567		 889.56308			42803.09259		226.54800		875.00000 
 43692.65567		 305.27265			43387.38302		70.72800		324.00000 
 43692.65567		 889.56308			42803.09259		226.54800		875.00000 
 43692.65567		 305.27265			43387.38302		70.72800		324.00000 
 43692.65567		 889.56308			42803.09259		226.54800		875.00000 
 43692.65567		 305.27265			43387.38302		70.72800		324.00000 
 43692.65567		 889.56308			42803.09259		226.54800		875.00000 
 43692.65567		 305.27265			43387.38302		70.72800		324.00000 
 43692.65567		 889.56308			42803.09259		226.54800		875.00000 
 43692.65567		 305.27265			43387.38302		70.72800		324.00000 
 43692.65567		 889.56308			42803.09259		226.54800		875.00000 
 43692.65567		 305.27265			43387.38302		70.72800		324.00000 
 43692.65567		 889.56308			42803.09259		226.54800		875.00000 
 43692.65567		 305.27265			43387.38302		70.72800		324.00000 
 43692.65567		 889.56308			42803.09259		226.54800		875.00000 
 43692.65567		 305.27265			43387.38302		70.72800		324.00000 
 43692.65567		 889.56308			42803.09259		226.54800		875.00000 
 43692.65567		 305.27265			43387.38302		70.72800		324.00000 
 43692.65567		 889.56308			42803.09259		226.54800		875.00000 
 43692.65567		 305.27265			43387.38302		70.72800		324.00000 
 43692.65567		 889.56308			42803.09259		226.54800		875.00000 
 43692.65567		 305.27265			43387.38302		70.72800		324.00000 
 43692.65567		 889.56308			42803.09259		226.54800		875.00000 
 43692.65567		 305.27265			43387.38302		70.72800		324.00000 
 43692.65567		 889.56308			42803.09259		226.54800		875.00000 
 43692.65567		 305.27265			43387.38302		70.72800		324.00000 
 43692.65567		 889.56308			42803.09259		226.54800		875.00000 
 43692.65567		 305.27265			43387.38302		70.72800		324.00000 
 43692.65567		 889.56308			42803.09259		226.54800		875.00000 
 43692.65567		 305.27265			43387.38302		70.72800		324.00000 
 43692.65567		 889.56308			42803.09259		226.54800		875.00000 
 43692.65567		 305.27265			43387.38302		70.72800		324.00000 
 43692.65567		 889.56308			42803.09259		226.54800		875.00000 
 43692.65567		 305.27265			43387.38302		70.72800		324.00000 
 43692.65567		 889.56308			42803.09259		226.54800		875.00000 
 43692.65567		 305.27265			43387.38302		70.72800		324.00000 
 43692.65567		 889.56308			42803.09259		226.54800		875.00000 
 43692.65567		 305.27265			43387.38302		70.72800		324.00000 
 43692.65567		 889.56308			42803.09259		226.54800		875.00000 
 43692.65567		 305.27265			43387.38302		70.72800		324.00000 
 43692.65567		 889.56308			42803.09259		226.54800		875.00000 
 43692.65567		 305.27265			43387.38302		70.72800		324.00000 
 43692.65567		 889.56308			42803.09259		226.54800		875.00000 
 43692.65567		 305.27265			43387.38302		70.72800		324.00000 
 43692.65567		 889.56308			42803.09259		226.54800		875.00000 
 43692.65567		 305.27265			43387.38302		70.72800		324.00000 
 43692.65567		 889.56308			42803.09259		226.54800		875.00000 
 43692.65567		 305.27265			43387.38302		70.72800		324.00000 
 43692.65567		 889.56308			42803.09259		226.54800		875.00000 
 43692.65567		 305.27265			43387.38302		70.72800		324.00000 
 43692.65567		 889.56308			42803.09259		226.54800		875.00000 
 43692.65567		 305.27265			43387.38302		70.72800		324.00000 
 43692.65567		 889.56308			42803.09259		226.54800		875.00000 
 43692.65567		 305.27265			43387.38302		70.72800		324.00000 
 43692.65567		 889.56308			42803.09259		226.54800		875.00000 
 43692.65567		 305.27265			43387.38302		70.72800		324.00000 
 43692.65567		 889.56308			42803.09259		226.54800		875.00000 
 43692.65567		 305.27265			43387.38302		70.72800		324.00000 
 43692.65567		 889.56308			42803.09259		226.54800		875.00000 
 43692.65567		 305.27265			43387.38302		70.72800		324.00000 
 43692.65567		 889.56308			42803.09259		226.54800		875.00000 
 43692.65567		 305.27265			43387.38302		70.72800		324.00000 
 43692.65567		 889.56308			42803.09259		226.54800		875.00000 
 43692.65567		 305.27265			43387.38302		70.72800		324.00000 
 43692.65567		 889.56308			42803.09259		226.54800		875.00000 
 43692.65567		 305.27265			43387.38302		70.72800		324.00000 
 43692.65567		 889.56308			42803.09259		226.54800		875.00000 
 43692.65567		 305.27265			43387.38302		70.72800		324.00000 
 43692.65567		 889.56308			42803.09259		226.54800		875.00000 
 43692.65567		 305.27265			43387.38302		70.72800		324.00000 
 43692.65567		 889.56308			42803.09259		226.54800		875.00000 
 43692.65567		 305.27265			43387.38302		70.72800		324.00000 
 43692.65567		 889.56308			42803.09259		226.54800		875.00000 
 43692.65567		 305.27265			43387.38302		70.72800		324.00000 
 43692.65567		 889.56308			42803.09259		226.54800		875.00000 
 43692.65567		 305.27265			43387.38302		70.72800		324.00000 
 43692.65567		 889.56308			42803.09259		226.54800		875.00000 
 43692.65567		 305.27265			43387.38302		70.72800		324.00000 
 43692.65567		 889.56308			42803.09259		226.54800		875.00000 
 43692.65567		 305.27265			43387.38302		70.72800		324.00000 
 43692.65567		 889.56308			42803.09259		226.54800		875.00000 
 43692.65567		 305.27265			43387.38302		70.72800		324.00000 
 43692.65567		 889.56308			42803.09259		226.54800		875.00000 
 43692.65567		 305.27265			43387.38302		70.72800		324.00000 
 43692.65567		 889.56308			42803.09259		226.54800		875.00000 
 43692.65567		 305.27265			43387.38302		70.72800		324.00000 
 43692.65567		 889.56308			42803.09259		226.54800		875.00000 
 43692.65567		 305.27265			43387.38302		70.72800		324.00000 
 43692.65567		 889.56308			42803.09259		226.54800		875.00000 
 43692.65567		 305.27265			43387.38302		70.72800		324.00000 
 43692.65567		 889.56308			42803.09259		226.54800		875.00000 
 43692.65567		 305.27265			43387.38302		70.72800		324.00000 
 43692.65567		 889.56308			42803.09259		226.54800		875.00000 
 43692.65567		 305.27265			43387.38302		70.72800		324.00000 
 43692.65567		 889.56308			42803.09259		226.54800		875.00000 
 43692.65567		 305.27265			43387.38302		70.72800		324.00000 
 43692.65567		 889.56308			42803.09259		226.54800		875.00000 
 43692.65567		 305.27265			43387.38302		70.72800		324.00000 
 43692.65567		 889.56308			42803.09259		226.54800		875.00000 
 43692.65567		 305.27265			43387.38302		70.72800		324.00000 
 43692.65567		 889.56308			42803.09259		226.54800		875.00000 
 43692.65567		 305.27265			43387.38302		70.72800		324.00000 
 43692.65567		 889.56308			42803.09259		226.54800		875.00000 
 43692.65567		 305.27265			43387.38302		70.72800		324.00000 
 43692.65567		 889.56308			42803.09259		226.54800		875.00000 
 43692.65567		 305.27265			43387.38302		70.72800		324.00000 
 43692.65567		 889.56308			42803.09259		226.54800		875.00000 
 43692.65567		 305.27265			43387.38302		70.72800		324.00000 
 43692.65567		 889.56308			42803.09259		226.54800		875.00000 
 43692.65567		 305.27265			43387.38302		70.72800		324.00000 
 43692.65567		 889.56308			42803.09259		226.54800		875.00000 
 43692.65567		 305.27265			43387.38302		70.72800		324.00000 
 43692.65567		 889.56308			42803.09259		226.54800		875.00000 
 43692.65567		 305.27265			43387.38302		70.72800		324.00000 
 43692.65567		 889.56308			42803.09259		226.54800		875.00000 
 43692.65567		 305.27265			43387.38302		70.72800		324.00000 
 43692.65567		 889.56308			42803.09259		226.54800		875.00000 
 43692.65567		 305.27265			43387.38302		70.72800		324.00000 
 43692.65567		 889.56308			42803.09259		226.54800		875.00000 
 43692.65567		 305.27265			43387.38302		70.72800		324.00000 
 43692.65567		 889.56308			42803.09259		226.54800		875.00000 
 43692.65567		 305.27265			43387.38302		70.72800		324.00000 
 43692.65567		 889.56308			42803.09259		226.54800		875.00000 
 43692.65567		 305.27265			43387.38302		70.72800		324.00000 
 43692.65567		 889.56308			42803.09259		226.54800		875.00000 
 43692.65567		 305.27265			43387.38302		70.72800		324.00000 
 43692.65567		 889.56308			42803.09259		226.54800		875.00000 
 43692.65567		 305.27265			43387.38302		70.72800		324.00000 
 43692.65567		 889.56308			42803.09259		226.54800		875.00000 
 43692.65567		 305.27265			43387.38302		70.72800		324.00000 
 43692.65567		 889.56308			42803.09259		226.54800		875.00000 
 43692.65567		 305.27265			43387.38302		70.72800		324.00000 
 43692.65567		 889.56308			42803.09259		226.54800		875.00000 
 43692.65567		 305.27265			43387.38302		70.72800		324.00000 
 43692.65567		 889.56308			42803.09259		226.54800		875.00000 
 43692.65567		 305.27265			43387.38302		70.72800		324.00000 
 43692.65567		 889.56308			42803.09259		226.54800		875.00000 
 43692.65567		 305.27265			43387.38302		70.72800		324.00000 
 43692.65567		 889.56308			42803.09259		226.54800		875.00000 
 43692.65567		 305.27265			43387.38302		70.72800		324.00000 
 43692.65567		 889.56308			42803.09259		226.54800		875.00000 
 43692.65567		 305.27265			43387.38302		70.72800		324.00000 
 43692.65567		 889.56308			42803.09259		226.54800		875.00000 
 43692.65567		 305.27265			43387.38302		70.72800		324.00000 
 43692.65567		 889.56308			42803.09259		226.54800		875.00000 
 43692.65567		 305.27265			43387.38302		70.72800		324.00000 
 43692.65567		 889.56308			42803.09259		226.54800		875.00000 
 43692.65567		 305.27265			43387.38302		70.72800		324.00000 
 43692.65567		 889.56308			42803.09259		226.54800		875.00000 
 43692.65567		 305.27265			43387.38302		70.72800		324.00000 
 43692.65567		 889.56308			42803.09259		226.54800		875.00000 
 43692.65567		 305.27265			43387.38302		70.72800		324.00000 
 43692.65567		 889.56308			42803.09259		226.54800		875.00000 
 43692.65567		 305.27265			43387.38302		70.72800		324.00000 
 43692.65567		 889.56308			42803.09259		226.54800		875.00000 
 43692.65567		 305.27265			43387.38302		70.72800		324.00000 
 43692.65567		 889.56308			42803.09259		226.54800		875.00000 
 43692.65567		 305.27265			43387.38302		70.72800		324.00000 
 43692.65567		 889.56308			42803.09259		226.54800		875.00000 
 43692.65567		 305.27265			43387.38302		70.72800		324.00000 
 43692.65567		 889.56308			42803.09259		226.54800		875.00000 
 43692.65567		 305.27265			43387.38302		70.72800		324.00000 
 43692.65567		 889.56308			42803.09259		226.54800		875.00000 
 43692.65567		 305.27265			43387.38302		70.72800		324.00000 
 43692.65567		 889.56308			42803.09259		226.54800		875.00000 
 43692.65567		 305.27265			43387.38302		70.72800		324.00000 
 43692.65567		 889.56308			42803.09259		226.54800		875.00000 
 43692.65567		 305.27265			43387.38302		70.72800		324.00000 
 43692.65567		 889.56308			42803.09259		226.54800		875.00000 
 43692.65567		 305.27265			43387.38302		70.72800		324.00000 
 43692.65567		 889.56308			42803.09259		226.54800		875.00000 
 43692.65567		 305.27265			43387.38302		70.72800		324.00000 
 43692.65567		 889.56308			42803.09259		226.54800		875.00000 
 43692.65567		 305.27265			43387.38302		70.72800		324.00000 
 43692.65567		 889.56308			42803.09259		226.54800		875.00000 
 43692.65567		 305.27265			43387.38302		70.72800		324.00000 
 43692.65567		 889.56308			42803.09259		226.54800		875.00000 
 43692.65567		 305.27265			43387.38302		70.72800		324.00000 
 43692.65567		 889.56308			42803.09259		226.54800		875.00000 
 43692.65567		 305.27265			43387.38302		70.72800		324.00000 
 43692.65567		 889.56308			42803.09259		226.54800		875.00000 
 43692.65567		 305.27265			43387.38302		70.72800		324.00000 
 43692.65567		 889.56308			42803.09259		226.54800		875.00000 
 43692.65567		 305.27265			43387.38302		70.72800		324.00000 
 43692.65567		 889.56308			42803.09259		226.54800		875.00000 
 43692.65567		 305.27265			43387.38302		70.72800		324.00000 
 43692.65567		 889.56308			42803.09259		226.54800		875.00000 
 43692.65567		 305.27265			43387.38302		70.72800		324.00000 
 43692.65567		 889.56308			42803.09259		226.54800		875.00000 
 43692.65567		 305.27265			43387.38302		70.72800		324.00000 
 43692.65567		 889.56308			42803.09259		226.54800		875.00000 
 43692.65567		 305.27265			43387.38302		70.72800		324.00000 
 43692.65567		 889.56308			42803.09259		226.54800		875.00000 
 43692.65567		 305.27265			43387.38302		70.72800		324.00000 
 43692.65567		 889.56308			42803.09259		226.54800		875.00000 
 43692.65567		 305.27265			43387.38302		70.72800		324.00000 
 43692.65567		 889.56308			42803.09259		226.54800		875.00000 
 43692.65567		 305.27265			43387.38302		70.72800		324.00000 
 43692.65567		 889.56308			42803.09259		226.54800		875.00000 
 43692.65567		 305.27265			43387.38302		70.72800		324.00000 
 43692.65567		 889.56308			42803.09259		226.54800		875.00000 
 43692.65567		 305.27265			43387.38302		70.72800		324.00000 
 43692.65567		 889.56308			42803.09259		226.54800		875.00000 
 43692.65567		 305.27265			43387.38302		70.72800		324.00000 
 43692.65567		 889.56308			42803.09259		226.54800		875.00000 
 43692.65567		 305.27265			43387.38302		70.72800		324.00000 
 43692.65567		 889.56308			42803.09259		226.54800		875.00000 
 43692.65567		 305.27265			43387.38302		70.72800		324.00000 
 43692.65567		 889.56308			42803.09259		226.54800		875.00000 
 43692.65567		 305.27265			43387.38302		70.72800		324.00000 
 43692.65567		 889.56308			42803.09259		226.54800		875.00000 
 43692.65567		 305.27265			43387.38302		70.72800		324.00000 
 43692.65567		 889.56308			42803.09259		226.54800		875.00000 
 43692.65567		 305.27265			43387.38302		70.72800		324.00000 
 43692.65567		 889.56308			42803.09259		226.54800		875.00000 
 43692.65567		 305.27265			43387.38302		70.72800		324.00000 
 43692.65567		 889.56308			42803.09259		226.54800		875.00000 
 43692.65567		 305.27265			43387.38302		70.72800		324.00000 
 43692.65567		 889.56308			42803.09259		226.54800		875.00000 
 43692.65567		 305.27265			43387.38302		70.72800		324.00000 
 43692.65567		 889.56308			42803.09259		226.54800		875.00000 
 43692.65567		 305.27265			43387.38302		70.72800		324.00000 
 43692.65567		 889.56308			42803.09259		226.54800		875.00000 
 43692.65567		 305.27265			43387.38302		70.72800		324.00000 
 43692.65567		 889.56308			42803.09259		226.54800		875.00000 
 43692.65567		 305.27265			43387.38302		70.72800		324.00000 
 43692.65567		 889.56308			42803.09259		226.54800		875.00000 
 43692.65567		 305.27265			43387.38302		70.72800		324.00000 
 43692.65567		 889.56308			42803.09259		226.54800		875.00000 
 43692.65567		 305.27265			43387.38302		70.72800		324.00000 
 43692.65567		 889.56308			42803.09259		226.54800		875.00000 
 43692.65567		 305.27265			43387.38302		70.72800		324.00000 
 43692.65567		 889.56308			42803.09259		226.54800		875.00000 
 43692.65567		 305.27265			43387.38302		70.72800		324.00000 
 43692.65567		 889.56308			42803.09259		226.54800		875.00000 
 43692.65567		 305.27265			43387.38302		70.72800		324.00000 
 43692.65567		 889.56308			42803.09259		226.54800		875.00000 
 43692.65567		 305.27265			43387.38302		70.72800		324.00000 
 43692.65567		 889.56308			42803.09259		226.54800		875.00000 
 43692.65567		 305.27265			43387.38302		70.72800		324.00000 
 43692.65567		 889.56308			42803.09259		226.54800		875.00000 
 43692.65567		 305.27265			43387.38302		70.72800		324.00000 
 43692.65567		 889.56308			42803.09259		226.54800		875.00000 
 43692.65567		 305.27265			43387.38302		70.72800		324.00000 
 43692.65567		 889.56308			42803.09259		226.54800		875.00000 
 43692.65567		 305.27265			43387.38302		70.72800		324.00000 
 43692.65567		 889.56308			42803.09259		226.54800		875.00000 
 43692.65567		 305.27265			43387.38302		70.72800		324.00000 
 43692.65567		 889.56308			42803.09259		226.54800		875.00000 
 43692.65567		 305.27265			43387.38302		70.72800		324.00000 
 43692.65567		 889.56308			42803.09259		226.54800		875.00000 
 43692.65567		 305.27265			43387.38302		70.72800		324.00000 
 43692.65567		 889.56308			42803.09259		226.54800		875.00000 
 43692.65567		 305.27265			43387.38302		70.72800		324.00000 
 43692.65567		 889.56308			42803.09259		226.54800		875.00000 
 43692.65567		 305.27265			43387.38302		70.72800		324.00000 
 43692.65567		 889.56308			42803.09259		226.54800		875.00000 
 43692.65567		 305.27265			43387.38302		70.72800		324.00000 
 43692.65567		 889.56308			42803.09259		226.54800		875.00000 
 43692.65567		 305.27265			43387.38302		70.72800		324.00000 
 43692.65567		 889.56308			42803.09259		226.54800		875.00000 
 43692.65567		 305.27265			43387.38302		70.72800		324.00000 
 43692.65567		 889.56308			42803.09259		226.54800		875.00000 
 43692.65567		 305.27265			43387.38302		70.72800		324.00000 
 43692.65567		 889.56308			42803.09259		226.54800		875.00000 
 43692.65567		 305.27265			43387.38302		70.72800		324.00000 
 43692.65567		 889.56308			42803.09259		226.54800		875.00000 
 43692.65567		 305.27265			43387.38302		70.72800		324.00000 
 43692.65567		 889.56308			42803.09259		226.54800		875.00000 
 43692.65567		 305.27265			43387.38302		70.72800		324.00000 
 43692.65567		 889.56308			42803.09259		226.54800		875.00000 
 43692.65567		 305.27265			43387.38302		70.72800		324.00000 
 43692.65567		 889.56308			42803.09259		226.54800		875.00000 
 43692.65567		 305.27265			43387.38302		70.72800		324.00000 
 43692.65567		 889.56308			42803.09259		226.54800		875.00000 
 43692.65567		 305.27265			43387.38302		70.72800		324.00000 
 43692.65567		 889.56308			42803.09259		226.54800		875.00000 
 43692.65567		 305.27265			43387.38302		70.72800		324.00000 
 43692.65567		 889.56308			42803.09259		226.54800		875.00000 
 43692.65567		 305.27265			43387.38302		70.72800		324.00000 
 43692.65567		 889.56308			42803.09259		226.54800		875.00000 
 43692.65567		 305.27265			43387.38302		70.72800		324.00000 
 43692.65567		 889.56308			42803.09259		226.54800		875.00000 
 43692.65567		 305.27265			43387.38302		70.72800		324.00000 
 43692.65567		 889.56308			42803.09259		226.54800		875.00000 
 43692.65567		 305.27265			43387.38302		70.72800		324.00000 
 43692.65567		 889.56308			42803.09259		226.54800		875.00000 
 43692.65567		 305.27265			43387.38302		70.72800		324.00000 
 43692.65567		 889.56308			42803.09259		226.54800		875.00000 
 43692.65567		 305.27265			43387.38302		70.72800		324.00000 
 43692.65567		 889.56308			42803.09259		226.54800		875.00000 
 43692.65567		 305.27265			43387.38302		70.72800		324.00000 
 43692.65567		 889.56308			42803.09259		226.54800		875.00000 
 43692.65567		 305.27265			43387.38302		70.72800		324.00000 
 43692.65567		 889.56308			42803.09259		226.54800		875.00000 
 43692.65567		 305.27265			43387.38302		70.72800		324.00000 
 43692.65567		 889.56308			42803.09259		226.54800		875.00000 
 43692.65567		 305.27265			43387.38302		70.72800		324.00000 
 43692.65567		 889.56308			42803.09259		226.54800		875.00000 
 43692.65567		 305.27265			43387.38302		70.72800		324.00000 
 43692.65567		 889.56308			42803.09259		226.54800		875.00000 
 43692.65567		 305.27265			43387.38302		70.72800		324.00000 
 43692.65567		 889.56308			42803.09259		226.54800		875.00000 
 43692.65567		 305.27265			43387.38302		70.72800		324.00000 
 43692.65567		 889.56308			42803.09259		226.54800		875.00000 
 43692.65567		 305.27265			43387.38302		70.72800		324.00000 
 43692.65567		 889.56308			42803.09259		226.54800		875.00000 
 43692.65567		 305.27265			43387.38302		70.72800		324.00000 
 43692.65567		 889.56308			42803.09259		226.54800		875.00000 
 43692.65567		 305.27265			43387.38302		70.72800		324.00000 
 43692.65567		 889.56308			42803.09259		226.54800		875.00000 
 43692.65567		 305.27265			43387.38302		70.72800		324.00000 
 43692.65567		 889.56308			42803.09259		226.54800		875.00000 
 43692.65567		 305.27265			43387.38302		70.72800		324.00000 
 43692.65567		 889.56308			42803.09259		226.54800		875.00000 
 43692.65567		 305.27265			43387.38302		70.72800		324.00000 
 43692.65567		 889.56308			42803.09259		226.54800		875.00000 
 43692.65567		 305.27265			43387.38302		70.72800		324.00000 
 43692.65567		 889.56308			42803.09259		226.54800		875.00000 
 43692.65567		 305.27265			43387.38302		70.72800		324.00000 
 43692.65567		 889.56308			42803.09259		226.54800		875.00000 
 43692.65567		 305.27265			43387.38302		70.72800		324.00000 
 43692.65567		 889.56308			42803.09259		226.54800		875.00000 
 43692.65567		 305.27265			43387.38302		70.72800		324.00000 
 43692.65567		 889.56308			42803.09259		226.54800		875.00000 
 43692.65567		 305.27265			43387.38302		70.72800		324.00000 
 43692.65567		 889.56308			42803.09259		226.54800		875.00000 
 43692.65567		 305.27265			43387.38302		70.72800		324.00000 
 43692.65567		 889.56308			42803.09259		226.54800		875.00000 
 43692.65567		 305.27265			43387.38302		70.72800		324.00000 
 43692.65567		 889.56308			42803.09259		226.54800		875.00000 
 43692.65567		 305.27265			43387.38302		70.72800		324.00000 
 43692.65567		 889.56308			42803.09259		226.54800		875.00000 
 43692.65567		 305.27265			43387.38302		70.72800		324.00000 
 43692.65567		 889.56308			42803.09259		226.54800		875.00000 
 43692.65567		 305.27265			43387.38302		70.72800		324.00000 
 43692.65567		 889.56308			42803.09259		226.54800		875.00000 
 43692.65567		 305.27265			43387.38302		70.72800		324.00000 
 43692.65567		 889.56308			42803.09259		226.54800		875.00000 
 43692.65567		 305.27265			43387.38302		70.72800		324.00000 
 43692.65567		 889.56308			42803.09259		226.54800		875.00000 
 43692.65567		 305.27265			43387.38302		70.72800		324.00000 
 43692.65567		 889.56308			42803.09259		226.54800		875.00000 
 43692.65567		 305.27265			43387.38302		70.72800		324.00000 
 43692.65567		 889.56308			42803.09259		226.54800		875.00000 
 43692.65567		 305.27265			43387.38302		70.72800		324.00000 
 43692.65567		 889.56308			42803.09259		226.54800		875.00000 
 43692.65567		 305.27265			43387.38302		70.72800		324.00000 
 43692.65567		 889.56308			42803.09259		226.54800		875.00000 
 43692.65567		 305.27265			43387.38302		70.72800		324.00000 
 43692.65567		 889.56308			42803.09259		226.54800		875.00000 
 43692.65567		 305.27265			43387.38302		70.72800		324.00000 
 43692.65567		 889.56308			42803.09259		226.54800		875.00000 
 43692.65567		 305.27265			43387.38302		70.72800		324.00000 
 43692.65567		 889.56308			42803.09259		226.54800		875.00000 
 43692.65567		 305.27265			43387.38302		70.72800		324.00000 
 43692.65567		 889.56308			42803.09259		226.54800		875.00000 
 43692.65567		 305.27265			43387.38302		70.72800		324.00000 
 43692.65567		 889.56308			42803.09259		226.54800		875.00000 
 43692.65567		 305.27265			43387.38302		70.72800		324.00000 
 43692.65567		 889.56308			42803.09259		226.54800		875.00000 
 43692.65567		 305.27265			43387.38302		70.72800		324.00000 
 43692.65567		 889.56308			42803.09259		226.54800		875.00000 
 43692.65567		 305.27265			43387.38302		70.72800		324.00000 
 43692.65567		 889.56308			42803.09259		226.54800		875.00000 
 43692.65567		 305.27265			43387.38302		70.72800		324.00000 
 43692.65567		 889.56308			42803.09259		226.54800		875.00000 
 43692.65567		 305.27265			43387.38302		70.72800		324.00000 
 43692.65567		 889.56308			42803.09259		226.54800		875.00000 
 43692.65567		 305.27265			43387.38302		70.72800		324.00000 
 43692.65567		 889.56308			42803.09259		226.54800		875.00000 
 43692.65567		 305.27265			43387.38302		70.72800		324.00000 
 43692.65567		 889.56308			42803.09259		226.54800		875.00000 
 43692.65567		 305.27265			43387.38302		70.72800		324.00000 
 43692.65567		 889.56308			42803.09259		226.54800		875.00000 
 43692.65567		 305.27265			43387.38302		70.72800		324.00000 
 43692.65567		 889.56308			42803.09259		226.54800		875.00000 
 43692.65567		 305.27265			43387.38302		70.72800		324.00000 
 43692.65567		 889.56308			42803.09259		226.54800		875.00000 
 43692.65567		 305.27265			43387.38302		70.72800		324.00000 
 43692.65567		 889.56308			42803.09259		226.54800		875.00000 
 43692.65567		 305.27265			43387.38302		70.72800		324.00000 
 43692.65567		 889.56308			42803.09259		226.54800		875.00000 
 43692.65567		 305.27265			43387.38302		70.72800		324.00000 
 43692.65567		 889.56308			42803.09259		226.54800		875.00000 
 43692.65567		 305.27265			43387.38302		70.72800		324.00000 
 43692.65567		 889.56308			42803.09259		226.54800		875.00000 
 43692.65567		 305.27265			43387.38302		70.72800		324.00000 
 43692.65567		 889.56308			42803.09259		226.54800		875.00000 
 43692.65567		 305.27265			43387.38302		70.72800		324.00000 
 43692.65567		 889.56308			42803.09259		226.54800		875.00000 
 43692.65567		 305.27265			43387.38302		70.72800		324.00000 
 43692.65567		 889.56308			42803.09259		226.54800		875.00000 
 43692.65567		 305.27265			43387.38302		70.72800		324.00000 
 43692.65567		 889.56308			42803.09259		226.54800		875.00000 
 43692.65567		 305.27265			43387.38302		70.72800		324.00000 
 43692.65567		 889.56308			42803.09259		226.54800		875.00000 
 43692.65567		 305.27265			43387.38302		70.72800		324.00000 
 43692.65567		 889.56308			42803.09259		226.54800		875.00000 
 43692.65567		 305.27265			43387.38302		70.72800		324.00000 
 43692.65567		 889.56308			42803.09259		226.54800		875.00000 
 43692.65567		 305.27265			43387.38302		70.72800		324.00000 
 43692.65567		 889.56308			42803.09259		226.54800		875.00000 
 43692.65567		 305.27265			43387.38302		70.72800		324.00000 
 43692.65567		 889.56308			42803.09259		226.54800		875.00000 
 43692.65567		 305.27265			43387.38302		70.72800		324.00000 
 43692.65567		 889.56308			42803.09259		226.54800		875.00000 
 43692.65567		 305.27265			43387.38302		70.72800		324.00000 
 43692.65567		 889.56308			42803.09259		226.54800		875.00000 
 43692.65567		 305.27265			43387.38302		70.72800		324.00000 
 43692.65567		 889.56308			42803.09259		226.54800		875.00000 
 43692.65567		 305.27265			43387.38302		70.72800		324.00000 
 43692.65567		 889.56308			42803.09259		226.54800		875.00000 
 43692.65567		 305.27265			43387.38302		70.72800		324.00000 
 43692.65567		 889.56308			42803.09259		226.54800		875.00000 
 43692.65567		 305.27265			43387.38302		70.72800		324.00000 
 43692.65567		 889.56308			42803.09259		226.54800		875.00000 
 43692.65567		 305.27265			43387.38302		70.72800		324.00000 
 43692.65567		 889.56308			42803.09259		226.54800		875.00000 
 43692.65567		 305.27265			43387.38302		70.72800		324.00000 
 43692.65567		 889.56308			42803.09259		226.54800		875.00000 
 43692.65567		 305.27265			43387.38302		70.72800		324.00000 
 43692.65567		 889.56308			42803.09259		226.54800		875.00000 
 43692.65567		 305.27265			43387.38302		70.72800		324.00000 
 43692.65567		 889.56308			42803.09259		226.54800		875.00000 
 43692.65567		 305.27265			43387.38302		70.72800		324.00000 
 43692.65567		 889.56308			42803.09259		226.54800		875.00000 
 43692.65567		 305.27265			43387.38302		70.72800		324.00000 
 43692.65567		 889.56308			42803.09259		226.54800		875.00000 
 43692.65567		 305.27265			43387.38302		70.72800		324.00000 
 43692.65567		 889.56308			42803.09259		226.54800		875.00000 
 43692.65567		 305.27265			43387.38302		70.72800		324.00000 
 43692.65567		 889.56308			42803.09259		226.54800		875.00000 
 43692.65567		 305.27265			43387.38302		70.72800		324.00000 
 43692.65567		 889.56308			42803.09259		226.54800		875.00000 
 43692.65567		 305.27265			43387.38302		70.72800		324.00000 
 43692.65567		 889.56308			42803.09259		226.54800		875.00000 
 43692.65567		 305.27265			43387.38302		70.72800		324.00000 
 43692.65567		 889.56308			42803.09259		226.54800		875.00000 
 43692.65567		 305.27265			43387.38302		70.72800		324.00000 
 43692.65567		 889.56308			42803.09259		226.54800		875.00000 
 43692.65567		 305.27265			43387.38302		70.72800		324.00000 
 43692.65567		 889.56308			42803.09259		226.54800		875.00000 
 43692.65567		 305.27265			43387.38302		70.72800		324.00000 
 43692.65567		 889.56308			42803.09259		226.54800		875.00000 
 43692.65567		 305.27265			43387.38302		70.72800		324.00000 
 43692.65567		 889.56308			42803.09259		226.54800		875.00000 
 43692.65567		 305.27265			43387.38302		70.72800		324.00000 
 43692.65567		 889.56308			42803.09259		226.54800		875.00000 
 43692.65567		 305.27265			43387.38302		70.72800		324.00000 
 43692.65567		 889.56308			42803.09259		226.54800		875.00000 
 43692.65567		 305.27265			43387.38302		70.72800		324.00000 
 43692.65567		 889.56308			42803.09259		226.54800		875.00000 
 43692.65567		 305.27265			43387.38302		70.72800		324.00000 
 43692.65567		 889.56308			42803.09259		226.54800		875.00000 
 43692.65567		 305.27265			43387.38302		70.72800		324.00000 
 43692.65567		 889.56308			42803.09259		226.54800		875.00000 
 43692.65567		 305.27265			43387.38302		70.72800		324.00000 
 43692.65567		 889.56308			42803.09259		226.54800		875.00000 
 43692.65567		 305.27265			43387.38302		70.72800		324.00000 
 43692.65567		 889.56308			42803.09259		226.54800		875.00000 
 43692.65567		 305.27265			43387.38302		70.72800		324.00000 
 43692.65567		 889.56308			42803.09259		226.54800		875.00000 
 43692.65567		 305.27265			43387.38302		70.72800		324.00000 
 43692.65567		 889.56308			42803.09259		226.54800		875.00000 
 43692.65567		 305.27265			43387.38302		70.72800		324.00000 
 43692.65567		 889.56308			42803.09259		226.54800		875.00000 
 43692.65567		 305.27265			43387.38302		70.72800		324.00000 
 43692.65567		 889.56308			42803.09259		226.54800		875.00000 
 43692.65567		 305.27265			43387.38302		70.72800		324.00000 
 43692.65567		 889.56308			42803.09259		226.54800		875.00000 
 43692.65567		 305.27265			43387.38302		70.72800		324.00000 
 43692.65567		 889.56308			42803.09259		226.54800		875.00000 
 43692.65567		 305.27265			43387.38302		70.72800		324.00000 
 43692.65567		 889.56308			42803.09259		226.54800		875.00000 
 43692.65567		 305.27265			43387.38302		70.72800		324.00000 
 43692.65567		 889.56308			42803.09259		226.54800		875.00000 
 43692.65567		 305.27265			43387.38302		70.72800		324.00000 
 43692.65567		 889.56308			42803.09259		226.54800		875.00000 
 43692.65567		 305.27265			43387.38302		70.72800		324.00000 
 43692.65567		 889.56308			42803.09259		226.54800		875.00000 
 43692.65567		 305.27265			43387.38302		70.72800		324.00000 
 43692.65567		 889.56308			42803.09259		226.54800		875.00000 
 43692.65567		 305.27265			43387.38302		70.72800		324.00000 
 43692.65567		 889.56308			42803.09259		226.54800		875.00000 
 43692.65567		 305.27265			43387.38302		70.72800		324.00000 
 43692.65567		 889.56308			42803.09259		226.54800		875.00000 
 43692.65567		 305.27265			43387.38302		70.72800		324.00000 
 43692.65567		 889.56308			42803.09259		226.54800		875.00000 
 43692.65567		 305.27265			43387.38302		70.72800		324.00000 
 43692.65567		 889.56308			42803.09259		226.54800		875.00000 
 43692.65567		 305.27265			43387.38302		70.72800		324.00000 
 43692.65567		 889.56308			42803.09259		226.54800		875.00000 
 43692.65567		 305.27265			43387.38302		70.72800		324.00000 
 43692.65567		 889.56308			42803.09259		226.54800		875.00000 
 43692.65567		 305.27265			43387.38302		70.72800		324.00000 
 43692.65567		 889.56308			42803.09259		226.54800		875.00000 
 43692.65567		 305.27265			43387.38302		70.72800		324.00000 
 43692.65567		 889.56308			42803.09259		226.54800		875.00000 
 43692.65567		 305.27265			43387.38302		70.72800		324.00000 
 43692.65567		 889.56308			42803.09259		226.54800		875.00000 
 43692.65567		 305.27265			43387.38302		70.72800		324.00000 
 43692.65567		 889.56308			42803.09259		226.54800		875.00000 
 43692.65567		 305.27265			43387.38302		70.72800		324.00000 
 43692.65567		 889.56308			42803.09259		226.54800		875.00000 
 43692.65567		 305.27265			43387.38302		70.72800		324.00000 
 43692.65567		 889.56308			42803.09259		226.54800		875.00000 
 43692.65567		 305.27265			43387.38302		70.72800		324.00000 
 43692.65567		 889.56308			42803.09259		226.54800		875.00000 
 43692.65567		 305.27265			43387.38302		70.72800		324.00000 
 43692.65567		 889.56308			42803.09259		226.54800		875.00000 
 43692.65567		 305.27265			43387.38302		70.72800		324.00000 
 43692.65567		 889.56308			42803.09259		226.54800		875.00000 
 43692.65567		 305.27265			43387.38302		70.72800		324.00000 
 43692.65567		 889.56308			42803.09259		226.54800		875.00000 
 43692.65567		 305.27265			43387.38302		70.72800		324.00000 
 43692.65567		 889.56308			42803.09259		226.54800		875.00000 
 43692.65567		 305.27265			43387.38302		70.72800		324.00000 
 43692.65567		 889.56308			42803.09259		226.54800		875.00000 
 43692.65567		 305.27265			43387.38302		70.72800		324.00000 
 43692.65567		 889.56308			42803.09259		226.54800		875.00000 
 43692.65567		 305.27265			43387.38302		70.72800		324.00000 
 43692.65567		 889.56308			42803.09259		226.54800		875.00000 
 43692.65567		 305.27265			43387.38302		70.72800		324.00000 
 43692.65567		 889.56308			42803.09259		226.54800		875.00000 
 43692.65567		 305.27265			43387.38302		70.72800		324.00000 
 43692.65567		 889.56308			42803.09259		226.54800		875.00000 
 43692.65567		 305.27265			43387.38302		70.72800		324.00000 
 43692.65567		 889.56308			42803.09259		226.54800		875.00000 
 43692.65567		 305.27265			43387.38302		70.72800		324.00000 
 43692.65567		 889.56308			42803.09259		226.54800		875.00000 
 43692.65567		 305.27265			43387.38302		70.72800		324.00000 
 43692.65567		 889.56308			42803.09259		226.54800		875.00000 
 43692.65567		 305.27265			43387.38302		70.72800		324.00000 
 43692.65567		 889.56308			42803.09259		227.14800		875.00000 
 43692.65567		 305.27265			43387.38302		70.72800		324.00000 
 43692.65567		 889.56308			42803.09259		227.14800		875.00000 
 43692.65567		 305.27265			43387.38302		70.72800		324.00000 
 43692.65567		 889.56308			42803.09259		227.14800		875.00000 
 43692.65567		 305.27265			43387.38302		70.72800		324.00000 
 43692.65567		 889.56308			42803.09259		227.14800		875.00000 
 43692.65567		 305.27265			43387.38302		70.72800		324.00000 
 43692.65567		 889.56308			42803.09259		227.14800		875.00000 
 43692.65567		 305.27265			43387.38302		70.72800		324.00000 
 43692.65567		 889.56308			42803.09259		227.14800		875.00000 
 43692.65567		 305.27265			43387.38302		70.72800		324.00000 
 43692.65567		 889.56308			42803.09259		227.14800		875.00000 
 43692.65567		 305.27265			43387.38302		70.72800		324.00000 
 43692.65567		 889.56308			42803.09259		227.14800		875.00000 
 43692.65567		 305.27265			43387.38302		70.24600		324.00000 
 43692.65567		 889.56308			42803.09259		227.14800		875.00000 
 43692.65567		 305.27265			43387.38302		70.24600		324.00000 
 43692.65567		 889.56308			42803.09259		227.14800		875.00000 
 43692.65567		 305.27265			43387.38302		70.24600		324.00000 
 43692.65567		 889.56308			42803.09259		227.14800		875.00000 
 43692.65567		 305.27265			43387.38302		70.24600		324.00000 
 43692.65567		 889.56308			42803.09259		227.14800		875.00000 
 43692.65567		 305.27265			43387.38302		70.24600		324.00000 
 43692.65567		 889.56308			42803.09259		227.14800		875.00000 
 43692.65567		 305.27265			43387.38302		70.24600		324.00000 
 43692.65567		 889.56308			42803.09259		227.14800		875.00000 
 43692.65567		 305.27265			43387.38302		70.24600		324.00000 
 43692.65567		 889.56308			42803.09259		227.14800		875.00000 
 43692.65567		 305.27265			43387.38302		70.24600		324.00000 
 43692.65567		 889.56308			42803.09259		227.14800		875.00000 
 43692.65567		 305.27265			43387.38302		70.24600		324.00000 
 43692.65567		 889.56308			42803.09259		227.14800		875.00000 
 43692.65567		 305.27265			43387.38302		70.24600		324.00000 
 43692.65567		 889.56308			42803.09259		227.14800		875.00000 
 43692.65567		 305.27265			43387.38302		70.24600		324.00000 
 43692.65567		 889.56308			42803.09259		227.14800		875.00000 
 43692.65567		 305.27265			43387.38302		70.24600		324.00000 
 43692.65567		 889.56308			42803.09259		227.14800		875.00000 
 43692.65567		 305.27265			43387.38302		70.24600		324.00000 
 43692.65567		 889.56308			42803.09259		227.14800		875.00000 
 43692.65567		 305.27265			43387.38302		70.24600		324.00000 
 43692.65567		 889.56308			42803.09259		227.14800		875.00000 
 43692.65567		 305.27265			43387.38302		70.24600		324.00000 
 43692.65567		 889.56308			42803.09259		227.14800		875.00000 
 43692.65567		 305.27265			43387.38302		70.24600		324.00000 
 43692.65567		 889.56308			42803.09259		227.14800		875.00000 
 43692.65567		 305.27265			43387.38302		70.24600		324.00000 
 43692.65567		 889.56308			42803.09259		227.14800		875.00000 
 43692.65567		 305.27265			43387.38302		70.24600		324.00000 
 43692.65567		 889.56308			42803.09259		227.14800		875.00000 
 43692.65567		 305.27265			43387.38302		70.24600		324.00000 
 43692.65567		 889.56308			42803.09259		227.14800		875.00000 
 43692.65567		 305.27265			43387.38302		70.24600		324.00000 
 43692.65567		 889.56308			42803.09259		227.14800		875.00000 
 43692.65567		 305.27265			43387.38302		70.24600		324.00000 
 43692.65567		 889.56308			42803.09259		227.14800		875.00000 
 43692.65567		 305.27265			43387.38302		70.24600		324.00000 
 43692.65567		 889.56308			42803.09259		227.14800		875.00000 
 43692.65567		 305.27265			43387.38302		70.24600		324.00000 
 43692.65567		 889.56308			42803.09259		227.14800		875.00000 
 43692.65567		 305.27265			43387.38302		70.24600		324.00000 
 43692.65567		 889.56308			42803.09259		227.14800		875.00000 
 43692.65567		 305.27265			43387.38302		70.24600		324.00000 
 43692.65567		 889.56308			42803.09259		227.14800		875.00000 
 43692.65567		 305.27265			43387.38302		70.24600		324.00000 
 43692.65567		 889.56308			42803.09259		227.14800		875.00000 
 43692.65567		 305.27265			43387.38302		70.24600		324.00000 
 43692.65567		 889.56308			42803.09259		227.14800		875.00000 
 43692.65567		 305.27265			43387.38302		70.24600		324.00000 
 43692.65567		 889.56308			42803.09259		227.14800		875.00000 
 43692.65567		 305.27265			43387.38302		70.24600		324.00000 
 43692.65567		 889.56308			42803.09259		227.14800		875.00000 
 43692.65567		 305.27265			43387.38302		70.24600		324.00000 
 43692.65567		 889.56308			42803.09259		227.14800		875.00000 
 43692.65567		 305.27265			43387.38302		70.24600		324.00000 
 43692.65567		 889.56308			42803.09259		227.14800		875.00000 
 43692.65567		 305.27265			43387.38302		70.24600		324.00000 
 43692.65567		 889.56308			42803.09259		227.14800		875.00000 
 43692.65567		 305.27265			43387.38302		70.24600		324.00000 
 43692.65567		 889.56308			42803.09259		227.14800		875.00000 
 43692.65567		 305.27265			43387.38302		70.24600		324.00000 
 43692.65567		 889.56308			42803.09259		227.14800		875.00000 
 43692.65567		 305.27265			43387.38302		70.24600		324.00000 
 43692.65567		 889.56308			42803.09259		227.14800		875.00000 
 43692.65567		 305.27265			43387.38302		70.24600		324.00000 
 43692.65567		 889.56308			42803.09259		227.14800		875.00000 
 43692.65567		 305.27265			43387.38302		70.24600		324.00000 
 43692.65567		 889.56308			42803.09259		227.14800		875.00000 
 43692.65567		 305.27265			43387.38302		70.24600		324.00000 
 43692.65567		 889.56308			42803.09259		227.14800		875.00000 
 43692.65567		 305.27265			43387.38302		70.24600		324.00000 
 43692.65567		 889.56308			42803.09259		227.14800		875.00000 
 43692.65567		 305.27265			43387.38302		70.24600		324.00000 
 43692.65567		 889.56308			42803.09259		227.14800		875.00000 
 43692.65567		 305.27265			43387.38302		70.24600		324.00000 
 43692.65567		 889.56308			42803.09259		227.14800		875.00000 
 43692.65567		 305.27265			43387.38302		70.24600		324.00000 
 43692.65567		 889.56308			42803.09259		227.14800		875.00000 
 43692.65567		 305.27265			43387.38302		70.24600		324.00000 
 43692.65567		 889.56308			42803.09259		227.14800		875.00000 
 43692.65567		 305.27265			43387.38302		70.24600		324.00000 
 43692.65567		 889.56308			42803.09259		227.14800		875.00000 
 43692.65567		 305.27265			43387.38302		70.24600		324.00000 
 43692.65567		 889.56308			42803.09259		227.14800		875.00000 
 43692.65567		 305.27265			43387.38302		70.24600		324.00000 
 43692.65567		 889.56308			42803.09259		227.14800		875.00000 
 43692.65567		 305.27265			43387.38302		70.24600		324.00000 
 43692.65567		 889.56308			42803.09259		227.14800		875.00000 
 43692.65567		 305.27265			43387.38302		70.24600		324.00000 
 43692.65567		 889.56308			42803.09259		227.14800		875.00000 
 43692.65567		 305.27265			43387.38302		70.24600		324.00000 
 43692.65567		 889.56308			42803.09259		227.14800		875.00000 
 43692.65567		 305.27265			43387.38302		70.24600		324.00000 
 43692.65567		 889.56308			42803.09259		227.14800		875.00000 
 43692.65567		 305.27265			43387.38302		70.24600		324.00000 
 43692.65567		 889.56308			42803.09259		227.14800		875.00000 
 43692.65567		 305.27265			43387.38302		70.24600		324.00000 
 43692.65567		 889.56308			42803.09259		227.14800		875.00000 
 43692.65567		 305.27265			43387.38302		70.24600		324.00000 
 43692.65567		 889.56308			42803.09259		227.14800		875.00000 
 43692.65567		 305.27265			43387.38302		70.24600		324.00000 
 43692.65567		 889.56308			42803.09259		226.54800		875.00000 
 43692.65567		 305.27265			43387.38302		70.24600		324.00000 
 43692.65567		 889.56308			42803.09259		226.54800		875.00000 
 43692.65567		 305.27265			43387.38302		70.24600		324.00000 
 43692.65567		 889.56308			42803.09259		226.54800		875.00000 
 43692.65567		 305.27265			43387.38302		70.24600		324.00000 
 43692.65567		 889.56308			42803.09259		226.54800		875.00000 
 43692.65567		 305.27265			43387.38302		70.24600		324.00000 
 43692.65567		 889.56308			42803.09259		226.54800		875.00000 
 43692.65567		 305.27265			43387.38302		70.24600		324.00000 
 43692.65567		 889.56308			42803.09259		226.54800		875.00000 
 43692.65567		 305.27265			43387.38302		70.24600		324.00000 
 43692.65567		 889.56308			42803.09259		226.54800		875.00000 
 43692.65567		 305.27265			43387.38302		70.24600		324.00000 
 43692.65567		 889.56308			42803.09259		226.54800		875.00000 
 43692.65567		 305.27265			43387.38302		70.24600		324.00000 
 43692.65567		 889.56308			42803.09259		226.54800		875.00000 
 43692.65567		 305.27265			43387.38302		70.24600		324.00000 
 43692.65567		 889.56308			42803.09259		226.54800		875.00000 
 43692.65567		 305.27265			43387.38302		70.24600		324.00000 
 43692.65567		 889.56308			42803.09259		226.54800		875.00000 
 43692.65567		 305.27265			43387.38302		70.24600		324.00000 
 43692.65567		 889.56308			42803.09259		226.54800		875.00000 
 43692.65567		 305.27265			43387.38302		70.24600		324.00000 
 43692.65567		 889.56308			42803.09259		226.54800		875.00000 
 43692.65567		 305.27265			43387.38302		70.24600		324.00000 
 43692.65567		 889.56308			42803.09259		226.54800		875.00000 
 43692.65567		 305.27265			43387.38302		70.24600		324.00000 
 43692.65567		 889.56308			42803.09259		226.54800		875.00000 
 43692.65567		 305.27265			43387.38302		70.24600		324.00000 
 43692.65567		 889.56308			42803.09259		226.54800		875.00000 
 43692.65567		 305.27265			43387.38302		70.24600		324.00000 
 43692.65567		 889.56308			42803.09259		226.54800		875.00000 
 43692.65567		 305.27265			43387.38302		70.24600		324.00000 
 43692.65567		 889.56308			42803.09259		226.54800		875.00000 
 43692.65567		 305.27265			43387.38302		70.24600		324.00000 
 43692.65567		 889.56308			42803.09259		226.54800		875.00000 
 43692.65567		 305.27265			43387.38302		70.24600		324.00000 
 43692.65567		 889.56308			42803.09259		226.54800		875.00000 
 43692.65567		 305.27265			43387.38302		70.24600		324.00000 
 43692.65567		 889.56308			42803.09259		226.54800		875.00000 
 43692.65567		 305.27265			43387.38302		70.24600		324.00000 
 43692.65567		 889.56308			42803.09259		226.54800		875.00000 
 43692.65567		 305.27265			43387.38302		70.24600		324.00000 
 43692.65567		 889.56308			42803.09259		226.54800		875.00000 
 43692.65567		 305.27265			43387.38302		70.24600		324.00000 
 43692.65567		 889.56308			42803.09259		226.54800		875.00000 
 43692.65567		 305.27265			43387.38302		70.24600		324.00000 
 43692.65567		 889.56308			42803.09259		226.54800		875.00000 
 43692.65567		 305.27265			43387.38302		70.24600		324.00000 
 43692.65567		 889.56308			42803.09259		226.54800		875.00000 
 43692.65567		 305.27265			43387.38302		70.24600		324.00000 
 43692.65567		 889.56308			42803.09259		226.54800		875.00000 
 43692.65567		 305.27265			43387.38302		70.24600		324.00000 
 43692.65567		 889.56308			42803.09259		226.54800		875.00000 
 43692.65567		 305.27265			43387.38302		70.24600		324.00000 
 43692.65567		 889.56308			42803.09259		226.54800		875.00000 
 43692.65567		 305.27265			43387.38302		70.24600		324.00000 
 43692.65567		 889.56308			42803.09259		226.54800		875.00000 
 43692.65567		 305.27265			43387.38302		70.24600		324.00000 
 43692.65567		 889.56308			42803.09259		226.54800		875.00000 
 43692.65567		 305.27265			43387.38302		70.24600		324.00000 
 43692.65567		 889.56308			42803.09259		226.54800		875.00000 
 43692.65567		 305.27265			43387.38302		70.24600		324.00000 
 43692.65567		 889.56308			42803.09259		226.54800		875.00000 
 43692.65567		 305.27265			43387.38302		70.24600		324.00000 
 43692.65567		 889.56308			42803.09259		226.54800		875.00000 
 43692.65567		 305.27265			43387.38302		70.24600		324.00000 
 43692.65567		 889.56308			42803.09259		226.54800		875.00000 
 43692.65567		 305.27265			43387.38302		70.24600		324.00000 
 43692.65567		 889.56308			42803.09259		226.54800		875.00000 
 43692.65567		 305.27265			43387.38302		70.24600		324.00000 
 43692.65567		 889.56308			42803.09259		226.54800		875.00000 
 43692.65567		 305.27265			43387.38302		70.24600		324.00000 
 43692.65567		 889.56308			42803.09259		226.54800		875.00000 
 43692.65567		 305.27265			43387.38302		70.24600		324.00000 
 43692.65567		 889.56308			42803.09259		226.54800		875.00000 
 43692.65567		 305.27265			43387.38302		70.24600		324.00000 
 43692.65567		 889.56308			42803.09259		226.54800		875.00000 
 43692.65567		 305.27265			43387.38302		70.24600		324.00000 
 43692.65567		 889.56308			42803.09259		226.54800		875.00000 
 43692.65567		 305.27265			43387.38302		70.24600		324.00000 
 43692.65567		 889.56308			42803.09259		226.54800		875.00000 
 43692.65567		 305.27265			43387.38302		70.24600		324.00000 
 43692.65567		 889.56308			42803.09259		226.54800		875.00000 
 43692.65567		 305.27265			43387.38302		70.24600		324.00000 
 43692.65567		 889.56308			42803.09259		226.54800		875.00000 
 43692.65567		 305.27265			43387.38302		70.24600		324.00000 
 43692.65567		 889.56308			42803.09259		226.54800		875.00000 
 43692.65567		 305.27265			43387.38302		70.24600		324.00000 
 43692.65567		 889.56308			42803.09259		226.54800		875.00000 
 43692.65567		 305.27265			43387.38302		70.24600		324.00000 
 43692.65567		 889.56308			42803.09259		226.54800		875.00000 
 43692.65567		 305.27265			43387.38302		70.24600		324.00000 
 43692.65567		 889.56308			42803.09259		226.54800		875.00000 
 43692.65567		 305.27265			43387.38302		70.24600		324.00000 
 43692.65567		 772.13216			42920.52351		226.54800		875.00000 
 43692.65567		 305.27265			43387.38302		70.24600		324.00000 
 43692.65567		 772.13216			42920.52351		226.54800		875.00000 
 43692.65567		 305.27265			43387.38302		70.24600		324.00000 
 43692.65567		 654.70124			43037.95443		226.54800		875.00000 
 43692.65567		 305.27265			43387.38302		70.24600		324.00000 
 43692.65567		 654.70124			43037.95443		226.54800		875.00000 
 43692.65567		 305.27265			43387.38302		70.24600		324.00000 
 43692.65567		 537.27032			43155.38535		226.54800		875.00000 
 43692.65567		 305.27265			43387.38302		70.24600		324.00000 
 43692.65567		 537.27032			43155.38535		226.54800		875.00000 
 43692.65567		 305.27265			43387.38302		70.24600		324.00000 
 43692.65567		 537.27032			43155.38535		226.54800		875.00000 
 43692.65567		 305.27265			43387.38302		70.24600		324.00000 
 43692.65567		 537.27032			43155.38535		226.54800		875.00000 
 43692.65567		 305.27265			43387.38302		70.24600		324.00000 
 43692.65567		 537.27032			43155.38535		226.54800		875.00000 
 43692.65567		 305.27265			43387.38302		70.24600		324.00000 
 43692.65567		 537.27032			43155.38535		226.54800		875.00000 
 43692.65567		 305.27265			43387.38302		70.24600		324.00000 
 43692.65567		 537.27032			43155.38535		226.54800		875.00000 
 43692.65567		 305.27265			43387.38302		70.24600		324.00000 
 43692.65567		 537.27032			43155.38535		226.54800		875.00000 
 43692.65567		 305.27265			43387.38302		70.24600		324.00000 
 43692.65567		 537.27032			43155.38535		226.54800		875.00000 
 43692.65567		 305.27265			43387.38302		70.24600		324.00000 
 43692.65567		 537.27032			43155.38535		206.62000		875.00000 
 43692.65567		 305.27265			43387.38302		70.24600		324.00000 
 43692.65567		 537.27032			43155.38535		206.62000		875.00000 
 43692.65567		 305.27265			43387.38302		70.24600		324.00000 
 43692.65567		 537.27032			43155.38535		206.62000		875.00000 
 43692.65567		 305.27265			43387.38302		70.24600		324.00000 
 43692.65567		 537.27032			43155.38535		206.62000		875.00000 
 43692.65567		 305.27265			43387.38302		70.24600		324.00000 
 43692.65567		 537.27032			43155.38535		206.62000		875.00000 
 43692.65567		 305.27265			43387.38302		70.24600		324.00000 
 43692.65567		 537.27032			43155.38535		206.62000		875.00000 
 43692.65567		 305.27265			43387.38302		70.24600		324.00000 
 43692.65567		 537.27032			43155.38535		206.62000		875.00000 
 43692.65567		 305.27265			43387.38302		70.24600		324.00000 
 43692.65567		 537.27032			43155.38535		206.62000		875.00000 
 43692.65567		 305.27265			43387.38302		70.24600		324.00000 
 43692.65567		 537.27032			43155.38535		206.62000		875.00000 
 43692.65567		 305.27265			43387.38302		70.24600		324.00000 
 43692.65567		 537.27032			43155.38535		206.62000		875.00000 
 43692.65567		 305.27265			43387.38302		70.24600		324.00000 
 43692.65567		 537.27032			43155.38535		206.62000		875.00000 
 43692.65567		 305.27265			43387.38302		70.24600		324.00000 
 43692.65567		 529.63254			43163.02313		206.62000		875.00000 
 43692.65567		 305.27265			43387.38302		70.24600		324.00000 
 43692.65567		 525.81365			43166.84203		206.62000		875.00000 
 43692.65567		 293.81598			43398.83969		70.24600		324.00000 
 43692.65567		 261.35540			43431.30027		206.62000		875.00000 
 43692.65567		 261.35540			43431.30027		70.24600		324.00000 
