Memory Total (MiB) 	 Memory Used (MiB) 	    Memory Free (MiB) 	 Power Drawed (W) 	 Clocks (Mhz) 	 
 43692.65567		 261.35540			43431.30027		186.40600		875.00000 
 43692.65567		 261.35540			43431.30027		69.19600		324.00000 
 43692.65567		 261.35540			43431.30027		186.40600		875.00000 
 43692.65567		 261.35540			43431.30027		69.19600		324.00000 
 43692.65567		 261.35540			43431.30027		186.40600		875.00000 
 43692.65567		 261.35540			43431.30027		69.19600		324.00000 
 43692.65567		 261.35540			43431.30027		186.40600		875.00000 
 43692.65567		 261.35540			43431.30027		69.19600		324.00000 
 43692.65567		 261.35540			43431.30027		186.40600		875.00000 
 43692.65567		 261.35540			43431.30027		69.19600		324.00000 
 43692.65567		 261.35540			43431.30027		186.40600		875.00000 
 43692.65567		 261.35540			43431.30027		69.19600		324.00000 
 43692.65567		 261.35540			43431.30027		186.40600		875.00000 
 43692.65567		 261.35540			43431.30027		69.19600		324.00000 
 43692.65567		 261.35540			43431.30027		186.40600		875.00000 
 43692.65567		 261.35540			43431.30027		69.19600		324.00000 
 43692.65567		 261.35540			43431.30027		186.40600		875.00000 
 43692.65567		 261.35540			43431.30027		69.19600		324.00000 
 43692.65567		 261.35540			43431.30027		186.40600		875.00000 
 43692.65567		 261.35540			43431.30027		69.19600		324.00000 
 43692.65567		 261.35540			43431.30027		186.40600		875.00000 
 43692.65567		 261.35540			43431.30027		69.19600		324.00000 
 43692.65567		 261.35540			43431.30027		186.40600		875.00000 
 43692.65567		 261.35540			43431.30027		69.19600		324.00000 
 43692.65567		 261.35540			43431.30027		186.40600		875.00000 
 43692.65567		 261.35540			43431.30027		69.19600		324.00000 
 43692.65567		 261.35540			43431.30027		186.40600		875.00000 
 43692.65567		 261.35540			43431.30027		69.19600		324.00000 
 43692.65567		 261.35540			43431.30027		186.40600		875.00000 
 43692.65567		 261.35540			43431.30027		69.19600		324.00000 
 43692.65567		 261.35540			43431.30027		186.40600		875.00000 
 43692.65567		 261.35540			43431.30027		69.19600		324.00000 
 43692.65567		 261.35540			43431.30027		186.40600		875.00000 
 43692.65567		 261.35540			43431.30027		69.19600		324.00000 
 43692.65567		 261.35540			43431.30027		186.40600		875.00000 
 43692.65567		 261.35540			43431.30027		69.19600		324.00000 
 43692.65567		 261.35540			43431.30027		186.40600		875.00000 
 43692.65567		 261.35540			43431.30027		69.19600		324.00000 
 43692.65567		 265.17429			43427.48138		186.40600		875.00000 
 43692.65567		 261.35540			43431.30027		69.19600		324.00000 
 43692.65567		 272.81207			43419.84360		186.40600		875.00000 
 43692.65567		 261.35540			43431.30027		69.19600		324.00000 
 43692.65567		 272.81207			43419.84360		186.40600		875.00000 
 43692.65567		 261.35540			43431.30027		69.19600		324.00000 
 43692.65567		 272.81207			43419.84360		186.40600		875.00000 
 43692.65567		 265.17429			43427.48138		69.19600		324.00000 
 43692.65567		 272.81207			43419.84360		186.40600		875.00000 
 43692.65567		 265.17429			43427.48138		69.19600		324.00000 
 43692.65567		 272.81207			43419.84360		152.29400		875.00000 
 43692.65567		 265.17429			43427.48138		69.19600		324.00000 
 43692.65567		 272.81207			43419.84360		152.29400		875.00000 
 43692.65567		 272.81207			43419.84360		69.19600		324.00000 
 43692.65567		 272.81207			43419.84360		152.29400		875.00000 
 43692.65567		 272.81207			43419.84360		69.19600		324.00000 
 43692.65567		 272.81207			43419.84360		152.29400		875.00000 
 43692.65567		 272.81207			43419.84360		69.19600		324.00000 
 43692.65567		 305.27265			43387.38302		152.29400		875.00000 
 43692.65567		 305.27265			43387.38302		69.19600		324.00000 
 43692.65567		 305.27265			43387.38302		152.29400		875.00000 
 43692.65567		 305.27265			43387.38302		69.19600		324.00000 
 43692.65567		 305.27265			43387.38302		152.29400		875.00000 
 43692.65567		 305.27265			43387.38302		69.19600		324.00000 
 43692.65567		 305.27265			43387.38302		152.29400		875.00000 
 43692.65567		 305.27265			43387.38302		69.19600		324.00000 
 43692.65567		 305.27265			43387.38302		152.29400		875.00000 
 43692.65567		 305.27265			43387.38302		69.19600		324.00000 
 43692.65567		 309.56891			43383.08677		152.29400		875.00000 
 43692.65567		 305.27265			43387.38302		69.19600		324.00000 
 43692.65567		 311.00099			43381.65468		152.29400		875.00000 
 43692.65567		 305.27265			43387.38302		69.19600		324.00000 
 43692.65567		 311.00099			43381.65468		152.29400		875.00000 
 43692.65567		 305.27265			43387.38302		69.19600		324.00000 
 43692.65567		 311.00099			43381.65468		152.29400		875.00000 
 43692.65567		 305.27265			43387.38302		69.19600		324.00000 
 43692.65567		 311.00099			43381.65468		152.29400		875.00000 
 43692.65567		 305.27265			43387.38302		69.19600		324.00000 
 43692.65567		 311.00099			43381.65468		152.29400		875.00000 
 43692.65567		 305.27265			43387.38302		69.19600		324.00000 
 43692.65567		 311.00099			43381.65468		152.29400		875.00000 
 43692.65567		 305.27265			43387.38302		69.19600		324.00000 
 43692.65567		 311.00099			43381.65468		152.29400		875.00000 
 43692.65567		 305.27265			43387.38302		69.19600		324.00000 
 43692.65567		 311.00099			43381.65468		152.29400		875.00000 
 43692.65567		 305.27265			43387.38302		69.19600		324.00000 
 43692.65567		 311.00099			43381.65468		152.29400		875.00000 
 43692.65567		 305.27265			43387.38302		69.19600		324.00000 
 43692.65567		 311.00099			43381.65468		152.29400		875.00000 
 43692.65567		 305.27265			43387.38302		69.19600		324.00000 
 43692.65567		 311.00099			43381.65468		152.29400		875.00000 
 43692.65567		 305.27265			43387.38302		69.19600		324.00000 
 43692.65567		 311.00099			43381.65468		152.29400		875.00000 
 43692.65567		 305.27265			43387.38302		69.19600		324.00000 
 43692.65567		 311.00099			43381.65468		152.29400		875.00000 
 43692.65567		 305.27265			43387.38302		69.19600		324.00000 
 43692.65567		 311.00099			43381.65468		152.29400		875.00000 
 43692.65567		 305.27265			43387.38302		69.19600		324.00000 
 43692.65567		 311.00099			43381.65468		152.29400		875.00000 
 43692.65567		 305.27265			43387.38302		69.19600		324.00000 
 43692.65567		 311.00099			43381.65468		152.29400		875.00000 
 43692.65567		 305.27265			43387.38302		69.19600		324.00000 
 43692.65567		 311.00099			43381.65468		152.29400		875.00000 
 43692.65567		 305.27265			43387.38302		69.19600		324.00000 
 43692.65567		 311.00099			43381.65468		152.29400		875.00000 
 43692.65567		 305.27265			43387.38302		69.19600		324.00000 
 43692.65567		 311.00099			43381.65468		152.29400		875.00000 
 43692.65567		 305.27265			43387.38302		69.19600		324.00000 
 43692.65567		 311.00099			43381.65468		152.29400		875.00000 
 43692.65567		 305.27265			43387.38302		69.19600		324.00000 
 43692.65567		 311.00099			43381.65468		152.29400		875.00000 
 43692.65567		 305.27265			43387.38302		69.19600		324.00000 
 43692.65567		 311.00099			43381.65468		152.29400		875.00000 
 43692.65567		 305.27265			43387.38302		69.19600		324.00000 
 43692.65567		 311.00099			43381.65468		152.29400		875.00000 
 43692.65567		 305.27265			43387.38302		69.19600		324.00000 
 43692.65567		 311.00099			43381.65468		152.29400		875.00000 
 43692.65567		 305.27265			43387.38302		69.19600		324.00000 
 43692.65567		 311.00099			43381.65468		139.28000		875.00000 
 43692.65567		 305.27265			43387.38302		69.19600		324.00000 
 43692.65567		 311.00099			43381.65468		139.28000		875.00000 
 43692.65567		 305.27265			43387.38302		69.19600		324.00000 
 43692.65567		 311.00099			43381.65468		139.28000		875.00000 
 43692.65567		 305.27265			43387.38302		69.19600		324.00000 
 43692.65567		 311.00099			43381.65468		139.28000		875.00000 
 43692.65567		 305.27265			43387.38302		69.19600		324.00000 
 43692.65567		 311.00099			43381.65468		139.28000		875.00000 
 43692.65567		 305.27265			43387.38302		69.19600		324.00000 
 43692.65567		 311.00099			43381.65468		139.28000		875.00000 
 43692.65567		 305.27265			43387.38302		69.19600		324.00000 
 43692.65567		 311.00099			43381.65468		139.28000		875.00000 
 43692.65567		 305.27265			43387.38302		69.19600		324.00000 
 43692.65567		 311.00099			43381.65468		139.28000		875.00000 
 43692.65567		 305.27265			43387.38302		69.19600		324.00000 
 43692.65567		 311.00099			43381.65468		139.28000		875.00000 
 43692.65567		 305.27265			43387.38302		69.19600		324.00000 
 43692.65567		 311.00099			43381.65468		139.28000		875.00000 
 43692.65567		 305.27265			43387.38302		69.19600		324.00000 
 43692.65567		 311.00099			43381.65468		139.28000		875.00000 
 43692.65567		 305.27265			43387.38302		69.19600		324.00000 
 43692.65567		 311.00099			43381.65468		139.28000		875.00000 
 43692.65567		 305.27265			43387.38302		69.19600		324.00000 
 43692.65567		 311.00099			43381.65468		139.28000		875.00000 
 43692.65567		 305.27265			43387.38302		69.19600		324.00000 
 43692.65567		 311.00099			43381.65468		139.28000		875.00000 
 43692.65567		 305.27265			43387.38302		69.19600		324.00000 
 43692.65567		 311.00099			43381.65468		139.28000		875.00000 
 43692.65567		 305.27265			43387.38302		69.19600		324.00000 
 43692.65567		 311.00099			43381.65468		139.28000		875.00000 
 43692.65567		 305.27265			43387.38302		69.19600		324.00000 
 43692.65567		 311.00099			43381.65468		139.28000		875.00000 
 43692.65567		 305.27265			43387.38302		69.19600		324.00000 
 43692.65567		 311.00099			43381.65468		139.28000		875.00000 
 43692.65567		 305.27265			43387.38302		69.19600		324.00000 
 43692.65567		 311.00099			43381.65468		139.28000		875.00000 
 43692.65567		 305.27265			43387.38302		69.19600		324.00000 
 43692.65567		 311.00099			43381.65468		139.28000		875.00000 
 43692.65567		 305.27265			43387.38302		69.19600		324.00000 
 43692.65567		 311.00099			43381.65468		139.28000		875.00000 
 43692.65567		 305.27265			43387.38302		69.19600		324.00000 
 43692.65567		 311.00099			43381.65468		139.28000		875.00000 
 43692.65567		 305.27265			43387.38302		69.19600		324.00000 
 43692.65567		 311.00099			43381.65468		139.28000		875.00000 
 43692.65567		 305.27265			43387.38302		69.19600		324.00000 
 43692.65567		 311.00099			43381.65468		139.28000		875.00000 
 43692.65567		 305.27265			43387.38302		69.19600		324.00000 
 43692.65567		 311.00099			43381.65468		139.28000		875.00000 
 43692.65567		 305.27265			43387.38302		69.19600		324.00000 
 43692.65567		 311.00099			43381.65468		139.28000		875.00000 
 43692.65567		 305.27265			43387.38302		69.19600		324.00000 
 43692.65567		 311.00099			43381.65468		139.28000		875.00000 
 43692.65567		 305.27265			43387.38302		69.19600		324.00000 
 43692.65567		 314.81988			43377.83579		139.28000		875.00000 
 43692.65567		 305.27265			43387.38302		69.19600		324.00000 
 43692.65567		 314.81988			43377.83579		139.28000		875.00000 
 43692.65567		 305.27265			43387.38302		69.19600		324.00000 
 43692.65567		 314.81988			43377.83579		139.28000		875.00000 
 43692.65567		 305.27265			43387.38302		69.19600		324.00000 
 43692.65567		 318.63877			43374.01690		139.28000		875.00000 
 43692.65567		 305.27265			43387.38302		69.19600		324.00000 
 43692.65567		 322.45767			43370.19801		135.03600		875.00000 
 43692.65567		 305.27265			43387.38302		69.19600		324.00000 
 43692.65567		 326.27656			43366.37912		135.03600		875.00000 
 43692.65567		 305.27265			43387.38302		69.19600		324.00000 
 43692.65567		 326.27656			43366.37912		135.03600		875.00000 
 43692.65567		 305.27265			43387.38302		69.19600		324.00000 
 43692.65567		 326.27656			43366.37912		135.03600		875.00000 
 43692.65567		 305.27265			43387.38302		69.19600		324.00000 
 43692.65567		 537.27032			43155.38535		135.03600		875.00000 
 43692.65567		 305.27265			43387.38302		69.19600		324.00000 
 43692.65567		 586.91591			43105.73976		135.03600		875.00000 
 43692.65567		 305.27265			43387.38302		69.19600		324.00000 
 43692.65567		 686.20710			43006.44858		135.03600		875.00000 
 43692.65567		 305.27265			43387.38302		69.19600		324.00000 
 43692.65567		 686.20710			43006.44858		135.03600		875.00000 
 43692.65567		 305.27265			43387.38302		69.19600		324.00000 
 43692.65567		 686.20710			43006.44858		135.03600		875.00000 
 43692.65567		 305.27265			43387.38302		69.19600		324.00000 
 43692.65567		 686.20710			43006.44858		135.03600		875.00000 
 43692.65567		 305.27265			43387.38302		69.19600		324.00000 
 43692.65567		 686.20710			43006.44858		135.03600		875.00000 
 43692.65567		 305.27265			43387.38302		69.19600		324.00000 
 43692.65567		 686.20710			43006.44858		135.03600		875.00000 
 43692.65567		 305.27265			43387.38302		69.19600		324.00000 
 43692.65567		 686.20710			43006.44858		135.03600		875.00000 
 43692.65567		 305.27265			43387.38302		69.19600		324.00000 
 43692.65567		 686.20710			43006.44858		135.03600		875.00000 
 43692.65567		 305.27265			43387.38302		69.19600		324.00000 
 43692.65567		 686.20710			43006.44858		135.03600		875.00000 
 43692.65567		 305.27265			43387.38302		69.19600		324.00000 
 43692.65567		 686.20710			43006.44858		135.03600		875.00000 
 43692.65567		 305.27265			43387.38302		69.19600		324.00000 
 43692.65567		 686.20710			43006.44858		135.03600		875.00000 
 43692.65567		 305.27265			43387.38302		69.19600		324.00000 
 43692.65567		 686.20710			43006.44858		135.03600		875.00000 
 43692.65567		 305.27265			43387.38302		69.19600		324.00000 
 43692.65567		 686.20710			43006.44858		135.03600		875.00000 
 43692.65567		 305.27265			43387.38302		69.19600		324.00000 
 43692.65567		 686.20710			43006.44858		135.03600		875.00000 
 43692.65567		 305.27265			43387.38302		69.19600		324.00000 
 43692.65567		 686.20710			43006.44858		135.03600		875.00000 
 43692.65567		 305.27265			43387.38302		69.19600		324.00000 
 43692.65567		 686.20710			43006.44858		135.03600		875.00000 
 43692.65567		 305.27265			43387.38302		69.19600		324.00000 
 43692.65567		 686.20710			43006.44858		135.03600		875.00000 
 43692.65567		 305.27265			43387.38302		69.19600		324.00000 
 43692.65567		 686.20710			43006.44858		135.03600		875.00000 
 43692.65567		 305.27265			43387.38302		69.19600		324.00000 
 43692.65567		 686.20710			43006.44858		135.03600		875.00000 
 43692.65567		 305.27265			43387.38302		69.19600		324.00000 
 43692.65567		 686.20710			43006.44858		135.03600		875.00000 
 43692.65567		 305.27265			43387.38302		69.19600		324.00000 
 43692.65567		 686.20710			43006.44858		135.03600		875.00000 
 43692.65567		 305.27265			43387.38302		69.19600		324.00000 
 43692.65567		 686.20710			43006.44858		135.03600		875.00000 
 43692.65567		 305.27265			43387.38302		69.19600		324.00000 
 43692.65567		 686.20710			43006.44858		135.03600		875.00000 
 43692.65567		 305.27265			43387.38302		69.19600		324.00000 
 43692.65567		 686.20710			43006.44858		135.03600		875.00000 
 43692.65567		 305.27265			43387.38302		69.19600		324.00000 
 43692.65567		 686.20710			43006.44858		135.03600		875.00000 
 43692.65567		 305.27265			43387.38302		69.19600		324.00000 
 43692.65567		 686.20710			43006.44858		135.03600		875.00000 
 43692.65567		 305.27265			43387.38302		69.19600		324.00000 
 43692.65567		 686.20710			43006.44858		135.03600		875.00000 
 43692.65567		 305.27265			43387.38302		69.19600		324.00000 
 43692.65567		 686.20710			43006.44858		135.03600		875.00000 
 43692.65567		 305.27265			43387.38302		69.19600		324.00000 
 43692.65567		 686.20710			43006.44858		135.03600		875.00000 
 43692.65567		 305.27265			43387.38302		69.19600		324.00000 
 43692.65567		 686.20710			43006.44858		135.03600		875.00000 
 43692.65567		 305.27265			43387.38302		69.19600		324.00000 
 43692.65567		 686.20710			43006.44858		135.03600		875.00000 
 43692.65567		 305.27265			43387.38302		69.19600		324.00000 
 43692.65567		 686.20710			43006.44858		135.03600		875.00000 
 43692.65567		 305.27265			43387.38302		69.19600		324.00000 
 43692.65567		 686.20710			43006.44858		135.03600		875.00000 
 43692.65567		 305.27265			43387.38302		69.19600		324.00000 
 43692.65567		 686.20710			43006.44858		135.03600		875.00000 
 43692.65567		 305.27265			43387.38302		69.19600		324.00000 
 43692.65567		 686.20710			43006.44858		135.03600		875.00000 
 43692.65567		 305.27265			43387.38302		69.19600		324.00000 
 43692.65567		 686.20710			43006.44858		135.03600		875.00000 
 43692.65567		 305.27265			43387.38302		69.19600		324.00000 
 43692.65567		 686.20710			43006.44858		135.03600		875.00000 
 43692.65567		 305.27265			43387.38302		69.19600		324.00000 
 43692.65567		 686.20710			43006.44858		135.03600		875.00000 
 43692.65567		 305.27265			43387.38302		69.19600		324.00000 
 43692.65567		 686.20710			43006.44858		135.03600		875.00000 
 43692.65567		 305.27265			43387.38302		69.19600		324.00000 
 43692.65567		 686.20710			43006.44858		135.03600		875.00000 
 43692.65567		 305.27265			43387.38302		69.19600		324.00000 
 43692.65567		 686.20710			43006.44858		135.03600		875.00000 
 43692.65567		 305.27265			43387.38302		69.19600		324.00000 
 43692.65567		 686.20710			43006.44858		135.03600		875.00000 
 43692.65567		 305.27265			43387.38302		69.19600		324.00000 
 43692.65567		 686.20710			43006.44858		135.03600		875.00000 
 43692.65567		 305.27265			43387.38302		69.19600		324.00000 
 43692.65567		 686.20710			43006.44858		135.03600		875.00000 
 43692.65567		 305.27265			43387.38302		69.19600		324.00000 
 43692.65567		 686.20710			43006.44858		135.03600		875.00000 
 43692.65567		 305.27265			43387.38302		69.19600		324.00000 
 43692.65567		 686.20710			43006.44858		135.03600		875.00000 
 43692.65567		 305.27265			43387.38302		69.19600		324.00000 
 43692.65567		 686.20710			43006.44858		135.03600		875.00000 
 43692.65567		 305.27265			43387.38302		69.19600		324.00000 
 43692.65567		 686.20710			43006.44858		135.03600		875.00000 
 43692.65567		 305.27265			43387.38302		69.19600		324.00000 
 43692.65567		 686.20710			43006.44858		135.03600		875.00000 
 43692.65567		 305.27265			43387.38302		69.19600		324.00000 
 43692.65567		 686.20710			43006.44858		135.03600		875.00000 
 43692.65567		 305.27265			43387.38302		69.19600		324.00000 
 43692.65567		 686.20710			43006.44858		135.03600		875.00000 
 43692.65567		 305.27265			43387.38302		69.19600		324.00000 
 43692.65567		 686.20710			43006.44858		135.03600		875.00000 
 43692.65567		 305.27265			43387.38302		69.19600		324.00000 
 43692.65567		 686.20710			43006.44858		135.03600		875.00000 
 43692.65567		 305.27265			43387.38302		69.19600		324.00000 
 43692.65567		 686.20710			43006.44858		135.03600		875.00000 
 43692.65567		 305.27265			43387.38302		69.19600		324.00000 
 43692.65567		 686.20710			43006.44858		135.03600		875.00000 
 43692.65567		 305.27265			43387.38302		69.19600		324.00000 
 43692.65567		 686.20710			43006.44858		135.03600		875.00000 
 43692.65567		 305.27265			43387.38302		69.19600		324.00000 
 43692.65567		 686.20710			43006.44858		135.03600		875.00000 
 43692.65567		 305.27265			43387.38302		69.19600		324.00000 
 43692.65567		 686.20710			43006.44858		181.94800		875.00000 
 43692.65567		 305.27265			43387.38302		69.19600		324.00000 
 43692.65567		 686.20710			43006.44858		181.94800		875.00000 
 43692.65567		 305.27265			43387.38302		69.19600		324.00000 
 43692.65567		 686.20710			43006.44858		181.94800		875.00000 
 43692.65567		 305.27265			43387.38302		69.19600		324.00000 
 43692.65567		 686.20710			43006.44858		181.94800		875.00000 
 43692.65567		 305.27265			43387.38302		69.19600		324.00000 
 43692.65567		 686.20710			43006.44858		181.94800		875.00000 
 43692.65567		 305.27265			43387.38302		69.19600		324.00000 
 43692.65567		 686.20710			43006.44858		181.94800		875.00000 
 43692.65567		 305.27265			43387.38302		69.19600		324.00000 
 43692.65567		 686.20710			43006.44858		181.94800		875.00000 
 43692.65567		 305.27265			43387.38302		69.19600		324.00000 
 43692.65567		 686.20710			43006.44858		181.94800		875.00000 
 43692.65567		 305.27265			43387.38302		69.19600		324.00000 
 43692.65567		 686.20710			43006.44858		181.94800		875.00000 
 43692.65567		 305.27265			43387.38302		69.19600		324.00000 
 43692.65567		 686.20710			43006.44858		181.94800		875.00000 
 43692.65567		 305.27265			43387.38302		69.19600		324.00000 
 43692.65567		 686.20710			43006.44858		181.94800		875.00000 
 43692.65567		 305.27265			43387.38302		69.19600		324.00000 
 43692.65567		 686.20710			43006.44858		181.94800		875.00000 
 43692.65567		 305.27265			43387.38302		69.19600		324.00000 
 43692.65567		 686.20710			43006.44858		181.94800		875.00000 
 43692.65567		 305.27265			43387.38302		69.19600		324.00000 
 43692.65567		 686.20710			43006.44858		181.94800		875.00000 
 43692.65567		 305.27265			43387.38302		69.19600		324.00000 
 43692.65567		 686.20710			43006.44858		181.94800		875.00000 
 43692.65567		 305.27265			43387.38302		69.19600		324.00000 
 43692.65567		 686.20710			43006.44858		181.94800		875.00000 
 43692.65567		 305.27265			43387.38302		69.19600		324.00000 
 43692.65567		 686.20710			43006.44858		181.94800		875.00000 
 43692.65567		 305.27265			43387.38302		69.19600		324.00000 
 43692.65567		 686.20710			43006.44858		181.94800		875.00000 
 43692.65567		 305.27265			43387.38302		69.19600		324.00000 
 43692.65567		 686.20710			43006.44858		181.94800		875.00000 
 43692.65567		 305.27265			43387.38302		69.19600		324.00000 
 43692.65567		 686.20710			43006.44858		181.94800		875.00000 
 43692.65567		 305.27265			43387.38302		69.19600		324.00000 
 43692.65567		 686.20710			43006.44858		181.94800		875.00000 
 43692.65567		 305.27265			43387.38302		69.19600		324.00000 
 43692.65567		 686.20710			43006.44858		181.94800		875.00000 
 43692.65567		 305.27265			43387.38302		69.19600		324.00000 
 43692.65567		 686.20710			43006.44858		181.94800		875.00000 
 43692.65567		 305.27265			43387.38302		69.19600		324.00000 
 43692.65567		 686.20710			43006.44858		181.94800		875.00000 
 43692.65567		 305.27265			43387.38302		69.19600		324.00000 
 43692.65567		 686.20710			43006.44858		181.94800		875.00000 
 43692.65567		 305.27265			43387.38302		69.19600		324.00000 
 43692.65567		 686.20710			43006.44858		181.94800		875.00000 
 43692.65567		 305.27265			43387.38302		69.19600		324.00000 
 43692.65567		 686.20710			43006.44858		181.94800		875.00000 
 43692.65567		 305.27265			43387.38302		69.19600		324.00000 
 43692.65567		 686.20710			43006.44858		181.94800		875.00000 
 43692.65567		 305.27265			43387.38302		69.19600		324.00000 
 43692.65567		 686.20710			43006.44858		181.94800		875.00000 
 43692.65567		 305.27265			43387.38302		69.19600		324.00000 
 43692.65567		 686.20710			43006.44858		181.94800		875.00000 
 43692.65567		 305.27265			43387.38302		69.19600		324.00000 
 43692.65567		 686.20710			43006.44858		181.94800		875.00000 
 43692.65567		 305.27265			43387.38302		69.19600		324.00000 
 43692.65567		 686.20710			43006.44858		181.94800		875.00000 
 43692.65567		 305.27265			43387.38302		69.19600		324.00000 
 43692.65567		 686.20710			43006.44858		181.94800		875.00000 
 43692.65567		 305.27265			43387.38302		69.19600		324.00000 
 43692.65567		 686.20710			43006.44858		181.94800		875.00000 
 43692.65567		 305.27265			43387.38302		69.19600		324.00000 
 43692.65567		 686.20710			43006.44858		181.94800		875.00000 
 43692.65567		 305.27265			43387.38302		69.19600		324.00000 
 43692.65567		 686.20710			43006.44858		181.94800		875.00000 
 43692.65567		 305.27265			43387.38302		69.19600		324.00000 
 43692.65567		 686.20710			43006.44858		181.94800		875.00000 
 43692.65567		 305.27265			43387.38302		69.19600		324.00000 
 43692.65567		 686.20710			43006.44858		181.94800		875.00000 
 43692.65567		 305.27265			43387.38302		69.19600		324.00000 
 43692.65567		 686.20710			43006.44858		181.94800		875.00000 
 43692.65567		 305.27265			43387.38302		69.19600		324.00000 
 43692.65567		 686.20710			43006.44858		181.94800		875.00000 
 43692.65567		 305.27265			43387.38302		69.19600		324.00000 
 43692.65567		 686.20710			43006.44858		181.94800		875.00000 
 43692.65567		 305.27265			43387.38302		69.19600		324.00000 
 43692.65567		 686.20710			43006.44858		181.94800		875.00000 
 43692.65567		 305.27265			43387.38302		69.19600		324.00000 
 43692.65567		 686.20710			43006.44858		181.94800		875.00000 
 43692.65567		 305.27265			43387.38302		69.19600		324.00000 
 43692.65567		 686.20710			43006.44858		181.94800		875.00000 
 43692.65567		 305.27265			43387.38302		69.19600		324.00000 
 43692.65567		 686.20710			43006.44858		181.94800		875.00000 
 43692.65567		 305.27265			43387.38302		69.19600		324.00000 
 43692.65567		 686.20710			43006.44858		181.94800		875.00000 
 43692.65567		 305.27265			43387.38302		69.19600		324.00000 
 43692.65567		 686.20710			43006.44858		181.94800		875.00000 
 43692.65567		 305.27265			43387.38302		69.19600		324.00000 
 43692.65567		 686.20710			43006.44858		181.94800		875.00000 
 43692.65567		 305.27265			43387.38302		69.19600		324.00000 
 43692.65567		 686.20710			43006.44858		181.94800		875.00000 
 43692.65567		 305.27265			43387.38302		69.19600		324.00000 
 43692.65567		 686.20710			43006.44858		181.94800		875.00000 
 43692.65567		 305.27265			43387.38302		69.19600		324.00000 
 43692.65567		 686.20710			43006.44858		181.94800		875.00000 
 43692.65567		 305.27265			43387.38302		69.19600		324.00000 
 43692.65567		 686.20710			43006.44858		181.94800		875.00000 
 43692.65567		 305.27265			43387.38302		69.19600		324.00000 
 43692.65567		 686.20710			43006.44858		181.94800		875.00000 
 43692.65567		 305.27265			43387.38302		69.19600		324.00000 
 43692.65567		 686.20710			43006.44858		181.94800		875.00000 
 43692.65567		 305.27265			43387.38302		69.19600		324.00000 
 43692.65567		 686.20710			43006.44858		181.94800		875.00000 
 43692.65567		 305.27265			43387.38302		69.19600		324.00000 
 43692.65567		 686.20710			43006.44858		181.94800		875.00000 
 43692.65567		 305.27265			43387.38302		69.19600		324.00000 
 43692.65567		 686.20710			43006.44858		181.94800		875.00000 
 43692.65567		 305.27265			43387.38302		69.19600		324.00000 
 43692.65567		 686.20710			43006.44858		181.94800		875.00000 
 43692.65567		 305.27265			43387.38302		69.19600		324.00000 
 43692.65567		 686.20710			43006.44858		181.94800		875.00000 
 43692.65567		 305.27265			43387.38302		69.19600		324.00000 
 43692.65567		 686.20710			43006.44858		181.94800		875.00000 
 43692.65567		 305.27265			43387.38302		69.19600		324.00000 
 43692.65567		 686.20710			43006.44858		181.94800		875.00000 
 43692.65567		 305.27265			43387.38302		69.19600		324.00000 
 43692.65567		 686.20710			43006.44858		181.94800		875.00000 
 43692.65567		 305.27265			43387.38302		69.19600		324.00000 
 43692.65567		 686.20710			43006.44858		181.94800		875.00000 
 43692.65567		 305.27265			43387.38302		69.19600		324.00000 
 43692.65567		 686.20710			43006.44858		181.94800		875.00000 
 43692.65567		 305.27265			43387.38302		69.19600		324.00000 
 43692.65567		 686.20710			43006.44858		205.29400		875.00000 
 43692.65567		 305.27265			43387.38302		69.19600		324.00000 
 43692.65567		 686.20710			43006.44858		205.29400		875.00000 
 43692.65567		 305.27265			43387.38302		69.19600		324.00000 
 43692.65567		 686.20710			43006.44858		205.29400		875.00000 
 43692.65567		 305.27265			43387.38302		69.19600		324.00000 
 43692.65567		 686.20710			43006.44858		205.29400		875.00000 
 43692.65567		 305.27265			43387.38302		69.19600		324.00000 
 43692.65567		 686.20710			43006.44858		205.29400		875.00000 
 43692.65567		 305.27265			43387.38302		69.19600		324.00000 
 43692.65567		 686.20710			43006.44858		205.29400		875.00000 
 43692.65567		 305.27265			43387.38302		69.19600		324.00000 
 43692.65567		 686.20710			43006.44858		205.29400		875.00000 
 43692.65567		 305.27265			43387.38302		69.19600		324.00000 
 43692.65567		 686.20710			43006.44858		205.29400		875.00000 
 43692.65567		 305.27265			43387.38302		69.19600		324.00000 
 43692.65567		 686.20710			43006.44858		205.29400		875.00000 
 43692.65567		 305.27265			43387.38302		69.19600		324.00000 
 43692.65567		 686.20710			43006.44858		205.29400		875.00000 
 43692.65567		 305.27265			43387.38302		69.19600		324.00000 
 43692.65567		 686.20710			43006.44858		205.29400		875.00000 
 43692.65567		 305.27265			43387.38302		69.19600		324.00000 
 43692.65567		 686.20710			43006.44858		205.29400		875.00000 
 43692.65567		 305.27265			43387.38302		69.19600		324.00000 
 43692.65567		 686.20710			43006.44858		205.29400		875.00000 
 43692.65567		 305.27265			43387.38302		69.19600		324.00000 
 43692.65567		 686.20710			43006.44858		205.29400		875.00000 
 43692.65567		 305.27265			43387.38302		69.19600		324.00000 
 43692.65567		 686.20710			43006.44858		205.29400		875.00000 
 43692.65567		 305.27265			43387.38302		69.19600		324.00000 
 43692.65567		 686.20710			43006.44858		205.29400		875.00000 
 43692.65567		 305.27265			43387.38302		69.19600		324.00000 
 43692.65567		 686.20710			43006.44858		205.29400		875.00000 
 43692.65567		 305.27265			43387.38302		69.19600		324.00000 
 43692.65567		 686.20710			43006.44858		205.29400		875.00000 
 43692.65567		 305.27265			43387.38302		69.19600		324.00000 
 43692.65567		 686.20710			43006.44858		205.29400		875.00000 
 43692.65567		 305.27265			43387.38302		69.19600		324.00000 
 43692.65567		 686.20710			43006.44858		205.29400		875.00000 
 43692.65567		 305.27265			43387.38302		69.19600		324.00000 
 43692.65567		 686.20710			43006.44858		205.29400		875.00000 
 43692.65567		 305.27265			43387.38302		69.19600		324.00000 
 43692.65567		 686.20710			43006.44858		205.29400		875.00000 
 43692.65567		 305.27265			43387.38302		69.19600		324.00000 
 43692.65567		 686.20710			43006.44858		205.29400		875.00000 
 43692.65567		 305.27265			43387.38302		69.19600		324.00000 
 43692.65567		 686.20710			43006.44858		205.29400		875.00000 
 43692.65567		 305.27265			43387.38302		69.19600		324.00000 
 43692.65567		 686.20710			43006.44858		205.29400		875.00000 
 43692.65567		 305.27265			43387.38302		69.19600		324.00000 
 43692.65567		 686.20710			43006.44858		205.29400		875.00000 
 43692.65567		 305.27265			43387.38302		69.19600		324.00000 
 43692.65567		 686.20710			43006.44858		205.29400		875.00000 
 43692.65567		 305.27265			43387.38302		69.19600		324.00000 
 43692.65567		 686.20710			43006.44858		205.29400		875.00000 
 43692.65567		 305.27265			43387.38302		69.19600		324.00000 
 43692.65567		 686.20710			43006.44858		205.29400		875.00000 
 43692.65567		 305.27265			43387.38302		69.19600		324.00000 
 43692.65567		 686.20710			43006.44858		205.29400		875.00000 
 43692.65567		 305.27265			43387.38302		69.19600		324.00000 
 43692.65567		 686.20710			43006.44858		205.29400		875.00000 
 43692.65567		 305.27265			43387.38302		69.19600		324.00000 
 43692.65567		 686.20710			43006.44858		205.29400		875.00000 
 43692.65567		 305.27265			43387.38302		69.19600		324.00000 
 43692.65567		 686.20710			43006.44858		205.29400		875.00000 
 43692.65567		 305.27265			43387.38302		69.19600		324.00000 
 43692.65567		 686.20710			43006.44858		205.29400		875.00000 
 43692.65567		 305.27265			43387.38302		69.19600		324.00000 
 43692.65567		 686.20710			43006.44858		205.29400		875.00000 
 43692.65567		 305.27265			43387.38302		69.19600		324.00000 
 43692.65567		 686.20710			43006.44858		205.29400		875.00000 
 43692.65567		 305.27265			43387.38302		69.19600		324.00000 
 43692.65567		 686.20710			43006.44858		205.29400		875.00000 
 43692.65567		 305.27265			43387.38302		69.19600		324.00000 
 43692.65567		 686.20710			43006.44858		205.29400		875.00000 
 43692.65567		 305.27265			43387.38302		69.19600		324.00000 
 43692.65567		 686.20710			43006.44858		205.29400		875.00000 
 43692.65567		 305.27265			43387.38302		69.19600		324.00000 
 43692.65567		 686.20710			43006.44858		205.29400		875.00000 
 43692.65567		 305.27265			43387.38302		69.19600		324.00000 
 43692.65567		 686.20710			43006.44858		205.29400		875.00000 
 43692.65567		 305.27265			43387.38302		69.19600		324.00000 
 43692.65567		 686.20710			43006.44858		205.29400		875.00000 
 43692.65567		 305.27265			43387.38302		69.19600		324.00000 
 43692.65567		 686.20710			43006.44858		205.29400		875.00000 
 43692.65567		 305.27265			43387.38302		69.19600		324.00000 
 43692.65567		 686.20710			43006.44858		205.29400		875.00000 
 43692.65567		 305.27265			43387.38302		69.19600		324.00000 
 43692.65567		 686.20710			43006.44858		205.29400		875.00000 
 43692.65567		 305.27265			43387.38302		69.19600		324.00000 
 43692.65567		 686.20710			43006.44858		205.29400		875.00000 
 43692.65567		 305.27265			43387.38302		69.19600		324.00000 
 43692.65567		 686.20710			43006.44858		205.29400		875.00000 
 43692.65567		 305.27265			43387.38302		69.19600		324.00000 
 43692.65567		 686.20710			43006.44858		205.29400		875.00000 
 43692.65567		 305.27265			43387.38302		69.19600		324.00000 
 43692.65567		 686.20710			43006.44858		205.29400		875.00000 
 43692.65567		 305.27265			43387.38302		69.19600		324.00000 
 43692.65567		 686.20710			43006.44858		205.29400		875.00000 
 43692.65567		 305.27265			43387.38302		69.19600		324.00000 
 43692.65567		 686.20710			43006.44858		205.29400		875.00000 
 43692.65567		 305.27265			43387.38302		69.19600		324.00000 
 43692.65567		 686.20710			43006.44858		205.29400		875.00000 
 43692.65567		 305.27265			43387.38302		69.19600		324.00000 
 43692.65567		 686.20710			43006.44858		205.29400		875.00000 
 43692.65567		 305.27265			43387.38302		69.19600		324.00000 
 43692.65567		 686.20710			43006.44858		205.29400		875.00000 
 43692.65567		 305.27265			43387.38302		69.19600		324.00000 
 43692.65567		 686.20710			43006.44858		205.29400		875.00000 
 43692.65567		 305.27265			43387.38302		69.19600		324.00000 
 43692.65567		 686.20710			43006.44858		205.29400		875.00000 
 43692.65567		 305.27265			43387.38302		69.19600		324.00000 
 43692.65567		 686.20710			43006.44858		205.29400		875.00000 
 43692.65567		 305.27265			43387.38302		69.19600		324.00000 
 43692.65567		 686.20710			43006.44858		205.29400		875.00000 
 43692.65567		 305.27265			43387.38302		69.19600		324.00000 
 43692.65567		 686.20710			43006.44858		205.29400		875.00000 
 43692.65567		 305.27265			43387.38302		69.19600		324.00000 
 43692.65567		 686.20710			43006.44858		205.29400		875.00000 
 43692.65567		 305.27265			43387.38302		69.19600		324.00000 
 43692.65567		 686.20710			43006.44858		205.29400		875.00000 
 43692.65567		 305.27265			43387.38302		69.19600		324.00000 
 43692.65567		 686.20710			43006.44858		205.29400		875.00000 
 43692.65567		 305.27265			43387.38302		69.19600		324.00000 
 43692.65567		 686.20710			43006.44858		205.29400		875.00000 
 43692.65567		 305.27265			43387.38302		69.19600		324.00000 
 43692.65567		 686.20710			43006.44858		205.29400		875.00000 
 43692.65567		 305.27265			43387.38302		69.19600		324.00000 
 43692.65567		 686.20710			43006.44858		213.55400		875.00000 
 43692.65567		 305.27265			43387.38302		69.19600		324.00000 
 43692.65567		 686.20710			43006.44858		213.55400		875.00000 
 43692.65567		 305.27265			43387.38302		69.19600		324.00000 
 43692.65567		 686.20710			43006.44858		213.55400		875.00000 
 43692.65567		 305.27265			43387.38302		69.19600		324.00000 
 43692.65567		 686.20710			43006.44858		213.55400		875.00000 
 43692.65567		 305.27265			43387.38302		69.19600		324.00000 
 43692.65567		 686.20710			43006.44858		213.55400		875.00000 
 43692.65567		 305.27265			43387.38302		69.19600		324.00000 
 43692.65567		 686.20710			43006.44858		213.55400		875.00000 
 43692.65567		 305.27265			43387.38302		69.19600		324.00000 
 43692.65567		 686.20710			43006.44858		213.55400		875.00000 
 43692.65567		 305.27265			43387.38302		69.19600		324.00000 
 43692.65567		 686.20710			43006.44858		213.55400		875.00000 
 43692.65567		 305.27265			43387.38302		69.19600		324.00000 
 43692.65567		 686.20710			43006.44858		213.55400		875.00000 
 43692.65567		 305.27265			43387.38302		69.19600		324.00000 
 43692.65567		 686.20710			43006.44858		213.55400		875.00000 
 43692.65567		 305.27265			43387.38302		69.19600		324.00000 
 43692.65567		 686.20710			43006.44858		213.55400		875.00000 
 43692.65567		 305.27265			43387.38302		69.19600		324.00000 
 43692.65567		 686.20710			43006.44858		213.55400		875.00000 
 43692.65567		 305.27265			43387.38302		69.19600		324.00000 
 43692.65567		 686.20710			43006.44858		213.55400		875.00000 
 43692.65567		 305.27265			43387.38302		69.19600		324.00000 
 43692.65567		 686.20710			43006.44858		213.55400		875.00000 
 43692.65567		 305.27265			43387.38302		69.19600		324.00000 
 43692.65567		 686.20710			43006.44858		213.55400		875.00000 
 43692.65567		 305.27265			43387.38302		69.19600		324.00000 
 43692.65567		 686.20710			43006.44858		213.55400		875.00000 
 43692.65567		 305.27265			43387.38302		69.19600		324.00000 
 43692.65567		 686.20710			43006.44858		213.55400		875.00000 
 43692.65567		 305.27265			43387.38302		69.19600		324.00000 
 43692.65567		 686.20710			43006.44858		213.55400		875.00000 
 43692.65567		 305.27265			43387.38302		69.19600		324.00000 
 43692.65567		 686.20710			43006.44858		213.55400		875.00000 
 43692.65567		 305.27265			43387.38302		69.19600		324.00000 
 43692.65567		 686.20710			43006.44858		213.55400		875.00000 
 43692.65567		 305.27265			43387.38302		69.19600		324.00000 
 43692.65567		 686.20710			43006.44858		213.55400		875.00000 
 43692.65567		 305.27265			43387.38302		69.19600		324.00000 
 43692.65567		 686.20710			43006.44858		213.55400		875.00000 
 43692.65567		 305.27265			43387.38302		69.19600		324.00000 
 43692.65567		 686.20710			43006.44858		213.55400		875.00000 
 43692.65567		 305.27265			43387.38302		69.19600		324.00000 
 43692.65567		 686.20710			43006.44858		213.55400		875.00000 
 43692.65567		 305.27265			43387.38302		69.19600		324.00000 
 43692.65567		 686.20710			43006.44858		213.55400		875.00000 
 43692.65567		 305.27265			43387.38302		69.19600		324.00000 
 43692.65567		 686.20710			43006.44858		213.55400		875.00000 
 43692.65567		 305.27265			43387.38302		69.19600		324.00000 
 43692.65567		 686.20710			43006.44858		213.55400		875.00000 
 43692.65567		 305.27265			43387.38302		69.19600		324.00000 
 43692.65567		 686.20710			43006.44858		213.55400		875.00000 
 43692.65567		 305.27265			43387.38302		69.19600		324.00000 
 43692.65567		 686.20710			43006.44858		213.55400		875.00000 
 43692.65567		 305.27265			43387.38302		69.19600		324.00000 
 43692.65567		 686.20710			43006.44858		213.55400		875.00000 
 43692.65567		 305.27265			43387.38302		69.19600		324.00000 
 43692.65567		 686.20710			43006.44858		213.55400		875.00000 
 43692.65567		 305.27265			43387.38302		69.19600		324.00000 
 43692.65567		 686.20710			43006.44858		213.55400		875.00000 
 43692.65567		 305.27265			43387.38302		69.19600		324.00000 
 43692.65567		 686.20710			43006.44858		213.55400		875.00000 
 43692.65567		 305.27265			43387.38302		69.19600		324.00000 
 43692.65567		 686.20710			43006.44858		213.55400		875.00000 
 43692.65567		 305.27265			43387.38302		69.19600		324.00000 
 43692.65567		 686.20710			43006.44858		213.55400		875.00000 
 43692.65567		 305.27265			43387.38302		69.19600		324.00000 
 43692.65567		 686.20710			43006.44858		213.55400		875.00000 
 43692.65567		 305.27265			43387.38302		69.19600		324.00000 
 43692.65567		 686.20710			43006.44858		213.55400		875.00000 
 43692.65567		 305.27265			43387.38302		69.19600		324.00000 
 43692.65567		 686.20710			43006.44858		213.55400		875.00000 
 43692.65567		 305.27265			43387.38302		69.19600		324.00000 
 43692.65567		 686.20710			43006.44858		213.55400		875.00000 
 43692.65567		 305.27265			43387.38302		69.19600		324.00000 
 43692.65567		 686.20710			43006.44858		213.55400		875.00000 
 43692.65567		 305.27265			43387.38302		69.19600		324.00000 
 43692.65567		 686.20710			43006.44858		213.55400		875.00000 
 43692.65567		 305.27265			43387.38302		69.19600		324.00000 
 43692.65567		 686.20710			43006.44858		213.55400		875.00000 
 43692.65567		 305.27265			43387.38302		69.19600		324.00000 
 43692.65567		 686.20710			43006.44858		213.55400		875.00000 
 43692.65567		 305.27265			43387.38302		69.19600		324.00000 
 43692.65567		 686.20710			43006.44858		213.55400		875.00000 
 43692.65567		 305.27265			43387.38302		69.19600		324.00000 
 43692.65567		 686.20710			43006.44858		213.55400		875.00000 
 43692.65567		 305.27265			43387.38302		69.19600		324.00000 
 43692.65567		 686.20710			43006.44858		213.55400		875.00000 
 43692.65567		 305.27265			43387.38302		69.19600		324.00000 
 43692.65567		 686.20710			43006.44858		213.55400		875.00000 
 43692.65567		 305.27265			43387.38302		69.19600		324.00000 
 43692.65567		 686.20710			43006.44858		213.55400		875.00000 
 43692.65567		 305.27265			43387.38302		69.19600		324.00000 
 43692.65567		 686.20710			43006.44858		213.55400		875.00000 
 43692.65567		 305.27265			43387.38302		69.19600		324.00000 
 43692.65567		 686.20710			43006.44858		213.55400		875.00000 
 43692.65567		 305.27265			43387.38302		69.19600		324.00000 
 43692.65567		 686.20710			43006.44858		213.55400		875.00000 
 43692.65567		 305.27265			43387.38302		69.19600		324.00000 
 43692.65567		 686.20710			43006.44858		213.55400		875.00000 
 43692.65567		 305.27265			43387.38302		69.19600		324.00000 
 43692.65567		 686.20710			43006.44858		213.55400		875.00000 
 43692.65567		 305.27265			43387.38302		69.19600		324.00000 
 43692.65567		 686.20710			43006.44858		213.55400		875.00000 
 43692.65567		 305.27265			43387.38302		69.19600		324.00000 
 43692.65567		 686.20710			43006.44858		213.55400		875.00000 
 43692.65567		 305.27265			43387.38302		69.19600		324.00000 
 43692.65567		 686.20710			43006.44858		213.55400		875.00000 
 43692.65567		 305.27265			43387.38302		69.19600		324.00000 
 43692.65567		 686.20710			43006.44858		213.55400		875.00000 
 43692.65567		 305.27265			43387.38302		69.19600		324.00000 
 43692.65567		 686.20710			43006.44858		213.55400		875.00000 
 43692.65567		 305.27265			43387.38302		69.19600		324.00000 
 43692.65567		 686.20710			43006.44858		213.55400		875.00000 
 43692.65567		 305.27265			43387.38302		69.19600		324.00000 
 43692.65567		 686.20710			43006.44858		213.55400		875.00000 
 43692.65567		 305.27265			43387.38302		69.19600		324.00000 
 43692.65567		 686.20710			43006.44858		213.55400		875.00000 
 43692.65567		 305.27265			43387.38302		69.19600		324.00000 
 43692.65567		 686.20710			43006.44858		213.55400		875.00000 
 43692.65567		 305.27265			43387.38302		69.19600		324.00000 
 43692.65567		 686.20710			43006.44858		213.55400		875.00000 
 43692.65567		 305.27265			43387.38302		69.19600		324.00000 
 43692.65567		 686.20710			43006.44858		213.55400		875.00000 
 43692.65567		 305.27265			43387.38302		69.19600		324.00000 
 43692.65567		 686.20710			43006.44858		217.00000		875.00000 
 43692.65567		 305.27265			43387.38302		69.19600		324.00000 
 43692.65567		 686.20710			43006.44858		217.00000		875.00000 
 43692.65567		 305.27265			43387.38302		69.19600		324.00000 
 43692.65567		 686.20710			43006.44858		217.00000		875.00000 
 43692.65567		 305.27265			43387.38302		69.19600		324.00000 
 43692.65567		 686.20710			43006.44858		217.00000		875.00000 
 43692.65567		 305.27265			43387.38302		69.19600		324.00000 
 43692.65567		 686.20710			43006.44858		217.00000		875.00000 
 43692.65567		 305.27265			43387.38302		69.19600		324.00000 
 43692.65567		 686.20710			43006.44858		217.00000		875.00000 
 43692.65567		 305.27265			43387.38302		69.19600		324.00000 
 43692.65567		 686.20710			43006.44858		217.00000		875.00000 
 43692.65567		 305.27265			43387.38302		69.19600		324.00000 
 43692.65567		 686.20710			43006.44858		217.00000		875.00000 
 43692.65567		 305.27265			43387.38302		69.19600		324.00000 
 43692.65567		 686.20710			43006.44858		217.00000		875.00000 
 43692.65567		 305.27265			43387.38302		69.19600		324.00000 
 43692.65567		 686.20710			43006.44858		217.00000		875.00000 
 43692.65567		 305.27265			43387.38302		69.19600		324.00000 
 43692.65567		 686.20710			43006.44858		217.00000		875.00000 
 43692.65567		 305.27265			43387.38302		69.19600		324.00000 
 43692.65567		 686.20710			43006.44858		217.00000		875.00000 
 43692.65567		 305.27265			43387.38302		69.19600		324.00000 
 43692.65567		 686.20710			43006.44858		217.00000		875.00000 
 43692.65567		 305.27265			43387.38302		69.19600		324.00000 
 43692.65567		 686.20710			43006.44858		217.00000		875.00000 
 43692.65567		 305.27265			43387.38302		69.19600		324.00000 
 43692.65567		 686.20710			43006.44858		217.00000		875.00000 
 43692.65567		 305.27265			43387.38302		69.19600		324.00000 
 43692.65567		 686.20710			43006.44858		217.00000		875.00000 
 43692.65567		 305.27265			43387.38302		69.19600		324.00000 
 43692.65567		 686.20710			43006.44858		217.00000		875.00000 
 43692.65567		 305.27265			43387.38302		69.19600		324.00000 
 43692.65567		 686.20710			43006.44858		217.00000		875.00000 
 43692.65567		 305.27265			43387.38302		69.19600		324.00000 
 43692.65567		 686.20710			43006.44858		217.00000		875.00000 
 43692.65567		 305.27265			43387.38302		69.19600		324.00000 
 43692.65567		 686.20710			43006.44858		217.00000		875.00000 
 43692.65567		 305.27265			43387.38302		69.19600		324.00000 
 43692.65567		 686.20710			43006.44858		217.00000		875.00000 
 43692.65567		 305.27265			43387.38302		69.19600		324.00000 
 43692.65567		 686.20710			43006.44858		217.00000		875.00000 
 43692.65567		 305.27265			43387.38302		69.19600		324.00000 
 43692.65567		 686.20710			43006.44858		217.00000		875.00000 
 43692.65567		 305.27265			43387.38302		69.19600		324.00000 
 43692.65567		 686.20710			43006.44858		217.00000		875.00000 
 43692.65567		 305.27265			43387.38302		69.19600		324.00000 
 43692.65567		 686.20710			43006.44858		217.00000		875.00000 
 43692.65567		 305.27265			43387.38302		69.19600		324.00000 
 43692.65567		 686.20710			43006.44858		217.00000		875.00000 
 43692.65567		 305.27265			43387.38302		69.19600		324.00000 
 43692.65567		 686.20710			43006.44858		217.00000		875.00000 
 43692.65567		 305.27265			43387.38302		69.19600		324.00000 
 43692.65567		 686.20710			43006.44858		217.00000		875.00000 
 43692.65567		 305.27265			43387.38302		69.19600		324.00000 
 43692.65567		 686.20710			43006.44858		217.00000		875.00000 
 43692.65567		 305.27265			43387.38302		69.19600		324.00000 
 43692.65567		 686.20710			43006.44858		217.00000		875.00000 
 43692.65567		 305.27265			43387.38302		69.19600		324.00000 
 43692.65567		 686.20710			43006.44858		217.00000		875.00000 
 43692.65567		 305.27265			43387.38302		69.19600		324.00000 
 43692.65567		 686.20710			43006.44858		217.00000		875.00000 
 43692.65567		 305.27265			43387.38302		69.19600		324.00000 
 43692.65567		 686.20710			43006.44858		217.00000		875.00000 
 43692.65567		 305.27265			43387.38302		69.19600		324.00000 
 43692.65567		 686.20710			43006.44858		217.00000		875.00000 
 43692.65567		 305.27265			43387.38302		69.19600		324.00000 
 43692.65567		 686.20710			43006.44858		217.00000		875.00000 
 43692.65567		 305.27265			43387.38302		69.19600		324.00000 
 43692.65567		 686.20710			43006.44858		217.00000		875.00000 
 43692.65567		 305.27265			43387.38302		69.19600		324.00000 
 43692.65567		 686.20710			43006.44858		217.00000		875.00000 
 43692.65567		 305.27265			43387.38302		69.19600		324.00000 
 43692.65567		 686.20710			43006.44858		217.00000		875.00000 
 43692.65567		 305.27265			43387.38302		69.19600		324.00000 
 43692.65567		 686.20710			43006.44858		217.00000		875.00000 
 43692.65567		 305.27265			43387.38302		69.19600		324.00000 
 43692.65567		 686.20710			43006.44858		217.00000		875.00000 
 43692.65567		 305.27265			43387.38302		69.19600		324.00000 
 43692.65567		 686.20710			43006.44858		217.00000		875.00000 
 43692.65567		 305.27265			43387.38302		69.19600		324.00000 
 43692.65567		 686.20710			43006.44858		217.00000		875.00000 
 43692.65567		 305.27265			43387.38302		69.19600		324.00000 
 43692.65567		 686.20710			43006.44858		217.00000		875.00000 
 43692.65567		 305.27265			43387.38302		69.19600		324.00000 
 43692.65567		 686.20710			43006.44858		217.00000		875.00000 
 43692.65567		 305.27265			43387.38302		69.19600		324.00000 
 43692.65567		 686.20710			43006.44858		217.00000		875.00000 
 43692.65567		 305.27265			43387.38302		69.19600		324.00000 
 43692.65567		 686.20710			43006.44858		217.00000		875.00000 
 43692.65567		 305.27265			43387.38302		69.19600		324.00000 
 43692.65567		 686.20710			43006.44858		217.00000		875.00000 
 43692.65567		 305.27265			43387.38302		69.19600		324.00000 
 43692.65567		 686.20710			43006.44858		217.00000		875.00000 
 43692.65567		 305.27265			43387.38302		69.19600		324.00000 
 43692.65567		 686.20710			43006.44858		217.00000		875.00000 
 43692.65567		 305.27265			43387.38302		69.19600		324.00000 
 43692.65567		 686.20710			43006.44858		217.00000		875.00000 
 43692.65567		 305.27265			43387.38302		69.19600		324.00000 
 43692.65567		 686.20710			43006.44858		217.00000		875.00000 
 43692.65567		 305.27265			43387.38302		69.19600		324.00000 
 43692.65567		 686.20710			43006.44858		217.00000		875.00000 
 43692.65567		 305.27265			43387.38302		69.19600		324.00000 
 43692.65567		 686.20710			43006.44858		217.00000		875.00000 
 43692.65567		 305.27265			43387.38302		69.19600		324.00000 
 43692.65567		 686.20710			43006.44858		217.00000		875.00000 
 43692.65567		 305.27265			43387.38302		69.19600		324.00000 
 43692.65567		 686.20710			43006.44858		217.00000		875.00000 
 43692.65567		 305.27265			43387.38302		69.19600		324.00000 
 43692.65567		 686.20710			43006.44858		217.00000		875.00000 
 43692.65567		 305.27265			43387.38302		69.19600		324.00000 
 43692.65567		 686.20710			43006.44858		217.00000		875.00000 
 43692.65567		 305.27265			43387.38302		69.19600		324.00000 
 43692.65567		 686.20710			43006.44858		217.00000		875.00000 
 43692.65567		 305.27265			43387.38302		69.19600		324.00000 
 43692.65567		 686.20710			43006.44858		217.00000		875.00000 
 43692.65567		 305.27265			43387.38302		69.19600		324.00000 
 43692.65567		 686.20710			43006.44858		217.00000		875.00000 
 43692.65567		 305.27265			43387.38302		69.19600		324.00000 
 43692.65567		 686.20710			43006.44858		217.00000		875.00000 
 43692.65567		 305.27265			43387.38302		69.19600		324.00000 
 43692.65567		 686.20710			43006.44858		217.00000		875.00000 
 43692.65567		 305.27265			43387.38302		69.19600		324.00000 
 43692.65567		 686.20710			43006.44858		217.00000		875.00000 
 43692.65567		 305.27265			43387.38302		69.19600		324.00000 
 43692.65567		 686.20710			43006.44858		217.00000		875.00000 
 43692.65567		 305.27265			43387.38302		69.19600		324.00000 
 43692.65567		 686.20710			43006.44858		217.75400		875.00000 
 43692.65567		 305.27265			43387.38302		69.19600		324.00000 
 43692.65567		 686.20710			43006.44858		217.75400		875.00000 
 43692.65567		 305.27265			43387.38302		69.19600		324.00000 
 43692.65567		 686.20710			43006.44858		217.75400		875.00000 
 43692.65567		 305.27265			43387.38302		69.19600		324.00000 
 43692.65567		 686.20710			43006.44858		217.75400		875.00000 
 43692.65567		 305.27265			43387.38302		69.19600		324.00000 
 43692.65567		 686.20710			43006.44858		217.75400		875.00000 
 43692.65567		 305.27265			43387.38302		69.19600		324.00000 
 43692.65567		 686.20710			43006.44858		217.75400		875.00000 
 43692.65567		 305.27265			43387.38302		69.19600		324.00000 
 43692.65567		 686.20710			43006.44858		217.75400		875.00000 
 43692.65567		 305.27265			43387.38302		69.19600		324.00000 
 43692.65567		 686.20710			43006.44858		217.75400		875.00000 
 43692.65567		 305.27265			43387.38302		69.19600		324.00000 
 43692.65567		 686.20710			43006.44858		217.75400		875.00000 
 43692.65567		 305.27265			43387.38302		69.19600		324.00000 
 43692.65567		 686.20710			43006.44858		217.75400		875.00000 
 43692.65567		 305.27265			43387.38302		69.19600		324.00000 
 43692.65567		 686.20710			43006.44858		217.75400		875.00000 
 43692.65567		 305.27265			43387.38302		69.19600		324.00000 
 43692.65567		 686.20710			43006.44858		217.75400		875.00000 
 43692.65567		 305.27265			43387.38302		69.19600		324.00000 
 43692.65567		 686.20710			43006.44858		217.75400		875.00000 
 43692.65567		 305.27265			43387.38302		69.19600		324.00000 
 43692.65567		 686.20710			43006.44858		217.75400		875.00000 
 43692.65567		 305.27265			43387.38302		69.19600		324.00000 
 43692.65567		 686.20710			43006.44858		217.75400		875.00000 
 43692.65567		 305.27265			43387.38302		69.19600		324.00000 
 43692.65567		 686.20710			43006.44858		217.75400		875.00000 
 43692.65567		 305.27265			43387.38302		69.19600		324.00000 
 43692.65567		 686.20710			43006.44858		217.75400		875.00000 
 43692.65567		 305.27265			43387.38302		69.19600		324.00000 
 43692.65567		 686.20710			43006.44858		217.75400		875.00000 
 43692.65567		 305.27265			43387.38302		69.19600		324.00000 
 43692.65567		 686.20710			43006.44858		217.75400		875.00000 
 43692.65567		 305.27265			43387.38302		69.19600		324.00000 
 43692.65567		 686.20710			43006.44858		217.75400		875.00000 
 43692.65567		 305.27265			43387.38302		69.19600		324.00000 
 43692.65567		 686.20710			43006.44858		217.75400		875.00000 
 43692.65567		 305.27265			43387.38302		69.19600		324.00000 
 43692.65567		 686.20710			43006.44858		217.75400		875.00000 
 43692.65567		 305.27265			43387.38302		69.19600		324.00000 
 43692.65567		 686.20710			43006.44858		217.75400		875.00000 
 43692.65567		 305.27265			43387.38302		69.19600		324.00000 
 43692.65567		 686.20710			43006.44858		217.75400		875.00000 
 43692.65567		 305.27265			43387.38302		69.19600		324.00000 
 43692.65567		 686.20710			43006.44858		217.75400		875.00000 
 43692.65567		 305.27265			43387.38302		69.19600		324.00000 
 43692.65567		 686.20710			43006.44858		217.75400		875.00000 
 43692.65567		 305.27265			43387.38302		69.19600		324.00000 
 43692.65567		 686.20710			43006.44858		217.75400		875.00000 
 43692.65567		 305.27265			43387.38302		69.19600		324.00000 
 43692.65567		 686.20710			43006.44858		217.75400		875.00000 
 43692.65567		 305.27265			43387.38302		69.19600		324.00000 
 43692.65567		 686.20710			43006.44858		217.75400		875.00000 
 43692.65567		 305.27265			43387.38302		69.19600		324.00000 
 43692.65567		 686.20710			43006.44858		217.75400		875.00000 
 43692.65567		 305.27265			43387.38302		69.19600		324.00000 
 43692.65567		 686.20710			43006.44858		217.75400		875.00000 
 43692.65567		 305.27265			43387.38302		69.19600		324.00000 
 43692.65567		 686.20710			43006.44858		217.75400		875.00000 
 43692.65567		 305.27265			43387.38302		69.19600		324.00000 
 43692.65567		 686.20710			43006.44858		217.75400		875.00000 
 43692.65567		 305.27265			43387.38302		69.19600		324.00000 
 43692.65567		 686.20710			43006.44858		217.75400		875.00000 
 43692.65567		 305.27265			43387.38302		69.19600		324.00000 
 43692.65567		 686.20710			43006.44858		217.75400		875.00000 
 43692.65567		 305.27265			43387.38302		69.19600		324.00000 
 43692.65567		 686.20710			43006.44858		217.75400		875.00000 
 43692.65567		 305.27265			43387.38302		69.19600		324.00000 
 43692.65567		 686.20710			43006.44858		217.75400		875.00000 
 43692.65567		 305.27265			43387.38302		69.19600		324.00000 
 43692.65567		 686.20710			43006.44858		217.75400		875.00000 
 43692.65567		 305.27265			43387.38302		69.19600		324.00000 
 43692.65567		 686.20710			43006.44858		217.75400		875.00000 
 43692.65567		 305.27265			43387.38302		69.19600		324.00000 
 43692.65567		 686.20710			43006.44858		217.75400		875.00000 
 43692.65567		 305.27265			43387.38302		69.19600		324.00000 
 43692.65567		 686.20710			43006.44858		217.75400		875.00000 
 43692.65567		 305.27265			43387.38302		69.19600		324.00000 
 43692.65567		 686.20710			43006.44858		217.75400		875.00000 
 43692.65567		 305.27265			43387.38302		69.19600		324.00000 
 43692.65567		 686.20710			43006.44858		217.75400		875.00000 
 43692.65567		 305.27265			43387.38302		69.19600		324.00000 
 43692.65567		 686.20710			43006.44858		217.75400		875.00000 
 43692.65567		 305.27265			43387.38302		69.19600		324.00000 
 43692.65567		 686.20710			43006.44858		217.75400		875.00000 
 43692.65567		 305.27265			43387.38302		69.19600		324.00000 
 43692.65567		 686.20710			43006.44858		217.75400		875.00000 
 43692.65567		 305.27265			43387.38302		69.19600		324.00000 
 43692.65567		 686.20710			43006.44858		217.75400		875.00000 
 43692.65567		 305.27265			43387.38302		69.19600		324.00000 
 43692.65567		 686.20710			43006.44858		217.75400		875.00000 
 43692.65567		 305.27265			43387.38302		69.19600		324.00000 
 43692.65567		 686.20710			43006.44858		217.75400		875.00000 
 43692.65567		 305.27265			43387.38302		69.19600		324.00000 
 43692.65567		 686.20710			43006.44858		217.75400		875.00000 
 43692.65567		 305.27265			43387.38302		69.19600		324.00000 
 43692.65567		 686.20710			43006.44858		217.75400		875.00000 
 43692.65567		 305.27265			43387.38302		69.19600		324.00000 
 43692.65567		 686.20710			43006.44858		217.75400		875.00000 
 43692.65567		 305.27265			43387.38302		69.19600		324.00000 
 43692.65567		 686.20710			43006.44858		217.75400		875.00000 
 43692.65567		 305.27265			43387.38302		69.19600		324.00000 
 43692.65567		 686.20710			43006.44858		217.75400		875.00000 
 43692.65567		 305.27265			43387.38302		69.19600		324.00000 
 43692.65567		 686.20710			43006.44858		217.75400		875.00000 
 43692.65567		 305.27265			43387.38302		69.19600		324.00000 
 43692.65567		 686.20710			43006.44858		217.75400		875.00000 
 43692.65567		 305.27265			43387.38302		69.19600		324.00000 
 43692.65567		 686.20710			43006.44858		217.75400		875.00000 
 43692.65567		 305.27265			43387.38302		69.19600		324.00000 
 43692.65567		 686.20710			43006.44858		217.75400		875.00000 
 43692.65567		 305.27265			43387.38302		69.19600		324.00000 
 43692.65567		 686.20710			43006.44858		217.75400		875.00000 
 43692.65567		 305.27265			43387.38302		69.19600		324.00000 
 43692.65567		 686.20710			43006.44858		217.75400		875.00000 
 43692.65567		 305.27265			43387.38302		69.19600		324.00000 
 43692.65567		 686.20710			43006.44858		217.75400		875.00000 
 43692.65567		 305.27265			43387.38302		69.19600		324.00000 
 43692.65567		 686.20710			43006.44858		217.75400		875.00000 
 43692.65567		 305.27265			43387.38302		69.19600		324.00000 
 43692.65567		 686.20710			43006.44858		217.75400		875.00000 
 43692.65567		 305.27265			43387.38302		69.19600		324.00000 
 43692.65567		 686.20710			43006.44858		217.75400		875.00000 
 43692.65567		 305.27265			43387.38302		69.19600		324.00000 
 43692.65567		 686.20710			43006.44858		218.89200		875.00000 
 43692.65567		 305.27265			43387.38302		69.19600		324.00000 
 43692.65567		 686.20710			43006.44858		218.89200		875.00000 
 43692.65567		 305.27265			43387.38302		69.19600		324.00000 
 43692.65567		 686.20710			43006.44858		218.89200		875.00000 
 43692.65567		 305.27265			43387.38302		69.19600		324.00000 
 43692.65567		 686.20710			43006.44858		218.89200		875.00000 
 43692.65567		 305.27265			43387.38302		69.19600		324.00000 
 43692.65567		 686.20710			43006.44858		218.89200		875.00000 
 43692.65567		 305.27265			43387.38302		69.19600		324.00000 
 43692.65567		 686.20710			43006.44858		218.89200		875.00000 
 43692.65567		 305.27265			43387.38302		69.19600		324.00000 
 43692.65567		 686.20710			43006.44858		218.89200		875.00000 
 43692.65567		 305.27265			43387.38302		69.19600		324.00000 
 43692.65567		 686.20710			43006.44858		218.89200		875.00000 
 43692.65567		 305.27265			43387.38302		69.19600		324.00000 
 43692.65567		 686.20710			43006.44858		218.89200		875.00000 
 43692.65567		 305.27265			43387.38302		69.19600		324.00000 
 43692.65567		 686.20710			43006.44858		218.89200		875.00000 
 43692.65567		 305.27265			43387.38302		69.19600		324.00000 
 43692.65567		 686.20710			43006.44858		218.89200		875.00000 
 43692.65567		 305.27265			43387.38302		69.19600		324.00000 
 43692.65567		 686.20710			43006.44858		218.89200		875.00000 
 43692.65567		 305.27265			43387.38302		69.19600		324.00000 
 43692.65567		 686.20710			43006.44858		218.89200		875.00000 
 43692.65567		 305.27265			43387.38302		69.19600		324.00000 
 43692.65567		 686.20710			43006.44858		218.89200		875.00000 
 43692.65567		 305.27265			43387.38302		69.19600		324.00000 
 43692.65567		 686.20710			43006.44858		218.89200		875.00000 
 43692.65567		 305.27265			43387.38302		69.19600		324.00000 
 43692.65567		 686.20710			43006.44858		218.89200		875.00000 
 43692.65567		 305.27265			43387.38302		69.19600		324.00000 
 43692.65567		 686.20710			43006.44858		218.89200		875.00000 
 43692.65567		 305.27265			43387.38302		69.19600		324.00000 
 43692.65567		 686.20710			43006.44858		218.89200		875.00000 
 43692.65567		 305.27265			43387.38302		69.19600		324.00000 
 43692.65567		 686.20710			43006.44858		218.89200		875.00000 
 43692.65567		 305.27265			43387.38302		69.19600		324.00000 
 43692.65567		 686.20710			43006.44858		218.89200		875.00000 
 43692.65567		 305.27265			43387.38302		69.19600		324.00000 
 43692.65567		 686.20710			43006.44858		218.89200		875.00000 
 43692.65567		 305.27265			43387.38302		69.19600		324.00000 
 43692.65567		 686.20710			43006.44858		218.89200		875.00000 
 43692.65567		 305.27265			43387.38302		69.19600		324.00000 
 43692.65567		 686.20710			43006.44858		218.89200		875.00000 
 43692.65567		 305.27265			43387.38302		69.19600		324.00000 
 43692.65567		 686.20710			43006.44858		218.89200		875.00000 
 43692.65567		 305.27265			43387.38302		69.19600		324.00000 
 43692.65567		 686.20710			43006.44858		218.89200		875.00000 
 43692.65567		 305.27265			43387.38302		69.19600		324.00000 
 43692.65567		 686.20710			43006.44858		218.89200		875.00000 
 43692.65567		 305.27265			43387.38302		69.19600		324.00000 
 43692.65567		 686.20710			43006.44858		218.89200		875.00000 
 43692.65567		 305.27265			43387.38302		69.19600		324.00000 
 43692.65567		 686.20710			43006.44858		218.89200		875.00000 
 43692.65567		 305.27265			43387.38302		69.19600		324.00000 
 43692.65567		 686.20710			43006.44858		218.89200		875.00000 
 43692.65567		 305.27265			43387.38302		69.19600		324.00000 
 43692.65567		 686.20710			43006.44858		218.89200		875.00000 
 43692.65567		 305.27265			43387.38302		69.19600		324.00000 
 43692.65567		 686.20710			43006.44858		218.89200		875.00000 
 43692.65567		 305.27265			43387.38302		69.19600		324.00000 
 43692.65567		 686.20710			43006.44858		218.89200		875.00000 
 43692.65567		 305.27265			43387.38302		69.19600		324.00000 
 43692.65567		 686.20710			43006.44858		218.89200		875.00000 
 43692.65567		 305.27265			43387.38302		69.19600		324.00000 
 43692.65567		 686.20710			43006.44858		218.89200		875.00000 
 43692.65567		 305.27265			43387.38302		69.19600		324.00000 
 43692.65567		 686.20710			43006.44858		218.89200		875.00000 
 43692.65567		 305.27265			43387.38302		69.19600		324.00000 
 43692.65567		 686.20710			43006.44858		218.89200		875.00000 
 43692.65567		 305.27265			43387.38302		69.19600		324.00000 
 43692.65567		 686.20710			43006.44858		218.89200		875.00000 
 43692.65567		 305.27265			43387.38302		69.19600		324.00000 
 43692.65567		 686.20710			43006.44858		218.89200		875.00000 
 43692.65567		 305.27265			43387.38302		69.19600		324.00000 
 43692.65567		 686.20710			43006.44858		218.89200		875.00000 
 43692.65567		 305.27265			43387.38302		69.19600		324.00000 
 43692.65567		 686.20710			43006.44858		218.89200		875.00000 
 43692.65567		 305.27265			43387.38302		69.19600		324.00000 
 43692.65567		 686.20710			43006.44858		218.89200		875.00000 
 43692.65567		 305.27265			43387.38302		69.19600		324.00000 
 43692.65567		 686.20710			43006.44858		218.89200		875.00000 
 43692.65567		 305.27265			43387.38302		69.19600		324.00000 
 43692.65567		 686.20710			43006.44858		218.89200		875.00000 
 43692.65567		 305.27265			43387.38302		69.19600		324.00000 
 43692.65567		 686.20710			43006.44858		218.89200		875.00000 
 43692.65567		 305.27265			43387.38302		69.19600		324.00000 
 43692.65567		 686.20710			43006.44858		218.89200		875.00000 
 43692.65567		 305.27265			43387.38302		69.19600		324.00000 
 43692.65567		 686.20710			43006.44858		218.89200		875.00000 
 43692.65567		 305.27265			43387.38302		69.19600		324.00000 
 43692.65567		 686.20710			43006.44858		218.89200		875.00000 
 43692.65567		 305.27265			43387.38302		69.19600		324.00000 
 43692.65567		 686.20710			43006.44858		218.89200		875.00000 
 43692.65567		 305.27265			43387.38302		69.19600		324.00000 
 43692.65567		 686.20710			43006.44858		218.89200		875.00000 
 43692.65567		 305.27265			43387.38302		69.19600		324.00000 
 43692.65567		 686.20710			43006.44858		218.89200		875.00000 
 43692.65567		 305.27265			43387.38302		69.19600		324.00000 
 43692.65567		 686.20710			43006.44858		218.89200		875.00000 
 43692.65567		 305.27265			43387.38302		69.19600		324.00000 
 43692.65567		 686.20710			43006.44858		218.89200		875.00000 
 43692.65567		 305.27265			43387.38302		69.19600		324.00000 
 43692.65567		 686.20710			43006.44858		218.89200		875.00000 
 43692.65567		 305.27265			43387.38302		69.19600		324.00000 
 43692.65567		 686.20710			43006.44858		218.89200		875.00000 
 43692.65567		 305.27265			43387.38302		69.19600		324.00000 
 43692.65567		 686.20710			43006.44858		218.89200		875.00000 
 43692.65567		 305.27265			43387.38302		69.19600		324.00000 
 43692.65567		 686.20710			43006.44858		218.89200		875.00000 
 43692.65567		 305.27265			43387.38302		69.19600		324.00000 
 43692.65567		 686.20710			43006.44858		218.89200		875.00000 
 43692.65567		 305.27265			43387.38302		69.19600		324.00000 
 43692.65567		 686.20710			43006.44858		218.89200		875.00000 
 43692.65567		 305.27265			43387.38302		69.19600		324.00000 
 43692.65567		 686.20710			43006.44858		218.89200		875.00000 
 43692.65567		 305.27265			43387.38302		69.19600		324.00000 
 43692.65567		 686.20710			43006.44858		218.89200		875.00000 
 43692.65567		 305.27265			43387.38302		69.19600		324.00000 
 43692.65567		 686.20710			43006.44858		218.89200		875.00000 
 43692.65567		 305.27265			43387.38302		69.19600		324.00000 
 43692.65567		 686.20710			43006.44858		218.89200		875.00000 
 43692.65567		 305.27265			43387.38302		69.19600		324.00000 
 43692.65567		 686.20710			43006.44858		218.89200		875.00000 
 43692.65567		 305.27265			43387.38302		69.19600		324.00000 
 43692.65567		 686.20710			43006.44858		218.89200		875.00000 
 43692.65567		 305.27265			43387.38302		69.19600		324.00000 
 43692.65567		 686.20710			43006.44858		218.46200		875.00000 
 43692.65567		 305.27265			43387.38302		69.19600		324.00000 
 43692.65567		 686.20710			43006.44858		218.46200		875.00000 
 43692.65567		 305.27265			43387.38302		69.19600		324.00000 
 43692.65567		 686.20710			43006.44858		218.46200		875.00000 
 43692.65567		 305.27265			43387.38302		69.19600		324.00000 
 43692.65567		 686.20710			43006.44858		218.46200		875.00000 
 43692.65567		 305.27265			43387.38302		69.19600		324.00000 
 43692.65567		 686.20710			43006.44858		218.46200		875.00000 
 43692.65567		 305.27265			43387.38302		69.19600		324.00000 
 43692.65567		 686.20710			43006.44858		218.46200		875.00000 
 43692.65567		 305.27265			43387.38302		69.19600		324.00000 
 43692.65567		 686.20710			43006.44858		218.46200		875.00000 
 43692.65567		 305.27265			43387.38302		69.19600		324.00000 
 43692.65567		 686.20710			43006.44858		218.46200		875.00000 
 43692.65567		 305.27265			43387.38302		69.19600		324.00000 
 43692.65567		 686.20710			43006.44858		218.46200		875.00000 
 43692.65567		 305.27265			43387.38302		69.19600		324.00000 
 43692.65567		 686.20710			43006.44858		218.46200		875.00000 
 43692.65567		 305.27265			43387.38302		69.19600		324.00000 
 43692.65567		 686.20710			43006.44858		218.46200		875.00000 
 43692.65567		 305.27265			43387.38302		69.19600		324.00000 
 43692.65567		 686.20710			43006.44858		218.46200		875.00000 
 43692.65567		 305.27265			43387.38302		69.19600		324.00000 
 43692.65567		 686.20710			43006.44858		218.46200		875.00000 
 43692.65567		 305.27265			43387.38302		69.19600		324.00000 
 43692.65567		 686.20710			43006.44858		218.46200		875.00000 
 43692.65567		 305.27265			43387.38302		69.19600		324.00000 
 43692.65567		 686.20710			43006.44858		218.46200		875.00000 
 43692.65567		 305.27265			43387.38302		69.19600		324.00000 
 43692.65567		 686.20710			43006.44858		218.46200		875.00000 
 43692.65567		 305.27265			43387.38302		69.19600		324.00000 
 43692.65567		 686.20710			43006.44858		218.46200		875.00000 
 43692.65567		 305.27265			43387.38302		69.19600		324.00000 
 43692.65567		 686.20710			43006.44858		218.46200		875.00000 
 43692.65567		 305.27265			43387.38302		69.19600		324.00000 
 43692.65567		 686.20710			43006.44858		218.46200		875.00000 
 43692.65567		 305.27265			43387.38302		69.19600		324.00000 
 43692.65567		 686.20710			43006.44858		218.46200		875.00000 
 43692.65567		 305.27265			43387.38302		69.65600		324.00000 
 43692.65567		 686.20710			43006.44858		218.46200		875.00000 
 43692.65567		 305.27265			43387.38302		69.65600		324.00000 
 43692.65567		 686.20710			43006.44858		218.46200		875.00000 
 43692.65567		 305.27265			43387.38302		69.65600		324.00000 
 43692.65567		 686.20710			43006.44858		218.46200		875.00000 
 43692.65567		 305.27265			43387.38302		69.65600		324.00000 
 43692.65567		 686.20710			43006.44858		218.46200		875.00000 
 43692.65567		 305.27265			43387.38302		69.65600		324.00000 
 43692.65567		 686.20710			43006.44858		218.46200		875.00000 
 43692.65567		 305.27265			43387.38302		69.65600		324.00000 
 43692.65567		 686.20710			43006.44858		218.46200		875.00000 
 43692.65567		 305.27265			43387.38302		69.65600		324.00000 
 43692.65567		 686.20710			43006.44858		218.46200		875.00000 
 43692.65567		 305.27265			43387.38302		69.65600		324.00000 
 43692.65567		 686.20710			43006.44858		218.46200		875.00000 
 43692.65567		 305.27265			43387.38302		69.65600		324.00000 
 43692.65567		 686.20710			43006.44858		218.46200		875.00000 
 43692.65567		 305.27265			43387.38302		69.65600		324.00000 
 43692.65567		 686.20710			43006.44858		218.46200		875.00000 
 43692.65567		 305.27265			43387.38302		69.65600		324.00000 
 43692.65567		 686.20710			43006.44858		218.46200		875.00000 
 43692.65567		 305.27265			43387.38302		69.65600		324.00000 
 43692.65567		 686.20710			43006.44858		218.46200		875.00000 
 43692.65567		 305.27265			43387.38302		69.65600		324.00000 
 43692.65567		 686.20710			43006.44858		218.46200		875.00000 
 43692.65567		 305.27265			43387.38302		69.65600		324.00000 
 43692.65567		 686.20710			43006.44858		218.46200		875.00000 
 43692.65567		 305.27265			43387.38302		69.65600		324.00000 
 43692.65567		 686.20710			43006.44858		218.46200		875.00000 
 43692.65567		 305.27265			43387.38302		69.65600		324.00000 
 43692.65567		 686.20710			43006.44858		218.46200		875.00000 
 43692.65567		 305.27265			43387.38302		69.65600		324.00000 
 43692.65567		 686.20710			43006.44858		218.46200		875.00000 
 43692.65567		 305.27265			43387.38302		69.65600		324.00000 
 43692.65567		 686.20710			43006.44858		218.46200		875.00000 
 43692.65567		 305.27265			43387.38302		69.65600		324.00000 
 43692.65567		 686.20710			43006.44858		218.46200		875.00000 
 43692.65567		 305.27265			43387.38302		69.65600		324.00000 
 43692.65567		 686.20710			43006.44858		218.46200		875.00000 
 43692.65567		 305.27265			43387.38302		69.65600		324.00000 
 43692.65567		 686.20710			43006.44858		218.46200		875.00000 
 43692.65567		 305.27265			43387.38302		69.65600		324.00000 
 43692.65567		 686.20710			43006.44858		218.46200		875.00000 
 43692.65567		 305.27265			43387.38302		69.65600		324.00000 
 43692.65567		 686.20710			43006.44858		218.46200		875.00000 
 43692.65567		 305.27265			43387.38302		69.65600		324.00000 
 43692.65567		 686.20710			43006.44858		218.46200		875.00000 
 43692.65567		 305.27265			43387.38302		69.65600		324.00000 
 43692.65567		 686.20710			43006.44858		218.46200		875.00000 
 43692.65567		 305.27265			43387.38302		69.65600		324.00000 
 43692.65567		 686.20710			43006.44858		218.46200		875.00000 
 43692.65567		 305.27265			43387.38302		69.65600		324.00000 
 43692.65567		 686.20710			43006.44858		218.46200		875.00000 
 43692.65567		 305.27265			43387.38302		69.65600		324.00000 
 43692.65567		 686.20710			43006.44858		218.46200		875.00000 
 43692.65567		 305.27265			43387.38302		69.65600		324.00000 
 43692.65567		 686.20710			43006.44858		218.46200		875.00000 
 43692.65567		 305.27265			43387.38302		69.65600		324.00000 
 43692.65567		 686.20710			43006.44858		218.46200		875.00000 
 43692.65567		 305.27265			43387.38302		69.65600		324.00000 
 43692.65567		 686.20710			43006.44858		218.46200		875.00000 
 43692.65567		 305.27265			43387.38302		69.65600		324.00000 
 43692.65567		 686.20710			43006.44858		218.46200		875.00000 
 43692.65567		 305.27265			43387.38302		69.65600		324.00000 
 43692.65567		 686.20710			43006.44858		218.46200		875.00000 
 43692.65567		 305.27265			43387.38302		69.65600		324.00000 
 43692.65567		 686.20710			43006.44858		218.46200		875.00000 
 43692.65567		 305.27265			43387.38302		69.65600		324.00000 
 43692.65567		 686.20710			43006.44858		218.46200		875.00000 
 43692.65567		 305.27265			43387.38302		69.65600		324.00000 
 43692.65567		 686.20710			43006.44858		218.46200		875.00000 
 43692.65567		 305.27265			43387.38302		69.65600		324.00000 
 43692.65567		 686.20710			43006.44858		218.46200		875.00000 
 43692.65567		 305.27265			43387.38302		69.65600		324.00000 
 43692.65567		 686.20710			43006.44858		218.46200		875.00000 
 43692.65567		 305.27265			43387.38302		69.65600		324.00000 
 43692.65567		 686.20710			43006.44858		218.46200		875.00000 
 43692.65567		 305.27265			43387.38302		69.65600		324.00000 
 43692.65567		 686.20710			43006.44858		218.46200		875.00000 
 43692.65567		 305.27265			43387.38302		69.65600		324.00000 
 43692.65567		 686.20710			43006.44858		218.46200		875.00000 
 43692.65567		 305.27265			43387.38302		69.65600		324.00000 
 43692.65567		 686.20710			43006.44858		217.86200		875.00000 
 43692.65567		 305.27265			43387.38302		69.65600		324.00000 
 43692.65567		 686.20710			43006.44858		217.86200		875.00000 
 43692.65567		 305.27265			43387.38302		69.65600		324.00000 
 43692.65567		 686.20710			43006.44858		217.86200		875.00000 
 43692.65567		 305.27265			43387.38302		69.65600		324.00000 
 43692.65567		 686.20710			43006.44858		217.86200		875.00000 
 43692.65567		 305.27265			43387.38302		69.65600		324.00000 
 43692.65567		 686.20710			43006.44858		217.86200		875.00000 
 43692.65567		 305.27265			43387.38302		69.65600		324.00000 
 43692.65567		 686.20710			43006.44858		217.86200		875.00000 
 43692.65567		 305.27265			43387.38302		69.65600		324.00000 
 43692.65567		 686.20710			43006.44858		217.86200		875.00000 
 43692.65567		 305.27265			43387.38302		69.65600		324.00000 
 43692.65567		 686.20710			43006.44858		217.86200		875.00000 
 43692.65567		 305.27265			43387.38302		69.65600		324.00000 
 43692.65567		 686.20710			43006.44858		217.86200		875.00000 
 43692.65567		 305.27265			43387.38302		69.65600		324.00000 
 43692.65567		 686.20710			43006.44858		217.86200		875.00000 
 43692.65567		 305.27265			43387.38302		69.65600		324.00000 
 43692.65567		 686.20710			43006.44858		217.86200		875.00000 
 43692.65567		 305.27265			43387.38302		69.65600		324.00000 
 43692.65567		 686.20710			43006.44858		217.86200		875.00000 
 43692.65567		 305.27265			43387.38302		69.65600		324.00000 
 43692.65567		 686.20710			43006.44858		217.86200		875.00000 
 43692.65567		 305.27265			43387.38302		69.65600		324.00000 
 43692.65567		 686.20710			43006.44858		217.86200		875.00000 
 43692.65567		 305.27265			43387.38302		69.65600		324.00000 
 43692.65567		 686.20710			43006.44858		217.86200		875.00000 
 43692.65567		 305.27265			43387.38302		69.65600		324.00000 
 43692.65567		 686.20710			43006.44858		217.86200		875.00000 
 43692.65567		 305.27265			43387.38302		69.65600		324.00000 
 43692.65567		 686.20710			43006.44858		217.86200		875.00000 
 43692.65567		 305.27265			43387.38302		69.65600		324.00000 
 43692.65567		 686.20710			43006.44858		217.86200		875.00000 
 43692.65567		 305.27265			43387.38302		69.65600		324.00000 
 43692.65567		 686.20710			43006.44858		217.86200		875.00000 
 43692.65567		 305.27265			43387.38302		69.65600		324.00000 
 43692.65567		 686.20710			43006.44858		217.86200		875.00000 
 43692.65567		 305.27265			43387.38302		69.65600		324.00000 
 43692.65567		 686.20710			43006.44858		217.86200		875.00000 
 43692.65567		 305.27265			43387.38302		69.65600		324.00000 
 43692.65567		 686.20710			43006.44858		217.86200		875.00000 
 43692.65567		 305.27265			43387.38302		69.65600		324.00000 
 43692.65567		 686.20710			43006.44858		217.86200		875.00000 
 43692.65567		 305.27265			43387.38302		69.65600		324.00000 
 43692.65567		 686.20710			43006.44858		217.86200		875.00000 
 43692.65567		 305.27265			43387.38302		69.65600		324.00000 
 43692.65567		 686.20710			43006.44858		217.86200		875.00000 
 43692.65567		 305.27265			43387.38302		69.65600		324.00000 
 43692.65567		 686.20710			43006.44858		217.86200		875.00000 
 43692.65567		 305.27265			43387.38302		69.65600		324.00000 
 43692.65567		 686.20710			43006.44858		217.86200		875.00000 
 43692.65567		 305.27265			43387.38302		69.65600		324.00000 
 43692.65567		 686.20710			43006.44858		217.86200		875.00000 
 43692.65567		 305.27265			43387.38302		69.65600		324.00000 
 43692.65567		 686.20710			43006.44858		217.86200		875.00000 
 43692.65567		 305.27265			43387.38302		69.65600		324.00000 
 43692.65567		 686.20710			43006.44858		217.86200		875.00000 
 43692.65567		 305.27265			43387.38302		69.65600		324.00000 
 43692.65567		 686.20710			43006.44858		217.86200		875.00000 
 43692.65567		 305.27265			43387.38302		69.65600		324.00000 
 43692.65567		 686.20710			43006.44858		217.86200		875.00000 
 43692.65567		 305.27265			43387.38302		69.65600		324.00000 
 43692.65567		 686.20710			43006.44858		217.86200		875.00000 
 43692.65567		 305.27265			43387.38302		69.65600		324.00000 
 43692.65567		 686.20710			43006.44858		217.86200		875.00000 
 43692.65567		 305.27265			43387.38302		69.65600		324.00000 
 43692.65567		 686.20710			43006.44858		217.86200		875.00000 
 43692.65567		 305.27265			43387.38302		69.65600		324.00000 
 43692.65567		 686.20710			43006.44858		217.86200		875.00000 
 43692.65567		 305.27265			43387.38302		69.65600		324.00000 
 43692.65567		 686.20710			43006.44858		217.86200		875.00000 
 43692.65567		 305.27265			43387.38302		69.65600		324.00000 
 43692.65567		 686.20710			43006.44858		217.86200		875.00000 
 43692.65567		 305.27265			43387.38302		69.65600		324.00000 
 43692.65567		 686.20710			43006.44858		217.86200		875.00000 
 43692.65567		 305.27265			43387.38302		69.65600		324.00000 
 43692.65567		 686.20710			43006.44858		217.86200		875.00000 
 43692.65567		 305.27265			43387.38302		69.65600		324.00000 
 43692.65567		 686.20710			43006.44858		217.86200		875.00000 
 43692.65567		 305.27265			43387.38302		69.65600		324.00000 
 43692.65567		 686.20710			43006.44858		217.86200		875.00000 
 43692.65567		 305.27265			43387.38302		69.65600		324.00000 
 43692.65567		 686.20710			43006.44858		217.86200		875.00000 
 43692.65567		 305.27265			43387.38302		69.65600		324.00000 
 43692.65567		 686.20710			43006.44858		217.86200		875.00000 
 43692.65567		 305.27265			43387.38302		69.65600		324.00000 
 43692.65567		 686.20710			43006.44858		217.86200		875.00000 
 43692.65567		 305.27265			43387.38302		69.65600		324.00000 
 43692.65567		 686.20710			43006.44858		217.86200		875.00000 
 43692.65567		 305.27265			43387.38302		69.65600		324.00000 
 43692.65567		 686.20710			43006.44858		217.86200		875.00000 
 43692.65567		 305.27265			43387.38302		69.65600		324.00000 
 43692.65567		 686.20710			43006.44858		217.86200		875.00000 
 43692.65567		 305.27265			43387.38302		69.65600		324.00000 
 43692.65567		 686.20710			43006.44858		217.86200		875.00000 
 43692.65567		 305.27265			43387.38302		69.65600		324.00000 
 43692.65567		 686.20710			43006.44858		217.86200		875.00000 
 43692.65567		 305.27265			43387.38302		69.65600		324.00000 
 43692.65567		 686.20710			43006.44858		217.86200		875.00000 
 43692.65567		 305.27265			43387.38302		69.65600		324.00000 
 43692.65567		 686.20710			43006.44858		217.86200		875.00000 
 43692.65567		 305.27265			43387.38302		69.65600		324.00000 
 43692.65567		 686.20710			43006.44858		217.86200		875.00000 
 43692.65567		 305.27265			43387.38302		69.65600		324.00000 
 43692.65567		 686.20710			43006.44858		217.86200		875.00000 
 43692.65567		 305.27265			43387.38302		69.65600		324.00000 
 43692.65567		 686.20710			43006.44858		217.86200		875.00000 
 43692.65567		 305.27265			43387.38302		69.65600		324.00000 
 43692.65567		 686.20710			43006.44858		217.86200		875.00000 
 43692.65567		 305.27265			43387.38302		69.65600		324.00000 
 43692.65567		 586.91591			43105.73976		217.86200		875.00000 
 43692.65567		 305.27265			43387.38302		69.65600		324.00000 
 43692.65567		 537.27032			43155.38535		217.86200		875.00000 
 43692.65567		 305.27265			43387.38302		69.65600		324.00000 
 43692.65567		 537.27032			43155.38535		217.86200		875.00000 
 43692.65567		 305.27265			43387.38302		69.65600		324.00000 
 43692.65567		 537.27032			43155.38535		217.86200		875.00000 
 43692.65567		 305.27265			43387.38302		69.65600		324.00000 
 43692.65567		 537.27032			43155.38535		217.86200		875.00000 
 43692.65567		 305.27265			43387.38302		69.65600		324.00000 
 43692.65567		 537.27032			43155.38535		217.86200		875.00000 
 43692.65567		 305.27265			43387.38302		69.65600		324.00000 
 43692.65567		 537.27032			43155.38535		217.86200		875.00000 
 43692.65567		 305.27265			43387.38302		69.65600		324.00000 
 43692.65567		 537.27032			43155.38535		205.78400		875.00000 
 43692.65567		 305.27265			43387.38302		69.65600		324.00000 
 43692.65567		 537.27032			43155.38535		205.78400		875.00000 
 43692.65567		 305.27265			43387.38302		69.65600		324.00000 
 43692.65567		 537.27032			43155.38535		205.78400		875.00000 
 43692.65567		 305.27265			43387.38302		69.65600		324.00000 
 43692.65567		 537.27032			43155.38535		205.78400		875.00000 
 43692.65567		 305.27265			43387.38302		69.65600		324.00000 
 43692.65567		 537.27032			43155.38535		205.78400		875.00000 
 43692.65567		 305.27265			43387.38302		69.65600		324.00000 
 43692.65567		 537.27032			43155.38535		205.78400		875.00000 
 43692.65567		 305.27265			43387.38302		69.65600		324.00000 
 43692.65567		 537.27032			43155.38535		205.78400		875.00000 
 43692.65567		 305.27265			43387.38302		69.65600		324.00000 
 43692.65567		 537.27032			43155.38535		205.78400		875.00000 
 43692.65567		 305.27265			43387.38302		69.65600		324.00000 
 43692.65567		 537.27032			43155.38535		205.78400		875.00000 
 43692.65567		 305.27265			43387.38302		69.65600		324.00000 
 43692.65567		 537.27032			43155.38535		205.78400		875.00000 
 43692.65567		 305.27265			43387.38302		69.65600		324.00000 
 43692.65567		 537.27032			43155.38535		205.78400		875.00000 
 43692.65567		 305.27265			43387.38302		69.65600		324.00000 
 43692.65567		 537.27032			43155.38535		205.78400		875.00000 
 43692.65567		 305.27265			43387.38302		69.65600		324.00000 
 43692.65567		 537.27032			43155.38535		205.78400		875.00000 
 43692.65567		 305.27265			43387.38302		69.65600		324.00000 
 43692.65567		 537.27032			43155.38535		205.78400		875.00000 
 43692.65567		 305.27265			43387.38302		69.65600		324.00000 
 43692.65567		 537.27032			43155.38535		205.78400		875.00000 
 43692.65567		 305.27265			43387.38302		69.65600		324.00000 
 43692.65567		 537.27032			43155.38535		205.78400		875.00000 
 43692.65567		 305.27265			43387.38302		69.65600		324.00000 
 43692.65567		 525.81365			43166.84203		205.78400		875.00000 
 43692.65567		 305.27265			43387.38302		69.65600		324.00000 
 43692.65567		 525.81365			43166.84203		205.78400		875.00000 
 43692.65567		 261.35540			43431.30027		69.65600		324.00000 
 43692.65567		 261.35540			43431.30027		205.78400		875.00000 
 43692.65567		 261.35540			43431.30027		69.65600		324.00000 
