Memory Total (MiB) 	 Memory Used (MiB) 	    Memory Free (MiB) 	 Power Drawed (W) 	 Clocks (Mhz) 	 
 43692.65567		 261.35540			43431.30027		225.58400		875.00000 
 43692.65567		 261.35540			43431.30027		69.17400		324.00000 
 43692.65567		 261.35540			43431.30027		225.58400		875.00000 
 43692.65567		 261.35540			43431.30027		69.17400		324.00000 
 43692.65567		 261.35540			43431.30027		225.58400		875.00000 
 43692.65567		 261.35540			43431.30027		69.17400		324.00000 
 43692.65567		 261.35540			43431.30027		168.55400		875.00000 
 43692.65567		 261.35540			43431.30027		69.17400		324.00000 
 43692.65567		 261.35540			43431.30027		168.55400		875.00000 
 43692.65567		 261.35540			43431.30027		69.17400		324.00000 
 43692.65567		 261.35540			43431.30027		168.55400		875.00000 
 43692.65567		 261.35540			43431.30027		69.17400		324.00000 
 43692.65567		 261.35540			43431.30027		168.55400		875.00000 
 43692.65567		 261.35540			43431.30027		69.17400		324.00000 
 43692.65567		 261.35540			43431.30027		168.55400		875.00000 
 43692.65567		 261.35540			43431.30027		69.17400		324.00000 
 43692.65567		 261.35540			43431.30027		168.55400		875.00000 
 43692.65567		 261.35540			43431.30027		69.17400		324.00000 
 43692.65567		 261.35540			43431.30027		168.55400		875.00000 
 43692.65567		 261.35540			43431.30027		69.17400		324.00000 
 43692.65567		 261.35540			43431.30027		168.55400		875.00000 
 43692.65567		 261.35540			43431.30027		69.17400		324.00000 
 43692.65567		 261.35540			43431.30027		168.55400		875.00000 
 43692.65567		 261.35540			43431.30027		69.17400		324.00000 
 43692.65567		 261.35540			43431.30027		168.55400		875.00000 
 43692.65567		 261.35540			43431.30027		69.17400		324.00000 
 43692.65567		 261.35540			43431.30027		168.55400		875.00000 
 43692.65567		 261.35540			43431.30027		69.17400		324.00000 
 43692.65567		 261.35540			43431.30027		168.55400		875.00000 
 43692.65567		 261.35540			43431.30027		69.17400		324.00000 
 43692.65567		 261.35540			43431.30027		168.55400		875.00000 
 43692.65567		 261.35540			43431.30027		69.17400		324.00000 
 43692.65567		 261.35540			43431.30027		168.55400		875.00000 
 43692.65567		 261.35540			43431.30027		69.17400		324.00000 
 43692.65567		 261.35540			43431.30027		168.55400		875.00000 
 43692.65567		 261.35540			43431.30027		69.17400		324.00000 
 43692.65567		 265.17429			43427.48138		168.55400		875.00000 
 43692.65567		 261.35540			43431.30027		69.17400		324.00000 
 43692.65567		 265.17429			43427.48138		168.55400		875.00000 
 43692.65567		 261.35540			43431.30027		69.17400		324.00000 
 43692.65567		 272.81207			43419.84360		168.55400		875.00000 
 43692.65567		 261.35540			43431.30027		69.17400		324.00000 
 43692.65567		 272.81207			43419.84360		168.55400		875.00000 
 43692.65567		 261.35540			43431.30027		69.17400		324.00000 
 43692.65567		 272.81207			43419.84360		168.55400		875.00000 
 43692.65567		 265.17429			43427.48138		69.17400		324.00000 
 43692.65567		 272.81207			43419.84360		168.55400		875.00000 
 43692.65567		 265.17429			43427.48138		69.17400		324.00000 
 43692.65567		 272.81207			43419.84360		168.55400		875.00000 
 43692.65567		 272.81207			43419.84360		69.17400		324.00000 
 43692.65567		 272.81207			43419.84360		168.55400		875.00000 
 43692.65567		 272.81207			43419.84360		69.17400		324.00000 
 43692.65567		 272.81207			43419.84360		168.55400		875.00000 
 43692.65567		 272.81207			43419.84360		69.17400		324.00000 
 43692.65567		 272.81207			43419.84360		168.55400		875.00000 
 43692.65567		 305.27265			43387.38302		69.17400		324.00000 
 43692.65567		 305.27265			43387.38302		168.55400		875.00000 
 43692.65567		 305.27265			43387.38302		69.17400		324.00000 
 43692.65567		 305.27265			43387.38302		168.55400		875.00000 
 43692.65567		 305.27265			43387.38302		69.17400		324.00000 
 43692.65567		 305.27265			43387.38302		168.55400		875.00000 
 43692.65567		 305.27265			43387.38302		69.17400		324.00000 
 43692.65567		 305.27265			43387.38302		168.55400		875.00000 
 43692.65567		 305.27265			43387.38302		69.17400		324.00000 
 43692.65567		 309.09154			43383.56413		168.55400		875.00000 
 43692.65567		 305.27265			43387.38302		69.17400		324.00000 
 43692.65567		 310.52363			43382.13204		168.55400		875.00000 
 43692.65567		 305.27265			43387.38302		69.17400		324.00000 
 43692.65567		 311.00099			43381.65468		168.55400		875.00000 
 43692.65567		 305.27265			43387.38302		69.17400		324.00000 
 43692.65567		 311.00099			43381.65468		168.55400		875.00000 
 43692.65567		 305.27265			43387.38302		69.17400		324.00000 
 43692.65567		 311.00099			43381.65468		168.55400		875.00000 
 43692.65567		 305.27265			43387.38302		69.17400		324.00000 
 43692.65567		 311.00099			43381.65468		168.55400		875.00000 
 43692.65567		 305.27265			43387.38302		69.17400		324.00000 
 43692.65567		 311.00099			43381.65468		145.70600		875.00000 
 43692.65567		 305.27265			43387.38302		69.17400		324.00000 
 43692.65567		 311.00099			43381.65468		145.70600		875.00000 
 43692.65567		 305.27265			43387.38302		66.69000		324.00000 
 43692.65567		 311.00099			43381.65468		145.70600		875.00000 
 43692.65567		 305.27265			43387.38302		66.69000		324.00000 
 43692.65567		 311.00099			43381.65468		145.70600		875.00000 
 43692.65567		 305.27265			43387.38302		66.69000		324.00000 
 43692.65567		 311.00099			43381.65468		145.70600		875.00000 
 43692.65567		 305.27265			43387.38302		66.69000		324.00000 
 43692.65567		 311.00099			43381.65468		145.70600		875.00000 
 43692.65567		 305.27265			43387.38302		66.69000		324.00000 
 43692.65567		 311.00099			43381.65468		145.70600		875.00000 
 43692.65567		 305.27265			43387.38302		66.69000		324.00000 
 43692.65567		 311.00099			43381.65468		145.70600		875.00000 
 43692.65567		 305.27265			43387.38302		66.69000		324.00000 
 43692.65567		 311.00099			43381.65468		145.70600		875.00000 
 43692.65567		 305.27265			43387.38302		66.69000		324.00000 
 43692.65567		 311.00099			43381.65468		145.70600		875.00000 
 43692.65567		 305.27265			43387.38302		66.69000		324.00000 
 43692.65567		 311.00099			43381.65468		145.70600		875.00000 
 43692.65567		 305.27265			43387.38302		66.69000		324.00000 
 43692.65567		 311.00099			43381.65468		145.70600		875.00000 
 43692.65567		 305.27265			43387.38302		66.69000		324.00000 
 43692.65567		 311.00099			43381.65468		145.70600		875.00000 
 43692.65567		 305.27265			43387.38302		66.69000		324.00000 
 43692.65567		 311.00099			43381.65468		145.70600		875.00000 
 43692.65567		 305.27265			43387.38302		66.69000		324.00000 
 43692.65567		 311.00099			43381.65468		145.70600		875.00000 
 43692.65567		 305.27265			43387.38302		66.69000		324.00000 
 43692.65567		 311.00099			43381.65468		145.70600		875.00000 
 43692.65567		 305.27265			43387.38302		66.69000		324.00000 
 43692.65567		 311.00099			43381.65468		145.70600		875.00000 
 43692.65567		 305.27265			43387.38302		66.69000		324.00000 
 43692.65567		 311.00099			43381.65468		145.70600		875.00000 
 43692.65567		 305.27265			43387.38302		66.69000		324.00000 
 43692.65567		 311.00099			43381.65468		145.70600		875.00000 
 43692.65567		 305.27265			43387.38302		66.69000		324.00000 
 43692.65567		 311.00099			43381.65468		145.70600		875.00000 
 43692.65567		 305.27265			43387.38302		66.69000		324.00000 
 43692.65567		 311.00099			43381.65468		145.70600		875.00000 
 43692.65567		 305.27265			43387.38302		66.69000		324.00000 
 43692.65567		 311.00099			43381.65468		145.70600		875.00000 
 43692.65567		 305.27265			43387.38302		66.69000		324.00000 
 43692.65567		 311.00099			43381.65468		145.70600		875.00000 
 43692.65567		 305.27265			43387.38302		66.69000		324.00000 
 43692.65567		 311.00099			43381.65468		145.70600		875.00000 
 43692.65567		 305.27265			43387.38302		66.69000		324.00000 
 43692.65567		 311.00099			43381.65468		145.70600		875.00000 
 43692.65567		 305.27265			43387.38302		66.69000		324.00000 
 43692.65567		 311.00099			43381.65468		145.70600		875.00000 
 43692.65567		 305.27265			43387.38302		66.69000		324.00000 
 43692.65567		 311.00099			43381.65468		145.70600		875.00000 
 43692.65567		 305.27265			43387.38302		66.69000		324.00000 
 43692.65567		 311.00099			43381.65468		145.70600		875.00000 
 43692.65567		 305.27265			43387.38302		66.69000		324.00000 
 43692.65567		 311.00099			43381.65468		145.70600		875.00000 
 43692.65567		 305.27265			43387.38302		66.69000		324.00000 
 43692.65567		 311.00099			43381.65468		145.70600		875.00000 
 43692.65567		 305.27265			43387.38302		66.69000		324.00000 
 43692.65567		 311.00099			43381.65468		145.70600		875.00000 
 43692.65567		 305.27265			43387.38302		66.69000		324.00000 
 43692.65567		 311.00099			43381.65468		136.53400		875.00000 
 43692.65567		 305.27265			43387.38302		66.69000		324.00000 
 43692.65567		 311.00099			43381.65468		136.53400		875.00000 
 43692.65567		 305.27265			43387.38302		66.69000		324.00000 
 43692.65567		 311.00099			43381.65468		136.53400		875.00000 
 43692.65567		 305.27265			43387.38302		66.69000		324.00000 
 43692.65567		 311.00099			43381.65468		136.53400		875.00000 
 43692.65567		 305.27265			43387.38302		66.69000		324.00000 
 43692.65567		 311.00099			43381.65468		136.53400		875.00000 
 43692.65567		 305.27265			43387.38302		66.69000		324.00000 
 43692.65567		 311.00099			43381.65468		136.53400		875.00000 
 43692.65567		 305.27265			43387.38302		66.69000		324.00000 
 43692.65567		 311.00099			43381.65468		136.53400		875.00000 
 43692.65567		 305.27265			43387.38302		66.69000		324.00000 
 43692.65567		 311.00099			43381.65468		136.53400		875.00000 
 43692.65567		 305.27265			43387.38302		66.69000		324.00000 
 43692.65567		 311.00099			43381.65468		136.53400		875.00000 
 43692.65567		 305.27265			43387.38302		66.69000		324.00000 
 43692.65567		 311.00099			43381.65468		136.53400		875.00000 
 43692.65567		 305.27265			43387.38302		66.69000		324.00000 
 43692.65567		 311.00099			43381.65468		136.53400		875.00000 
 43692.65567		 305.27265			43387.38302		66.69000		324.00000 
 43692.65567		 311.00099			43381.65468		136.53400		875.00000 
 43692.65567		 305.27265			43387.38302		66.69000		324.00000 
 43692.65567		 311.00099			43381.65468		136.53400		875.00000 
 43692.65567		 305.27265			43387.38302		66.69000		324.00000 
 43692.65567		 311.00099			43381.65468		136.53400		875.00000 
 43692.65567		 305.27265			43387.38302		66.69000		324.00000 
 43692.65567		 311.00099			43381.65468		136.53400		875.00000 
 43692.65567		 305.27265			43387.38302		66.69000		324.00000 
 43692.65567		 314.81988			43377.83579		136.53400		875.00000 
 43692.65567		 305.27265			43387.38302		66.69000		324.00000 
 43692.65567		 314.81988			43377.83579		136.53400		875.00000 
 43692.65567		 305.27265			43387.38302		66.69000		324.00000 
 43692.65567		 314.81988			43377.83579		136.53400		875.00000 
 43692.65567		 305.27265			43387.38302		66.69000		324.00000 
 43692.65567		 318.63877			43374.01690		136.53400		875.00000 
 43692.65567		 305.27265			43387.38302		66.69000		324.00000 
 43692.65567		 322.45767			43370.19801		136.53400		875.00000 
 43692.65567		 305.27265			43387.38302		66.69000		324.00000 
 43692.65567		 326.27656			43366.37912		136.53400		875.00000 
 43692.65567		 305.27265			43387.38302		66.69000		324.00000 
 43692.65567		 326.27656			43366.37912		136.53400		875.00000 
 43692.65567		 305.27265			43387.38302		66.69000		324.00000 
 43692.65567		 326.27656			43366.37912		136.53400		875.00000 
 43692.65567		 305.27265			43387.38302		66.69000		324.00000 
 43692.65567		 326.27656			43366.37912		136.53400		875.00000 
 43692.65567		 305.27265			43387.38302		66.69000		324.00000 
 43692.65567		 537.27032			43155.38535		136.53400		875.00000 
 43692.65567		 305.27265			43387.38302		66.69000		324.00000 
 43692.65567		 652.79180			43039.86388		136.53400		875.00000 
 43692.65567		 305.27265			43387.38302		66.69000		324.00000 
 43692.65567		 710.55253			42982.10314		136.53400		875.00000 
 43692.65567		 305.27265			43387.38302		66.69000		324.00000 
 43692.65567		 710.55253			42982.10314		136.53400		875.00000 
 43692.65567		 305.27265			43387.38302		66.69000		324.00000 
 43692.65567		 710.55253			42982.10314		136.53400		875.00000 
 43692.65567		 305.27265			43387.38302		66.69000		324.00000 
 43692.65567		 710.55253			42982.10314		136.53400		875.00000 
 43692.65567		 305.27265			43387.38302		66.69000		324.00000 
 43692.65567		 710.55253			42982.10314		136.53400		875.00000 
 43692.65567		 305.27265			43387.38302		66.69000		324.00000 
 43692.65567		 710.55253			42982.10314		136.53400		875.00000 
 43692.65567		 305.27265			43387.38302		66.69000		324.00000 
 43692.65567		 710.55253			42982.10314		136.53400		875.00000 
 43692.65567		 305.27265			43387.38302		66.69000		324.00000 
 43692.65567		 710.55253			42982.10314		136.53400		875.00000 
 43692.65567		 305.27265			43387.38302		66.69000		324.00000 
 43692.65567		 710.55253			42982.10314		136.53400		875.00000 
 43692.65567		 305.27265			43387.38302		66.69000		324.00000 
 43692.65567		 710.55253			42982.10314		136.53400		875.00000 
 43692.65567		 305.27265			43387.38302		66.69000		324.00000 
 43692.65567		 710.55253			42982.10314		136.53400		875.00000 
 43692.65567		 305.27265			43387.38302		66.69000		324.00000 
 43692.65567		 710.55253			42982.10314		136.53400		875.00000 
 43692.65567		 305.27265			43387.38302		66.69000		324.00000 
 43692.65567		 710.55253			42982.10314		136.53400		875.00000 
 43692.65567		 305.27265			43387.38302		66.69000		324.00000 
 43692.65567		 710.55253			42982.10314		136.53400		875.00000 
 43692.65567		 305.27265			43387.38302		66.69000		324.00000 
 43692.65567		 710.55253			42982.10314		136.53400		875.00000 
 43692.65567		 305.27265			43387.38302		66.69000		324.00000 
 43692.65567		 710.55253			42982.10314		136.53400		875.00000 
 43692.65567		 305.27265			43387.38302		66.69000		324.00000 
 43692.65567		 710.55253			42982.10314		136.53400		875.00000 
 43692.65567		 305.27265			43387.38302		66.69000		324.00000 
 43692.65567		 710.55253			42982.10314		156.57600		875.00000 
 43692.65567		 305.27265			43387.38302		66.69000		324.00000 
 43692.65567		 710.55253			42982.10314		156.57600		875.00000 
 43692.65567		 305.27265			43387.38302		66.69000		324.00000 
 43692.65567		 710.55253			42982.10314		156.57600		875.00000 
 43692.65567		 305.27265			43387.38302		66.69000		324.00000 
 43692.65567		 710.55253			42982.10314		156.57600		875.00000 
 43692.65567		 305.27265			43387.38302		66.69000		324.00000 
 43692.65567		 710.55253			42982.10314		156.57600		875.00000 
 43692.65567		 305.27265			43387.38302		66.69000		324.00000 
 43692.65567		 710.55253			42982.10314		156.57600		875.00000 
 43692.65567		 305.27265			43387.38302		66.69000		324.00000 
 43692.65567		 710.55253			42982.10314		156.57600		875.00000 
 43692.65567		 305.27265			43387.38302		66.69000		324.00000 
 43692.65567		 710.55253			42982.10314		156.57600		875.00000 
 43692.65567		 305.27265			43387.38302		66.69000		324.00000 
 43692.65567		 710.55253			42982.10314		156.57600		875.00000 
 43692.65567		 305.27265			43387.38302		66.69000		324.00000 
 43692.65567		 710.55253			42982.10314		156.57600		875.00000 
 43692.65567		 305.27265			43387.38302		66.69000		324.00000 
 43692.65567		 710.55253			42982.10314		156.57600		875.00000 
 43692.65567		 305.27265			43387.38302		66.69000		324.00000 
 43692.65567		 710.55253			42982.10314		156.57600		875.00000 
 43692.65567		 305.27265			43387.38302		66.69000		324.00000 
 43692.65567		 710.55253			42982.10314		156.57600		875.00000 
 43692.65567		 305.27265			43387.38302		66.69000		324.00000 
 43692.65567		 710.55253			42982.10314		156.57600		875.00000 
 43692.65567		 305.27265			43387.38302		66.69000		324.00000 
 43692.65567		 710.55253			42982.10314		156.57600		875.00000 
 43692.65567		 305.27265			43387.38302		66.69000		324.00000 
 43692.65567		 710.55253			42982.10314		156.57600		875.00000 
 43692.65567		 305.27265			43387.38302		66.69000		324.00000 
 43692.65567		 710.55253			42982.10314		156.57600		875.00000 
 43692.65567		 305.27265			43387.38302		66.69000		324.00000 
 43692.65567		 710.55253			42982.10314		156.57600		875.00000 
 43692.65567		 305.27265			43387.38302		66.69000		324.00000 
 43692.65567		 710.55253			42982.10314		156.57600		875.00000 
 43692.65567		 305.27265			43387.38302		66.69000		324.00000 
 43692.65567		 710.55253			42982.10314		156.57600		875.00000 
 43692.65567		 305.27265			43387.38302		66.69000		324.00000 
 43692.65567		 710.55253			42982.10314		156.57600		875.00000 
 43692.65567		 305.27265			43387.38302		66.69000		324.00000 
 43692.65567		 710.55253			42982.10314		156.57600		875.00000 
 43692.65567		 305.27265			43387.38302		66.69000		324.00000 
 43692.65567		 710.55253			42982.10314		156.57600		875.00000 
 43692.65567		 305.27265			43387.38302		66.69000		324.00000 
 43692.65567		 710.55253			42982.10314		156.57600		875.00000 
 43692.65567		 305.27265			43387.38302		66.69000		324.00000 
 43692.65567		 710.55253			42982.10314		156.57600		875.00000 
 43692.65567		 305.27265			43387.38302		66.69000		324.00000 
 43692.65567		 710.55253			42982.10314		156.57600		875.00000 
 43692.65567		 305.27265			43387.38302		66.69000		324.00000 
 43692.65567		 710.55253			42982.10314		156.57600		875.00000 
 43692.65567		 305.27265			43387.38302		66.69000		324.00000 
 43692.65567		 710.55253			42982.10314		156.57600		875.00000 
 43692.65567		 305.27265			43387.38302		66.69000		324.00000 
 43692.65567		 710.55253			42982.10314		156.57600		875.00000 
 43692.65567		 305.27265			43387.38302		66.69000		324.00000 
 43692.65567		 710.55253			42982.10314		156.57600		875.00000 
 43692.65567		 305.27265			43387.38302		66.69000		324.00000 
 43692.65567		 710.55253			42982.10314		156.57600		875.00000 
 43692.65567		 305.27265			43387.38302		66.69000		324.00000 
 43692.65567		 710.55253			42982.10314		156.57600		875.00000 
 43692.65567		 305.27265			43387.38302		66.69000		324.00000 
 43692.65567		 710.55253			42982.10314		156.57600		875.00000 
 43692.65567		 305.27265			43387.38302		66.69000		324.00000 
 43692.65567		 710.55253			42982.10314		156.57600		875.00000 
 43692.65567		 305.27265			43387.38302		66.69000		324.00000 
 43692.65567		 710.55253			42982.10314		156.57600		875.00000 
 43692.65567		 305.27265			43387.38302		66.69000		324.00000 
 43692.65567		 710.55253			42982.10314		156.57600		875.00000 
 43692.65567		 305.27265			43387.38302		66.69000		324.00000 
 43692.65567		 710.55253			42982.10314		156.57600		875.00000 
 43692.65567		 305.27265			43387.38302		66.69000		324.00000 
 43692.65567		 710.55253			42982.10314		156.57600		875.00000 
 43692.65567		 305.27265			43387.38302		66.69000		324.00000 
 43692.65567		 710.55253			42982.10314		156.57600		875.00000 
 43692.65567		 305.27265			43387.38302		66.69000		324.00000 
 43692.65567		 710.55253			42982.10314		156.57600		875.00000 
 43692.65567		 305.27265			43387.38302		66.69000		324.00000 
 43692.65567		 710.55253			42982.10314		156.57600		875.00000 
 43692.65567		 305.27265			43387.38302		66.69000		324.00000 
 43692.65567		 710.55253			42982.10314		156.57600		875.00000 
 43692.65567		 305.27265			43387.38302		66.69000		324.00000 
 43692.65567		 710.55253			42982.10314		156.57600		875.00000 
 43692.65567		 305.27265			43387.38302		66.69000		324.00000 
 43692.65567		 710.55253			42982.10314		156.57600		875.00000 
 43692.65567		 305.27265			43387.38302		66.69000		324.00000 
 43692.65567		 710.55253			42982.10314		156.57600		875.00000 
 43692.65567		 305.27265			43387.38302		66.69000		324.00000 
 43692.65567		 710.55253			42982.10314		156.57600		875.00000 
 43692.65567		 305.27265			43387.38302		66.69000		324.00000 
 43692.65567		 710.55253			42982.10314		156.57600		875.00000 
 43692.65567		 305.27265			43387.38302		66.69000		324.00000 
 43692.65567		 710.55253			42982.10314		156.57600		875.00000 
 43692.65567		 305.27265			43387.38302		66.69000		324.00000 
 43692.65567		 710.55253			42982.10314		156.57600		875.00000 
 43692.65567		 305.27265			43387.38302		66.69000		324.00000 
 43692.65567		 710.55253			42982.10314		156.57600		875.00000 
 43692.65567		 305.27265			43387.38302		66.69000		324.00000 
 43692.65567		 710.55253			42982.10314		156.57600		875.00000 
 43692.65567		 305.27265			43387.38302		66.69000		324.00000 
 43692.65567		 710.55253			42982.10314		156.57600		875.00000 
 43692.65567		 305.27265			43387.38302		66.69000		324.00000 
 43692.65567		 710.55253			42982.10314		156.57600		875.00000 
 43692.65567		 305.27265			43387.38302		66.69000		324.00000 
 43692.65567		 710.55253			42982.10314		156.57600		875.00000 
 43692.65567		 305.27265			43387.38302		66.69000		324.00000 
 43692.65567		 710.55253			42982.10314		156.57600		875.00000 
 43692.65567		 305.27265			43387.38302		66.69000		324.00000 
 43692.65567		 710.55253			42982.10314		156.57600		875.00000 
 43692.65567		 305.27265			43387.38302		66.69000		324.00000 
 43692.65567		 710.55253			42982.10314		156.57600		875.00000 
 43692.65567		 305.27265			43387.38302		66.69000		324.00000 
 43692.65567		 710.55253			42982.10314		156.57600		875.00000 
 43692.65567		 305.27265			43387.38302		66.69000		324.00000 
 43692.65567		 710.55253			42982.10314		156.57600		875.00000 
 43692.65567		 305.27265			43387.38302		66.69000		324.00000 
 43692.65567		 710.55253			42982.10314		156.57600		875.00000 
 43692.65567		 305.27265			43387.38302		66.69000		324.00000 
 43692.65567		 710.55253			42982.10314		156.57600		875.00000 
 43692.65567		 305.27265			43387.38302		66.69000		324.00000 
 43692.65567		 710.55253			42982.10314		156.57600		875.00000 
 43692.65567		 305.27265			43387.38302		66.69000		324.00000 
 43692.65567		 710.55253			42982.10314		156.57600		875.00000 
 43692.65567		 305.27265			43387.38302		66.69000		324.00000 
 43692.65567		 710.55253			42982.10314		156.57600		875.00000 
 43692.65567		 305.27265			43387.38302		66.69000		324.00000 
 43692.65567		 710.55253			42982.10314		198.42400		875.00000 
 43692.65567		 305.27265			43387.38302		66.69000		324.00000 
 43692.65567		 710.55253			42982.10314		198.42400		875.00000 
 43692.65567		 305.27265			43387.38302		66.69000		324.00000 
 43692.65567		 710.55253			42982.10314		198.42400		875.00000 
 43692.65567		 305.27265			43387.38302		66.69000		324.00000 
 43692.65567		 710.55253			42982.10314		198.42400		875.00000 
 43692.65567		 305.27265			43387.38302		66.69000		324.00000 
 43692.65567		 710.55253			42982.10314		198.42400		875.00000 
 43692.65567		 305.27265			43387.38302		66.69000		324.00000 
 43692.65567		 710.55253			42982.10314		198.42400		875.00000 
 43692.65567		 305.27265			43387.38302		66.69000		324.00000 
 43692.65567		 710.55253			42982.10314		198.42400		875.00000 
 43692.65567		 305.27265			43387.38302		66.69000		324.00000 
 43692.65567		 710.55253			42982.10314		198.42400		875.00000 
 43692.65567		 305.27265			43387.38302		66.69000		324.00000 
 43692.65567		 710.55253			42982.10314		198.42400		875.00000 
 43692.65567		 305.27265			43387.38302		66.69000		324.00000 
 43692.65567		 710.55253			42982.10314		198.42400		875.00000 
 43692.65567		 305.27265			43387.38302		66.69000		324.00000 
 43692.65567		 710.55253			42982.10314		198.42400		875.00000 
 43692.65567		 305.27265			43387.38302		66.69000		324.00000 
 43692.65567		 710.55253			42982.10314		198.42400		875.00000 
 43692.65567		 305.27265			43387.38302		66.69000		324.00000 
 43692.65567		 710.55253			42982.10314		198.42400		875.00000 
 43692.65567		 305.27265			43387.38302		66.69000		324.00000 
 43692.65567		 710.55253			42982.10314		198.42400		875.00000 
 43692.65567		 305.27265			43387.38302		66.69000		324.00000 
 43692.65567		 710.55253			42982.10314		198.42400		875.00000 
 43692.65567		 305.27265			43387.38302		66.69000		324.00000 
 43692.65567		 710.55253			42982.10314		198.42400		875.00000 
 43692.65567		 305.27265			43387.38302		66.69000		324.00000 
 43692.65567		 710.55253			42982.10314		198.42400		875.00000 
 43692.65567		 305.27265			43387.38302		66.69000		324.00000 
 43692.65567		 710.55253			42982.10314		198.42400		875.00000 
 43692.65567		 305.27265			43387.38302		66.69000		324.00000 
 43692.65567		 710.55253			42982.10314		198.42400		875.00000 
 43692.65567		 305.27265			43387.38302		66.69000		324.00000 
 43692.65567		 710.55253			42982.10314		198.42400		875.00000 
 43692.65567		 305.27265			43387.38302		66.69000		324.00000 
 43692.65567		 710.55253			42982.10314		198.42400		875.00000 
 43692.65567		 305.27265			43387.38302		66.69000		324.00000 
 43692.65567		 710.55253			42982.10314		198.42400		875.00000 
 43692.65567		 305.27265			43387.38302		66.69000		324.00000 
 43692.65567		 710.55253			42982.10314		198.42400		875.00000 
 43692.65567		 305.27265			43387.38302		66.69000		324.00000 
 43692.65567		 710.55253			42982.10314		198.42400		875.00000 
 43692.65567		 305.27265			43387.38302		66.69000		324.00000 
 43692.65567		 710.55253			42982.10314		198.42400		875.00000 
 43692.65567		 305.27265			43387.38302		66.69000		324.00000 
 43692.65567		 710.55253			42982.10314		198.42400		875.00000 
 43692.65567		 305.27265			43387.38302		66.69000		324.00000 
 43692.65567		 710.55253			42982.10314		198.42400		875.00000 
 43692.65567		 305.27265			43387.38302		66.69000		324.00000 
 43692.65567		 710.55253			42982.10314		198.42400		875.00000 
 43692.65567		 305.27265			43387.38302		66.69000		324.00000 
 43692.65567		 710.55253			42982.10314		198.42400		875.00000 
 43692.65567		 305.27265			43387.38302		66.69000		324.00000 
 43692.65567		 710.55253			42982.10314		198.42400		875.00000 
 43692.65567		 305.27265			43387.38302		66.69000		324.00000 
 43692.65567		 710.55253			42982.10314		198.42400		875.00000 
 43692.65567		 305.27265			43387.38302		66.69000		324.00000 
 43692.65567		 710.55253			42982.10314		198.42400		875.00000 
 43692.65567		 305.27265			43387.38302		66.69000		324.00000 
 43692.65567		 710.55253			42982.10314		198.42400		875.00000 
 43692.65567		 305.27265			43387.38302		66.69000		324.00000 
 43692.65567		 710.55253			42982.10314		198.42400		875.00000 
 43692.65567		 305.27265			43387.38302		66.69000		324.00000 
 43692.65567		 710.55253			42982.10314		198.42400		875.00000 
 43692.65567		 305.27265			43387.38302		66.69000		324.00000 
 43692.65567		 710.55253			42982.10314		198.42400		875.00000 
 43692.65567		 305.27265			43387.38302		66.69000		324.00000 
 43692.65567		 710.55253			42982.10314		198.42400		875.00000 
 43692.65567		 305.27265			43387.38302		66.69000		324.00000 
 43692.65567		 710.55253			42982.10314		198.42400		875.00000 
 43692.65567		 305.27265			43387.38302		66.69000		324.00000 
 43692.65567		 710.55253			42982.10314		198.42400		875.00000 
 43692.65567		 305.27265			43387.38302		66.69000		324.00000 
 43692.65567		 710.55253			42982.10314		198.42400		875.00000 
 43692.65567		 305.27265			43387.38302		66.69000		324.00000 
 43692.65567		 710.55253			42982.10314		198.42400		875.00000 
 43692.65567		 305.27265			43387.38302		66.69000		324.00000 
 43692.65567		 710.55253			42982.10314		198.42400		875.00000 
 43692.65567		 305.27265			43387.38302		66.69000		324.00000 
 43692.65567		 710.55253			42982.10314		198.42400		875.00000 
 43692.65567		 305.27265			43387.38302		66.69000		324.00000 
 43692.65567		 710.55253			42982.10314		198.42400		875.00000 
 43692.65567		 305.27265			43387.38302		66.69000		324.00000 
 43692.65567		 710.55253			42982.10314		198.42400		875.00000 
 43692.65567		 305.27265			43387.38302		66.69000		324.00000 
 43692.65567		 710.55253			42982.10314		198.42400		875.00000 
 43692.65567		 305.27265			43387.38302		66.69000		324.00000 
 43692.65567		 710.55253			42982.10314		198.42400		875.00000 
 43692.65567		 305.27265			43387.38302		66.69000		324.00000 
 43692.65567		 710.55253			42982.10314		198.42400		875.00000 
 43692.65567		 305.27265			43387.38302		66.69000		324.00000 
 43692.65567		 710.55253			42982.10314		198.42400		875.00000 
 43692.65567		 305.27265			43387.38302		66.69000		324.00000 
 43692.65567		 710.55253			42982.10314		198.42400		875.00000 
 43692.65567		 305.27265			43387.38302		66.69000		324.00000 
 43692.65567		 710.55253			42982.10314		198.42400		875.00000 
 43692.65567		 305.27265			43387.38302		66.69000		324.00000 
 43692.65567		 710.55253			42982.10314		198.42400		875.00000 
 43692.65567		 305.27265			43387.38302		66.69000		324.00000 
 43692.65567		 710.55253			42982.10314		198.42400		875.00000 
 43692.65567		 305.27265			43387.38302		66.69000		324.00000 
 43692.65567		 710.55253			42982.10314		198.42400		875.00000 
 43692.65567		 305.27265			43387.38302		66.69000		324.00000 
 43692.65567		 710.55253			42982.10314		198.42400		875.00000 
 43692.65567		 305.27265			43387.38302		66.69000		324.00000 
 43692.65567		 710.55253			42982.10314		198.42400		875.00000 
 43692.65567		 305.27265			43387.38302		66.69000		324.00000 
 43692.65567		 710.55253			42982.10314		198.42400		875.00000 
 43692.65567		 305.27265			43387.38302		66.69000		324.00000 
 43692.65567		 710.55253			42982.10314		198.42400		875.00000 
 43692.65567		 305.27265			43387.38302		66.69000		324.00000 
 43692.65567		 710.55253			42982.10314		198.42400		875.00000 
 43692.65567		 305.27265			43387.38302		66.69000		324.00000 
 43692.65567		 710.55253			42982.10314		198.42400		875.00000 
 43692.65567		 305.27265			43387.38302		66.69000		324.00000 
 43692.65567		 710.55253			42982.10314		198.42400		875.00000 
 43692.65567		 305.27265			43387.38302		66.69000		324.00000 
 43692.65567		 710.55253			42982.10314		198.42400		875.00000 
 43692.65567		 305.27265			43387.38302		66.69000		324.00000 
 43692.65567		 710.55253			42982.10314		198.42400		875.00000 
 43692.65567		 305.27265			43387.38302		66.69000		324.00000 
 43692.65567		 710.55253			42982.10314		198.42400		875.00000 
 43692.65567		 305.27265			43387.38302		66.69000		324.00000 
 43692.65567		 710.55253			42982.10314		214.48400		875.00000 
 43692.65567		 305.27265			43387.38302		66.69000		324.00000 
 43692.65567		 710.55253			42982.10314		214.48400		875.00000 
 43692.65567		 305.27265			43387.38302		66.69000		324.00000 
 43692.65567		 710.55253			42982.10314		214.48400		875.00000 
 43692.65567		 305.27265			43387.38302		66.69000		324.00000 
 43692.65567		 710.55253			42982.10314		214.48400		875.00000 
 43692.65567		 305.27265			43387.38302		66.69000		324.00000 
 43692.65567		 710.55253			42982.10314		214.48400		875.00000 
 43692.65567		 305.27265			43387.38302		66.69000		324.00000 
 43692.65567		 710.55253			42982.10314		214.48400		875.00000 
 43692.65567		 305.27265			43387.38302		66.69000		324.00000 
 43692.65567		 710.55253			42982.10314		214.48400		875.00000 
 43692.65567		 305.27265			43387.38302		66.69000		324.00000 
 43692.65567		 710.55253			42982.10314		214.48400		875.00000 
 43692.65567		 305.27265			43387.38302		66.69000		324.00000 
 43692.65567		 710.55253			42982.10314		214.48400		875.00000 
 43692.65567		 305.27265			43387.38302		66.69000		324.00000 
 43692.65567		 710.55253			42982.10314		214.48400		875.00000 
 43692.65567		 305.27265			43387.38302		66.69000		324.00000 
 43692.65567		 710.55253			42982.10314		214.48400		875.00000 
 43692.65567		 305.27265			43387.38302		66.69000		324.00000 
 43692.65567		 710.55253			42982.10314		214.48400		875.00000 
 43692.65567		 305.27265			43387.38302		66.69000		324.00000 
 43692.65567		 710.55253			42982.10314		214.48400		875.00000 
 43692.65567		 305.27265			43387.38302		66.69000		324.00000 
 43692.65567		 710.55253			42982.10314		214.48400		875.00000 
 43692.65567		 305.27265			43387.38302		66.69000		324.00000 
 43692.65567		 710.55253			42982.10314		214.48400		875.00000 
 43692.65567		 305.27265			43387.38302		66.69000		324.00000 
 43692.65567		 710.55253			42982.10314		214.48400		875.00000 
 43692.65567		 305.27265			43387.38302		66.69000		324.00000 
 43692.65567		 710.55253			42982.10314		214.48400		875.00000 
 43692.65567		 305.27265			43387.38302		66.69000		324.00000 
 43692.65567		 710.55253			42982.10314		214.48400		875.00000 
 43692.65567		 305.27265			43387.38302		66.69000		324.00000 
 43692.65567		 710.55253			42982.10314		214.48400		875.00000 
 43692.65567		 305.27265			43387.38302		66.69000		324.00000 
 43692.65567		 710.55253			42982.10314		214.48400		875.00000 
 43692.65567		 305.27265			43387.38302		66.69000		324.00000 
 43692.65567		 710.55253			42982.10314		214.48400		875.00000 
 43692.65567		 305.27265			43387.38302		66.69000		324.00000 
 43692.65567		 710.55253			42982.10314		214.48400		875.00000 
 43692.65567		 305.27265			43387.38302		66.69000		324.00000 
 43692.65567		 710.55253			42982.10314		214.48400		875.00000 
 43692.65567		 305.27265			43387.38302		66.69000		324.00000 
 43692.65567		 710.55253			42982.10314		214.48400		875.00000 
 43692.65567		 305.27265			43387.38302		66.69000		324.00000 
 43692.65567		 710.55253			42982.10314		214.48400		875.00000 
 43692.65567		 305.27265			43387.38302		66.69000		324.00000 
 43692.65567		 710.55253			42982.10314		214.48400		875.00000 
 43692.65567		 305.27265			43387.38302		66.69000		324.00000 
 43692.65567		 710.55253			42982.10314		214.48400		875.00000 
 43692.65567		 305.27265			43387.38302		66.69000		324.00000 
 43692.65567		 710.55253			42982.10314		214.48400		875.00000 
 43692.65567		 305.27265			43387.38302		66.69000		324.00000 
 43692.65567		 710.55253			42982.10314		214.48400		875.00000 
 43692.65567		 305.27265			43387.38302		66.69000		324.00000 
 43692.65567		 710.55253			42982.10314		214.48400		875.00000 
 43692.65567		 305.27265			43387.38302		66.69000		324.00000 
 43692.65567		 710.55253			42982.10314		214.48400		875.00000 
 43692.65567		 305.27265			43387.38302		66.69000		324.00000 
 43692.65567		 710.55253			42982.10314		214.48400		875.00000 
 43692.65567		 305.27265			43387.38302		66.69000		324.00000 
 43692.65567		 710.55253			42982.10314		214.48400		875.00000 
 43692.65567		 305.27265			43387.38302		66.69000		324.00000 
 43692.65567		 710.55253			42982.10314		214.48400		875.00000 
 43692.65567		 305.27265			43387.38302		66.69000		324.00000 
 43692.65567		 710.55253			42982.10314		214.48400		875.00000 
 43692.65567		 305.27265			43387.38302		66.69000		324.00000 
 43692.65567		 710.55253			42982.10314		214.48400		875.00000 
 43692.65567		 305.27265			43387.38302		66.69000		324.00000 
 43692.65567		 710.55253			42982.10314		214.48400		875.00000 
 43692.65567		 305.27265			43387.38302		66.69000		324.00000 
 43692.65567		 710.55253			42982.10314		214.48400		875.00000 
 43692.65567		 305.27265			43387.38302		66.69000		324.00000 
 43692.65567		 710.55253			42982.10314		214.48400		875.00000 
 43692.65567		 305.27265			43387.38302		66.69000		324.00000 
 43692.65567		 710.55253			42982.10314		214.48400		875.00000 
 43692.65567		 305.27265			43387.38302		66.69000		324.00000 
 43692.65567		 710.55253			42982.10314		214.48400		875.00000 
 43692.65567		 305.27265			43387.38302		66.69000		324.00000 
 43692.65567		 710.55253			42982.10314		214.48400		875.00000 
 43692.65567		 305.27265			43387.38302		66.69000		324.00000 
 43692.65567		 710.55253			42982.10314		214.48400		875.00000 
 43692.65567		 305.27265			43387.38302		66.69000		324.00000 
 43692.65567		 710.55253			42982.10314		214.48400		875.00000 
 43692.65567		 305.27265			43387.38302		66.69000		324.00000 
 43692.65567		 710.55253			42982.10314		214.48400		875.00000 
 43692.65567		 305.27265			43387.38302		66.69000		324.00000 
 43692.65567		 710.55253			42982.10314		214.48400		875.00000 
 43692.65567		 305.27265			43387.38302		66.69000		324.00000 
 43692.65567		 710.55253			42982.10314		214.48400		875.00000 
 43692.65567		 305.27265			43387.38302		66.69000		324.00000 
 43692.65567		 710.55253			42982.10314		214.48400		875.00000 
 43692.65567		 305.27265			43387.38302		66.69000		324.00000 
 43692.65567		 710.55253			42982.10314		214.48400		875.00000 
 43692.65567		 305.27265			43387.38302		66.69000		324.00000 
 43692.65567		 710.55253			42982.10314		214.48400		875.00000 
 43692.65567		 305.27265			43387.38302		66.69000		324.00000 
 43692.65567		 710.55253			42982.10314		214.48400		875.00000 
 43692.65567		 305.27265			43387.38302		66.69000		324.00000 
 43692.65567		 710.55253			42982.10314		214.48400		875.00000 
 43692.65567		 305.27265			43387.38302		66.69000		324.00000 
 43692.65567		 710.55253			42982.10314		214.48400		875.00000 
 43692.65567		 305.27265			43387.38302		66.69000		324.00000 
 43692.65567		 710.55253			42982.10314		214.48400		875.00000 
 43692.65567		 305.27265			43387.38302		66.69000		324.00000 
 43692.65567		 710.55253			42982.10314		214.48400		875.00000 
 43692.65567		 305.27265			43387.38302		66.69000		324.00000 
 43692.65567		 710.55253			42982.10314		214.48400		875.00000 
 43692.65567		 305.27265			43387.38302		66.69000		324.00000 
 43692.65567		 710.55253			42982.10314		214.48400		875.00000 
 43692.65567		 305.27265			43387.38302		66.69000		324.00000 
 43692.65567		 710.55253			42982.10314		214.48400		875.00000 
 43692.65567		 305.27265			43387.38302		66.69000		324.00000 
 43692.65567		 710.55253			42982.10314		214.48400		875.00000 
 43692.65567		 305.27265			43387.38302		66.69000		324.00000 
 43692.65567		 710.55253			42982.10314		214.48400		875.00000 
 43692.65567		 305.27265			43387.38302		66.69000		324.00000 
 43692.65567		 710.55253			42982.10314		214.48400		875.00000 
 43692.65567		 305.27265			43387.38302		66.69000		324.00000 
 43692.65567		 710.55253			42982.10314		214.48400		875.00000 
 43692.65567		 305.27265			43387.38302		66.69000		324.00000 
 43692.65567		 710.55253			42982.10314		214.48400		875.00000 
 43692.65567		 305.27265			43387.38302		66.69000		324.00000 
 43692.65567		 710.55253			42982.10314		214.48400		875.00000 
 43692.65567		 305.27265			43387.38302		66.69000		324.00000 
 43692.65567		 710.55253			42982.10314		220.63400		875.00000 
 43692.65567		 305.27265			43387.38302		66.69000		324.00000 
 43692.65567		 710.55253			42982.10314		220.63400		875.00000 
 43692.65567		 305.27265			43387.38302		66.69000		324.00000 
 43692.65567		 710.55253			42982.10314		220.63400		875.00000 
 43692.65567		 305.27265			43387.38302		66.69000		324.00000 
 43692.65567		 710.55253			42982.10314		220.63400		875.00000 
 43692.65567		 305.27265			43387.38302		66.69000		324.00000 
 43692.65567		 710.55253			42982.10314		220.63400		875.00000 
 43692.65567		 305.27265			43387.38302		66.69000		324.00000 
 43692.65567		 710.55253			42982.10314		220.63400		875.00000 
 43692.65567		 305.27265			43387.38302		66.69000		324.00000 
 43692.65567		 710.55253			42982.10314		220.63400		875.00000 
 43692.65567		 305.27265			43387.38302		66.69000		324.00000 
 43692.65567		 710.55253			42982.10314		220.63400		875.00000 
 43692.65567		 305.27265			43387.38302		66.69000		324.00000 
 43692.65567		 710.55253			42982.10314		220.63400		875.00000 
 43692.65567		 305.27265			43387.38302		66.69000		324.00000 
 43692.65567		 710.55253			42982.10314		220.63400		875.00000 
 43692.65567		 305.27265			43387.38302		66.69000		324.00000 
 43692.65567		 710.55253			42982.10314		220.63400		875.00000 
 43692.65567		 305.27265			43387.38302		66.69000		324.00000 
 43692.65567		 710.55253			42982.10314		220.63400		875.00000 
 43692.65567		 305.27265			43387.38302		66.69000		324.00000 
 43692.65567		 710.55253			42982.10314		220.63400		875.00000 
 43692.65567		 305.27265			43387.38302		66.69000		324.00000 
 43692.65567		 710.55253			42982.10314		220.63400		875.00000 
 43692.65567		 305.27265			43387.38302		66.69000		324.00000 
 43692.65567		 710.55253			42982.10314		220.63400		875.00000 
 43692.65567		 305.27265			43387.38302		66.69000		324.00000 
 43692.65567		 710.55253			42982.10314		220.63400		875.00000 
 43692.65567		 305.27265			43387.38302		66.69000		324.00000 
 43692.65567		 710.55253			42982.10314		220.63400		875.00000 
 43692.65567		 305.27265			43387.38302		66.69000		324.00000 
 43692.65567		 710.55253			42982.10314		220.63400		875.00000 
 43692.65567		 305.27265			43387.38302		66.69000		324.00000 
 43692.65567		 710.55253			42982.10314		220.63400		875.00000 
 43692.65567		 305.27265			43387.38302		66.69000		324.00000 
 43692.65567		 710.55253			42982.10314		220.63400		875.00000 
 43692.65567		 305.27265			43387.38302		66.69000		324.00000 
 43692.65567		 710.55253			42982.10314		220.63400		875.00000 
 43692.65567		 305.27265			43387.38302		66.69000		324.00000 
 43692.65567		 710.55253			42982.10314		220.63400		875.00000 
 43692.65567		 305.27265			43387.38302		66.69000		324.00000 
 43692.65567		 710.55253			42982.10314		220.63400		875.00000 
 43692.65567		 305.27265			43387.38302		66.69000		324.00000 
 43692.65567		 710.55253			42982.10314		220.63400		875.00000 
 43692.65567		 305.27265			43387.38302		66.69000		324.00000 
 43692.65567		 710.55253			42982.10314		220.63400		875.00000 
 43692.65567		 305.27265			43387.38302		66.69000		324.00000 
 43692.65567		 710.55253			42982.10314		220.63400		875.00000 
 43692.65567		 305.27265			43387.38302		66.69000		324.00000 
 43692.65567		 710.55253			42982.10314		220.63400		875.00000 
 43692.65567		 305.27265			43387.38302		66.69000		324.00000 
 43692.65567		 710.55253			42982.10314		220.63400		875.00000 
 43692.65567		 305.27265			43387.38302		66.69000		324.00000 
 43692.65567		 710.55253			42982.10314		220.63400		875.00000 
 43692.65567		 305.27265			43387.38302		66.69000		324.00000 
 43692.65567		 710.55253			42982.10314		220.63400		875.00000 
 43692.65567		 305.27265			43387.38302		66.69000		324.00000 
 43692.65567		 710.55253			42982.10314		220.63400		875.00000 
 43692.65567		 305.27265			43387.38302		66.69000		324.00000 
 43692.65567		 710.55253			42982.10314		220.63400		875.00000 
 43692.65567		 305.27265			43387.38302		66.69000		324.00000 
 43692.65567		 710.55253			42982.10314		220.63400		875.00000 
 43692.65567		 305.27265			43387.38302		66.69000		324.00000 
 43692.65567		 710.55253			42982.10314		220.63400		875.00000 
 43692.65567		 305.27265			43387.38302		66.69000		324.00000 
 43692.65567		 710.55253			42982.10314		220.63400		875.00000 
 43692.65567		 305.27265			43387.38302		66.69000		324.00000 
 43692.65567		 710.55253			42982.10314		220.63400		875.00000 
 43692.65567		 305.27265			43387.38302		66.69000		324.00000 
 43692.65567		 710.55253			42982.10314		220.63400		875.00000 
 43692.65567		 305.27265			43387.38302		66.69000		324.00000 
 43692.65567		 710.55253			42982.10314		220.63400		875.00000 
 43692.65567		 305.27265			43387.38302		66.69000		324.00000 
 43692.65567		 710.55253			42982.10314		220.63400		875.00000 
 43692.65567		 305.27265			43387.38302		66.69000		324.00000 
 43692.65567		 710.55253			42982.10314		220.63400		875.00000 
 43692.65567		 305.27265			43387.38302		66.69000		324.00000 
 43692.65567		 710.55253			42982.10314		220.63400		875.00000 
 43692.65567		 305.27265			43387.38302		66.69000		324.00000 
 43692.65567		 710.55253			42982.10314		220.63400		875.00000 
 43692.65567		 305.27265			43387.38302		66.69000		324.00000 
 43692.65567		 710.55253			42982.10314		220.63400		875.00000 
 43692.65567		 305.27265			43387.38302		66.69000		324.00000 
 43692.65567		 710.55253			42982.10314		220.63400		875.00000 
 43692.65567		 305.27265			43387.38302		66.69000		324.00000 
 43692.65567		 710.55253			42982.10314		220.63400		875.00000 
 43692.65567		 305.27265			43387.38302		66.69000		324.00000 
 43692.65567		 710.55253			42982.10314		220.63400		875.00000 
 43692.65567		 305.27265			43387.38302		66.69000		324.00000 
 43692.65567		 710.55253			42982.10314		220.63400		875.00000 
 43692.65567		 305.27265			43387.38302		66.69000		324.00000 
 43692.65567		 710.55253			42982.10314		220.63400		875.00000 
 43692.65567		 305.27265			43387.38302		66.69000		324.00000 
 43692.65567		 710.55253			42982.10314		220.63400		875.00000 
 43692.65567		 305.27265			43387.38302		66.69000		324.00000 
 43692.65567		 710.55253			42982.10314		220.63400		875.00000 
 43692.65567		 305.27265			43387.38302		66.69000		324.00000 
 43692.65567		 710.55253			42982.10314		220.63400		875.00000 
 43692.65567		 305.27265			43387.38302		66.69000		324.00000 
 43692.65567		 710.55253			42982.10314		220.63400		875.00000 
 43692.65567		 305.27265			43387.38302		66.69000		324.00000 
 43692.65567		 710.55253			42982.10314		220.63400		875.00000 
 43692.65567		 305.27265			43387.38302		66.69000		324.00000 
 43692.65567		 710.55253			42982.10314		220.63400		875.00000 
 43692.65567		 305.27265			43387.38302		66.69000		324.00000 
 43692.65567		 710.55253			42982.10314		220.63400		875.00000 
 43692.65567		 305.27265			43387.38302		66.69000		324.00000 
 43692.65567		 710.55253			42982.10314		220.63400		875.00000 
 43692.65567		 305.27265			43387.38302		66.69000		324.00000 
 43692.65567		 710.55253			42982.10314		220.63400		875.00000 
 43692.65567		 305.27265			43387.38302		66.69000		324.00000 
 43692.65567		 710.55253			42982.10314		220.63400		875.00000 
 43692.65567		 305.27265			43387.38302		66.69000		324.00000 
 43692.65567		 710.55253			42982.10314		220.63400		875.00000 
 43692.65567		 305.27265			43387.38302		66.69000		324.00000 
 43692.65567		 710.55253			42982.10314		220.63400		875.00000 
 43692.65567		 305.27265			43387.38302		66.69000		324.00000 
 43692.65567		 710.55253			42982.10314		220.63400		875.00000 
 43692.65567		 305.27265			43387.38302		66.69000		324.00000 
 43692.65567		 710.55253			42982.10314		220.63400		875.00000 
 43692.65567		 305.27265			43387.38302		66.69000		324.00000 
 43692.65567		 710.55253			42982.10314		220.63400		875.00000 
 43692.65567		 305.27265			43387.38302		66.69000		324.00000 
 43692.65567		 710.55253			42982.10314		220.63400		875.00000 
 43692.65567		 305.27265			43387.38302		66.69000		324.00000 
 43692.65567		 710.55253			42982.10314		222.98600		875.00000 
 43692.65567		 305.27265			43387.38302		66.69000		324.00000 
 43692.65567		 710.55253			42982.10314		222.98600		875.00000 
 43692.65567		 305.27265			43387.38302		66.69000		324.00000 
 43692.65567		 710.55253			42982.10314		222.98600		875.00000 
 43692.65567		 305.27265			43387.38302		66.69000		324.00000 
 43692.65567		 710.55253			42982.10314		222.98600		875.00000 
 43692.65567		 305.27265			43387.38302		66.69000		324.00000 
 43692.65567		 710.55253			42982.10314		222.98600		875.00000 
 43692.65567		 305.27265			43387.38302		66.69000		324.00000 
 43692.65567		 710.55253			42982.10314		222.98600		875.00000 
 43692.65567		 305.27265			43387.38302		66.69000		324.00000 
 43692.65567		 710.55253			42982.10314		222.98600		875.00000 
 43692.65567		 305.27265			43387.38302		66.69000		324.00000 
 43692.65567		 710.55253			42982.10314		222.98600		875.00000 
 43692.65567		 305.27265			43387.38302		66.69000		324.00000 
 43692.65567		 710.55253			42982.10314		222.98600		875.00000 
 43692.65567		 305.27265			43387.38302		66.69000		324.00000 
 43692.65567		 710.55253			42982.10314		222.98600		875.00000 
 43692.65567		 305.27265			43387.38302		66.69000		324.00000 
 43692.65567		 710.55253			42982.10314		222.98600		875.00000 
 43692.65567		 305.27265			43387.38302		66.69000		324.00000 
 43692.65567		 710.55253			42982.10314		222.98600		875.00000 
 43692.65567		 305.27265			43387.38302		66.69000		324.00000 
 43692.65567		 710.55253			42982.10314		222.98600		875.00000 
 43692.65567		 305.27265			43387.38302		66.69000		324.00000 
 43692.65567		 710.55253			42982.10314		222.98600		875.00000 
 43692.65567		 305.27265			43387.38302		66.69000		324.00000 
 43692.65567		 710.55253			42982.10314		222.98600		875.00000 
 43692.65567		 305.27265			43387.38302		66.69000		324.00000 
 43692.65567		 710.55253			42982.10314		222.98600		875.00000 
 43692.65567		 305.27265			43387.38302		66.69000		324.00000 
 43692.65567		 710.55253			42982.10314		222.98600		875.00000 
 43692.65567		 305.27265			43387.38302		66.69000		324.00000 
 43692.65567		 710.55253			42982.10314		222.98600		875.00000 
 43692.65567		 305.27265			43387.38302		66.69000		324.00000 
 43692.65567		 710.55253			42982.10314		222.98600		875.00000 
 43692.65567		 305.27265			43387.38302		66.69000		324.00000 
 43692.65567		 710.55253			42982.10314		222.98600		875.00000 
 43692.65567		 305.27265			43387.38302		66.69000		324.00000 
 43692.65567		 710.55253			42982.10314		222.98600		875.00000 
 43692.65567		 305.27265			43387.38302		66.69000		324.00000 
 43692.65567		 710.55253			42982.10314		222.98600		875.00000 
 43692.65567		 305.27265			43387.38302		66.69000		324.00000 
 43692.65567		 710.55253			42982.10314		222.98600		875.00000 
 43692.65567		 305.27265			43387.38302		66.69000		324.00000 
 43692.65567		 710.55253			42982.10314		222.98600		875.00000 
 43692.65567		 305.27265			43387.38302		66.69000		324.00000 
 43692.65567		 710.55253			42982.10314		222.98600		875.00000 
 43692.65567		 305.27265			43387.38302		66.69000		324.00000 
 43692.65567		 710.55253			42982.10314		222.98600		875.00000 
 43692.65567		 305.27265			43387.38302		66.69000		324.00000 
 43692.65567		 710.55253			42982.10314		222.98600		875.00000 
 43692.65567		 305.27265			43387.38302		66.69000		324.00000 
 43692.65567		 710.55253			42982.10314		222.98600		875.00000 
 43692.65567		 305.27265			43387.38302		66.69000		324.00000 
 43692.65567		 710.55253			42982.10314		222.98600		875.00000 
 43692.65567		 305.27265			43387.38302		66.69000		324.00000 
 43692.65567		 710.55253			42982.10314		222.98600		875.00000 
 43692.65567		 305.27265			43387.38302		66.69000		324.00000 
 43692.65567		 710.55253			42982.10314		222.98600		875.00000 
 43692.65567		 305.27265			43387.38302		66.69000		324.00000 
 43692.65567		 710.55253			42982.10314		222.98600		875.00000 
 43692.65567		 305.27265			43387.38302		66.69000		324.00000 
 43692.65567		 710.55253			42982.10314		222.98600		875.00000 
 43692.65567		 305.27265			43387.38302		66.69000		324.00000 
 43692.65567		 710.55253			42982.10314		222.98600		875.00000 
 43692.65567		 305.27265			43387.38302		66.69000		324.00000 
 43692.65567		 710.55253			42982.10314		222.98600		875.00000 
 43692.65567		 305.27265			43387.38302		66.69000		324.00000 
 43692.65567		 710.55253			42982.10314		222.98600		875.00000 
 43692.65567		 305.27265			43387.38302		66.69000		324.00000 
 43692.65567		 710.55253			42982.10314		222.98600		875.00000 
 43692.65567		 305.27265			43387.38302		66.69000		324.00000 
 43692.65567		 710.55253			42982.10314		222.98600		875.00000 
 43692.65567		 305.27265			43387.38302		66.69000		324.00000 
 43692.65567		 710.55253			42982.10314		222.98600		875.00000 
 43692.65567		 305.27265			43387.38302		66.69000		324.00000 
 43692.65567		 710.55253			42982.10314		222.98600		875.00000 
 43692.65567		 305.27265			43387.38302		66.69000		324.00000 
 43692.65567		 710.55253			42982.10314		222.98600		875.00000 
 43692.65567		 305.27265			43387.38302		66.69000		324.00000 
 43692.65567		 710.55253			42982.10314		222.98600		875.00000 
 43692.65567		 305.27265			43387.38302		66.69000		324.00000 
 43692.65567		 710.55253			42982.10314		222.98600		875.00000 
 43692.65567		 305.27265			43387.38302		66.69000		324.00000 
 43692.65567		 710.55253			42982.10314		222.98600		875.00000 
 43692.65567		 305.27265			43387.38302		66.69000		324.00000 
 43692.65567		 710.55253			42982.10314		222.98600		875.00000 
 43692.65567		 305.27265			43387.38302		66.69000		324.00000 
 43692.65567		 710.55253			42982.10314		222.98600		875.00000 
 43692.65567		 305.27265			43387.38302		66.69000		324.00000 
 43692.65567		 710.55253			42982.10314		222.98600		875.00000 
 43692.65567		 305.27265			43387.38302		66.69000		324.00000 
 43692.65567		 710.55253			42982.10314		222.98600		875.00000 
 43692.65567		 305.27265			43387.38302		66.69000		324.00000 
 43692.65567		 710.55253			42982.10314		222.98600		875.00000 
 43692.65567		 305.27265			43387.38302		66.69000		324.00000 
 43692.65567		 710.55253			42982.10314		222.98600		875.00000 
 43692.65567		 305.27265			43387.38302		66.69000		324.00000 
 43692.65567		 710.55253			42982.10314		222.98600		875.00000 
 43692.65567		 305.27265			43387.38302		66.69000		324.00000 
 43692.65567		 710.55253			42982.10314		222.98600		875.00000 
 43692.65567		 305.27265			43387.38302		66.69000		324.00000 
 43692.65567		 710.55253			42982.10314		222.98600		875.00000 
 43692.65567		 305.27265			43387.38302		66.69000		324.00000 
 43692.65567		 710.55253			42982.10314		222.98600		875.00000 
 43692.65567		 305.27265			43387.38302		66.69000		324.00000 
 43692.65567		 710.55253			42982.10314		222.98600		875.00000 
 43692.65567		 305.27265			43387.38302		66.69000		324.00000 
 43692.65567		 710.55253			42982.10314		222.98600		875.00000 
 43692.65567		 305.27265			43387.38302		66.69000		324.00000 
 43692.65567		 710.55253			42982.10314		222.98600		875.00000 
 43692.65567		 305.27265			43387.38302		66.69000		324.00000 
 43692.65567		 710.55253			42982.10314		222.98600		875.00000 
 43692.65567		 305.27265			43387.38302		66.69000		324.00000 
 43692.65567		 710.55253			42982.10314		222.98600		875.00000 
 43692.65567		 305.27265			43387.38302		66.69000		324.00000 
 43692.65567		 710.55253			42982.10314		222.98600		875.00000 
 43692.65567		 305.27265			43387.38302		66.69000		324.00000 
 43692.65567		 710.55253			42982.10314		222.98600		875.00000 
 43692.65567		 305.27265			43387.38302		66.69000		324.00000 
 43692.65567		 710.55253			42982.10314		222.98600		875.00000 
 43692.65567		 305.27265			43387.38302		66.69000		324.00000 
 43692.65567		 710.55253			42982.10314		222.98600		875.00000 
 43692.65567		 305.27265			43387.38302		66.69000		324.00000 
 43692.65567		 710.55253			42982.10314		222.98600		875.00000 
 43692.65567		 305.27265			43387.38302		66.69000		324.00000 
 43692.65567		 710.55253			42982.10314		223.78800		875.00000 
 43692.65567		 305.27265			43387.38302		66.69000		324.00000 
 43692.65567		 710.55253			42982.10314		223.78800		875.00000 
 43692.65567		 305.27265			43387.38302		66.69000		324.00000 
 43692.65567		 710.55253			42982.10314		223.78800		875.00000 
 43692.65567		 305.27265			43387.38302		66.69000		324.00000 
 43692.65567		 710.55253			42982.10314		223.78800		875.00000 
 43692.65567		 305.27265			43387.38302		66.69000		324.00000 
 43692.65567		 710.55253			42982.10314		223.78800		875.00000 
 43692.65567		 305.27265			43387.38302		66.69000		324.00000 
 43692.65567		 710.55253			42982.10314		223.78800		875.00000 
 43692.65567		 305.27265			43387.38302		66.69000		324.00000 
 43692.65567		 710.55253			42982.10314		223.78800		875.00000 
 43692.65567		 305.27265			43387.38302		66.69000		324.00000 
 43692.65567		 710.55253			42982.10314		223.78800		875.00000 
 43692.65567		 305.27265			43387.38302		66.69000		324.00000 
 43692.65567		 710.55253			42982.10314		223.78800		875.00000 
 43692.65567		 305.27265			43387.38302		66.69000		324.00000 
 43692.65567		 710.55253			42982.10314		223.78800		875.00000 
 43692.65567		 305.27265			43387.38302		66.69000		324.00000 
 43692.65567		 710.55253			42982.10314		223.78800		875.00000 
 43692.65567		 305.27265			43387.38302		66.69000		324.00000 
 43692.65567		 710.55253			42982.10314		223.78800		875.00000 
 43692.65567		 305.27265			43387.38302		66.69000		324.00000 
 43692.65567		 710.55253			42982.10314		223.78800		875.00000 
 43692.65567		 305.27265			43387.38302		66.69000		324.00000 
 43692.65567		 710.55253			42982.10314		223.78800		875.00000 
 43692.65567		 305.27265			43387.38302		66.69000		324.00000 
 43692.65567		 710.55253			42982.10314		223.78800		875.00000 
 43692.65567		 305.27265			43387.38302		66.69000		324.00000 
 43692.65567		 710.55253			42982.10314		223.78800		875.00000 
 43692.65567		 305.27265			43387.38302		66.69000		324.00000 
 43692.65567		 710.55253			42982.10314		223.78800		875.00000 
 43692.65567		 305.27265			43387.38302		66.69000		324.00000 
 43692.65567		 710.55253			42982.10314		223.78800		875.00000 
 43692.65567		 305.27265			43387.38302		66.69000		324.00000 
 43692.65567		 710.55253			42982.10314		223.78800		875.00000 
 43692.65567		 305.27265			43387.38302		66.69000		324.00000 
 43692.65567		 710.55253			42982.10314		223.78800		875.00000 
 43692.65567		 305.27265			43387.38302		66.69000		324.00000 
 43692.65567		 710.55253			42982.10314		223.78800		875.00000 
 43692.65567		 305.27265			43387.38302		66.69000		324.00000 
 43692.65567		 710.55253			42982.10314		223.78800		875.00000 
 43692.65567		 305.27265			43387.38302		66.69000		324.00000 
 43692.65567		 710.55253			42982.10314		223.78800		875.00000 
 43692.65567		 305.27265			43387.38302		66.69000		324.00000 
 43692.65567		 710.55253			42982.10314		223.78800		875.00000 
 43692.65567		 305.27265			43387.38302		66.69000		324.00000 
 43692.65567		 710.55253			42982.10314		223.78800		875.00000 
 43692.65567		 305.27265			43387.38302		66.69000		324.00000 
 43692.65567		 710.55253			42982.10314		223.78800		875.00000 
 43692.65567		 305.27265			43387.38302		66.69000		324.00000 
 43692.65567		 710.55253			42982.10314		223.78800		875.00000 
 43692.65567		 305.27265			43387.38302		66.69000		324.00000 
 43692.65567		 710.55253			42982.10314		223.78800		875.00000 
 43692.65567		 305.27265			43387.38302		66.69000		324.00000 
 43692.65567		 710.55253			42982.10314		223.78800		875.00000 
 43692.65567		 305.27265			43387.38302		66.69000		324.00000 
 43692.65567		 710.55253			42982.10314		223.78800		875.00000 
 43692.65567		 305.27265			43387.38302		66.69000		324.00000 
 43692.65567		 710.55253			42982.10314		223.78800		875.00000 
 43692.65567		 305.27265			43387.38302		66.69000		324.00000 
 43692.65567		 710.55253			42982.10314		223.78800		875.00000 
 43692.65567		 305.27265			43387.38302		66.69000		324.00000 
 43692.65567		 710.55253			42982.10314		223.78800		875.00000 
 43692.65567		 305.27265			43387.38302		66.69000		324.00000 
 43692.65567		 710.55253			42982.10314		223.78800		875.00000 
 43692.65567		 305.27265			43387.38302		66.69000		324.00000 
 43692.65567		 710.55253			42982.10314		223.78800		875.00000 
 43692.65567		 305.27265			43387.38302		66.69000		324.00000 
 43692.65567		 710.55253			42982.10314		223.78800		875.00000 
 43692.65567		 305.27265			43387.38302		66.69000		324.00000 
 43692.65567		 710.55253			42982.10314		223.78800		875.00000 
 43692.65567		 305.27265			43387.38302		66.69000		324.00000 
 43692.65567		 710.55253			42982.10314		223.78800		875.00000 
 43692.65567		 305.27265			43387.38302		66.69000		324.00000 
 43692.65567		 710.55253			42982.10314		223.78800		875.00000 
 43692.65567		 305.27265			43387.38302		66.69000		324.00000 
 43692.65567		 710.55253			42982.10314		223.78800		875.00000 
 43692.65567		 305.27265			43387.38302		66.69000		324.00000 
 43692.65567		 710.55253			42982.10314		223.78800		875.00000 
 43692.65567		 305.27265			43387.38302		66.69000		324.00000 
 43692.65567		 710.55253			42982.10314		223.78800		875.00000 
 43692.65567		 305.27265			43387.38302		66.69000		324.00000 
 43692.65567		 710.55253			42982.10314		223.78800		875.00000 
 43692.65567		 305.27265			43387.38302		66.69000		324.00000 
 43692.65567		 710.55253			42982.10314		223.78800		875.00000 
 43692.65567		 305.27265			43387.38302		66.69000		324.00000 
 43692.65567		 710.55253			42982.10314		223.78800		875.00000 
 43692.65567		 305.27265			43387.38302		66.69000		324.00000 
 43692.65567		 710.55253			42982.10314		223.78800		875.00000 
 43692.65567		 305.27265			43387.38302		66.69000		324.00000 
 43692.65567		 710.55253			42982.10314		223.78800		875.00000 
 43692.65567		 305.27265			43387.38302		66.69000		324.00000 
 43692.65567		 710.55253			42982.10314		223.78800		875.00000 
 43692.65567		 305.27265			43387.38302		66.69000		324.00000 
 43692.65567		 710.55253			42982.10314		223.78800		875.00000 
 43692.65567		 305.27265			43387.38302		66.69000		324.00000 
 43692.65567		 710.55253			42982.10314		223.78800		875.00000 
 43692.65567		 305.27265			43387.38302		66.69000		324.00000 
 43692.65567		 710.55253			42982.10314		223.78800		875.00000 
 43692.65567		 305.27265			43387.38302		66.69000		324.00000 
 43692.65567		 710.55253			42982.10314		223.78800		875.00000 
 43692.65567		 305.27265			43387.38302		66.69000		324.00000 
 43692.65567		 710.55253			42982.10314		223.78800		875.00000 
 43692.65567		 305.27265			43387.38302		66.69000		324.00000 
 43692.65567		 710.55253			42982.10314		223.78800		875.00000 
 43692.65567		 305.27265			43387.38302		66.69000		324.00000 
 43692.65567		 710.55253			42982.10314		223.78800		875.00000 
 43692.65567		 305.27265			43387.38302		66.69000		324.00000 
 43692.65567		 710.55253			42982.10314		223.78800		875.00000 
 43692.65567		 305.27265			43387.38302		66.69000		324.00000 
 43692.65567		 710.55253			42982.10314		223.78800		875.00000 
 43692.65567		 305.27265			43387.38302		66.69000		324.00000 
 43692.65567		 710.55253			42982.10314		223.78800		875.00000 
 43692.65567		 305.27265			43387.38302		66.69000		324.00000 
 43692.65567		 710.55253			42982.10314		223.78800		875.00000 
 43692.65567		 305.27265			43387.38302		66.69000		324.00000 
 43692.65567		 710.55253			42982.10314		223.78800		875.00000 
 43692.65567		 305.27265			43387.38302		66.69000		324.00000 
 43692.65567		 710.55253			42982.10314		223.78800		875.00000 
 43692.65567		 305.27265			43387.38302		66.69000		324.00000 
 43692.65567		 710.55253			42982.10314		223.78800		875.00000 
 43692.65567		 305.27265			43387.38302		66.69000		324.00000 
 43692.65567		 710.55253			42982.10314		223.78800		875.00000 
 43692.65567		 305.27265			43387.38302		66.69000		324.00000 
 43692.65567		 710.55253			42982.10314		223.78800		875.00000 
 43692.65567		 305.27265			43387.38302		66.69000		324.00000 
 43692.65567		 710.55253			42982.10314		223.78800		875.00000 
 43692.65567		 305.27265			43387.38302		66.69000		324.00000 
 43692.65567		 710.55253			42982.10314		223.78800		875.00000 
 43692.65567		 305.27265			43387.38302		66.69000		324.00000 
 43692.65567		 710.55253			42982.10314		223.78800		875.00000 
 43692.65567		 305.27265			43387.38302		66.69000		324.00000 
 43692.65567		 710.55253			42982.10314		223.78800		875.00000 
 43692.65567		 305.27265			43387.38302		66.69000		324.00000 
 43692.65567		 710.55253			42982.10314		223.78800		875.00000 
 43692.65567		 305.27265			43387.38302		66.69000		324.00000 
 43692.65567		 710.55253			42982.10314		223.78800		875.00000 
 43692.65567		 305.27265			43387.38302		66.69000		324.00000 
 43692.65567		 710.55253			42982.10314		223.78800		875.00000 
 43692.65567		 305.27265			43387.38302		66.69000		324.00000 
 43692.65567		 710.55253			42982.10314		223.78800		875.00000 
 43692.65567		 305.27265			43387.38302		66.69000		324.00000 
 43692.65567		 710.55253			42982.10314		223.78800		875.00000 
 43692.65567		 305.27265			43387.38302		66.69000		324.00000 
 43692.65567		 710.55253			42982.10314		223.78800		875.00000 
 43692.65567		 305.27265			43387.38302		66.69000		324.00000 
 43692.65567		 710.55253			42982.10314		223.78800		875.00000 
 43692.65567		 305.27265			43387.38302		66.69000		324.00000 
 43692.65567		 710.55253			42982.10314		223.78800		875.00000 
 43692.65567		 305.27265			43387.38302		66.69000		324.00000 
 43692.65567		 710.55253			42982.10314		223.78800		875.00000 
 43692.65567		 305.27265			43387.38302		66.69000		324.00000 
 43692.65567		 710.55253			42982.10314		223.78800		875.00000 
 43692.65567		 305.27265			43387.38302		66.69000		324.00000 
 43692.65567		 710.55253			42982.10314		223.78800		875.00000 
 43692.65567		 305.27265			43387.38302		66.69000		324.00000 
 43692.65567		 710.55253			42982.10314		223.78800		875.00000 
 43692.65567		 305.27265			43387.38302		66.69000		324.00000 
 43692.65567		 710.55253			42982.10314		223.78800		875.00000 
 43692.65567		 305.27265			43387.38302		66.69000		324.00000 
 43692.65567		 710.55253			42982.10314		223.78800		875.00000 
 43692.65567		 305.27265			43387.38302		66.69000		324.00000 
 43692.65567		 710.55253			42982.10314		223.78800		875.00000 
 43692.65567		 305.27265			43387.38302		66.69000		324.00000 
 43692.65567		 710.55253			42982.10314		223.78800		875.00000 
 43692.65567		 305.27265			43387.38302		66.69000		324.00000 
 43692.65567		 710.55253			42982.10314		223.78800		875.00000 
 43692.65567		 305.27265			43387.38302		66.69000		324.00000 
 43692.65567		 710.55253			42982.10314		223.78800		875.00000 
 43692.65567		 305.27265			43387.38302		66.69000		324.00000 
 43692.65567		 710.55253			42982.10314		223.78800		875.00000 
 43692.65567		 305.27265			43387.38302		66.69000		324.00000 
 43692.65567		 710.55253			42982.10314		223.78800		875.00000 
 43692.65567		 305.27265			43387.38302		66.69000		324.00000 
 43692.65567		 710.55253			42982.10314		223.78800		875.00000 
 43692.65567		 305.27265			43387.38302		66.69000		324.00000 
 43692.65567		 710.55253			42982.10314		223.78800		875.00000 
 43692.65567		 305.27265			43387.38302		66.69000		324.00000 
 43692.65567		 710.55253			42982.10314		223.78800		875.00000 
 43692.65567		 305.27265			43387.38302		66.69000		324.00000 
 43692.65567		 710.55253			42982.10314		223.78800		875.00000 
 43692.65567		 305.27265			43387.38302		66.69000		324.00000 
 43692.65567		 710.55253			42982.10314		223.78800		875.00000 
 43692.65567		 305.27265			43387.38302		66.69000		324.00000 
 43692.65567		 710.55253			42982.10314		223.78800		875.00000 
 43692.65567		 305.27265			43387.38302		66.69000		324.00000 
 43692.65567		 710.55253			42982.10314		223.78800		875.00000 
 43692.65567		 305.27265			43387.38302		66.69000		324.00000 
 43692.65567		 710.55253			42982.10314		223.78800		875.00000 
 43692.65567		 305.27265			43387.38302		66.69000		324.00000 
 43692.65567		 710.55253			42982.10314		223.78800		875.00000 
 43692.65567		 305.27265			43387.38302		66.69000		324.00000 
 43692.65567		 710.55253			42982.10314		223.78800		875.00000 
 43692.65567		 305.27265			43387.38302		66.69000		324.00000 
 43692.65567		 710.55253			42982.10314		223.78800		875.00000 
 43692.65567		 305.27265			43387.38302		66.69000		324.00000 
 43692.65567		 710.55253			42982.10314		223.78800		875.00000 
 43692.65567		 305.27265			43387.38302		66.69000		324.00000 
 43692.65567		 710.55253			42982.10314		223.78800		875.00000 
 43692.65567		 305.27265			43387.38302		66.69000		324.00000 
 43692.65567		 710.55253			42982.10314		223.78800		875.00000 
 43692.65567		 305.27265			43387.38302		66.69000		324.00000 
 43692.65567		 710.55253			42982.10314		223.78800		875.00000 
 43692.65567		 305.27265			43387.38302		66.69000		324.00000 
 43692.65567		 710.55253			42982.10314		223.78800		875.00000 
 43692.65567		 305.27265			43387.38302		66.69000		324.00000 
 43692.65567		 710.55253			42982.10314		223.78800		875.00000 
 43692.65567		 305.27265			43387.38302		66.69000		324.00000 
 43692.65567		 710.55253			42982.10314		223.78800		875.00000 
 43692.65567		 305.27265			43387.38302		66.69000		324.00000 
 43692.65567		 710.55253			42982.10314		223.78800		875.00000 
 43692.65567		 305.27265			43387.38302		66.69000		324.00000 
 43692.65567		 710.55253			42982.10314		223.78800		875.00000 
 43692.65567		 305.27265			43387.38302		66.69000		324.00000 
 43692.65567		 710.55253			42982.10314		223.78800		875.00000 
 43692.65567		 305.27265			43387.38302		66.69000		324.00000 
 43692.65567		 710.55253			42982.10314		223.78800		875.00000 
 43692.65567		 305.27265			43387.38302		66.69000		324.00000 
 43692.65567		 710.55253			42982.10314		223.78800		875.00000 
 43692.65567		 305.27265			43387.38302		66.69000		324.00000 
 43692.65567		 710.55253			42982.10314		223.78800		875.00000 
 43692.65567		 305.27265			43387.38302		66.69000		324.00000 
 43692.65567		 710.55253			42982.10314		223.78800		875.00000 
 43692.65567		 305.27265			43387.38302		66.69000		324.00000 
 43692.65567		 710.55253			42982.10314		223.78800		875.00000 
 43692.65567		 305.27265			43387.38302		66.69000		324.00000 
 43692.65567		 710.55253			42982.10314		223.78800		875.00000 
 43692.65567		 305.27265			43387.38302		66.69000		324.00000 
 43692.65567		 710.55253			42982.10314		223.78800		875.00000 
 43692.65567		 305.27265			43387.38302		66.69000		324.00000 
 43692.65567		 710.55253			42982.10314		223.78800		875.00000 
 43692.65567		 305.27265			43387.38302		66.69000		324.00000 
 43692.65567		 710.55253			42982.10314		223.78800		875.00000 
 43692.65567		 305.27265			43387.38302		66.69000		324.00000 
 43692.65567		 710.55253			42982.10314		223.78800		875.00000 
 43692.65567		 305.27265			43387.38302		66.69000		324.00000 
 43692.65567		 710.55253			42982.10314		223.78800		875.00000 
 43692.65567		 305.27265			43387.38302		66.69000		324.00000 
 43692.65567		 710.55253			42982.10314		223.78800		875.00000 
 43692.65567		 305.27265			43387.38302		66.69000		324.00000 
 43692.65567		 710.55253			42982.10314		223.78800		875.00000 
 43692.65567		 305.27265			43387.38302		66.69000		324.00000 
 43692.65567		 710.55253			42982.10314		223.78800		875.00000 
 43692.65567		 305.27265			43387.38302		66.69000		324.00000 
 43692.65567		 710.55253			42982.10314		223.78800		875.00000 
 43692.65567		 305.27265			43387.38302		66.69000		324.00000 
 43692.65567		 710.55253			42982.10314		223.78800		875.00000 
 43692.65567		 305.27265			43387.38302		66.69000		324.00000 
 43692.65567		 710.55253			42982.10314		223.78800		875.00000 
 43692.65567		 305.27265			43387.38302		66.69000		324.00000 
 43692.65567		 710.55253			42982.10314		223.78800		875.00000 
 43692.65567		 305.27265			43387.38302		66.69000		324.00000 
 43692.65567		 710.55253			42982.10314		223.78800		875.00000 
 43692.65567		 305.27265			43387.38302		66.69000		324.00000 
 43692.65567		 710.55253			42982.10314		223.78800		875.00000 
 43692.65567		 305.27265			43387.38302		66.69000		324.00000 
 43692.65567		 710.55253			42982.10314		223.78800		875.00000 
 43692.65567		 305.27265			43387.38302		66.69000		324.00000 
 43692.65567		 710.55253			42982.10314		223.78800		875.00000 
 43692.65567		 305.27265			43387.38302		66.69000		324.00000 
 43692.65567		 710.55253			42982.10314		223.78800		875.00000 
 43692.65567		 305.27265			43387.38302		66.69000		324.00000 
 43692.65567		 710.55253			42982.10314		223.78800		875.00000 
 43692.65567		 305.27265			43387.38302		66.69000		324.00000 
 43692.65567		 710.55253			42982.10314		223.78800		875.00000 
 43692.65567		 305.27265			43387.38302		66.69000		324.00000 
 43692.65567		 710.55253			42982.10314		223.78800		875.00000 
 43692.65567		 305.27265			43387.38302		66.69000		324.00000 
 43692.65567		 710.55253			42982.10314		223.78800		875.00000 
 43692.65567		 305.27265			43387.38302		66.69000		324.00000 
 43692.65567		 710.55253			42982.10314		223.78800		875.00000 
 43692.65567		 305.27265			43387.38302		66.69000		324.00000 
 43692.65567		 710.55253			42982.10314		223.78800		875.00000 
 43692.65567		 305.27265			43387.38302		66.69000		324.00000 
 43692.65567		 710.55253			42982.10314		223.78800		875.00000 
 43692.65567		 305.27265			43387.38302		66.69000		324.00000 
 43692.65567		 710.55253			42982.10314		223.78800		875.00000 
 43692.65567		 305.27265			43387.38302		66.69000		324.00000 
 43692.65567		 710.55253			42982.10314		223.78800		875.00000 
 43692.65567		 305.27265			43387.38302		66.69000		324.00000 
 43692.65567		 710.55253			42982.10314		223.78800		875.00000 
 43692.65567		 305.27265			43387.38302		66.69000		324.00000 
 43692.65567		 710.55253			42982.10314		223.78800		875.00000 
 43692.65567		 305.27265			43387.38302		66.69000		324.00000 
 43692.65567		 710.55253			42982.10314		223.78800		875.00000 
 43692.65567		 305.27265			43387.38302		66.69000		324.00000 
 43692.65567		 710.55253			42982.10314		223.78800		875.00000 
 43692.65567		 305.27265			43387.38302		66.69000		324.00000 
 43692.65567		 710.55253			42982.10314		223.78800		875.00000 
 43692.65567		 305.27265			43387.38302		66.69000		324.00000 
 43692.65567		 710.55253			42982.10314		223.78800		875.00000 
 43692.65567		 305.27265			43387.38302		66.69000		324.00000 
 43692.65567		 710.55253			42982.10314		223.78800		875.00000 
 43692.65567		 305.27265			43387.38302		66.69000		324.00000 
 43692.65567		 710.55253			42982.10314		223.78800		875.00000 
 43692.65567		 305.27265			43387.38302		66.69000		324.00000 
 43692.65567		 710.55253			42982.10314		223.78800		875.00000 
 43692.65567		 305.27265			43387.38302		66.69000		324.00000 
 43692.65567		 710.55253			42982.10314		223.78800		875.00000 
 43692.65567		 305.27265			43387.38302		66.69000		324.00000 
 43692.65567		 710.55253			42982.10314		223.78800		875.00000 
 43692.65567		 305.27265			43387.38302		66.69000		324.00000 
 43692.65567		 710.55253			42982.10314		223.78800		875.00000 
 43692.65567		 305.27265			43387.38302		66.69000		324.00000 
 43692.65567		 710.55253			42982.10314		223.78800		875.00000 
 43692.65567		 305.27265			43387.38302		66.69000		324.00000 
 43692.65567		 710.55253			42982.10314		223.78800		875.00000 
 43692.65567		 305.27265			43387.38302		66.69000		324.00000 
 43692.65567		 710.55253			42982.10314		223.78800		875.00000 
 43692.65567		 305.27265			43387.38302		66.69000		324.00000 
 43692.65567		 710.55253			42982.10314		223.78800		875.00000 
 43692.65567		 305.27265			43387.38302		66.69000		324.00000 
 43692.65567		 710.55253			42982.10314		223.78800		875.00000 
 43692.65567		 305.27265			43387.38302		66.69000		324.00000 
 43692.65567		 710.55253			42982.10314		223.78800		875.00000 
 43692.65567		 305.27265			43387.38302		66.69000		324.00000 
 43692.65567		 710.55253			42982.10314		223.78800		875.00000 
 43692.65567		 305.27265			43387.38302		66.69000		324.00000 
 43692.65567		 710.55253			42982.10314		223.78800		875.00000 
 43692.65567		 305.27265			43387.38302		66.69000		324.00000 
 43692.65567		 710.55253			42982.10314		223.78800		875.00000 
 43692.65567		 305.27265			43387.38302		66.69000		324.00000 
 43692.65567		 710.55253			42982.10314		223.78800		875.00000 
 43692.65567		 305.27265			43387.38302		66.69000		324.00000 
 43692.65567		 710.55253			42982.10314		223.78800		875.00000 
 43692.65567		 305.27265			43387.38302		66.69000		324.00000 
 43692.65567		 710.55253			42982.10314		223.78800		875.00000 
 43692.65567		 305.27265			43387.38302		66.69000		324.00000 
 43692.65567		 710.55253			42982.10314		223.78800		875.00000 
 43692.65567		 305.27265			43387.38302		66.69000		324.00000 
 43692.65567		 710.55253			42982.10314		223.78800		875.00000 
 43692.65567		 305.27265			43387.38302		66.69000		324.00000 
 43692.65567		 710.55253			42982.10314		223.78800		875.00000 
 43692.65567		 305.27265			43387.38302		66.69000		324.00000 
 43692.65567		 710.55253			42982.10314		223.78800		875.00000 
 43692.65567		 305.27265			43387.38302		66.69000		324.00000 
 43692.65567		 710.55253			42982.10314		223.78800		875.00000 
 43692.65567		 305.27265			43387.38302		66.69000		324.00000 
 43692.65567		 710.55253			42982.10314		223.78800		875.00000 
 43692.65567		 305.27265			43387.38302		66.69000		324.00000 
 43692.65567		 710.55253			42982.10314		223.78800		875.00000 
 43692.65567		 305.27265			43387.38302		66.69000		324.00000 
 43692.65567		 710.55253			42982.10314		223.78800		875.00000 
 43692.65567		 305.27265			43387.38302		66.69000		324.00000 
 43692.65567		 710.55253			42982.10314		223.78800		875.00000 
 43692.65567		 305.27265			43387.38302		66.69000		324.00000 
 43692.65567		 710.55253			42982.10314		223.78800		875.00000 
 43692.65567		 305.27265			43387.38302		66.69000		324.00000 
 43692.65567		 710.55253			42982.10314		223.78800		875.00000 
 43692.65567		 305.27265			43387.38302		66.69000		324.00000 
 43692.65567		 710.55253			42982.10314		223.78800		875.00000 
 43692.65567		 305.27265			43387.38302		66.69000		324.00000 
 43692.65567		 710.55253			42982.10314		223.78800		875.00000 
 43692.65567		 305.27265			43387.38302		66.69000		324.00000 
 43692.65567		 710.55253			42982.10314		223.78800		875.00000 
 43692.65567		 305.27265			43387.38302		66.69000		324.00000 
 43692.65567		 710.55253			42982.10314		223.78800		875.00000 
 43692.65567		 305.27265			43387.38302		66.69000		324.00000 
 43692.65567		 710.55253			42982.10314		223.78800		875.00000 
 43692.65567		 305.27265			43387.38302		66.69000		324.00000 
 43692.65567		 710.55253			42982.10314		223.78800		875.00000 
 43692.65567		 305.27265			43387.38302		66.69000		324.00000 
 43692.65567		 710.55253			42982.10314		223.78800		875.00000 
 43692.65567		 305.27265			43387.38302		66.69000		324.00000 
 43692.65567		 710.55253			42982.10314		223.78800		875.00000 
 43692.65567		 305.27265			43387.38302		66.69000		324.00000 
 43692.65567		 710.55253			42982.10314		223.78800		875.00000 
 43692.65567		 305.27265			43387.38302		66.69000		324.00000 
 43692.65567		 710.55253			42982.10314		223.78800		875.00000 
 43692.65567		 305.27265			43387.38302		66.69000		324.00000 
 43692.65567		 710.55253			42982.10314		223.78800		875.00000 
 43692.65567		 305.27265			43387.38302		66.69000		324.00000 
 43692.65567		 710.55253			42982.10314		223.78800		875.00000 
 43692.65567		 305.27265			43387.38302		66.69000		324.00000 
 43692.65567		 710.55253			42982.10314		223.78800		875.00000 
 43692.65567		 305.27265			43387.38302		66.69000		324.00000 
 43692.65567		 710.55253			42982.10314		223.78800		875.00000 
 43692.65567		 305.27265			43387.38302		66.69000		324.00000 
 43692.65567		 710.55253			42982.10314		223.78800		875.00000 
 43692.65567		 305.27265			43387.38302		66.69000		324.00000 
 43692.65567		 710.55253			42982.10314		223.78800		875.00000 
 43692.65567		 305.27265			43387.38302		66.69000		324.00000 
 43692.65567		 710.55253			42982.10314		223.18800		875.00000 
 43692.65567		 305.27265			43387.38302		66.69000		324.00000 
 43692.65567		 710.55253			42982.10314		223.18800		875.00000 
 43692.65567		 305.27265			43387.38302		66.69000		324.00000 
 43692.65567		 710.55253			42982.10314		223.18800		875.00000 
 43692.65567		 305.27265			43387.38302		66.69000		324.00000 
 43692.65567		 710.55253			42982.10314		223.18800		875.00000 
 43692.65567		 305.27265			43387.38302		66.69000		324.00000 
 43692.65567		 710.55253			42982.10314		223.18800		875.00000 
 43692.65567		 305.27265			43387.38302		66.69000		324.00000 
 43692.65567		 710.55253			42982.10314		223.18800		875.00000 
 43692.65567		 305.27265			43387.38302		66.69000		324.00000 
 43692.65567		 710.55253			42982.10314		223.18800		875.00000 
 43692.65567		 305.27265			43387.38302		66.69000		324.00000 
 43692.65567		 710.55253			42982.10314		223.18800		875.00000 
 43692.65567		 305.27265			43387.38302		66.69000		324.00000 
 43692.65567		 710.55253			42982.10314		223.18800		875.00000 
 43692.65567		 305.27265			43387.38302		66.69000		324.00000 
 43692.65567		 710.55253			42982.10314		223.18800		875.00000 
 43692.65567		 305.27265			43387.38302		66.69000		324.00000 
 43692.65567		 710.55253			42982.10314		223.18800		875.00000 
 43692.65567		 305.27265			43387.38302		66.69000		324.00000 
 43692.65567		 710.55253			42982.10314		223.18800		875.00000 
 43692.65567		 305.27265			43387.38302		66.69000		324.00000 
 43692.65567		 710.55253			42982.10314		223.18800		875.00000 
 43692.65567		 305.27265			43387.38302		66.69000		324.00000 
 43692.65567		 710.55253			42982.10314		223.18800		875.00000 
 43692.65567		 305.27265			43387.38302		66.69000		324.00000 
 43692.65567		 710.55253			42982.10314		223.18800		875.00000 
 43692.65567		 305.27265			43387.38302		66.69000		324.00000 
 43692.65567		 710.55253			42982.10314		223.18800		875.00000 
 43692.65567		 305.27265			43387.38302		66.69000		324.00000 
 43692.65567		 710.55253			42982.10314		223.18800		875.00000 
 43692.65567		 305.27265			43387.38302		66.69000		324.00000 
 43692.65567		 710.55253			42982.10314		223.18800		875.00000 
 43692.65567		 305.27265			43387.38302		66.69000		324.00000 
 43692.65567		 710.55253			42982.10314		223.18800		875.00000 
 43692.65567		 305.27265			43387.38302		66.69000		324.00000 
 43692.65567		 710.55253			42982.10314		223.18800		875.00000 
 43692.65567		 305.27265			43387.38302		70.12600		324.00000 
 43692.65567		 710.55253			42982.10314		223.18800		875.00000 
 43692.65567		 305.27265			43387.38302		70.12600		324.00000 
 43692.65567		 710.55253			42982.10314		223.18800		875.00000 
 43692.65567		 305.27265			43387.38302		70.12600		324.00000 
 43692.65567		 710.55253			42982.10314		223.18800		875.00000 
 43692.65567		 305.27265			43387.38302		70.12600		324.00000 
 43692.65567		 710.55253			42982.10314		223.18800		875.00000 
 43692.65567		 305.27265			43387.38302		70.12600		324.00000 
 43692.65567		 710.55253			42982.10314		223.18800		875.00000 
 43692.65567		 305.27265			43387.38302		70.12600		324.00000 
 43692.65567		 710.55253			42982.10314		223.18800		875.00000 
 43692.65567		 305.27265			43387.38302		70.12600		324.00000 
 43692.65567		 710.55253			42982.10314		223.18800		875.00000 
 43692.65567		 305.27265			43387.38302		70.12600		324.00000 
 43692.65567		 710.55253			42982.10314		223.18800		875.00000 
 43692.65567		 305.27265			43387.38302		70.12600		324.00000 
 43692.65567		 710.55253			42982.10314		223.18800		875.00000 
 43692.65567		 305.27265			43387.38302		70.12600		324.00000 
 43692.65567		 710.55253			42982.10314		223.18800		875.00000 
 43692.65567		 305.27265			43387.38302		70.12600		324.00000 
 43692.65567		 710.55253			42982.10314		223.18800		875.00000 
 43692.65567		 305.27265			43387.38302		70.12600		324.00000 
 43692.65567		 710.55253			42982.10314		223.18800		875.00000 
 43692.65567		 305.27265			43387.38302		70.12600		324.00000 
 43692.65567		 710.55253			42982.10314		223.18800		875.00000 
 43692.65567		 305.27265			43387.38302		70.12600		324.00000 
 43692.65567		 710.55253			42982.10314		223.18800		875.00000 
 43692.65567		 305.27265			43387.38302		70.12600		324.00000 
 43692.65567		 710.55253			42982.10314		223.18800		875.00000 
 43692.65567		 305.27265			43387.38302		70.12600		324.00000 
 43692.65567		 710.55253			42982.10314		223.18800		875.00000 
 43692.65567		 305.27265			43387.38302		70.12600		324.00000 
 43692.65567		 710.55253			42982.10314		223.18800		875.00000 
 43692.65567		 305.27265			43387.38302		70.12600		324.00000 
 43692.65567		 710.55253			42982.10314		223.18800		875.00000 
 43692.65567		 305.27265			43387.38302		70.12600		324.00000 
 43692.65567		 710.55253			42982.10314		223.18800		875.00000 
 43692.65567		 305.27265			43387.38302		70.12600		324.00000 
 43692.65567		 710.55253			42982.10314		223.18800		875.00000 
 43692.65567		 305.27265			43387.38302		70.12600		324.00000 
 43692.65567		 710.55253			42982.10314		223.18800		875.00000 
 43692.65567		 305.27265			43387.38302		70.12600		324.00000 
 43692.65567		 710.55253			42982.10314		223.18800		875.00000 
 43692.65567		 305.27265			43387.38302		70.12600		324.00000 
 43692.65567		 710.55253			42982.10314		223.18800		875.00000 
 43692.65567		 305.27265			43387.38302		70.12600		324.00000 
 43692.65567		 710.55253			42982.10314		223.18800		875.00000 
 43692.65567		 305.27265			43387.38302		70.12600		324.00000 
 43692.65567		 710.55253			42982.10314		223.18800		875.00000 
 43692.65567		 305.27265			43387.38302		70.12600		324.00000 
 43692.65567		 710.55253			42982.10314		223.18800		875.00000 
 43692.65567		 305.27265			43387.38302		70.12600		324.00000 
 43692.65567		 710.55253			42982.10314		223.18800		875.00000 
 43692.65567		 305.27265			43387.38302		70.12600		324.00000 
 43692.65567		 710.55253			42982.10314		223.18800		875.00000 
 43692.65567		 305.27265			43387.38302		70.12600		324.00000 
 43692.65567		 710.55253			42982.10314		223.18800		875.00000 
 43692.65567		 305.27265			43387.38302		70.12600		324.00000 
 43692.65567		 710.55253			42982.10314		223.18800		875.00000 
 43692.65567		 305.27265			43387.38302		70.12600		324.00000 
 43692.65567		 710.55253			42982.10314		223.18800		875.00000 
 43692.65567		 305.27265			43387.38302		70.12600		324.00000 
 43692.65567		 710.55253			42982.10314		223.18800		875.00000 
 43692.65567		 305.27265			43387.38302		70.12600		324.00000 
 43692.65567		 710.55253			42982.10314		223.18800		875.00000 
 43692.65567		 305.27265			43387.38302		70.12600		324.00000 
 43692.65567		 710.55253			42982.10314		223.18800		875.00000 
 43692.65567		 305.27265			43387.38302		70.12600		324.00000 
 43692.65567		 710.55253			42982.10314		223.18800		875.00000 
 43692.65567		 305.27265			43387.38302		70.12600		324.00000 
 43692.65567		 710.55253			42982.10314		223.18800		875.00000 
 43692.65567		 305.27265			43387.38302		70.12600		324.00000 
 43692.65567		 710.55253			42982.10314		223.18800		875.00000 
 43692.65567		 305.27265			43387.38302		70.12600		324.00000 
 43692.65567		 710.55253			42982.10314		223.18800		875.00000 
 43692.65567		 305.27265			43387.38302		70.12600		324.00000 
 43692.65567		 710.55253			42982.10314		223.18800		875.00000 
 43692.65567		 305.27265			43387.38302		70.12600		324.00000 
 43692.65567		 710.55253			42982.10314		223.18800		875.00000 
 43692.65567		 305.27265			43387.38302		70.12600		324.00000 
 43692.65567		 710.55253			42982.10314		223.18800		875.00000 
 43692.65567		 305.27265			43387.38302		70.12600		324.00000 
 43692.65567		 710.55253			42982.10314		223.18800		875.00000 
 43692.65567		 305.27265			43387.38302		70.12600		324.00000 
 43692.65567		 710.55253			42982.10314		223.18800		875.00000 
 43692.65567		 305.27265			43387.38302		70.12600		324.00000 
 43692.65567		 710.55253			42982.10314		223.18800		875.00000 
 43692.65567		 305.27265			43387.38302		70.12600		324.00000 
 43692.65567		 710.55253			42982.10314		223.18800		875.00000 
 43692.65567		 305.27265			43387.38302		70.12600		324.00000 
 43692.65567		 710.55253			42982.10314		223.18800		875.00000 
 43692.65567		 305.27265			43387.38302		70.12600		324.00000 
 43692.65567		 710.55253			42982.10314		223.18800		875.00000 
 43692.65567		 305.27265			43387.38302		70.12600		324.00000 
 43692.65567		 710.55253			42982.10314		223.18800		875.00000 
 43692.65567		 305.27265			43387.38302		70.12600		324.00000 
 43692.65567		 710.55253			42982.10314		223.18800		875.00000 
 43692.65567		 305.27265			43387.38302		70.12600		324.00000 
 43692.65567		 710.55253			42982.10314		223.18800		875.00000 
 43692.65567		 305.27265			43387.38302		70.12600		324.00000 
 43692.65567		 710.55253			42982.10314		223.18800		875.00000 
 43692.65567		 305.27265			43387.38302		70.12600		324.00000 
 43692.65567		 710.55253			42982.10314		223.18800		875.00000 
 43692.65567		 305.27265			43387.38302		70.12600		324.00000 
 43692.65567		 710.55253			42982.10314		223.18800		875.00000 
 43692.65567		 305.27265			43387.38302		70.12600		324.00000 
 43692.65567		 710.55253			42982.10314		223.18800		875.00000 
 43692.65567		 305.27265			43387.38302		70.12600		324.00000 
 43692.65567		 710.55253			42982.10314		223.18800		875.00000 
 43692.65567		 305.27265			43387.38302		70.12600		324.00000 
 43692.65567		 710.55253			42982.10314		223.18800		875.00000 
 43692.65567		 305.27265			43387.38302		70.12600		324.00000 
 43692.65567		 710.55253			42982.10314		223.18800		875.00000 
 43692.65567		 305.27265			43387.38302		70.12600		324.00000 
 43692.65567		 710.55253			42982.10314		223.18800		875.00000 
 43692.65567		 305.27265			43387.38302		70.12600		324.00000 
 43692.65567		 710.55253			42982.10314		223.18800		875.00000 
 43692.65567		 305.27265			43387.38302		70.12600		324.00000 
 43692.65567		 710.55253			42982.10314		223.18800		875.00000 
 43692.65567		 305.27265			43387.38302		70.12600		324.00000 
 43692.65567		 710.55253			42982.10314		223.18800		875.00000 
 43692.65567		 305.27265			43387.38302		70.12600		324.00000 
 43692.65567		 710.55253			42982.10314		223.18800		875.00000 
 43692.65567		 305.27265			43387.38302		70.12600		324.00000 
 43692.65567		 710.55253			42982.10314		223.18800		875.00000 
 43692.65567		 305.27265			43387.38302		70.12600		324.00000 
 43692.65567		 710.55253			42982.10314		223.18800		875.00000 
 43692.65567		 305.27265			43387.38302		70.12600		324.00000 
 43692.65567		 710.55253			42982.10314		223.18800		875.00000 
 43692.65567		 305.27265			43387.38302		70.12600		324.00000 
 43692.65567		 710.55253			42982.10314		223.18800		875.00000 
 43692.65567		 305.27265			43387.38302		70.12600		324.00000 
 43692.65567		 710.55253			42982.10314		223.18800		875.00000 
 43692.65567		 305.27265			43387.38302		70.12600		324.00000 
 43692.65567		 710.55253			42982.10314		223.18800		875.00000 
 43692.65567		 305.27265			43387.38302		70.12600		324.00000 
 43692.65567		 710.55253			42982.10314		223.18800		875.00000 
 43692.65567		 305.27265			43387.38302		70.12600		324.00000 
 43692.65567		 710.55253			42982.10314		223.18800		875.00000 
 43692.65567		 305.27265			43387.38302		70.12600		324.00000 
 43692.65567		 710.55253			42982.10314		223.18800		875.00000 
 43692.65567		 305.27265			43387.38302		70.12600		324.00000 
 43692.65567		 710.55253			42982.10314		223.18800		875.00000 
 43692.65567		 305.27265			43387.38302		70.12600		324.00000 
 43692.65567		 710.55253			42982.10314		223.18800		875.00000 
 43692.65567		 305.27265			43387.38302		70.12600		324.00000 
 43692.65567		 710.55253			42982.10314		223.18800		875.00000 
 43692.65567		 305.27265			43387.38302		70.12600		324.00000 
 43692.65567		 652.79180			43039.86388		223.18800		875.00000 
 43692.65567		 305.27265			43387.38302		70.12600		324.00000 
 43692.65567		 595.03106			43097.62461		223.18800		875.00000 
 43692.65567		 305.27265			43387.38302		70.12600		324.00000 
 43692.65567		 537.27032			43155.38535		223.18800		875.00000 
 43692.65567		 305.27265			43387.38302		70.12600		324.00000 
 43692.65567		 537.27032			43155.38535		223.18800		875.00000 
 43692.65567		 305.27265			43387.38302		70.12600		324.00000 
 43692.65567		 537.27032			43155.38535		223.18800		875.00000 
 43692.65567		 305.27265			43387.38302		70.12600		324.00000 
 43692.65567		 537.27032			43155.38535		223.18800		875.00000 
 43692.65567		 305.27265			43387.38302		70.12600		324.00000 
 43692.65567		 537.27032			43155.38535		223.18800		875.00000 
 43692.65567		 305.27265			43387.38302		70.12600		324.00000 
 43692.65567		 537.27032			43155.38535		223.18800		875.00000 
 43692.65567		 305.27265			43387.38302		70.12600		324.00000 
 43692.65567		 537.27032			43155.38535		223.18800		875.00000 
 43692.65567		 305.27265			43387.38302		70.12600		324.00000 
 43692.65567		 537.27032			43155.38535		223.18800		875.00000 
 43692.65567		 305.27265			43387.38302		70.12600		324.00000 
 43692.65567		 537.27032			43155.38535		223.18800		875.00000 
 43692.65567		 305.27265			43387.38302		70.12600		324.00000 
 43692.65567		 537.27032			43155.38535		223.18800		875.00000 
 43692.65567		 305.27265			43387.38302		70.12600		324.00000 
 43692.65567		 537.27032			43155.38535		223.18800		875.00000 
 43692.65567		 305.27265			43387.38302		70.12600		324.00000 
 43692.65567		 537.27032			43155.38535		223.18800		875.00000 
 43692.65567		 305.27265			43387.38302		70.12600		324.00000 
 43692.65567		 537.27032			43155.38535		223.18800		875.00000 
 43692.65567		 305.27265			43387.38302		70.12600		324.00000 
 43692.65567		 537.27032			43155.38535		223.18800		875.00000 
 43692.65567		 305.27265			43387.38302		70.12600		324.00000 
 43692.65567		 537.27032			43155.38535		223.18800		875.00000 
 43692.65567		 305.27265			43387.38302		70.12600		324.00000 
 43692.65567		 537.27032			43155.38535		223.18800		875.00000 
 43692.65567		 305.27265			43387.38302		70.12600		324.00000 
 43692.65567		 537.27032			43155.38535		223.18800		875.00000 
 43692.65567		 305.27265			43387.38302		70.12600		324.00000 
 43692.65567		 537.27032			43155.38535		223.18800		875.00000 
 43692.65567		 305.27265			43387.38302		70.12600		324.00000 
 43692.65567		 537.27032			43155.38535		223.18800		875.00000 
 43692.65567		 305.27265			43387.38302		70.12600		324.00000 
 43692.65567		 537.27032			43155.38535		223.18800		875.00000 
 43692.65567		 305.27265			43387.38302		70.12600		324.00000 
 43692.65567		 537.27032			43155.38535		223.18800		875.00000 
 43692.65567		 305.27265			43387.38302		70.12600		324.00000 
 43692.65567		 525.81365			43166.84203		189.41000		875.00000 
 43692.65567		 297.63487			43395.02080		70.12600		324.00000 
 43692.65567		 261.35540			43431.30027		189.41000		875.00000 
 43692.65567		 261.35540			43431.30027		70.12600		324.00000 
