Memory Total (MiB) 	 Memory Used (MiB) 	    Memory Free (MiB) 	 Power Drawed (W) 	 Clocks (Mhz) 	 
 43692.65567		 261.35540			43431.30027		179.57200		875.00000 
 43692.65567		 261.35540			43431.30027		66.69000		324.00000 
 43692.65567		 261.35540			43431.30027		179.57200		875.00000 
 43692.65567		 261.35540			43431.30027		66.69000		324.00000 
 43692.65567		 261.35540			43431.30027		179.57200		875.00000 
 43692.65567		 261.35540			43431.30027		66.69000		324.00000 
 43692.65567		 261.35540			43431.30027		179.57200		875.00000 
 43692.65567		 261.35540			43431.30027		66.69000		324.00000 
 43692.65567		 261.35540			43431.30027		179.57200		875.00000 
 43692.65567		 261.35540			43431.30027		66.69000		324.00000 
 43692.65567		 261.35540			43431.30027		179.57200		875.00000 
 43692.65567		 261.35540			43431.30027		66.69000		324.00000 
 43692.65567		 261.35540			43431.30027		179.57200		875.00000 
 43692.65567		 261.35540			43431.30027		66.69000		324.00000 
 43692.65567		 261.35540			43431.30027		179.57200		875.00000 
 43692.65567		 261.35540			43431.30027		66.69000		324.00000 
 43692.65567		 261.35540			43431.30027		179.57200		875.00000 
 43692.65567		 261.35540			43431.30027		66.69000		324.00000 
 43692.65567		 261.35540			43431.30027		179.57200		875.00000 
 43692.65567		 261.35540			43431.30027		66.69000		324.00000 
 43692.65567		 261.35540			43431.30027		179.57200		875.00000 
 43692.65567		 261.35540			43431.30027		66.69000		324.00000 
 43692.65567		 261.35540			43431.30027		179.57200		875.00000 
 43692.65567		 261.35540			43431.30027		66.69000		324.00000 
 43692.65567		 261.35540			43431.30027		179.57200		875.00000 
 43692.65567		 261.35540			43431.30027		66.69000		324.00000 
 43692.65567		 261.35540			43431.30027		179.57200		875.00000 
 43692.65567		 261.35540			43431.30027		66.69000		324.00000 
 43692.65567		 261.35540			43431.30027		179.57200		875.00000 
 43692.65567		 261.35540			43431.30027		66.69000		324.00000 
 43692.65567		 261.35540			43431.30027		179.57200		875.00000 
 43692.65567		 261.35540			43431.30027		66.69000		324.00000 
 43692.65567		 261.35540			43431.30027		179.57200		875.00000 
 43692.65567		 261.35540			43431.30027		66.69000		324.00000 
 43692.65567		 265.17429			43427.48138		179.57200		875.00000 
 43692.65567		 261.35540			43431.30027		66.69000		324.00000 
 43692.65567		 265.17429			43427.48138		179.57200		875.00000 
 43692.65567		 261.35540			43431.30027		66.69000		324.00000 
 43692.65567		 272.81207			43419.84360		179.57200		875.00000 
 43692.65567		 261.35540			43431.30027		66.69000		324.00000 
 43692.65567		 272.81207			43419.84360		179.57200		875.00000 
 43692.65567		 261.35540			43431.30027		66.69000		324.00000 
 43692.65567		 272.81207			43419.84360		179.57200		875.00000 
 43692.65567		 265.17429			43427.48138		66.69000		324.00000 
 43692.65567		 272.81207			43419.84360		179.57200		875.00000 
 43692.65567		 265.17429			43427.48138		66.69000		324.00000 
 43692.65567		 272.81207			43419.84360		179.57200		875.00000 
 43692.65567		 265.17429			43427.48138		66.69000		324.00000 
 43692.65567		 272.81207			43419.84360		179.57200		875.00000 
 43692.65567		 272.81207			43419.84360		66.69000		324.00000 
 43692.65567		 272.81207			43419.84360		179.57200		875.00000 
 43692.65567		 272.81207			43419.84360		66.69000		324.00000 
 43692.65567		 272.81207			43419.84360		179.57200		875.00000 
 43692.65567		 272.81207			43419.84360		66.69000		324.00000 
 43692.65567		 305.27265			43387.38302		179.57200		875.00000 
 43692.65567		 305.27265			43387.38302		66.69000		324.00000 
 43692.65567		 305.27265			43387.38302		179.57200		875.00000 
 43692.65567		 305.27265			43387.38302		66.69000		324.00000 
 43692.65567		 305.27265			43387.38302		149.70000		875.00000 
 43692.65567		 305.27265			43387.38302		66.69000		324.00000 
 43692.65567		 305.27265			43387.38302		149.70000		875.00000 
 43692.65567		 305.27265			43387.38302		66.69000		324.00000 
 43692.65567		 305.27265			43387.38302		149.70000		875.00000 
 43692.65567		 305.27265			43387.38302		66.69000		324.00000 
 43692.65567		 309.09154			43383.56413		149.70000		875.00000 
 43692.65567		 305.27265			43387.38302		66.69000		324.00000 
 43692.65567		 310.52363			43382.13204		149.70000		875.00000 
 43692.65567		 305.27265			43387.38302		66.69000		324.00000 
 43692.65567		 311.00099			43381.65468		149.70000		875.00000 
 43692.65567		 305.27265			43387.38302		66.69000		324.00000 
 43692.65567		 311.00099			43381.65468		149.70000		875.00000 
 43692.65567		 305.27265			43387.38302		66.69000		324.00000 
 43692.65567		 311.00099			43381.65468		149.70000		875.00000 
 43692.65567		 305.27265			43387.38302		66.69000		324.00000 
 43692.65567		 311.00099			43381.65468		149.70000		875.00000 
 43692.65567		 305.27265			43387.38302		66.69000		324.00000 
 43692.65567		 311.00099			43381.65468		149.70000		875.00000 
 43692.65567		 305.27265			43387.38302		66.69000		324.00000 
 43692.65567		 311.00099			43381.65468		149.70000		875.00000 
 43692.65567		 305.27265			43387.38302		66.69000		324.00000 
 43692.65567		 311.00099			43381.65468		149.70000		875.00000 
 43692.65567		 305.27265			43387.38302		66.69000		324.00000 
 43692.65567		 311.00099			43381.65468		149.70000		875.00000 
 43692.65567		 305.27265			43387.38302		66.69000		324.00000 
 43692.65567		 311.00099			43381.65468		149.70000		875.00000 
 43692.65567		 305.27265			43387.38302		66.69000		324.00000 
 43692.65567		 311.00099			43381.65468		149.70000		875.00000 
 43692.65567		 305.27265			43387.38302		66.69000		324.00000 
 43692.65567		 311.00099			43381.65468		149.70000		875.00000 
 43692.65567		 305.27265			43387.38302		66.69000		324.00000 
 43692.65567		 311.00099			43381.65468		149.70000		875.00000 
 43692.65567		 305.27265			43387.38302		66.69000		324.00000 
 43692.65567		 311.00099			43381.65468		149.70000		875.00000 
 43692.65567		 305.27265			43387.38302		66.69000		324.00000 
 43692.65567		 311.00099			43381.65468		149.70000		875.00000 
 43692.65567		 305.27265			43387.38302		66.69000		324.00000 
 43692.65567		 311.00099			43381.65468		149.70000		875.00000 
 43692.65567		 305.27265			43387.38302		66.69000		324.00000 
 43692.65567		 311.00099			43381.65468		149.70000		875.00000 
 43692.65567		 305.27265			43387.38302		66.69000		324.00000 
 43692.65567		 311.00099			43381.65468		149.70000		875.00000 
 43692.65567		 305.27265			43387.38302		66.69000		324.00000 
 43692.65567		 311.00099			43381.65468		149.70000		875.00000 
 43692.65567		 305.27265			43387.38302		66.69000		324.00000 
 43692.65567		 311.00099			43381.65468		149.70000		875.00000 
 43692.65567		 305.27265			43387.38302		66.69000		324.00000 
 43692.65567		 311.00099			43381.65468		149.70000		875.00000 
 43692.65567		 305.27265			43387.38302		66.69000		324.00000 
 43692.65567		 311.00099			43381.65468		149.70000		875.00000 
 43692.65567		 305.27265			43387.38302		66.69000		324.00000 
 43692.65567		 311.00099			43381.65468		149.70000		875.00000 
 43692.65567		 305.27265			43387.38302		66.69000		324.00000 
 43692.65567		 311.00099			43381.65468		149.70000		875.00000 
 43692.65567		 305.27265			43387.38302		66.69000		324.00000 
 43692.65567		 311.00099			43381.65468		149.70000		875.00000 
 43692.65567		 305.27265			43387.38302		66.69000		324.00000 
 43692.65567		 311.00099			43381.65468		149.70000		875.00000 
 43692.65567		 305.27265			43387.38302		66.69000		324.00000 
 43692.65567		 311.00099			43381.65468		149.70000		875.00000 
 43692.65567		 305.27265			43387.38302		66.69000		324.00000 
 43692.65567		 311.00099			43381.65468		149.70000		875.00000 
 43692.65567		 305.27265			43387.38302		66.69000		324.00000 
 43692.65567		 311.00099			43381.65468		149.70000		875.00000 
 43692.65567		 305.27265			43387.38302		66.69000		324.00000 
 43692.65567		 311.00099			43381.65468		138.25400		875.00000 
 43692.65567		 305.27265			43387.38302		66.69000		324.00000 
 43692.65567		 311.00099			43381.65468		138.25400		875.00000 
 43692.65567		 305.27265			43387.38302		66.69000		324.00000 
 43692.65567		 311.00099			43381.65468		138.25400		875.00000 
 43692.65567		 305.27265			43387.38302		66.69000		324.00000 
 43692.65567		 311.00099			43381.65468		138.25400		875.00000 
 43692.65567		 305.27265			43387.38302		66.69000		324.00000 
 43692.65567		 311.00099			43381.65468		138.25400		875.00000 
 43692.65567		 305.27265			43387.38302		66.69000		324.00000 
 43692.65567		 311.00099			43381.65468		138.25400		875.00000 
 43692.65567		 305.27265			43387.38302		66.69000		324.00000 
 43692.65567		 311.00099			43381.65468		138.25400		875.00000 
 43692.65567		 305.27265			43387.38302		66.69000		324.00000 
 43692.65567		 311.00099			43381.65468		138.25400		875.00000 
 43692.65567		 305.27265			43387.38302		66.69000		324.00000 
 43692.65567		 311.00099			43381.65468		138.25400		875.00000 
 43692.65567		 305.27265			43387.38302		66.69000		324.00000 
 43692.65567		 311.00099			43381.65468		138.25400		875.00000 
 43692.65567		 305.27265			43387.38302		66.69000		324.00000 
 43692.65567		 311.00099			43381.65468		138.25400		875.00000 
 43692.65567		 305.27265			43387.38302		66.69000		324.00000 
 43692.65567		 311.00099			43381.65468		138.25400		875.00000 
 43692.65567		 305.27265			43387.38302		66.69000		324.00000 
 43692.65567		 311.00099			43381.65468		138.25400		875.00000 
 43692.65567		 305.27265			43387.38302		66.69000		324.00000 
 43692.65567		 311.00099			43381.65468		138.25400		875.00000 
 43692.65567		 305.27265			43387.38302		66.69000		324.00000 
 43692.65567		 311.00099			43381.65468		138.25400		875.00000 
 43692.65567		 305.27265			43387.38302		66.69000		324.00000 
 43692.65567		 311.00099			43381.65468		138.25400		875.00000 
 43692.65567		 305.27265			43387.38302		66.69000		324.00000 
 43692.65567		 311.00099			43381.65468		138.25400		875.00000 
 43692.65567		 305.27265			43387.38302		66.69000		324.00000 
 43692.65567		 311.00099			43381.65468		138.25400		875.00000 
 43692.65567		 305.27265			43387.38302		66.69000		324.00000 
 43692.65567		 311.00099			43381.65468		138.25400		875.00000 
 43692.65567		 305.27265			43387.38302		66.69000		324.00000 
 43692.65567		 311.00099			43381.65468		138.25400		875.00000 
 43692.65567		 305.27265			43387.38302		66.69000		324.00000 
 43692.65567		 311.00099			43381.65468		138.25400		875.00000 
 43692.65567		 305.27265			43387.38302		66.69000		324.00000 
 43692.65567		 311.00099			43381.65468		138.25400		875.00000 
 43692.65567		 305.27265			43387.38302		66.69000		324.00000 
 43692.65567		 311.00099			43381.65468		138.25400		875.00000 
 43692.65567		 305.27265			43387.38302		66.69000		324.00000 
 43692.65567		 314.81988			43377.83579		138.25400		875.00000 
 43692.65567		 305.27265			43387.38302		66.69000		324.00000 
 43692.65567		 314.81988			43377.83579		138.25400		875.00000 
 43692.65567		 305.27265			43387.38302		66.69000		324.00000 
 43692.65567		 314.81988			43377.83579		138.25400		875.00000 
 43692.65567		 305.27265			43387.38302		66.69000		324.00000 
 43692.65567		 318.63877			43374.01690		138.25400		875.00000 
 43692.65567		 305.27265			43387.38302		66.69000		324.00000 
 43692.65567		 322.45767			43370.19801		138.25400		875.00000 
 43692.65567		 305.27265			43387.38302		66.69000		324.00000 
 43692.65567		 326.27656			43366.37912		138.25400		875.00000 
 43692.65567		 305.27265			43387.38302		66.69000		324.00000 
 43692.65567		 326.27656			43366.37912		138.25400		875.00000 
 43692.65567		 305.27265			43387.38302		66.69000		324.00000 
 43692.65567		 326.27656			43366.37912		138.25400		875.00000 
 43692.65567		 305.27265			43387.38302		66.69000		324.00000 
 43692.65567		 537.27032			43155.38535		138.25400		875.00000 
 43692.65567		 305.27265			43387.38302		66.69000		324.00000 
 43692.65567		 563.52520			43129.13047		138.25400		875.00000 
 43692.65567		 305.27265			43387.38302		66.69000		324.00000 
 43692.65567		 616.03496			43076.62071		138.25400		875.00000 
 43692.65567		 305.27265			43387.38302		66.69000		324.00000 
 43692.65567		 616.03496			43076.62071		135.80200		875.00000 
 43692.65567		 305.27265			43387.38302		66.69000		324.00000 
 43692.65567		 616.03496			43076.62071		135.80200		875.00000 
 43692.65567		 305.27265			43387.38302		66.69000		324.00000 
 43692.65567		 616.03496			43076.62071		135.80200		875.00000 
 43692.65567		 305.27265			43387.38302		66.69000		324.00000 
 43692.65567		 616.03496			43076.62071		135.80200		875.00000 
 43692.65567		 305.27265			43387.38302		66.69000		324.00000 
 43692.65567		 616.03496			43076.62071		135.80200		875.00000 
 43692.65567		 305.27265			43387.38302		66.69000		324.00000 
 43692.65567		 616.03496			43076.62071		135.80200		875.00000 
 43692.65567		 305.27265			43387.38302		66.69000		324.00000 
 43692.65567		 616.03496			43076.62071		135.80200		875.00000 
 43692.65567		 305.27265			43387.38302		66.69000		324.00000 
 43692.65567		 616.03496			43076.62071		135.80200		875.00000 
 43692.65567		 305.27265			43387.38302		66.69000		324.00000 
 43692.65567		 616.03496			43076.62071		135.80200		875.00000 
 43692.65567		 305.27265			43387.38302		66.69000		324.00000 
 43692.65567		 616.03496			43076.62071		135.80200		875.00000 
 43692.65567		 305.27265			43387.38302		66.69000		324.00000 
 43692.65567		 616.03496			43076.62071		135.80200		875.00000 
 43692.65567		 305.27265			43387.38302		66.69000		324.00000 
 43692.65567		 616.03496			43076.62071		135.80200		875.00000 
 43692.65567		 305.27265			43387.38302		66.69000		324.00000 
 43692.65567		 616.03496			43076.62071		135.80200		875.00000 
 43692.65567		 305.27265			43387.38302		66.69000		324.00000 
 43692.65567		 616.03496			43076.62071		135.80200		875.00000 
 43692.65567		 305.27265			43387.38302		66.69000		324.00000 
 43692.65567		 616.03496			43076.62071		135.80200		875.00000 
 43692.65567		 305.27265			43387.38302		66.69000		324.00000 
 43692.65567		 616.03496			43076.62071		135.80200		875.00000 
 43692.65567		 305.27265			43387.38302		66.69000		324.00000 
 43692.65567		 616.03496			43076.62071		135.80200		875.00000 
 43692.65567		 305.27265			43387.38302		66.69000		324.00000 
 43692.65567		 616.03496			43076.62071		135.80200		875.00000 
 43692.65567		 305.27265			43387.38302		66.69000		324.00000 
 43692.65567		 616.03496			43076.62071		135.80200		875.00000 
 43692.65567		 305.27265			43387.38302		66.69000		324.00000 
 43692.65567		 616.03496			43076.62071		135.80200		875.00000 
 43692.65567		 305.27265			43387.38302		66.69000		324.00000 
 43692.65567		 616.03496			43076.62071		135.80200		875.00000 
 43692.65567		 305.27265			43387.38302		66.69000		324.00000 
 43692.65567		 616.03496			43076.62071		135.80200		875.00000 
 43692.65567		 305.27265			43387.38302		66.69000		324.00000 
 43692.65567		 616.03496			43076.62071		135.80200		875.00000 
 43692.65567		 305.27265			43387.38302		66.69000		324.00000 
 43692.65567		 616.03496			43076.62071		135.80200		875.00000 
 43692.65567		 305.27265			43387.38302		66.69000		324.00000 
 43692.65567		 616.03496			43076.62071		135.80200		875.00000 
 43692.65567		 305.27265			43387.38302		66.69000		324.00000 
 43692.65567		 616.03496			43076.62071		135.80200		875.00000 
 43692.65567		 305.27265			43387.38302		66.69000		324.00000 
 43692.65567		 616.03496			43076.62071		135.80200		875.00000 
 43692.65567		 305.27265			43387.38302		66.69000		324.00000 
 43692.65567		 616.03496			43076.62071		135.80200		875.00000 
 43692.65567		 305.27265			43387.38302		66.69000		324.00000 
 43692.65567		 616.03496			43076.62071		135.80200		875.00000 
 43692.65567		 305.27265			43387.38302		66.69000		324.00000 
 43692.65567		 616.03496			43076.62071		135.80200		875.00000 
 43692.65567		 305.27265			43387.38302		66.69000		324.00000 
 43692.65567		 616.03496			43076.62071		135.80200		875.00000 
 43692.65567		 305.27265			43387.38302		66.69000		324.00000 
 43692.65567		 616.03496			43076.62071		135.80200		875.00000 
 43692.65567		 305.27265			43387.38302		66.69000		324.00000 
 43692.65567		 616.03496			43076.62071		135.80200		875.00000 
 43692.65567		 305.27265			43387.38302		66.69000		324.00000 
 43692.65567		 616.03496			43076.62071		135.80200		875.00000 
 43692.65567		 305.27265			43387.38302		66.69000		324.00000 
 43692.65567		 616.03496			43076.62071		135.80200		875.00000 
 43692.65567		 305.27265			43387.38302		66.69000		324.00000 
 43692.65567		 616.03496			43076.62071		135.80200		875.00000 
 43692.65567		 305.27265			43387.38302		66.69000		324.00000 
 43692.65567		 616.03496			43076.62071		135.80200		875.00000 
 43692.65567		 305.27265			43387.38302		66.69000		324.00000 
 43692.65567		 616.03496			43076.62071		135.80200		875.00000 
 43692.65567		 305.27265			43387.38302		66.69000		324.00000 
 43692.65567		 616.03496			43076.62071		135.80200		875.00000 
 43692.65567		 305.27265			43387.38302		66.69000		324.00000 
 43692.65567		 616.03496			43076.62071		135.80200		875.00000 
 43692.65567		 305.27265			43387.38302		66.69000		324.00000 
 43692.65567		 616.03496			43076.62071		135.80200		875.00000 
 43692.65567		 305.27265			43387.38302		66.69000		324.00000 
 43692.65567		 616.03496			43076.62071		135.80200		875.00000 
 43692.65567		 305.27265			43387.38302		66.69000		324.00000 
 43692.65567		 616.03496			43076.62071		135.80200		875.00000 
 43692.65567		 305.27265			43387.38302		66.69000		324.00000 
 43692.65567		 616.03496			43076.62071		135.80200		875.00000 
 43692.65567		 305.27265			43387.38302		66.69000		324.00000 
 43692.65567		 616.03496			43076.62071		135.80200		875.00000 
 43692.65567		 305.27265			43387.38302		66.69000		324.00000 
 43692.65567		 616.03496			43076.62071		135.80200		875.00000 
 43692.65567		 305.27265			43387.38302		66.69000		324.00000 
 43692.65567		 616.03496			43076.62071		135.80200		875.00000 
 43692.65567		 305.27265			43387.38302		66.69000		324.00000 
 43692.65567		 616.03496			43076.62071		135.80200		875.00000 
 43692.65567		 305.27265			43387.38302		66.69000		324.00000 
 43692.65567		 616.03496			43076.62071		135.80200		875.00000 
 43692.65567		 305.27265			43387.38302		66.69000		324.00000 
 43692.65567		 616.03496			43076.62071		135.80200		875.00000 
 43692.65567		 305.27265			43387.38302		66.69000		324.00000 
 43692.65567		 616.03496			43076.62071		135.80200		875.00000 
 43692.65567		 305.27265			43387.38302		66.69000		324.00000 
 43692.65567		 616.03496			43076.62071		135.80200		875.00000 
 43692.65567		 305.27265			43387.38302		66.69000		324.00000 
 43692.65567		 616.03496			43076.62071		135.80200		875.00000 
 43692.65567		 305.27265			43387.38302		66.69000		324.00000 
 43692.65567		 616.03496			43076.62071		135.80200		875.00000 
 43692.65567		 305.27265			43387.38302		66.69000		324.00000 
 43692.65567		 616.03496			43076.62071		135.80200		875.00000 
 43692.65567		 305.27265			43387.38302		66.69000		324.00000 
 43692.65567		 616.03496			43076.62071		135.80200		875.00000 
 43692.65567		 305.27265			43387.38302		66.69000		324.00000 
 43692.65567		 616.03496			43076.62071		135.80200		875.00000 
 43692.65567		 305.27265			43387.38302		66.69000		324.00000 
 43692.65567		 616.03496			43076.62071		135.80200		875.00000 
 43692.65567		 305.27265			43387.38302		66.69000		324.00000 
 43692.65567		 616.03496			43076.62071		135.80200		875.00000 
 43692.65567		 305.27265			43387.38302		66.69000		324.00000 
 43692.65567		 616.03496			43076.62071		135.80200		875.00000 
 43692.65567		 305.27265			43387.38302		66.69000		324.00000 
 43692.65567		 616.03496			43076.62071		135.80200		875.00000 
 43692.65567		 305.27265			43387.38302		66.69000		324.00000 
 43692.65567		 616.03496			43076.62071		135.80200		875.00000 
 43692.65567		 305.27265			43387.38302		66.69000		324.00000 
 43692.65567		 616.03496			43076.62071		135.80200		875.00000 
 43692.65567		 305.27265			43387.38302		66.69000		324.00000 
 43692.65567		 616.03496			43076.62071		135.80200		875.00000 
 43692.65567		 305.27265			43387.38302		66.69000		324.00000 
 43692.65567		 616.03496			43076.62071		185.06400		875.00000 
 43692.65567		 305.27265			43387.38302		66.69000		324.00000 
 43692.65567		 616.03496			43076.62071		185.06400		875.00000 
 43692.65567		 305.27265			43387.38302		66.69000		324.00000 
 43692.65567		 616.03496			43076.62071		185.06400		875.00000 
 43692.65567		 305.27265			43387.38302		66.69000		324.00000 
 43692.65567		 616.03496			43076.62071		185.06400		875.00000 
 43692.65567		 305.27265			43387.38302		66.69000		324.00000 
 43692.65567		 616.03496			43076.62071		185.06400		875.00000 
 43692.65567		 305.27265			43387.38302		66.69000		324.00000 
 43692.65567		 616.03496			43076.62071		185.06400		875.00000 
 43692.65567		 305.27265			43387.38302		66.69000		324.00000 
 43692.65567		 616.03496			43076.62071		185.06400		875.00000 
 43692.65567		 305.27265			43387.38302		66.69000		324.00000 
 43692.65567		 616.03496			43076.62071		185.06400		875.00000 
 43692.65567		 305.27265			43387.38302		66.69000		324.00000 
 43692.65567		 616.03496			43076.62071		185.06400		875.00000 
 43692.65567		 305.27265			43387.38302		66.69000		324.00000 
 43692.65567		 616.03496			43076.62071		185.06400		875.00000 
 43692.65567		 305.27265			43387.38302		66.69000		324.00000 
 43692.65567		 616.03496			43076.62071		185.06400		875.00000 
 43692.65567		 305.27265			43387.38302		66.69000		324.00000 
 43692.65567		 616.03496			43076.62071		185.06400		875.00000 
 43692.65567		 305.27265			43387.38302		66.69000		324.00000 
 43692.65567		 616.03496			43076.62071		185.06400		875.00000 
 43692.65567		 305.27265			43387.38302		66.69000		324.00000 
 43692.65567		 616.03496			43076.62071		185.06400		875.00000 
 43692.65567		 305.27265			43387.38302		66.69000		324.00000 
 43692.65567		 616.03496			43076.62071		185.06400		875.00000 
 43692.65567		 305.27265			43387.38302		66.69000		324.00000 
 43692.65567		 616.03496			43076.62071		185.06400		875.00000 
 43692.65567		 305.27265			43387.38302		66.69000		324.00000 
 43692.65567		 616.03496			43076.62071		185.06400		875.00000 
 43692.65567		 305.27265			43387.38302		66.69000		324.00000 
 43692.65567		 616.03496			43076.62071		185.06400		875.00000 
 43692.65567		 305.27265			43387.38302		66.69000		324.00000 
 43692.65567		 616.03496			43076.62071		185.06400		875.00000 
 43692.65567		 305.27265			43387.38302		66.69000		324.00000 
 43692.65567		 616.03496			43076.62071		185.06400		875.00000 
 43692.65567		 305.27265			43387.38302		66.69000		324.00000 
 43692.65567		 616.03496			43076.62071		185.06400		875.00000 
 43692.65567		 305.27265			43387.38302		66.69000		324.00000 
 43692.65567		 616.03496			43076.62071		185.06400		875.00000 
 43692.65567		 305.27265			43387.38302		66.69000		324.00000 
 43692.65567		 616.03496			43076.62071		185.06400		875.00000 
 43692.65567		 305.27265			43387.38302		66.69000		324.00000 
 43692.65567		 616.03496			43076.62071		185.06400		875.00000 
 43692.65567		 305.27265			43387.38302		66.69000		324.00000 
 43692.65567		 616.03496			43076.62071		185.06400		875.00000 
 43692.65567		 305.27265			43387.38302		66.69000		324.00000 
 43692.65567		 616.03496			43076.62071		185.06400		875.00000 
 43692.65567		 305.27265			43387.38302		66.69000		324.00000 
 43692.65567		 616.03496			43076.62071		185.06400		875.00000 
 43692.65567		 305.27265			43387.38302		66.69000		324.00000 
 43692.65567		 616.03496			43076.62071		185.06400		875.00000 
 43692.65567		 305.27265			43387.38302		66.69000		324.00000 
 43692.65567		 616.03496			43076.62071		185.06400		875.00000 
 43692.65567		 305.27265			43387.38302		66.69000		324.00000 
 43692.65567		 616.03496			43076.62071		185.06400		875.00000 
 43692.65567		 305.27265			43387.38302		66.69000		324.00000 
 43692.65567		 616.03496			43076.62071		185.06400		875.00000 
 43692.65567		 305.27265			43387.38302		66.69000		324.00000 
 43692.65567		 616.03496			43076.62071		185.06400		875.00000 
 43692.65567		 305.27265			43387.38302		66.69000		324.00000 
 43692.65567		 616.03496			43076.62071		185.06400		875.00000 
 43692.65567		 305.27265			43387.38302		66.69000		324.00000 
 43692.65567		 616.03496			43076.62071		185.06400		875.00000 
 43692.65567		 305.27265			43387.38302		66.69000		324.00000 
 43692.65567		 616.03496			43076.62071		185.06400		875.00000 
 43692.65567		 305.27265			43387.38302		66.69000		324.00000 
 43692.65567		 616.03496			43076.62071		185.06400		875.00000 
 43692.65567		 305.27265			43387.38302		66.69000		324.00000 
 43692.65567		 616.03496			43076.62071		185.06400		875.00000 
 43692.65567		 305.27265			43387.38302		66.69000		324.00000 
 43692.65567		 616.03496			43076.62071		185.06400		875.00000 
 43692.65567		 305.27265			43387.38302		66.69000		324.00000 
 43692.65567		 616.03496			43076.62071		185.06400		875.00000 
 43692.65567		 305.27265			43387.38302		66.69000		324.00000 
 43692.65567		 616.03496			43076.62071		185.06400		875.00000 
 43692.65567		 305.27265			43387.38302		66.69000		324.00000 
 43692.65567		 616.03496			43076.62071		185.06400		875.00000 
 43692.65567		 305.27265			43387.38302		66.69000		324.00000 
 43692.65567		 616.03496			43076.62071		185.06400		875.00000 
 43692.65567		 305.27265			43387.38302		66.69000		324.00000 
 43692.65567		 616.03496			43076.62071		185.06400		875.00000 
 43692.65567		 305.27265			43387.38302		66.69000		324.00000 
 43692.65567		 616.03496			43076.62071		185.06400		875.00000 
 43692.65567		 305.27265			43387.38302		66.69000		324.00000 
 43692.65567		 616.03496			43076.62071		185.06400		875.00000 
 43692.65567		 305.27265			43387.38302		66.69000		324.00000 
 43692.65567		 616.03496			43076.62071		185.06400		875.00000 
 43692.65567		 305.27265			43387.38302		66.69000		324.00000 
 43692.65567		 616.03496			43076.62071		185.06400		875.00000 
 43692.65567		 305.27265			43387.38302		66.69000		324.00000 
 43692.65567		 616.03496			43076.62071		185.06400		875.00000 
 43692.65567		 305.27265			43387.38302		66.69000		324.00000 
 43692.65567		 616.03496			43076.62071		185.06400		875.00000 
 43692.65567		 305.27265			43387.38302		66.69000		324.00000 
 43692.65567		 616.03496			43076.62071		185.06400		875.00000 
 43692.65567		 305.27265			43387.38302		66.69000		324.00000 
 43692.65567		 616.03496			43076.62071		185.06400		875.00000 
 43692.65567		 305.27265			43387.38302		66.69000		324.00000 
 43692.65567		 616.03496			43076.62071		185.06400		875.00000 
 43692.65567		 305.27265			43387.38302		66.69000		324.00000 
 43692.65567		 616.03496			43076.62071		185.06400		875.00000 
 43692.65567		 305.27265			43387.38302		66.69000		324.00000 
 43692.65567		 616.03496			43076.62071		185.06400		875.00000 
 43692.65567		 305.27265			43387.38302		66.69000		324.00000 
 43692.65567		 616.03496			43076.62071		185.06400		875.00000 
 43692.65567		 305.27265			43387.38302		66.69000		324.00000 
 43692.65567		 616.03496			43076.62071		185.06400		875.00000 
 43692.65567		 305.27265			43387.38302		66.69000		324.00000 
 43692.65567		 616.03496			43076.62071		185.06400		875.00000 
 43692.65567		 305.27265			43387.38302		66.69000		324.00000 
 43692.65567		 616.03496			43076.62071		185.06400		875.00000 
 43692.65567		 305.27265			43387.38302		66.69000		324.00000 
 43692.65567		 616.03496			43076.62071		185.06400		875.00000 
 43692.65567		 305.27265			43387.38302		66.69000		324.00000 
 43692.65567		 616.03496			43076.62071		185.06400		875.00000 
 43692.65567		 305.27265			43387.38302		66.69000		324.00000 
 43692.65567		 616.03496			43076.62071		185.06400		875.00000 
 43692.65567		 305.27265			43387.38302		66.69000		324.00000 
 43692.65567		 616.03496			43076.62071		185.06400		875.00000 
 43692.65567		 305.27265			43387.38302		66.69000		324.00000 
 43692.65567		 616.03496			43076.62071		185.06400		875.00000 
 43692.65567		 305.27265			43387.38302		66.69000		324.00000 
 43692.65567		 616.03496			43076.62071		185.06400		875.00000 
 43692.65567		 305.27265			43387.38302		66.69000		324.00000 
 43692.65567		 616.03496			43076.62071		185.06400		875.00000 
 43692.65567		 305.27265			43387.38302		66.69000		324.00000 
 43692.65567		 616.03496			43076.62071		204.78200		875.00000 
 43692.65567		 305.27265			43387.38302		66.69000		324.00000 
 43692.65567		 616.03496			43076.62071		204.78200		875.00000 
 43692.65567		 305.27265			43387.38302		66.69000		324.00000 
 43692.65567		 616.03496			43076.62071		204.78200		875.00000 
 43692.65567		 305.27265			43387.38302		66.69000		324.00000 
 43692.65567		 616.03496			43076.62071		204.78200		875.00000 
 43692.65567		 305.27265			43387.38302		66.69000		324.00000 
 43692.65567		 616.03496			43076.62071		204.78200		875.00000 
 43692.65567		 305.27265			43387.38302		66.69000		324.00000 
 43692.65567		 616.03496			43076.62071		204.78200		875.00000 
 43692.65567		 305.27265			43387.38302		66.69000		324.00000 
 43692.65567		 616.03496			43076.62071		204.78200		875.00000 
 43692.65567		 305.27265			43387.38302		66.69000		324.00000 
 43692.65567		 616.03496			43076.62071		204.78200		875.00000 
 43692.65567		 305.27265			43387.38302		66.69000		324.00000 
 43692.65567		 616.03496			43076.62071		204.78200		875.00000 
 43692.65567		 305.27265			43387.38302		66.69000		324.00000 
 43692.65567		 616.03496			43076.62071		204.78200		875.00000 
 43692.65567		 305.27265			43387.38302		66.69000		324.00000 
 43692.65567		 616.03496			43076.62071		204.78200		875.00000 
 43692.65567		 305.27265			43387.38302		66.69000		324.00000 
 43692.65567		 616.03496			43076.62071		204.78200		875.00000 
 43692.65567		 305.27265			43387.38302		68.57000		324.00000 
 43692.65567		 616.03496			43076.62071		204.78200		875.00000 
 43692.65567		 305.27265			43387.38302		68.57000		324.00000 
 43692.65567		 616.03496			43076.62071		204.78200		875.00000 
 43692.65567		 305.27265			43387.38302		68.57000		324.00000 
 43692.65567		 616.03496			43076.62071		204.78200		875.00000 
 43692.65567		 305.27265			43387.38302		68.57000		324.00000 
 43692.65567		 616.03496			43076.62071		204.78200		875.00000 
 43692.65567		 305.27265			43387.38302		68.57000		324.00000 
 43692.65567		 616.03496			43076.62071		204.78200		875.00000 
 43692.65567		 305.27265			43387.38302		68.57000		324.00000 
 43692.65567		 616.03496			43076.62071		204.78200		875.00000 
 43692.65567		 305.27265			43387.38302		68.57000		324.00000 
 43692.65567		 616.03496			43076.62071		204.78200		875.00000 
 43692.65567		 305.27265			43387.38302		68.57000		324.00000 
 43692.65567		 616.03496			43076.62071		204.78200		875.00000 
 43692.65567		 305.27265			43387.38302		68.57000		324.00000 
 43692.65567		 616.03496			43076.62071		204.78200		875.00000 
 43692.65567		 305.27265			43387.38302		68.57000		324.00000 
 43692.65567		 616.03496			43076.62071		204.78200		875.00000 
 43692.65567		 305.27265			43387.38302		68.57000		324.00000 
 43692.65567		 616.03496			43076.62071		204.78200		875.00000 
 43692.65567		 305.27265			43387.38302		68.57000		324.00000 
 43692.65567		 616.03496			43076.62071		204.78200		875.00000 
 43692.65567		 305.27265			43387.38302		68.57000		324.00000 
 43692.65567		 616.03496			43076.62071		204.78200		875.00000 
 43692.65567		 305.27265			43387.38302		68.57000		324.00000 
 43692.65567		 616.03496			43076.62071		204.78200		875.00000 
 43692.65567		 305.27265			43387.38302		68.57000		324.00000 
 43692.65567		 616.03496			43076.62071		204.78200		875.00000 
 43692.65567		 305.27265			43387.38302		68.57000		324.00000 
 43692.65567		 616.03496			43076.62071		204.78200		875.00000 
 43692.65567		 305.27265			43387.38302		68.57000		324.00000 
 43692.65567		 616.03496			43076.62071		204.78200		875.00000 
 43692.65567		 305.27265			43387.38302		68.57000		324.00000 
 43692.65567		 616.03496			43076.62071		204.78200		875.00000 
 43692.65567		 305.27265			43387.38302		68.57000		324.00000 
 43692.65567		 616.03496			43076.62071		204.78200		875.00000 
 43692.65567		 305.27265			43387.38302		68.57000		324.00000 
 43692.65567		 616.03496			43076.62071		204.78200		875.00000 
 43692.65567		 305.27265			43387.38302		68.57000		324.00000 
 43692.65567		 616.03496			43076.62071		204.78200		875.00000 
 43692.65567		 305.27265			43387.38302		68.57000		324.00000 
 43692.65567		 616.03496			43076.62071		204.78200		875.00000 
 43692.65567		 305.27265			43387.38302		68.57000		324.00000 
 43692.65567		 616.03496			43076.62071		204.78200		875.00000 
 43692.65567		 305.27265			43387.38302		68.57000		324.00000 
 43692.65567		 616.03496			43076.62071		204.78200		875.00000 
 43692.65567		 305.27265			43387.38302		68.57000		324.00000 
 43692.65567		 616.03496			43076.62071		204.78200		875.00000 
 43692.65567		 305.27265			43387.38302		68.57000		324.00000 
 43692.65567		 616.03496			43076.62071		204.78200		875.00000 
 43692.65567		 305.27265			43387.38302		68.57000		324.00000 
 43692.65567		 616.03496			43076.62071		204.78200		875.00000 
 43692.65567		 305.27265			43387.38302		68.57000		324.00000 
 43692.65567		 616.03496			43076.62071		204.78200		875.00000 
 43692.65567		 305.27265			43387.38302		68.57000		324.00000 
 43692.65567		 616.03496			43076.62071		204.78200		875.00000 
 43692.65567		 305.27265			43387.38302		68.57000		324.00000 
 43692.65567		 616.03496			43076.62071		204.78200		875.00000 
 43692.65567		 305.27265			43387.38302		68.57000		324.00000 
 43692.65567		 616.03496			43076.62071		204.78200		875.00000 
 43692.65567		 305.27265			43387.38302		68.57000		324.00000 
 43692.65567		 616.03496			43076.62071		204.78200		875.00000 
 43692.65567		 305.27265			43387.38302		68.57000		324.00000 
 43692.65567		 616.03496			43076.62071		204.78200		875.00000 
 43692.65567		 305.27265			43387.38302		68.57000		324.00000 
 43692.65567		 616.03496			43076.62071		204.78200		875.00000 
 43692.65567		 305.27265			43387.38302		68.57000		324.00000 
 43692.65567		 616.03496			43076.62071		204.78200		875.00000 
 43692.65567		 305.27265			43387.38302		68.57000		324.00000 
 43692.65567		 616.03496			43076.62071		204.78200		875.00000 
 43692.65567		 305.27265			43387.38302		68.57000		324.00000 
 43692.65567		 616.03496			43076.62071		204.78200		875.00000 
 43692.65567		 305.27265			43387.38302		68.57000		324.00000 
 43692.65567		 616.03496			43076.62071		204.78200		875.00000 
 43692.65567		 305.27265			43387.38302		68.57000		324.00000 
 43692.65567		 616.03496			43076.62071		204.78200		875.00000 
 43692.65567		 305.27265			43387.38302		68.57000		324.00000 
 43692.65567		 616.03496			43076.62071		204.78200		875.00000 
 43692.65567		 305.27265			43387.38302		68.57000		324.00000 
 43692.65567		 616.03496			43076.62071		204.78200		875.00000 
 43692.65567		 305.27265			43387.38302		68.57000		324.00000 
 43692.65567		 616.03496			43076.62071		204.78200		875.00000 
 43692.65567		 305.27265			43387.38302		68.57000		324.00000 
 43692.65567		 616.03496			43076.62071		204.78200		875.00000 
 43692.65567		 305.27265			43387.38302		68.57000		324.00000 
 43692.65567		 616.03496			43076.62071		204.78200		875.00000 
 43692.65567		 305.27265			43387.38302		68.57000		324.00000 
 43692.65567		 616.03496			43076.62071		204.78200		875.00000 
 43692.65567		 305.27265			43387.38302		68.57000		324.00000 
 43692.65567		 616.03496			43076.62071		204.78200		875.00000 
 43692.65567		 305.27265			43387.38302		68.57000		324.00000 
 43692.65567		 616.03496			43076.62071		204.78200		875.00000 
 43692.65567		 305.27265			43387.38302		68.57000		324.00000 
 43692.65567		 616.03496			43076.62071		204.78200		875.00000 
 43692.65567		 305.27265			43387.38302		68.57000		324.00000 
 43692.65567		 616.03496			43076.62071		204.78200		875.00000 
 43692.65567		 305.27265			43387.38302		68.57000		324.00000 
 43692.65567		 616.03496			43076.62071		211.90000		875.00000 
 43692.65567		 305.27265			43387.38302		68.57000		324.00000 
 43692.65567		 616.03496			43076.62071		211.90000		875.00000 
 43692.65567		 305.27265			43387.38302		68.57000		324.00000 
 43692.65567		 616.03496			43076.62071		211.90000		875.00000 
 43692.65567		 305.27265			43387.38302		68.57000		324.00000 
 43692.65567		 616.03496			43076.62071		211.90000		875.00000 
 43692.65567		 305.27265			43387.38302		68.57000		324.00000 
 43692.65567		 616.03496			43076.62071		211.90000		875.00000 
 43692.65567		 305.27265			43387.38302		68.57000		324.00000 
 43692.65567		 616.03496			43076.62071		211.90000		875.00000 
 43692.65567		 305.27265			43387.38302		68.57000		324.00000 
 43692.65567		 616.03496			43076.62071		211.90000		875.00000 
 43692.65567		 305.27265			43387.38302		68.57000		324.00000 
 43692.65567		 616.03496			43076.62071		211.90000		875.00000 
 43692.65567		 305.27265			43387.38302		68.57000		324.00000 
 43692.65567		 616.03496			43076.62071		211.90000		875.00000 
 43692.65567		 305.27265			43387.38302		68.57000		324.00000 
 43692.65567		 616.03496			43076.62071		211.90000		875.00000 
 43692.65567		 305.27265			43387.38302		68.57000		324.00000 
 43692.65567		 616.03496			43076.62071		211.90000		875.00000 
 43692.65567		 305.27265			43387.38302		68.57000		324.00000 
 43692.65567		 616.03496			43076.62071		211.90000		875.00000 
 43692.65567		 305.27265			43387.38302		68.57000		324.00000 
 43692.65567		 616.03496			43076.62071		211.90000		875.00000 
 43692.65567		 305.27265			43387.38302		68.57000		324.00000 
 43692.65567		 616.03496			43076.62071		211.90000		875.00000 
 43692.65567		 305.27265			43387.38302		68.57000		324.00000 
 43692.65567		 616.03496			43076.62071		211.90000		875.00000 
 43692.65567		 305.27265			43387.38302		68.57000		324.00000 
 43692.65567		 616.03496			43076.62071		211.90000		875.00000 
 43692.65567		 305.27265			43387.38302		68.57000		324.00000 
 43692.65567		 616.03496			43076.62071		211.90000		875.00000 
 43692.65567		 305.27265			43387.38302		68.57000		324.00000 
 43692.65567		 616.03496			43076.62071		211.90000		875.00000 
 43692.65567		 305.27265			43387.38302		68.57000		324.00000 
 43692.65567		 616.03496			43076.62071		211.90000		875.00000 
 43692.65567		 305.27265			43387.38302		68.57000		324.00000 
 43692.65567		 616.03496			43076.62071		211.90000		875.00000 
 43692.65567		 305.27265			43387.38302		68.57000		324.00000 
 43692.65567		 616.03496			43076.62071		211.90000		875.00000 
 43692.65567		 305.27265			43387.38302		68.57000		324.00000 
 43692.65567		 616.03496			43076.62071		211.90000		875.00000 
 43692.65567		 305.27265			43387.38302		68.57000		324.00000 
 43692.65567		 616.03496			43076.62071		211.90000		875.00000 
 43692.65567		 305.27265			43387.38302		68.57000		324.00000 
 43692.65567		 616.03496			43076.62071		211.90000		875.00000 
 43692.65567		 305.27265			43387.38302		68.57000		324.00000 
 43692.65567		 616.03496			43076.62071		211.90000		875.00000 
 43692.65567		 305.27265			43387.38302		68.57000		324.00000 
 43692.65567		 616.03496			43076.62071		211.90000		875.00000 
 43692.65567		 305.27265			43387.38302		68.57000		324.00000 
 43692.65567		 616.03496			43076.62071		211.90000		875.00000 
 43692.65567		 305.27265			43387.38302		68.57000		324.00000 
 43692.65567		 616.03496			43076.62071		211.90000		875.00000 
 43692.65567		 305.27265			43387.38302		68.57000		324.00000 
 43692.65567		 616.03496			43076.62071		211.90000		875.00000 
 43692.65567		 305.27265			43387.38302		68.57000		324.00000 
 43692.65567		 616.03496			43076.62071		211.90000		875.00000 
 43692.65567		 305.27265			43387.38302		68.57000		324.00000 
 43692.65567		 616.03496			43076.62071		211.90000		875.00000 
 43692.65567		 305.27265			43387.38302		68.57000		324.00000 
 43692.65567		 616.03496			43076.62071		211.90000		875.00000 
 43692.65567		 305.27265			43387.38302		68.57000		324.00000 
 43692.65567		 616.03496			43076.62071		211.90000		875.00000 
 43692.65567		 305.27265			43387.38302		68.57000		324.00000 
 43692.65567		 616.03496			43076.62071		211.90000		875.00000 
 43692.65567		 305.27265			43387.38302		68.57000		324.00000 
 43692.65567		 616.03496			43076.62071		211.90000		875.00000 
 43692.65567		 305.27265			43387.38302		68.57000		324.00000 
 43692.65567		 616.03496			43076.62071		211.90000		875.00000 
 43692.65567		 305.27265			43387.38302		68.57000		324.00000 
 43692.65567		 616.03496			43076.62071		211.90000		875.00000 
 43692.65567		 305.27265			43387.38302		68.57000		324.00000 
 43692.65567		 616.03496			43076.62071		211.90000		875.00000 
 43692.65567		 305.27265			43387.38302		68.57000		324.00000 
 43692.65567		 616.03496			43076.62071		211.90000		875.00000 
 43692.65567		 305.27265			43387.38302		68.57000		324.00000 
 43692.65567		 616.03496			43076.62071		211.90000		875.00000 
 43692.65567		 305.27265			43387.38302		68.57000		324.00000 
 43692.65567		 616.03496			43076.62071		211.90000		875.00000 
 43692.65567		 305.27265			43387.38302		68.57000		324.00000 
 43692.65567		 616.03496			43076.62071		211.90000		875.00000 
 43692.65567		 305.27265			43387.38302		68.57000		324.00000 
 43692.65567		 616.03496			43076.62071		211.90000		875.00000 
 43692.65567		 305.27265			43387.38302		68.57000		324.00000 
 43692.65567		 616.03496			43076.62071		211.90000		875.00000 
 43692.65567		 305.27265			43387.38302		68.57000		324.00000 
 43692.65567		 616.03496			43076.62071		211.90000		875.00000 
 43692.65567		 305.27265			43387.38302		68.57000		324.00000 
 43692.65567		 616.03496			43076.62071		211.90000		875.00000 
 43692.65567		 305.27265			43387.38302		68.57000		324.00000 
 43692.65567		 616.03496			43076.62071		211.90000		875.00000 
 43692.65567		 305.27265			43387.38302		68.57000		324.00000 
 43692.65567		 616.03496			43076.62071		211.90000		875.00000 
 43692.65567		 305.27265			43387.38302		68.57000		324.00000 
 43692.65567		 616.03496			43076.62071		211.90000		875.00000 
 43692.65567		 305.27265			43387.38302		68.57000		324.00000 
 43692.65567		 616.03496			43076.62071		211.90000		875.00000 
 43692.65567		 305.27265			43387.38302		68.57000		324.00000 
 43692.65567		 616.03496			43076.62071		211.90000		875.00000 
 43692.65567		 305.27265			43387.38302		68.57000		324.00000 
 43692.65567		 616.03496			43076.62071		211.90000		875.00000 
 43692.65567		 305.27265			43387.38302		68.57000		324.00000 
 43692.65567		 616.03496			43076.62071		211.90000		875.00000 
 43692.65567		 305.27265			43387.38302		68.57000		324.00000 
 43692.65567		 616.03496			43076.62071		211.90000		875.00000 
 43692.65567		 305.27265			43387.38302		68.57000		324.00000 
 43692.65567		 616.03496			43076.62071		211.90000		875.00000 
 43692.65567		 305.27265			43387.38302		68.57000		324.00000 
 43692.65567		 616.03496			43076.62071		211.90000		875.00000 
 43692.65567		 305.27265			43387.38302		68.57000		324.00000 
 43692.65567		 616.03496			43076.62071		211.90000		875.00000 
 43692.65567		 305.27265			43387.38302		68.57000		324.00000 
 43692.65567		 616.03496			43076.62071		211.90000		875.00000 
 43692.65567		 305.27265			43387.38302		68.57000		324.00000 
 43692.65567		 616.03496			43076.62071		211.90000		875.00000 
 43692.65567		 305.27265			43387.38302		68.57000		324.00000 
 43692.65567		 616.03496			43076.62071		211.90000		875.00000 
 43692.65567		 305.27265			43387.38302		68.57000		324.00000 
 43692.65567		 616.03496			43076.62071		211.90000		875.00000 
 43692.65567		 305.27265			43387.38302		68.57000		324.00000 
 43692.65567		 616.03496			43076.62071		211.90000		875.00000 
 43692.65567		 305.27265			43387.38302		68.57000		324.00000 
 43692.65567		 616.03496			43076.62071		211.90000		875.00000 
 43692.65567		 305.27265			43387.38302		68.57000		324.00000 
 43692.65567		 616.03496			43076.62071		211.90000		875.00000 
 43692.65567		 305.27265			43387.38302		68.57000		324.00000 
 43692.65567		 616.03496			43076.62071		214.77600		875.00000 
 43692.65567		 305.27265			43387.38302		68.57000		324.00000 
 43692.65567		 616.03496			43076.62071		214.77600		875.00000 
 43692.65567		 305.27265			43387.38302		68.57000		324.00000 
 43692.65567		 616.03496			43076.62071		214.77600		875.00000 
 43692.65567		 305.27265			43387.38302		68.57000		324.00000 
 43692.65567		 616.03496			43076.62071		214.77600		875.00000 
 43692.65567		 305.27265			43387.38302		68.57000		324.00000 
 43692.65567		 616.03496			43076.62071		214.77600		875.00000 
 43692.65567		 305.27265			43387.38302		68.57000		324.00000 
 43692.65567		 616.03496			43076.62071		214.77600		875.00000 
 43692.65567		 305.27265			43387.38302		68.57000		324.00000 
 43692.65567		 616.03496			43076.62071		214.77600		875.00000 
 43692.65567		 305.27265			43387.38302		68.57000		324.00000 
 43692.65567		 616.03496			43076.62071		214.77600		875.00000 
 43692.65567		 305.27265			43387.38302		68.57000		324.00000 
 43692.65567		 616.03496			43076.62071		214.77600		875.00000 
 43692.65567		 305.27265			43387.38302		68.57000		324.00000 
 43692.65567		 616.03496			43076.62071		214.77600		875.00000 
 43692.65567		 305.27265			43387.38302		68.57000		324.00000 
 43692.65567		 616.03496			43076.62071		214.77600		875.00000 
 43692.65567		 305.27265			43387.38302		68.57000		324.00000 
 43692.65567		 616.03496			43076.62071		214.77600		875.00000 
 43692.65567		 305.27265			43387.38302		68.57000		324.00000 
 43692.65567		 616.03496			43076.62071		214.77600		875.00000 
 43692.65567		 305.27265			43387.38302		68.57000		324.00000 
 43692.65567		 616.03496			43076.62071		214.77600		875.00000 
 43692.65567		 305.27265			43387.38302		68.57000		324.00000 
 43692.65567		 616.03496			43076.62071		214.77600		875.00000 
 43692.65567		 305.27265			43387.38302		68.57000		324.00000 
 43692.65567		 616.03496			43076.62071		214.77600		875.00000 
 43692.65567		 305.27265			43387.38302		68.57000		324.00000 
 43692.65567		 616.03496			43076.62071		214.77600		875.00000 
 43692.65567		 305.27265			43387.38302		68.57000		324.00000 
 43692.65567		 616.03496			43076.62071		214.77600		875.00000 
 43692.65567		 305.27265			43387.38302		68.57000		324.00000 
 43692.65567		 616.03496			43076.62071		214.77600		875.00000 
 43692.65567		 305.27265			43387.38302		68.57000		324.00000 
 43692.65567		 616.03496			43076.62071		214.77600		875.00000 
 43692.65567		 305.27265			43387.38302		68.57000		324.00000 
 43692.65567		 616.03496			43076.62071		214.77600		875.00000 
 43692.65567		 305.27265			43387.38302		68.57000		324.00000 
 43692.65567		 616.03496			43076.62071		214.77600		875.00000 
 43692.65567		 305.27265			43387.38302		68.57000		324.00000 
 43692.65567		 616.03496			43076.62071		214.77600		875.00000 
 43692.65567		 305.27265			43387.38302		68.57000		324.00000 
 43692.65567		 616.03496			43076.62071		214.77600		875.00000 
 43692.65567		 305.27265			43387.38302		68.57000		324.00000 
 43692.65567		 616.03496			43076.62071		214.77600		875.00000 
 43692.65567		 305.27265			43387.38302		68.57000		324.00000 
 43692.65567		 616.03496			43076.62071		214.77600		875.00000 
 43692.65567		 305.27265			43387.38302		68.57000		324.00000 
 43692.65567		 616.03496			43076.62071		214.77600		875.00000 
 43692.65567		 305.27265			43387.38302		68.57000		324.00000 
 43692.65567		 616.03496			43076.62071		214.77600		875.00000 
 43692.65567		 305.27265			43387.38302		68.57000		324.00000 
 43692.65567		 616.03496			43076.62071		214.77600		875.00000 
 43692.65567		 305.27265			43387.38302		68.57000		324.00000 
 43692.65567		 616.03496			43076.62071		214.77600		875.00000 
 43692.65567		 305.27265			43387.38302		68.57000		324.00000 
 43692.65567		 616.03496			43076.62071		214.77600		875.00000 
 43692.65567		 305.27265			43387.38302		68.57000		324.00000 
 43692.65567		 616.03496			43076.62071		214.77600		875.00000 
 43692.65567		 305.27265			43387.38302		68.57000		324.00000 
 43692.65567		 616.03496			43076.62071		214.77600		875.00000 
 43692.65567		 305.27265			43387.38302		68.57000		324.00000 
 43692.65567		 616.03496			43076.62071		214.77600		875.00000 
 43692.65567		 305.27265			43387.38302		68.57000		324.00000 
 43692.65567		 616.03496			43076.62071		214.77600		875.00000 
 43692.65567		 305.27265			43387.38302		68.57000		324.00000 
 43692.65567		 616.03496			43076.62071		214.77600		875.00000 
 43692.65567		 305.27265			43387.38302		68.57000		324.00000 
 43692.65567		 616.03496			43076.62071		214.77600		875.00000 
 43692.65567		 305.27265			43387.38302		68.57000		324.00000 
 43692.65567		 616.03496			43076.62071		214.77600		875.00000 
 43692.65567		 305.27265			43387.38302		68.57000		324.00000 
 43692.65567		 616.03496			43076.62071		214.77600		875.00000 
 43692.65567		 305.27265			43387.38302		68.57000		324.00000 
 43692.65567		 616.03496			43076.62071		214.77600		875.00000 
 43692.65567		 305.27265			43387.38302		68.57000		324.00000 
 43692.65567		 616.03496			43076.62071		214.77600		875.00000 
 43692.65567		 305.27265			43387.38302		68.57000		324.00000 
 43692.65567		 616.03496			43076.62071		214.77600		875.00000 
 43692.65567		 305.27265			43387.38302		68.57000		324.00000 
 43692.65567		 616.03496			43076.62071		214.77600		875.00000 
 43692.65567		 305.27265			43387.38302		68.57000		324.00000 
 43692.65567		 616.03496			43076.62071		214.77600		875.00000 
 43692.65567		 305.27265			43387.38302		68.57000		324.00000 
 43692.65567		 616.03496			43076.62071		214.77600		875.00000 
 43692.65567		 305.27265			43387.38302		68.57000		324.00000 
 43692.65567		 616.03496			43076.62071		214.77600		875.00000 
 43692.65567		 305.27265			43387.38302		68.57000		324.00000 
 43692.65567		 616.03496			43076.62071		214.77600		875.00000 
 43692.65567		 305.27265			43387.38302		68.57000		324.00000 
 43692.65567		 589.78008			43102.87559		214.77600		875.00000 
 43692.65567		 305.27265			43387.38302		68.57000		324.00000 
 43692.65567		 537.27032			43155.38535		214.77600		875.00000 
 43692.65567		 305.27265			43387.38302		68.57000		324.00000 
 43692.65567		 537.27032			43155.38535		214.77600		875.00000 
 43692.65567		 305.27265			43387.38302		68.57000		324.00000 
 43692.65567		 537.27032			43155.38535		214.77600		875.00000 
 43692.65567		 305.27265			43387.38302		68.57000		324.00000 
 43692.65567		 537.27032			43155.38535		214.77600		875.00000 
 43692.65567		 305.27265			43387.38302		68.57000		324.00000 
 43692.65567		 537.27032			43155.38535		214.77600		875.00000 
 43692.65567		 305.27265			43387.38302		68.57000		324.00000 
 43692.65567		 537.27032			43155.38535		214.77600		875.00000 
 43692.65567		 305.27265			43387.38302		68.57000		324.00000 
 43692.65567		 537.27032			43155.38535		214.77600		875.00000 
 43692.65567		 305.27265			43387.38302		68.57000		324.00000 
 43692.65567		 537.27032			43155.38535		214.77600		875.00000 
 43692.65567		 305.27265			43387.38302		68.57000		324.00000 
 43692.65567		 537.27032			43155.38535		214.77600		875.00000 
 43692.65567		 305.27265			43387.38302		68.57000		324.00000 
 43692.65567		 537.27032			43155.38535		214.77600		875.00000 
 43692.65567		 305.27265			43387.38302		68.57000		324.00000 
 43692.65567		 537.27032			43155.38535		214.77600		875.00000 
 43692.65567		 305.27265			43387.38302		68.57000		324.00000 
 43692.65567		 537.27032			43155.38535		214.77600		875.00000 
 43692.65567		 305.27265			43387.38302		68.57000		324.00000 
 43692.65567		 537.27032			43155.38535		214.77600		875.00000 
 43692.65567		 305.27265			43387.38302		68.57000		324.00000 
 43692.65567		 537.27032			43155.38535		214.77600		875.00000 
 43692.65567		 305.27265			43387.38302		68.57000		324.00000 
 43692.65567		 537.27032			43155.38535		214.77600		875.00000 
 43692.65567		 305.27265			43387.38302		68.57000		324.00000 
 43692.65567		 537.27032			43155.38535		195.11600		875.00000 
 43692.65567		 305.27265			43387.38302		68.57000		324.00000 
 43692.65567		 537.27032			43155.38535		195.11600		875.00000 
 43692.65567		 305.27265			43387.38302		68.57000		324.00000 
 43692.65567		 537.27032			43155.38535		195.11600		875.00000 
 43692.65567		 305.27265			43387.38302		68.57000		324.00000 
 43692.65567		 537.27032			43155.38535		195.11600		875.00000 
 43692.65567		 305.27265			43387.38302		68.57000		324.00000 
 43692.65567		 537.27032			43155.38535		195.11600		875.00000 
 43692.65567		 305.27265			43387.38302		68.57000		324.00000 
 43692.65567		 537.27032			43155.38535		195.11600		875.00000 
 43692.65567		 305.27265			43387.38302		68.57000		324.00000 
 43692.65567		 529.63254			43163.02313		195.11600		875.00000 
 43692.65567		 305.27265			43387.38302		68.57000		324.00000 
 43692.65567		 525.81365			43166.84203		195.11600		875.00000 
 43692.65567		 305.27265			43387.38302		68.57000		324.00000 
 43692.65567		 525.81365			43166.84203		195.11600		875.00000 
 43692.65567		 261.35540			43431.30027		68.57000		324.00000 
 43692.65567		 261.35540			43431.30027		195.11600		875.00000 
 43692.65567		 261.35540			43431.30027		68.57000		324.00000 
