Memory Total (MiB) 	 Memory Used (MiB) 	    Memory Free (MiB) 	 Power Drawed (W) 	 Clocks (Mhz) 	 
 43692.65567		 261.35540			43431.30027		166.38400		875.00000 
 43692.65567		 261.35540			43431.30027		70.72000		324.00000 
 43692.65567		 261.35540			43431.30027		166.38400		875.00000 
 43692.65567		 261.35540			43431.30027		70.72000		324.00000 
 43692.65567		 261.35540			43431.30027		166.38400		875.00000 
 43692.65567		 261.35540			43431.30027		70.72000		324.00000 
 43692.65567		 261.35540			43431.30027		166.38400		875.00000 
 43692.65567		 261.35540			43431.30027		70.72000		324.00000 
 43692.65567		 261.35540			43431.30027		166.38400		875.00000 
 43692.65567		 261.35540			43431.30027		70.72000		324.00000 
 43692.65567		 261.35540			43431.30027		166.38400		875.00000 
 43692.65567		 261.35540			43431.30027		70.72000		324.00000 
 43692.65567		 261.35540			43431.30027		166.38400		875.00000 
 43692.65567		 261.35540			43431.30027		70.72000		324.00000 
 43692.65567		 261.35540			43431.30027		166.38400		875.00000 
 43692.65567		 261.35540			43431.30027		70.72000		324.00000 
 43692.65567		 261.35540			43431.30027		166.38400		875.00000 
 43692.65567		 261.35540			43431.30027		70.72000		324.00000 
 43692.65567		 261.35540			43431.30027		166.38400		875.00000 
 43692.65567		 261.35540			43431.30027		70.72000		324.00000 
 43692.65567		 261.35540			43431.30027		166.38400		875.00000 
 43692.65567		 261.35540			43431.30027		70.72000		324.00000 
 43692.65567		 261.35540			43431.30027		166.38400		875.00000 
 43692.65567		 261.35540			43431.30027		70.72000		324.00000 
 43692.65567		 261.35540			43431.30027		166.38400		875.00000 
 43692.65567		 261.35540			43431.30027		70.72000		324.00000 
 43692.65567		 261.35540			43431.30027		166.38400		875.00000 
 43692.65567		 261.35540			43431.30027		70.72000		324.00000 
 43692.65567		 261.35540			43431.30027		166.38400		875.00000 
 43692.65567		 261.35540			43431.30027		70.72000		324.00000 
 43692.65567		 261.35540			43431.30027		166.38400		875.00000 
 43692.65567		 261.35540			43431.30027		70.72000		324.00000 
 43692.65567		 261.35540			43431.30027		166.38400		875.00000 
 43692.65567		 261.35540			43431.30027		70.72000		324.00000 
 43692.65567		 261.35540			43431.30027		166.38400		875.00000 
 43692.65567		 261.35540			43431.30027		70.72000		324.00000 
 43692.65567		 265.17429			43427.48138		166.38400		875.00000 
 43692.65567		 261.35540			43431.30027		70.72000		324.00000 
 43692.65567		 265.17429			43427.48138		166.38400		875.00000 
 43692.65567		 261.35540			43431.30027		70.72000		324.00000 
 43692.65567		 272.81207			43419.84360		166.38400		875.00000 
 43692.65567		 261.35540			43431.30027		70.72000		324.00000 
 43692.65567		 272.81207			43419.84360		166.38400		875.00000 
 43692.65567		 261.35540			43431.30027		70.72000		324.00000 
 43692.65567		 272.81207			43419.84360		166.38400		875.00000 
 43692.65567		 265.17429			43427.48138		70.72000		324.00000 
 43692.65567		 272.81207			43419.84360		166.38400		875.00000 
 43692.65567		 265.17429			43427.48138		70.72000		324.00000 
 43692.65567		 272.81207			43419.84360		166.38400		875.00000 
 43692.65567		 272.81207			43419.84360		70.72000		324.00000 
 43692.65567		 272.81207			43419.84360		166.38400		875.00000 
 43692.65567		 272.81207			43419.84360		70.72000		324.00000 
 43692.65567		 272.81207			43419.84360		166.38400		875.00000 
 43692.65567		 272.81207			43419.84360		70.72000		324.00000 
 43692.65567		 272.81207			43419.84360		166.38400		875.00000 
 43692.65567		 272.81207			43419.84360		70.72000		324.00000 
 43692.65567		 305.27265			43387.38302		166.38400		875.00000 
 43692.65567		 305.27265			43387.38302		70.72000		324.00000 
 43692.65567		 305.27265			43387.38302		166.38400		875.00000 
 43692.65567		 305.27265			43387.38302		70.72000		324.00000 
 43692.65567		 305.27265			43387.38302		166.38400		875.00000 
 43692.65567		 305.27265			43387.38302		70.72000		324.00000 
 43692.65567		 305.27265			43387.38302		166.38400		875.00000 
 43692.65567		 305.27265			43387.38302		70.72000		324.00000 
 43692.65567		 305.27265			43387.38302		144.74200		875.00000 
 43692.65567		 305.27265			43387.38302		70.72000		324.00000 
 43692.65567		 309.56891			43383.08677		144.74200		875.00000 
 43692.65567		 305.27265			43387.38302		70.72000		324.00000 
 43692.65567		 311.00099			43381.65468		144.74200		875.00000 
 43692.65567		 305.27265			43387.38302		70.72000		324.00000 
 43692.65567		 311.00099			43381.65468		144.74200		875.00000 
 43692.65567		 305.27265			43387.38302		70.72000		324.00000 
 43692.65567		 311.00099			43381.65468		144.74200		875.00000 
 43692.65567		 305.27265			43387.38302		70.72000		324.00000 
 43692.65567		 311.00099			43381.65468		144.74200		875.00000 
 43692.65567		 305.27265			43387.38302		70.72000		324.00000 
 43692.65567		 311.00099			43381.65468		144.74200		875.00000 
 43692.65567		 305.27265			43387.38302		70.72000		324.00000 
 43692.65567		 311.00099			43381.65468		144.74200		875.00000 
 43692.65567		 305.27265			43387.38302		70.72000		324.00000 
 43692.65567		 311.00099			43381.65468		144.74200		875.00000 
 43692.65567		 305.27265			43387.38302		70.72000		324.00000 
 43692.65567		 311.00099			43381.65468		144.74200		875.00000 
 43692.65567		 305.27265			43387.38302		70.72000		324.00000 
 43692.65567		 311.00099			43381.65468		144.74200		875.00000 
 43692.65567		 305.27265			43387.38302		70.72000		324.00000 
 43692.65567		 311.00099			43381.65468		144.74200		875.00000 
 43692.65567		 305.27265			43387.38302		70.72000		324.00000 
 43692.65567		 311.00099			43381.65468		144.74200		875.00000 
 43692.65567		 305.27265			43387.38302		70.72000		324.00000 
 43692.65567		 311.00099			43381.65468		144.74200		875.00000 
 43692.65567		 305.27265			43387.38302		70.72000		324.00000 
 43692.65567		 311.00099			43381.65468		144.74200		875.00000 
 43692.65567		 305.27265			43387.38302		70.72000		324.00000 
 43692.65567		 311.00099			43381.65468		144.74200		875.00000 
 43692.65567		 305.27265			43387.38302		70.72000		324.00000 
 43692.65567		 311.00099			43381.65468		144.74200		875.00000 
 43692.65567		 305.27265			43387.38302		70.72000		324.00000 
 43692.65567		 311.00099			43381.65468		144.74200		875.00000 
 43692.65567		 305.27265			43387.38302		70.72000		324.00000 
 43692.65567		 311.00099			43381.65468		144.74200		875.00000 
 43692.65567		 305.27265			43387.38302		70.72000		324.00000 
 43692.65567		 311.00099			43381.65468		144.74200		875.00000 
 43692.65567		 305.27265			43387.38302		70.72000		324.00000 
 43692.65567		 311.00099			43381.65468		144.74200		875.00000 
 43692.65567		 305.27265			43387.38302		70.72000		324.00000 
 43692.65567		 311.00099			43381.65468		144.74200		875.00000 
 43692.65567		 305.27265			43387.38302		70.72000		324.00000 
 43692.65567		 311.00099			43381.65468		144.74200		875.00000 
 43692.65567		 305.27265			43387.38302		70.72000		324.00000 
 43692.65567		 311.00099			43381.65468		144.74200		875.00000 
 43692.65567		 305.27265			43387.38302		70.72000		324.00000 
 43692.65567		 311.00099			43381.65468		144.74200		875.00000 
 43692.65567		 305.27265			43387.38302		70.72000		324.00000 
 43692.65567		 311.00099			43381.65468		144.74200		875.00000 
 43692.65567		 305.27265			43387.38302		70.72000		324.00000 
 43692.65567		 311.00099			43381.65468		144.74200		875.00000 
 43692.65567		 305.27265			43387.38302		70.72000		324.00000 
 43692.65567		 311.00099			43381.65468		144.74200		875.00000 
 43692.65567		 305.27265			43387.38302		70.72000		324.00000 
 43692.65567		 311.00099			43381.65468		144.74200		875.00000 
 43692.65567		 305.27265			43387.38302		70.72000		324.00000 
 43692.65567		 311.00099			43381.65468		144.74200		875.00000 
 43692.65567		 305.27265			43387.38302		70.72000		324.00000 
 43692.65567		 311.00099			43381.65468		144.74200		875.00000 
 43692.65567		 305.27265			43387.38302		70.72000		324.00000 
 43692.65567		 311.00099			43381.65468		144.74200		875.00000 
 43692.65567		 305.27265			43387.38302		70.72000		324.00000 
 43692.65567		 311.00099			43381.65468		136.53400		875.00000 
 43692.65567		 305.27265			43387.38302		70.72000		324.00000 
 43692.65567		 311.00099			43381.65468		136.53400		875.00000 
 43692.65567		 305.27265			43387.38302		70.72000		324.00000 
 43692.65567		 311.00099			43381.65468		136.53400		875.00000 
 43692.65567		 305.27265			43387.38302		70.72000		324.00000 
 43692.65567		 311.00099			43381.65468		136.53400		875.00000 
 43692.65567		 305.27265			43387.38302		70.72000		324.00000 
 43692.65567		 311.00099			43381.65468		136.53400		875.00000 
 43692.65567		 305.27265			43387.38302		65.25400		324.00000 
 43692.65567		 311.00099			43381.65468		136.53400		875.00000 
 43692.65567		 305.27265			43387.38302		65.25400		324.00000 
 43692.65567		 311.00099			43381.65468		136.53400		875.00000 
 43692.65567		 305.27265			43387.38302		65.25400		324.00000 
 43692.65567		 311.00099			43381.65468		136.53400		875.00000 
 43692.65567		 305.27265			43387.38302		65.25400		324.00000 
 43692.65567		 311.00099			43381.65468		136.53400		875.00000 
 43692.65567		 305.27265			43387.38302		65.25400		324.00000 
 43692.65567		 311.00099			43381.65468		136.53400		875.00000 
 43692.65567		 305.27265			43387.38302		65.25400		324.00000 
 43692.65567		 311.00099			43381.65468		136.53400		875.00000 
 43692.65567		 305.27265			43387.38302		65.25400		324.00000 
 43692.65567		 311.00099			43381.65468		136.53400		875.00000 
 43692.65567		 305.27265			43387.38302		65.25400		324.00000 
 43692.65567		 311.00099			43381.65468		136.53400		875.00000 
 43692.65567		 305.27265			43387.38302		65.25400		324.00000 
 43692.65567		 311.00099			43381.65468		136.53400		875.00000 
 43692.65567		 305.27265			43387.38302		65.25400		324.00000 
 43692.65567		 311.00099			43381.65468		136.53400		875.00000 
 43692.65567		 305.27265			43387.38302		65.25400		324.00000 
 43692.65567		 311.00099			43381.65468		136.53400		875.00000 
 43692.65567		 305.27265			43387.38302		65.25400		324.00000 
 43692.65567		 311.00099			43381.65468		136.53400		875.00000 
 43692.65567		 305.27265			43387.38302		65.25400		324.00000 
 43692.65567		 311.00099			43381.65468		136.53400		875.00000 
 43692.65567		 305.27265			43387.38302		65.25400		324.00000 
 43692.65567		 311.00099			43381.65468		136.53400		875.00000 
 43692.65567		 305.27265			43387.38302		65.25400		324.00000 
 43692.65567		 311.00099			43381.65468		136.53400		875.00000 
 43692.65567		 305.27265			43387.38302		65.25400		324.00000 
 43692.65567		 311.00099			43381.65468		136.53400		875.00000 
 43692.65567		 305.27265			43387.38302		65.25400		324.00000 
 43692.65567		 311.00099			43381.65468		136.53400		875.00000 
 43692.65567		 305.27265			43387.38302		65.25400		324.00000 
 43692.65567		 314.81988			43377.83579		136.53400		875.00000 
 43692.65567		 305.27265			43387.38302		65.25400		324.00000 
 43692.65567		 314.81988			43377.83579		136.53400		875.00000 
 43692.65567		 305.27265			43387.38302		65.25400		324.00000 
 43692.65567		 314.81988			43377.83579		136.53400		875.00000 
 43692.65567		 305.27265			43387.38302		65.25400		324.00000 
 43692.65567		 318.63877			43374.01690		136.53400		875.00000 
 43692.65567		 305.27265			43387.38302		65.25400		324.00000 
 43692.65567		 322.45767			43370.19801		136.53400		875.00000 
 43692.65567		 305.27265			43387.38302		65.25400		324.00000 
 43692.65567		 326.27656			43366.37912		136.53400		875.00000 
 43692.65567		 305.27265			43387.38302		65.25400		324.00000 
 43692.65567		 326.27656			43366.37912		136.53400		875.00000 
 43692.65567		 305.27265			43387.38302		65.25400		324.00000 
 43692.65567		 326.27656			43366.37912		136.53400		875.00000 
 43692.65567		 305.27265			43387.38302		65.25400		324.00000 
 43692.65567		 537.27032			43155.38535		136.53400		875.00000 
 43692.65567		 305.27265			43387.38302		65.25400		324.00000 
 43692.65567		 772.13216			42920.52351		136.53400		875.00000 
 43692.65567		 305.27265			43387.38302		65.25400		324.00000 
 43692.65567		 889.56308			42803.09259		136.53400		875.00000 
 43692.65567		 305.27265			43387.38302		65.25400		324.00000 
 43692.65567		 889.56308			42803.09259		136.53400		875.00000 
 43692.65567		 305.27265			43387.38302		65.25400		324.00000 
 43692.65567		 889.56308			42803.09259		138.91800		875.00000 
 43692.65567		 305.27265			43387.38302		65.25400		324.00000 
 43692.65567		 889.56308			42803.09259		138.91800		875.00000 
 43692.65567		 305.27265			43387.38302		65.25400		324.00000 
 43692.65567		 889.56308			42803.09259		138.91800		875.00000 
 43692.65567		 305.27265			43387.38302		65.25400		324.00000 
 43692.65567		 889.56308			42803.09259		138.91800		875.00000 
 43692.65567		 305.27265			43387.38302		65.25400		324.00000 
 43692.65567		 889.56308			42803.09259		138.91800		875.00000 
 43692.65567		 305.27265			43387.38302		65.25400		324.00000 
 43692.65567		 889.56308			42803.09259		138.91800		875.00000 
 43692.65567		 305.27265			43387.38302		65.25400		324.00000 
 43692.65567		 889.56308			42803.09259		138.91800		875.00000 
 43692.65567		 305.27265			43387.38302		65.25400		324.00000 
 43692.65567		 889.56308			42803.09259		138.91800		875.00000 
 43692.65567		 305.27265			43387.38302		65.25400		324.00000 
 43692.65567		 889.56308			42803.09259		138.91800		875.00000 
 43692.65567		 305.27265			43387.38302		65.25400		324.00000 
 43692.65567		 889.56308			42803.09259		138.91800		875.00000 
 43692.65567		 305.27265			43387.38302		65.25400		324.00000 
 43692.65567		 889.56308			42803.09259		138.91800		875.00000 
 43692.65567		 305.27265			43387.38302		65.25400		324.00000 
 43692.65567		 889.56308			42803.09259		138.91800		875.00000 
 43692.65567		 305.27265			43387.38302		65.25400		324.00000 
 43692.65567		 889.56308			42803.09259		138.91800		875.00000 
 43692.65567		 305.27265			43387.38302		65.25400		324.00000 
 43692.65567		 889.56308			42803.09259		138.91800		875.00000 
 43692.65567		 305.27265			43387.38302		65.25400		324.00000 
 43692.65567		 889.56308			42803.09259		138.91800		875.00000 
 43692.65567		 305.27265			43387.38302		65.25400		324.00000 
 43692.65567		 889.56308			42803.09259		138.91800		875.00000 
 43692.65567		 305.27265			43387.38302		65.25400		324.00000 
 43692.65567		 889.56308			42803.09259		138.91800		875.00000 
 43692.65567		 305.27265			43387.38302		65.25400		324.00000 
 43692.65567		 889.56308			42803.09259		138.91800		875.00000 
 43692.65567		 305.27265			43387.38302		65.25400		324.00000 
 43692.65567		 889.56308			42803.09259		138.91800		875.00000 
 43692.65567		 305.27265			43387.38302		65.25400		324.00000 
 43692.65567		 889.56308			42803.09259		138.91800		875.00000 
 43692.65567		 305.27265			43387.38302		65.25400		324.00000 
 43692.65567		 889.56308			42803.09259		138.91800		875.00000 
 43692.65567		 305.27265			43387.38302		65.25400		324.00000 
 43692.65567		 889.56308			42803.09259		138.91800		875.00000 
 43692.65567		 305.27265			43387.38302		65.25400		324.00000 
 43692.65567		 889.56308			42803.09259		138.91800		875.00000 
 43692.65567		 305.27265			43387.38302		65.25400		324.00000 
 43692.65567		 889.56308			42803.09259		138.91800		875.00000 
 43692.65567		 305.27265			43387.38302		65.25400		324.00000 
 43692.65567		 889.56308			42803.09259		138.91800		875.00000 
 43692.65567		 305.27265			43387.38302		65.25400		324.00000 
 43692.65567		 889.56308			42803.09259		138.91800		875.00000 
 43692.65567		 305.27265			43387.38302		65.25400		324.00000 
 43692.65567		 889.56308			42803.09259		138.91800		875.00000 
 43692.65567		 305.27265			43387.38302		65.25400		324.00000 
 43692.65567		 889.56308			42803.09259		138.91800		875.00000 
 43692.65567		 305.27265			43387.38302		65.25400		324.00000 
 43692.65567		 889.56308			42803.09259		138.91800		875.00000 
 43692.65567		 305.27265			43387.38302		65.25400		324.00000 
 43692.65567		 889.56308			42803.09259		138.91800		875.00000 
 43692.65567		 305.27265			43387.38302		65.25400		324.00000 
 43692.65567		 889.56308			42803.09259		138.91800		875.00000 
 43692.65567		 305.27265			43387.38302		65.25400		324.00000 
 43692.65567		 889.56308			42803.09259		138.91800		875.00000 
 43692.65567		 305.27265			43387.38302		65.25400		324.00000 
 43692.65567		 889.56308			42803.09259		138.91800		875.00000 
 43692.65567		 305.27265			43387.38302		65.25400		324.00000 
 43692.65567		 889.56308			42803.09259		138.91800		875.00000 
 43692.65567		 305.27265			43387.38302		65.25400		324.00000 
 43692.65567		 889.56308			42803.09259		138.91800		875.00000 
 43692.65567		 305.27265			43387.38302		65.25400		324.00000 
 43692.65567		 889.56308			42803.09259		138.91800		875.00000 
 43692.65567		 305.27265			43387.38302		65.25400		324.00000 
 43692.65567		 889.56308			42803.09259		138.91800		875.00000 
 43692.65567		 305.27265			43387.38302		65.25400		324.00000 
 43692.65567		 889.56308			42803.09259		138.91800		875.00000 
 43692.65567		 305.27265			43387.38302		65.25400		324.00000 
 43692.65567		 889.56308			42803.09259		138.91800		875.00000 
 43692.65567		 305.27265			43387.38302		65.25400		324.00000 
 43692.65567		 889.56308			42803.09259		138.91800		875.00000 
 43692.65567		 305.27265			43387.38302		65.25400		324.00000 
 43692.65567		 889.56308			42803.09259		138.91800		875.00000 
 43692.65567		 305.27265			43387.38302		65.25400		324.00000 
 43692.65567		 889.56308			42803.09259		138.91800		875.00000 
 43692.65567		 305.27265			43387.38302		65.25400		324.00000 
 43692.65567		 889.56308			42803.09259		138.91800		875.00000 
 43692.65567		 305.27265			43387.38302		65.25400		324.00000 
 43692.65567		 889.56308			42803.09259		138.91800		875.00000 
 43692.65567		 305.27265			43387.38302		65.25400		324.00000 
 43692.65567		 889.56308			42803.09259		138.91800		875.00000 
 43692.65567		 305.27265			43387.38302		65.25400		324.00000 
 43692.65567		 889.56308			42803.09259		138.91800		875.00000 
 43692.65567		 305.27265			43387.38302		65.25400		324.00000 
 43692.65567		 889.56308			42803.09259		138.91800		875.00000 
 43692.65567		 305.27265			43387.38302		65.25400		324.00000 
 43692.65567		 889.56308			42803.09259		138.91800		875.00000 
 43692.65567		 305.27265			43387.38302		65.25400		324.00000 
 43692.65567		 889.56308			42803.09259		138.91800		875.00000 
 43692.65567		 305.27265			43387.38302		65.25400		324.00000 
 43692.65567		 889.56308			42803.09259		138.91800		875.00000 
 43692.65567		 305.27265			43387.38302		65.25400		324.00000 
 43692.65567		 889.56308			42803.09259		138.91800		875.00000 
 43692.65567		 305.27265			43387.38302		65.25400		324.00000 
 43692.65567		 889.56308			42803.09259		138.91800		875.00000 
 43692.65567		 305.27265			43387.38302		65.25400		324.00000 
 43692.65567		 889.56308			42803.09259		138.91800		875.00000 
 43692.65567		 305.27265			43387.38302		65.25400		324.00000 
 43692.65567		 889.56308			42803.09259		138.91800		875.00000 
 43692.65567		 305.27265			43387.38302		65.25400		324.00000 
 43692.65567		 889.56308			42803.09259		138.91800		875.00000 
 43692.65567		 305.27265			43387.38302		65.25400		324.00000 
 43692.65567		 889.56308			42803.09259		138.91800		875.00000 
 43692.65567		 305.27265			43387.38302		65.25400		324.00000 
 43692.65567		 889.56308			42803.09259		138.91800		875.00000 
 43692.65567		 305.27265			43387.38302		65.25400		324.00000 
 43692.65567		 889.56308			42803.09259		138.91800		875.00000 
 43692.65567		 305.27265			43387.38302		65.25400		324.00000 
 43692.65567		 889.56308			42803.09259		138.91800		875.00000 
 43692.65567		 305.27265			43387.38302		65.25400		324.00000 
 43692.65567		 889.56308			42803.09259		138.91800		875.00000 
 43692.65567		 305.27265			43387.38302		65.25400		324.00000 
 43692.65567		 889.56308			42803.09259		138.91800		875.00000 
 43692.65567		 305.27265			43387.38302		65.25400		324.00000 
 43692.65567		 889.56308			42803.09259		138.91800		875.00000 
 43692.65567		 305.27265			43387.38302		65.25400		324.00000 
 43692.65567		 889.56308			42803.09259		138.91800		875.00000 
 43692.65567		 305.27265			43387.38302		65.25400		324.00000 
 43692.65567		 889.56308			42803.09259		194.60400		875.00000 
 43692.65567		 305.27265			43387.38302		65.25400		324.00000 
 43692.65567		 889.56308			42803.09259		194.60400		875.00000 
 43692.65567		 305.27265			43387.38302		65.25400		324.00000 
 43692.65567		 889.56308			42803.09259		194.60400		875.00000 
 43692.65567		 305.27265			43387.38302		65.25400		324.00000 
 43692.65567		 889.56308			42803.09259		194.60400		875.00000 
 43692.65567		 305.27265			43387.38302		65.25400		324.00000 
 43692.65567		 889.56308			42803.09259		194.60400		875.00000 
 43692.65567		 305.27265			43387.38302		65.25400		324.00000 
 43692.65567		 889.56308			42803.09259		194.60400		875.00000 
 43692.65567		 305.27265			43387.38302		65.25400		324.00000 
 43692.65567		 889.56308			42803.09259		194.60400		875.00000 
 43692.65567		 305.27265			43387.38302		65.25400		324.00000 
 43692.65567		 889.56308			42803.09259		194.60400		875.00000 
 43692.65567		 305.27265			43387.38302		65.25400		324.00000 
 43692.65567		 889.56308			42803.09259		194.60400		875.00000 
 43692.65567		 305.27265			43387.38302		65.25400		324.00000 
 43692.65567		 889.56308			42803.09259		194.60400		875.00000 
 43692.65567		 305.27265			43387.38302		65.25400		324.00000 
 43692.65567		 889.56308			42803.09259		194.60400		875.00000 
 43692.65567		 305.27265			43387.38302		65.25400		324.00000 
 43692.65567		 889.56308			42803.09259		194.60400		875.00000 
 43692.65567		 305.27265			43387.38302		65.25400		324.00000 
 43692.65567		 889.56308			42803.09259		194.60400		875.00000 
 43692.65567		 305.27265			43387.38302		65.25400		324.00000 
 43692.65567		 889.56308			42803.09259		194.60400		875.00000 
 43692.65567		 305.27265			43387.38302		65.25400		324.00000 
 43692.65567		 889.56308			42803.09259		194.60400		875.00000 
 43692.65567		 305.27265			43387.38302		65.25400		324.00000 
 43692.65567		 889.56308			42803.09259		194.60400		875.00000 
 43692.65567		 305.27265			43387.38302		65.25400		324.00000 
 43692.65567		 889.56308			42803.09259		194.60400		875.00000 
 43692.65567		 305.27265			43387.38302		65.25400		324.00000 
 43692.65567		 889.56308			42803.09259		194.60400		875.00000 
 43692.65567		 305.27265			43387.38302		65.25400		324.00000 
 43692.65567		 889.56308			42803.09259		194.60400		875.00000 
 43692.65567		 305.27265			43387.38302		65.25400		324.00000 
 43692.65567		 889.56308			42803.09259		194.60400		875.00000 
 43692.65567		 305.27265			43387.38302		65.25400		324.00000 
 43692.65567		 889.56308			42803.09259		194.60400		875.00000 
 43692.65567		 305.27265			43387.38302		65.25400		324.00000 
 43692.65567		 889.56308			42803.09259		194.60400		875.00000 
 43692.65567		 305.27265			43387.38302		65.25400		324.00000 
 43692.65567		 889.56308			42803.09259		194.60400		875.00000 
 43692.65567		 305.27265			43387.38302		65.25400		324.00000 
 43692.65567		 889.56308			42803.09259		194.60400		875.00000 
 43692.65567		 305.27265			43387.38302		65.25400		324.00000 
 43692.65567		 889.56308			42803.09259		194.60400		875.00000 
 43692.65567		 305.27265			43387.38302		65.25400		324.00000 
 43692.65567		 889.56308			42803.09259		194.60400		875.00000 
 43692.65567		 305.27265			43387.38302		65.25400		324.00000 
 43692.65567		 889.56308			42803.09259		194.60400		875.00000 
 43692.65567		 305.27265			43387.38302		65.25400		324.00000 
 43692.65567		 889.56308			42803.09259		194.60400		875.00000 
 43692.65567		 305.27265			43387.38302		65.25400		324.00000 
 43692.65567		 889.56308			42803.09259		194.60400		875.00000 
 43692.65567		 305.27265			43387.38302		65.25400		324.00000 
 43692.65567		 889.56308			42803.09259		194.60400		875.00000 
 43692.65567		 305.27265			43387.38302		65.25400		324.00000 
 43692.65567		 889.56308			42803.09259		194.60400		875.00000 
 43692.65567		 305.27265			43387.38302		65.25400		324.00000 
 43692.65567		 889.56308			42803.09259		194.60400		875.00000 
 43692.65567		 305.27265			43387.38302		65.25400		324.00000 
 43692.65567		 889.56308			42803.09259		194.60400		875.00000 
 43692.65567		 305.27265			43387.38302		65.25400		324.00000 
 43692.65567		 889.56308			42803.09259		194.60400		875.00000 
 43692.65567		 305.27265			43387.38302		65.25400		324.00000 
 43692.65567		 889.56308			42803.09259		194.60400		875.00000 
 43692.65567		 305.27265			43387.38302		65.25400		324.00000 
 43692.65567		 889.56308			42803.09259		194.60400		875.00000 
 43692.65567		 305.27265			43387.38302		65.25400		324.00000 
 43692.65567		 889.56308			42803.09259		194.60400		875.00000 
 43692.65567		 305.27265			43387.38302		65.25400		324.00000 
 43692.65567		 889.56308			42803.09259		194.60400		875.00000 
 43692.65567		 305.27265			43387.38302		65.25400		324.00000 
 43692.65567		 889.56308			42803.09259		194.60400		875.00000 
 43692.65567		 305.27265			43387.38302		65.25400		324.00000 
 43692.65567		 889.56308			42803.09259		194.60400		875.00000 
 43692.65567		 305.27265			43387.38302		65.25400		324.00000 
 43692.65567		 889.56308			42803.09259		194.60400		875.00000 
 43692.65567		 305.27265			43387.38302		65.25400		324.00000 
 43692.65567		 889.56308			42803.09259		194.60400		875.00000 
 43692.65567		 305.27265			43387.38302		65.25400		324.00000 
 43692.65567		 889.56308			42803.09259		194.60400		875.00000 
 43692.65567		 305.27265			43387.38302		65.25400		324.00000 
 43692.65567		 889.56308			42803.09259		194.60400		875.00000 
 43692.65567		 305.27265			43387.38302		65.25400		324.00000 
 43692.65567		 889.56308			42803.09259		194.60400		875.00000 
 43692.65567		 305.27265			43387.38302		65.25400		324.00000 
 43692.65567		 889.56308			42803.09259		194.60400		875.00000 
 43692.65567		 305.27265			43387.38302		65.25400		324.00000 
 43692.65567		 889.56308			42803.09259		194.60400		875.00000 
 43692.65567		 305.27265			43387.38302		65.25400		324.00000 
 43692.65567		 889.56308			42803.09259		194.60400		875.00000 
 43692.65567		 305.27265			43387.38302		65.25400		324.00000 
 43692.65567		 889.56308			42803.09259		194.60400		875.00000 
 43692.65567		 305.27265			43387.38302		65.25400		324.00000 
 43692.65567		 889.56308			42803.09259		194.60400		875.00000 
 43692.65567		 305.27265			43387.38302		65.25400		324.00000 
 43692.65567		 889.56308			42803.09259		194.60400		875.00000 
 43692.65567		 305.27265			43387.38302		65.25400		324.00000 
 43692.65567		 889.56308			42803.09259		194.60400		875.00000 
 43692.65567		 305.27265			43387.38302		65.25400		324.00000 
 43692.65567		 889.56308			42803.09259		194.60400		875.00000 
 43692.65567		 305.27265			43387.38302		65.25400		324.00000 
 43692.65567		 889.56308			42803.09259		194.60400		875.00000 
 43692.65567		 305.27265			43387.38302		65.25400		324.00000 
 43692.65567		 889.56308			42803.09259		194.60400		875.00000 
 43692.65567		 305.27265			43387.38302		65.25400		324.00000 
 43692.65567		 889.56308			42803.09259		194.60400		875.00000 
 43692.65567		 305.27265			43387.38302		65.25400		324.00000 
 43692.65567		 889.56308			42803.09259		194.60400		875.00000 
 43692.65567		 305.27265			43387.38302		65.25400		324.00000 
 43692.65567		 889.56308			42803.09259		194.60400		875.00000 
 43692.65567		 305.27265			43387.38302		65.25400		324.00000 
 43692.65567		 889.56308			42803.09259		194.60400		875.00000 
 43692.65567		 305.27265			43387.38302		65.25400		324.00000 
 43692.65567		 889.56308			42803.09259		194.60400		875.00000 
 43692.65567		 305.27265			43387.38302		65.25400		324.00000 
 43692.65567		 889.56308			42803.09259		194.60400		875.00000 
 43692.65567		 305.27265			43387.38302		65.25400		324.00000 
 43692.65567		 889.56308			42803.09259		194.60400		875.00000 
 43692.65567		 305.27265			43387.38302		65.25400		324.00000 
 43692.65567		 889.56308			42803.09259		194.60400		875.00000 
 43692.65567		 305.27265			43387.38302		65.25400		324.00000 
 43692.65567		 889.56308			42803.09259		194.60400		875.00000 
 43692.65567		 305.27265			43387.38302		65.25400		324.00000 
 43692.65567		 889.56308			42803.09259		215.07200		875.00000 
 43692.65567		 305.27265			43387.38302		65.25400		324.00000 
 43692.65567		 889.56308			42803.09259		215.07200		875.00000 
 43692.65567		 305.27265			43387.38302		65.25400		324.00000 
 43692.65567		 889.56308			42803.09259		215.07200		875.00000 
 43692.65567		 305.27265			43387.38302		65.25400		324.00000 
 43692.65567		 889.56308			42803.09259		215.07200		875.00000 
 43692.65567		 305.27265			43387.38302		65.25400		324.00000 
 43692.65567		 889.56308			42803.09259		215.07200		875.00000 
 43692.65567		 305.27265			43387.38302		65.25400		324.00000 
 43692.65567		 889.56308			42803.09259		215.07200		875.00000 
 43692.65567		 305.27265			43387.38302		65.25400		324.00000 
 43692.65567		 889.56308			42803.09259		215.07200		875.00000 
 43692.65567		 305.27265			43387.38302		65.25400		324.00000 
 43692.65567		 889.56308			42803.09259		215.07200		875.00000 
 43692.65567		 305.27265			43387.38302		65.25400		324.00000 
 43692.65567		 889.56308			42803.09259		215.07200		875.00000 
 43692.65567		 305.27265			43387.38302		65.25400		324.00000 
 43692.65567		 889.56308			42803.09259		215.07200		875.00000 
 43692.65567		 305.27265			43387.38302		65.25400		324.00000 
 43692.65567		 889.56308			42803.09259		215.07200		875.00000 
 43692.65567		 305.27265			43387.38302		65.25400		324.00000 
 43692.65567		 889.56308			42803.09259		215.07200		875.00000 
 43692.65567		 305.27265			43387.38302		65.25400		324.00000 
 43692.65567		 889.56308			42803.09259		215.07200		875.00000 
 43692.65567		 305.27265			43387.38302		65.25400		324.00000 
 43692.65567		 889.56308			42803.09259		215.07200		875.00000 
 43692.65567		 305.27265			43387.38302		65.25400		324.00000 
 43692.65567		 889.56308			42803.09259		215.07200		875.00000 
 43692.65567		 305.27265			43387.38302		65.25400		324.00000 
 43692.65567		 889.56308			42803.09259		215.07200		875.00000 
 43692.65567		 305.27265			43387.38302		65.25400		324.00000 
 43692.65567		 889.56308			42803.09259		215.07200		875.00000 
 43692.65567		 305.27265			43387.38302		65.25400		324.00000 
 43692.65567		 889.56308			42803.09259		215.07200		875.00000 
 43692.65567		 305.27265			43387.38302		65.25400		324.00000 
 43692.65567		 889.56308			42803.09259		215.07200		875.00000 
 43692.65567		 305.27265			43387.38302		65.25400		324.00000 
 43692.65567		 889.56308			42803.09259		215.07200		875.00000 
 43692.65567		 305.27265			43387.38302		65.25400		324.00000 
 43692.65567		 889.56308			42803.09259		215.07200		875.00000 
 43692.65567		 305.27265			43387.38302		65.25400		324.00000 
 43692.65567		 889.56308			42803.09259		215.07200		875.00000 
 43692.65567		 305.27265			43387.38302		65.25400		324.00000 
 43692.65567		 889.56308			42803.09259		215.07200		875.00000 
 43692.65567		 305.27265			43387.38302		65.25400		324.00000 
 43692.65567		 889.56308			42803.09259		215.07200		875.00000 
 43692.65567		 305.27265			43387.38302		65.25400		324.00000 
 43692.65567		 889.56308			42803.09259		215.07200		875.00000 
 43692.65567		 305.27265			43387.38302		65.25400		324.00000 
 43692.65567		 889.56308			42803.09259		215.07200		875.00000 
 43692.65567		 305.27265			43387.38302		65.25400		324.00000 
 43692.65567		 889.56308			42803.09259		215.07200		875.00000 
 43692.65567		 305.27265			43387.38302		65.25400		324.00000 
 43692.65567		 889.56308			42803.09259		215.07200		875.00000 
 43692.65567		 305.27265			43387.38302		65.25400		324.00000 
 43692.65567		 889.56308			42803.09259		215.07200		875.00000 
 43692.65567		 305.27265			43387.38302		65.25400		324.00000 
 43692.65567		 889.56308			42803.09259		215.07200		875.00000 
 43692.65567		 305.27265			43387.38302		65.25400		324.00000 
 43692.65567		 889.56308			42803.09259		215.07200		875.00000 
 43692.65567		 305.27265			43387.38302		65.25400		324.00000 
 43692.65567		 889.56308			42803.09259		215.07200		875.00000 
 43692.65567		 305.27265			43387.38302		65.25400		324.00000 
 43692.65567		 889.56308			42803.09259		215.07200		875.00000 
 43692.65567		 305.27265			43387.38302		65.25400		324.00000 
 43692.65567		 889.56308			42803.09259		215.07200		875.00000 
 43692.65567		 305.27265			43387.38302		65.25400		324.00000 
 43692.65567		 889.56308			42803.09259		215.07200		875.00000 
 43692.65567		 305.27265			43387.38302		65.25400		324.00000 
 43692.65567		 889.56308			42803.09259		215.07200		875.00000 
 43692.65567		 305.27265			43387.38302		65.25400		324.00000 
 43692.65567		 889.56308			42803.09259		215.07200		875.00000 
 43692.65567		 305.27265			43387.38302		65.25400		324.00000 
 43692.65567		 889.56308			42803.09259		215.07200		875.00000 
 43692.65567		 305.27265			43387.38302		65.25400		324.00000 
 43692.65567		 889.56308			42803.09259		215.07200		875.00000 
 43692.65567		 305.27265			43387.38302		65.25400		324.00000 
 43692.65567		 889.56308			42803.09259		215.07200		875.00000 
 43692.65567		 305.27265			43387.38302		65.25400		324.00000 
 43692.65567		 889.56308			42803.09259		215.07200		875.00000 
 43692.65567		 305.27265			43387.38302		65.25400		324.00000 
 43692.65567		 889.56308			42803.09259		215.07200		875.00000 
 43692.65567		 305.27265			43387.38302		65.25400		324.00000 
 43692.65567		 889.56308			42803.09259		215.07200		875.00000 
 43692.65567		 305.27265			43387.38302		65.25400		324.00000 
 43692.65567		 889.56308			42803.09259		215.07200		875.00000 
 43692.65567		 305.27265			43387.38302		65.25400		324.00000 
 43692.65567		 889.56308			42803.09259		215.07200		875.00000 
 43692.65567		 305.27265			43387.38302		65.25400		324.00000 
 43692.65567		 889.56308			42803.09259		215.07200		875.00000 
 43692.65567		 305.27265			43387.38302		65.25400		324.00000 
 43692.65567		 889.56308			42803.09259		215.07200		875.00000 
 43692.65567		 305.27265			43387.38302		65.25400		324.00000 
 43692.65567		 889.56308			42803.09259		215.07200		875.00000 
 43692.65567		 305.27265			43387.38302		65.25400		324.00000 
 43692.65567		 889.56308			42803.09259		215.07200		875.00000 
 43692.65567		 305.27265			43387.38302		65.25400		324.00000 
 43692.65567		 889.56308			42803.09259		215.07200		875.00000 
 43692.65567		 305.27265			43387.38302		65.25400		324.00000 
 43692.65567		 889.56308			42803.09259		215.07200		875.00000 
 43692.65567		 305.27265			43387.38302		65.25400		324.00000 
 43692.65567		 889.56308			42803.09259		215.07200		875.00000 
 43692.65567		 305.27265			43387.38302		65.25400		324.00000 
 43692.65567		 889.56308			42803.09259		215.07200		875.00000 
 43692.65567		 305.27265			43387.38302		65.25400		324.00000 
 43692.65567		 889.56308			42803.09259		215.07200		875.00000 
 43692.65567		 305.27265			43387.38302		65.25400		324.00000 
 43692.65567		 889.56308			42803.09259		215.07200		875.00000 
 43692.65567		 305.27265			43387.38302		65.25400		324.00000 
 43692.65567		 889.56308			42803.09259		215.07200		875.00000 
 43692.65567		 305.27265			43387.38302		65.25400		324.00000 
 43692.65567		 889.56308			42803.09259		215.07200		875.00000 
 43692.65567		 305.27265			43387.38302		65.25400		324.00000 
 43692.65567		 889.56308			42803.09259		215.07200		875.00000 
 43692.65567		 305.27265			43387.38302		65.25400		324.00000 
 43692.65567		 889.56308			42803.09259		215.07200		875.00000 
 43692.65567		 305.27265			43387.38302		65.25400		324.00000 
 43692.65567		 889.56308			42803.09259		215.07200		875.00000 
 43692.65567		 305.27265			43387.38302		65.25400		324.00000 
 43692.65567		 889.56308			42803.09259		215.07200		875.00000 
 43692.65567		 305.27265			43387.38302		65.25400		324.00000 
 43692.65567		 889.56308			42803.09259		215.07200		875.00000 
 43692.65567		 305.27265			43387.38302		65.25400		324.00000 
 43692.65567		 889.56308			42803.09259		215.07200		875.00000 
 43692.65567		 305.27265			43387.38302		65.25400		324.00000 
 43692.65567		 889.56308			42803.09259		215.07200		875.00000 
 43692.65567		 305.27265			43387.38302		65.25400		324.00000 
 43692.65567		 889.56308			42803.09259		222.40600		875.00000 
 43692.65567		 305.27265			43387.38302		65.25400		324.00000 
 43692.65567		 889.56308			42803.09259		222.40600		875.00000 
 43692.65567		 305.27265			43387.38302		65.25400		324.00000 
 43692.65567		 889.56308			42803.09259		222.40600		875.00000 
 43692.65567		 305.27265			43387.38302		65.25400		324.00000 
 43692.65567		 889.56308			42803.09259		222.40600		875.00000 
 43692.65567		 305.27265			43387.38302		65.25400		324.00000 
 43692.65567		 889.56308			42803.09259		222.40600		875.00000 
 43692.65567		 305.27265			43387.38302		65.25400		324.00000 
 43692.65567		 889.56308			42803.09259		222.40600		875.00000 
 43692.65567		 305.27265			43387.38302		65.25400		324.00000 
 43692.65567		 889.56308			42803.09259		222.40600		875.00000 
 43692.65567		 305.27265			43387.38302		65.25400		324.00000 
 43692.65567		 889.56308			42803.09259		222.40600		875.00000 
 43692.65567		 305.27265			43387.38302		65.25400		324.00000 
 43692.65567		 889.56308			42803.09259		222.40600		875.00000 
 43692.65567		 305.27265			43387.38302		65.25400		324.00000 
 43692.65567		 889.56308			42803.09259		222.40600		875.00000 
 43692.65567		 305.27265			43387.38302		65.25400		324.00000 
 43692.65567		 889.56308			42803.09259		222.40600		875.00000 
 43692.65567		 305.27265			43387.38302		65.25400		324.00000 
 43692.65567		 889.56308			42803.09259		222.40600		875.00000 
 43692.65567		 305.27265			43387.38302		65.25400		324.00000 
 43692.65567		 889.56308			42803.09259		222.40600		875.00000 
 43692.65567		 305.27265			43387.38302		65.25400		324.00000 
 43692.65567		 889.56308			42803.09259		222.40600		875.00000 
 43692.65567		 305.27265			43387.38302		65.25400		324.00000 
 43692.65567		 889.56308			42803.09259		222.40600		875.00000 
 43692.65567		 305.27265			43387.38302		65.25400		324.00000 
 43692.65567		 889.56308			42803.09259		222.40600		875.00000 
 43692.65567		 305.27265			43387.38302		65.25400		324.00000 
 43692.65567		 889.56308			42803.09259		222.40600		875.00000 
 43692.65567		 305.27265			43387.38302		65.25400		324.00000 
 43692.65567		 889.56308			42803.09259		222.40600		875.00000 
 43692.65567		 305.27265			43387.38302		65.25400		324.00000 
 43692.65567		 889.56308			42803.09259		222.40600		875.00000 
 43692.65567		 305.27265			43387.38302		65.25400		324.00000 
 43692.65567		 889.56308			42803.09259		222.40600		875.00000 
 43692.65567		 305.27265			43387.38302		65.25400		324.00000 
 43692.65567		 889.56308			42803.09259		222.40600		875.00000 
 43692.65567		 305.27265			43387.38302		65.25400		324.00000 
 43692.65567		 889.56308			42803.09259		222.40600		875.00000 
 43692.65567		 305.27265			43387.38302		65.25400		324.00000 
 43692.65567		 889.56308			42803.09259		222.40600		875.00000 
 43692.65567		 305.27265			43387.38302		65.25400		324.00000 
 43692.65567		 889.56308			42803.09259		222.40600		875.00000 
 43692.65567		 305.27265			43387.38302		65.25400		324.00000 
 43692.65567		 889.56308			42803.09259		222.40600		875.00000 
 43692.65567		 305.27265			43387.38302		65.25400		324.00000 
 43692.65567		 889.56308			42803.09259		222.40600		875.00000 
 43692.65567		 305.27265			43387.38302		65.25400		324.00000 
 43692.65567		 889.56308			42803.09259		222.40600		875.00000 
 43692.65567		 305.27265			43387.38302		65.25400		324.00000 
 43692.65567		 889.56308			42803.09259		222.40600		875.00000 
 43692.65567		 305.27265			43387.38302		65.25400		324.00000 
 43692.65567		 889.56308			42803.09259		222.40600		875.00000 
 43692.65567		 305.27265			43387.38302		65.25400		324.00000 
 43692.65567		 889.56308			42803.09259		222.40600		875.00000 
 43692.65567		 305.27265			43387.38302		65.25400		324.00000 
 43692.65567		 889.56308			42803.09259		222.40600		875.00000 
 43692.65567		 305.27265			43387.38302		65.25400		324.00000 
 43692.65567		 889.56308			42803.09259		222.40600		875.00000 
 43692.65567		 305.27265			43387.38302		65.25400		324.00000 
 43692.65567		 889.56308			42803.09259		222.40600		875.00000 
 43692.65567		 305.27265			43387.38302		65.25400		324.00000 
 43692.65567		 889.56308			42803.09259		222.40600		875.00000 
 43692.65567		 305.27265			43387.38302		65.25400		324.00000 
 43692.65567		 889.56308			42803.09259		222.40600		875.00000 
 43692.65567		 305.27265			43387.38302		65.25400		324.00000 
 43692.65567		 889.56308			42803.09259		222.40600		875.00000 
 43692.65567		 305.27265			43387.38302		65.25400		324.00000 
 43692.65567		 889.56308			42803.09259		222.40600		875.00000 
 43692.65567		 305.27265			43387.38302		65.25400		324.00000 
 43692.65567		 889.56308			42803.09259		222.40600		875.00000 
 43692.65567		 305.27265			43387.38302		65.25400		324.00000 
 43692.65567		 889.56308			42803.09259		222.40600		875.00000 
 43692.65567		 305.27265			43387.38302		65.25400		324.00000 
 43692.65567		 889.56308			42803.09259		222.40600		875.00000 
 43692.65567		 305.27265			43387.38302		65.25400		324.00000 
 43692.65567		 889.56308			42803.09259		222.40600		875.00000 
 43692.65567		 305.27265			43387.38302		65.25400		324.00000 
 43692.65567		 889.56308			42803.09259		222.40600		875.00000 
 43692.65567		 305.27265			43387.38302		65.25400		324.00000 
 43692.65567		 889.56308			42803.09259		222.40600		875.00000 
 43692.65567		 305.27265			43387.38302		65.25400		324.00000 
 43692.65567		 889.56308			42803.09259		222.40600		875.00000 
 43692.65567		 305.27265			43387.38302		65.25400		324.00000 
 43692.65567		 889.56308			42803.09259		222.40600		875.00000 
 43692.65567		 305.27265			43387.38302		65.25400		324.00000 
 43692.65567		 889.56308			42803.09259		222.40600		875.00000 
 43692.65567		 305.27265			43387.38302		65.25400		324.00000 
 43692.65567		 889.56308			42803.09259		222.40600		875.00000 
 43692.65567		 305.27265			43387.38302		65.25400		324.00000 
 43692.65567		 889.56308			42803.09259		222.40600		875.00000 
 43692.65567		 305.27265			43387.38302		65.25400		324.00000 
 43692.65567		 889.56308			42803.09259		222.40600		875.00000 
 43692.65567		 305.27265			43387.38302		65.25400		324.00000 
 43692.65567		 889.56308			42803.09259		222.40600		875.00000 
 43692.65567		 305.27265			43387.38302		65.25400		324.00000 
 43692.65567		 889.56308			42803.09259		222.40600		875.00000 
 43692.65567		 305.27265			43387.38302		65.25400		324.00000 
 43692.65567		 889.56308			42803.09259		222.40600		875.00000 
 43692.65567		 305.27265			43387.38302		65.25400		324.00000 
 43692.65567		 889.56308			42803.09259		222.40600		875.00000 
 43692.65567		 305.27265			43387.38302		65.25400		324.00000 
 43692.65567		 889.56308			42803.09259		222.40600		875.00000 
 43692.65567		 305.27265			43387.38302		65.25400		324.00000 
 43692.65567		 889.56308			42803.09259		222.40600		875.00000 
 43692.65567		 305.27265			43387.38302		65.25400		324.00000 
 43692.65567		 889.56308			42803.09259		222.40600		875.00000 
 43692.65567		 305.27265			43387.38302		65.25400		324.00000 
 43692.65567		 889.56308			42803.09259		222.40600		875.00000 
 43692.65567		 305.27265			43387.38302		65.25400		324.00000 
 43692.65567		 889.56308			42803.09259		222.40600		875.00000 
 43692.65567		 305.27265			43387.38302		65.25400		324.00000 
 43692.65567		 889.56308			42803.09259		222.40600		875.00000 
 43692.65567		 305.27265			43387.38302		65.25400		324.00000 
 43692.65567		 889.56308			42803.09259		222.40600		875.00000 
 43692.65567		 305.27265			43387.38302		65.25400		324.00000 
 43692.65567		 889.56308			42803.09259		222.40600		875.00000 
 43692.65567		 305.27265			43387.38302		65.25400		324.00000 
 43692.65567		 889.56308			42803.09259		222.40600		875.00000 
 43692.65567		 305.27265			43387.38302		65.25400		324.00000 
 43692.65567		 889.56308			42803.09259		222.40600		875.00000 
 43692.65567		 305.27265			43387.38302		65.25400		324.00000 
 43692.65567		 889.56308			42803.09259		222.40600		875.00000 
 43692.65567		 305.27265			43387.38302		65.25400		324.00000 
 43692.65567		 889.56308			42803.09259		225.36600		875.00000 
 43692.65567		 305.27265			43387.38302		65.25400		324.00000 
 43692.65567		 889.56308			42803.09259		225.36600		875.00000 
 43692.65567		 305.27265			43387.38302		65.25400		324.00000 
 43692.65567		 889.56308			42803.09259		225.36600		875.00000 
 43692.65567		 305.27265			43387.38302		65.25400		324.00000 
 43692.65567		 889.56308			42803.09259		225.36600		875.00000 
 43692.65567		 305.27265			43387.38302		65.25400		324.00000 
 43692.65567		 889.56308			42803.09259		225.36600		875.00000 
 43692.65567		 305.27265			43387.38302		65.25400		324.00000 
 43692.65567		 889.56308			42803.09259		225.36600		875.00000 
 43692.65567		 305.27265			43387.38302		65.25400		324.00000 
 43692.65567		 889.56308			42803.09259		225.36600		875.00000 
 43692.65567		 305.27265			43387.38302		65.25400		324.00000 
 43692.65567		 889.56308			42803.09259		225.36600		875.00000 
 43692.65567		 305.27265			43387.38302		65.25400		324.00000 
 43692.65567		 889.56308			42803.09259		225.36600		875.00000 
 43692.65567		 305.27265			43387.38302		65.25400		324.00000 
 43692.65567		 889.56308			42803.09259		225.36600		875.00000 
 43692.65567		 305.27265			43387.38302		65.25400		324.00000 
 43692.65567		 889.56308			42803.09259		225.36600		875.00000 
 43692.65567		 305.27265			43387.38302		65.25400		324.00000 
 43692.65567		 889.56308			42803.09259		225.36600		875.00000 
 43692.65567		 305.27265			43387.38302		65.25400		324.00000 
 43692.65567		 889.56308			42803.09259		225.36600		875.00000 
 43692.65567		 305.27265			43387.38302		65.25400		324.00000 
 43692.65567		 889.56308			42803.09259		225.36600		875.00000 
 43692.65567		 305.27265			43387.38302		65.25400		324.00000 
 43692.65567		 889.56308			42803.09259		225.36600		875.00000 
 43692.65567		 305.27265			43387.38302		65.25400		324.00000 
 43692.65567		 889.56308			42803.09259		225.36600		875.00000 
 43692.65567		 305.27265			43387.38302		65.25400		324.00000 
 43692.65567		 889.56308			42803.09259		225.36600		875.00000 
 43692.65567		 305.27265			43387.38302		65.25400		324.00000 
 43692.65567		 889.56308			42803.09259		225.36600		875.00000 
 43692.65567		 305.27265			43387.38302		65.25400		324.00000 
 43692.65567		 889.56308			42803.09259		225.36600		875.00000 
 43692.65567		 305.27265			43387.38302		65.25400		324.00000 
 43692.65567		 889.56308			42803.09259		225.36600		875.00000 
 43692.65567		 305.27265			43387.38302		65.25400		324.00000 
 43692.65567		 889.56308			42803.09259		225.36600		875.00000 
 43692.65567		 305.27265			43387.38302		65.25400		324.00000 
 43692.65567		 889.56308			42803.09259		225.36600		875.00000 
 43692.65567		 305.27265			43387.38302		65.25400		324.00000 
 43692.65567		 889.56308			42803.09259		225.36600		875.00000 
 43692.65567		 305.27265			43387.38302		65.25400		324.00000 
 43692.65567		 889.56308			42803.09259		225.36600		875.00000 
 43692.65567		 305.27265			43387.38302		65.25400		324.00000 
 43692.65567		 889.56308			42803.09259		225.36600		875.00000 
 43692.65567		 305.27265			43387.38302		65.25400		324.00000 
 43692.65567		 889.56308			42803.09259		225.36600		875.00000 
 43692.65567		 305.27265			43387.38302		65.25400		324.00000 
 43692.65567		 889.56308			42803.09259		225.36600		875.00000 
 43692.65567		 305.27265			43387.38302		65.25400		324.00000 
 43692.65567		 889.56308			42803.09259		225.36600		875.00000 
 43692.65567		 305.27265			43387.38302		65.25400		324.00000 
 43692.65567		 889.56308			42803.09259		225.36600		875.00000 
 43692.65567		 305.27265			43387.38302		65.25400		324.00000 
 43692.65567		 889.56308			42803.09259		225.36600		875.00000 
 43692.65567		 305.27265			43387.38302		65.25400		324.00000 
 43692.65567		 889.56308			42803.09259		225.36600		875.00000 
 43692.65567		 305.27265			43387.38302		65.25400		324.00000 
 43692.65567		 889.56308			42803.09259		225.36600		875.00000 
 43692.65567		 305.27265			43387.38302		65.25400		324.00000 
 43692.65567		 889.56308			42803.09259		225.36600		875.00000 
 43692.65567		 305.27265			43387.38302		65.25400		324.00000 
 43692.65567		 889.56308			42803.09259		225.36600		875.00000 
 43692.65567		 305.27265			43387.38302		65.25400		324.00000 
 43692.65567		 889.56308			42803.09259		225.36600		875.00000 
 43692.65567		 305.27265			43387.38302		65.25400		324.00000 
 43692.65567		 889.56308			42803.09259		225.36600		875.00000 
 43692.65567		 305.27265			43387.38302		65.25400		324.00000 
 43692.65567		 889.56308			42803.09259		225.36600		875.00000 
 43692.65567		 305.27265			43387.38302		65.25400		324.00000 
 43692.65567		 889.56308			42803.09259		225.36600		875.00000 
 43692.65567		 305.27265			43387.38302		65.25400		324.00000 
 43692.65567		 889.56308			42803.09259		225.36600		875.00000 
 43692.65567		 305.27265			43387.38302		65.25400		324.00000 
 43692.65567		 889.56308			42803.09259		225.36600		875.00000 
 43692.65567		 305.27265			43387.38302		65.25400		324.00000 
 43692.65567		 889.56308			42803.09259		225.36600		875.00000 
 43692.65567		 305.27265			43387.38302		65.25400		324.00000 
 43692.65567		 889.56308			42803.09259		225.36600		875.00000 
 43692.65567		 305.27265			43387.38302		65.25400		324.00000 
 43692.65567		 889.56308			42803.09259		225.36600		875.00000 
 43692.65567		 305.27265			43387.38302		65.25400		324.00000 
 43692.65567		 889.56308			42803.09259		225.36600		875.00000 
 43692.65567		 305.27265			43387.38302		65.25400		324.00000 
 43692.65567		 889.56308			42803.09259		225.36600		875.00000 
 43692.65567		 305.27265			43387.38302		65.25400		324.00000 
 43692.65567		 889.56308			42803.09259		225.36600		875.00000 
 43692.65567		 305.27265			43387.38302		65.25400		324.00000 
 43692.65567		 889.56308			42803.09259		225.36600		875.00000 
 43692.65567		 305.27265			43387.38302		65.25400		324.00000 
 43692.65567		 889.56308			42803.09259		225.36600		875.00000 
 43692.65567		 305.27265			43387.38302		65.25400		324.00000 
 43692.65567		 889.56308			42803.09259		225.36600		875.00000 
 43692.65567		 305.27265			43387.38302		65.25400		324.00000 
 43692.65567		 889.56308			42803.09259		225.36600		875.00000 
 43692.65567		 305.27265			43387.38302		65.25400		324.00000 
 43692.65567		 889.56308			42803.09259		225.36600		875.00000 
 43692.65567		 305.27265			43387.38302		65.25400		324.00000 
 43692.65567		 889.56308			42803.09259		225.36600		875.00000 
 43692.65567		 305.27265			43387.38302		65.25400		324.00000 
 43692.65567		 889.56308			42803.09259		225.36600		875.00000 
 43692.65567		 305.27265			43387.38302		65.25400		324.00000 
 43692.65567		 889.56308			42803.09259		225.36600		875.00000 
 43692.65567		 305.27265			43387.38302		65.25400		324.00000 
 43692.65567		 889.56308			42803.09259		225.36600		875.00000 
 43692.65567		 305.27265			43387.38302		65.25400		324.00000 
 43692.65567		 889.56308			42803.09259		225.36600		875.00000 
 43692.65567		 305.27265			43387.38302		65.25400		324.00000 
 43692.65567		 889.56308			42803.09259		225.36600		875.00000 
 43692.65567		 305.27265			43387.38302		65.25400		324.00000 
 43692.65567		 889.56308			42803.09259		225.36600		875.00000 
 43692.65567		 305.27265			43387.38302		65.25400		324.00000 
 43692.65567		 889.56308			42803.09259		225.36600		875.00000 
 43692.65567		 305.27265			43387.38302		65.25400		324.00000 
 43692.65567		 889.56308			42803.09259		225.36600		875.00000 
 43692.65567		 305.27265			43387.38302		65.25400		324.00000 
 43692.65567		 889.56308			42803.09259		225.36600		875.00000 
 43692.65567		 305.27265			43387.38302		65.25400		324.00000 
 43692.65567		 889.56308			42803.09259		225.36600		875.00000 
 43692.65567		 305.27265			43387.38302		65.25400		324.00000 
 43692.65567		 889.56308			42803.09259		225.36600		875.00000 
 43692.65567		 305.27265			43387.38302		65.25400		324.00000 
 43692.65567		 889.56308			42803.09259		225.36600		875.00000 
 43692.65567		 305.27265			43387.38302		65.25400		324.00000 
 43692.65567		 889.56308			42803.09259		225.58400		875.00000 
 43692.65567		 305.27265			43387.38302		65.25400		324.00000 
 43692.65567		 889.56308			42803.09259		225.58400		875.00000 
 43692.65567		 305.27265			43387.38302		65.25400		324.00000 
 43692.65567		 889.56308			42803.09259		225.58400		875.00000 
 43692.65567		 305.27265			43387.38302		65.25400		324.00000 
 43692.65567		 889.56308			42803.09259		225.58400		875.00000 
 43692.65567		 305.27265			43387.38302		65.25400		324.00000 
 43692.65567		 889.56308			42803.09259		225.58400		875.00000 
 43692.65567		 305.27265			43387.38302		65.25400		324.00000 
 43692.65567		 889.56308			42803.09259		225.58400		875.00000 
 43692.65567		 305.27265			43387.38302		65.25400		324.00000 
 43692.65567		 889.56308			42803.09259		225.58400		875.00000 
 43692.65567		 305.27265			43387.38302		65.25400		324.00000 
 43692.65567		 889.56308			42803.09259		225.58400		875.00000 
 43692.65567		 305.27265			43387.38302		65.25400		324.00000 
 43692.65567		 889.56308			42803.09259		225.58400		875.00000 
 43692.65567		 305.27265			43387.38302		65.25400		324.00000 
 43692.65567		 889.56308			42803.09259		225.58400		875.00000 
 43692.65567		 305.27265			43387.38302		65.25400		324.00000 
 43692.65567		 889.56308			42803.09259		225.58400		875.00000 
 43692.65567		 305.27265			43387.38302		65.25400		324.00000 
 43692.65567		 889.56308			42803.09259		225.58400		875.00000 
 43692.65567		 305.27265			43387.38302		65.25400		324.00000 
 43692.65567		 889.56308			42803.09259		225.58400		875.00000 
 43692.65567		 305.27265			43387.38302		65.25400		324.00000 
 43692.65567		 889.56308			42803.09259		225.58400		875.00000 
 43692.65567		 305.27265			43387.38302		65.25400		324.00000 
 43692.65567		 889.56308			42803.09259		225.58400		875.00000 
 43692.65567		 305.27265			43387.38302		65.25400		324.00000 
 43692.65567		 889.56308			42803.09259		225.58400		875.00000 
 43692.65567		 305.27265			43387.38302		65.25400		324.00000 
 43692.65567		 889.56308			42803.09259		225.58400		875.00000 
 43692.65567		 305.27265			43387.38302		65.25400		324.00000 
 43692.65567		 889.56308			42803.09259		225.58400		875.00000 
 43692.65567		 305.27265			43387.38302		65.25400		324.00000 
 43692.65567		 889.56308			42803.09259		225.58400		875.00000 
 43692.65567		 305.27265			43387.38302		65.25400		324.00000 
 43692.65567		 889.56308			42803.09259		225.58400		875.00000 
 43692.65567		 305.27265			43387.38302		65.25400		324.00000 
 43692.65567		 889.56308			42803.09259		225.58400		875.00000 
 43692.65567		 305.27265			43387.38302		65.25400		324.00000 
 43692.65567		 889.56308			42803.09259		225.58400		875.00000 
 43692.65567		 305.27265			43387.38302		65.25400		324.00000 
 43692.65567		 889.56308			42803.09259		225.58400		875.00000 
 43692.65567		 305.27265			43387.38302		65.25400		324.00000 
 43692.65567		 889.56308			42803.09259		225.58400		875.00000 
 43692.65567		 305.27265			43387.38302		65.25400		324.00000 
 43692.65567		 889.56308			42803.09259		225.58400		875.00000 
 43692.65567		 305.27265			43387.38302		65.25400		324.00000 
 43692.65567		 889.56308			42803.09259		225.58400		875.00000 
 43692.65567		 305.27265			43387.38302		65.25400		324.00000 
 43692.65567		 889.56308			42803.09259		225.58400		875.00000 
 43692.65567		 305.27265			43387.38302		65.25400		324.00000 
 43692.65567		 889.56308			42803.09259		225.58400		875.00000 
 43692.65567		 305.27265			43387.38302		65.25400		324.00000 
 43692.65567		 889.56308			42803.09259		225.58400		875.00000 
 43692.65567		 305.27265			43387.38302		65.25400		324.00000 
 43692.65567		 889.56308			42803.09259		225.58400		875.00000 
 43692.65567		 305.27265			43387.38302		65.25400		324.00000 
 43692.65567		 889.56308			42803.09259		225.58400		875.00000 
 43692.65567		 305.27265			43387.38302		65.25400		324.00000 
 43692.65567		 889.56308			42803.09259		225.58400		875.00000 
 43692.65567		 305.27265			43387.38302		65.25400		324.00000 
 43692.65567		 889.56308			42803.09259		225.58400		875.00000 
 43692.65567		 305.27265			43387.38302		65.25400		324.00000 
 43692.65567		 889.56308			42803.09259		225.58400		875.00000 
 43692.65567		 305.27265			43387.38302		65.25400		324.00000 
 43692.65567		 889.56308			42803.09259		225.58400		875.00000 
 43692.65567		 305.27265			43387.38302		65.25400		324.00000 
 43692.65567		 889.56308			42803.09259		225.58400		875.00000 
 43692.65567		 305.27265			43387.38302		65.25400		324.00000 
 43692.65567		 889.56308			42803.09259		225.58400		875.00000 
 43692.65567		 305.27265			43387.38302		65.25400		324.00000 
 43692.65567		 889.56308			42803.09259		225.58400		875.00000 
 43692.65567		 305.27265			43387.38302		65.25400		324.00000 
 43692.65567		 889.56308			42803.09259		225.58400		875.00000 
 43692.65567		 305.27265			43387.38302		65.25400		324.00000 
 43692.65567		 889.56308			42803.09259		225.58400		875.00000 
 43692.65567		 305.27265			43387.38302		65.25400		324.00000 
 43692.65567		 889.56308			42803.09259		225.58400		875.00000 
 43692.65567		 305.27265			43387.38302		65.25400		324.00000 
 43692.65567		 889.56308			42803.09259		225.58400		875.00000 
 43692.65567		 305.27265			43387.38302		65.25400		324.00000 
 43692.65567		 889.56308			42803.09259		225.58400		875.00000 
 43692.65567		 305.27265			43387.38302		65.25400		324.00000 
 43692.65567		 889.56308			42803.09259		225.58400		875.00000 
 43692.65567		 305.27265			43387.38302		65.25400		324.00000 
 43692.65567		 889.56308			42803.09259		225.58400		875.00000 
 43692.65567		 305.27265			43387.38302		65.25400		324.00000 
 43692.65567		 889.56308			42803.09259		225.58400		875.00000 
 43692.65567		 305.27265			43387.38302		65.25400		324.00000 
 43692.65567		 889.56308			42803.09259		225.58400		875.00000 
 43692.65567		 305.27265			43387.38302		65.25400		324.00000 
 43692.65567		 889.56308			42803.09259		225.58400		875.00000 
 43692.65567		 305.27265			43387.38302		65.25400		324.00000 
 43692.65567		 889.56308			42803.09259		225.58400		875.00000 
 43692.65567		 305.27265			43387.38302		65.25400		324.00000 
 43692.65567		 889.56308			42803.09259		225.58400		875.00000 
 43692.65567		 305.27265			43387.38302		65.25400		324.00000 
 43692.65567		 889.56308			42803.09259		225.58400		875.00000 
 43692.65567		 305.27265			43387.38302		65.25400		324.00000 
 43692.65567		 889.56308			42803.09259		225.58400		875.00000 
 43692.65567		 305.27265			43387.38302		65.25400		324.00000 
 43692.65567		 889.56308			42803.09259		225.58400		875.00000 
 43692.65567		 305.27265			43387.38302		65.25400		324.00000 
 43692.65567		 889.56308			42803.09259		225.58400		875.00000 
 43692.65567		 305.27265			43387.38302		65.25400		324.00000 
 43692.65567		 889.56308			42803.09259		225.58400		875.00000 
 43692.65567		 305.27265			43387.38302		65.25400		324.00000 
 43692.65567		 889.56308			42803.09259		225.58400		875.00000 
 43692.65567		 305.27265			43387.38302		65.25400		324.00000 
 43692.65567		 889.56308			42803.09259		225.58400		875.00000 
 43692.65567		 305.27265			43387.38302		65.25400		324.00000 
 43692.65567		 889.56308			42803.09259		225.58400		875.00000 
 43692.65567		 305.27265			43387.38302		65.25400		324.00000 
 43692.65567		 889.56308			42803.09259		225.58400		875.00000 
 43692.65567		 305.27265			43387.38302		65.25400		324.00000 
 43692.65567		 889.56308			42803.09259		225.58400		875.00000 
 43692.65567		 305.27265			43387.38302		65.25400		324.00000 
 43692.65567		 889.56308			42803.09259		225.58400		875.00000 
 43692.65567		 305.27265			43387.38302		65.25400		324.00000 
 43692.65567		 889.56308			42803.09259		225.58400		875.00000 
 43692.65567		 305.27265			43387.38302		65.25400		324.00000 
 43692.65567		 889.56308			42803.09259		225.58400		875.00000 
 43692.65567		 305.27265			43387.38302		65.25400		324.00000 
 43692.65567		 889.56308			42803.09259		225.58400		875.00000 
 43692.65567		 305.27265			43387.38302		65.25400		324.00000 
 43692.65567		 889.56308			42803.09259		224.98400		875.00000 
 43692.65567		 305.27265			43387.38302		65.25400		324.00000 
 43692.65567		 889.56308			42803.09259		224.98400		875.00000 
 43692.65567		 305.27265			43387.38302		65.25400		324.00000 
 43692.65567		 889.56308			42803.09259		224.98400		875.00000 
 43692.65567		 305.27265			43387.38302		65.25400		324.00000 
 43692.65567		 889.56308			42803.09259		224.98400		875.00000 
 43692.65567		 305.27265			43387.38302		65.25400		324.00000 
 43692.65567		 889.56308			42803.09259		224.98400		875.00000 
 43692.65567		 305.27265			43387.38302		65.25400		324.00000 
 43692.65567		 889.56308			42803.09259		224.98400		875.00000 
 43692.65567		 305.27265			43387.38302		65.25400		324.00000 
 43692.65567		 889.56308			42803.09259		224.98400		875.00000 
 43692.65567		 305.27265			43387.38302		65.25400		324.00000 
 43692.65567		 889.56308			42803.09259		224.98400		875.00000 
 43692.65567		 305.27265			43387.38302		65.25400		324.00000 
 43692.65567		 889.56308			42803.09259		224.98400		875.00000 
 43692.65567		 305.27265			43387.38302		65.25400		324.00000 
 43692.65567		 889.56308			42803.09259		224.98400		875.00000 
 43692.65567		 305.27265			43387.38302		65.25400		324.00000 
 43692.65567		 889.56308			42803.09259		224.98400		875.00000 
 43692.65567		 305.27265			43387.38302		65.25400		324.00000 
 43692.65567		 889.56308			42803.09259		224.98400		875.00000 
 43692.65567		 305.27265			43387.38302		65.25400		324.00000 
 43692.65567		 889.56308			42803.09259		224.98400		875.00000 
 43692.65567		 305.27265			43387.38302		65.25400		324.00000 
 43692.65567		 889.56308			42803.09259		224.98400		875.00000 
 43692.65567		 305.27265			43387.38302		65.25400		324.00000 
 43692.65567		 889.56308			42803.09259		224.98400		875.00000 
 43692.65567		 305.27265			43387.38302		65.25400		324.00000 
 43692.65567		 889.56308			42803.09259		224.98400		875.00000 
 43692.65567		 305.27265			43387.38302		65.25400		324.00000 
 43692.65567		 889.56308			42803.09259		224.98400		875.00000 
 43692.65567		 305.27265			43387.38302		65.25400		324.00000 
 43692.65567		 889.56308			42803.09259		224.98400		875.00000 
 43692.65567		 305.27265			43387.38302		65.25400		324.00000 
 43692.65567		 889.56308			42803.09259		224.98400		875.00000 
 43692.65567		 305.27265			43387.38302		65.25400		324.00000 
 43692.65567		 889.56308			42803.09259		224.98400		875.00000 
 43692.65567		 305.27265			43387.38302		65.25400		324.00000 
 43692.65567		 889.56308			42803.09259		224.98400		875.00000 
 43692.65567		 305.27265			43387.38302		65.25400		324.00000 
 43692.65567		 889.56308			42803.09259		224.98400		875.00000 
 43692.65567		 305.27265			43387.38302		65.25400		324.00000 
 43692.65567		 889.56308			42803.09259		224.98400		875.00000 
 43692.65567		 305.27265			43387.38302		65.25400		324.00000 
 43692.65567		 889.56308			42803.09259		224.98400		875.00000 
 43692.65567		 305.27265			43387.38302		65.25400		324.00000 
 43692.65567		 889.56308			42803.09259		224.98400		875.00000 
 43692.65567		 305.27265			43387.38302		65.25400		324.00000 
 43692.65567		 889.56308			42803.09259		224.98400		875.00000 
 43692.65567		 305.27265			43387.38302		65.25400		324.00000 
 43692.65567		 889.56308			42803.09259		224.98400		875.00000 
 43692.65567		 305.27265			43387.38302		65.25400		324.00000 
 43692.65567		 889.56308			42803.09259		224.98400		875.00000 
 43692.65567		 305.27265			43387.38302		65.25400		324.00000 
 43692.65567		 889.56308			42803.09259		224.98400		875.00000 
 43692.65567		 305.27265			43387.38302		65.25400		324.00000 
 43692.65567		 889.56308			42803.09259		224.98400		875.00000 
 43692.65567		 305.27265			43387.38302		65.25400		324.00000 
 43692.65567		 889.56308			42803.09259		224.98400		875.00000 
 43692.65567		 305.27265			43387.38302		65.25400		324.00000 
 43692.65567		 889.56308			42803.09259		224.98400		875.00000 
 43692.65567		 305.27265			43387.38302		65.25400		324.00000 
 43692.65567		 889.56308			42803.09259		224.98400		875.00000 
 43692.65567		 305.27265			43387.38302		65.25400		324.00000 
 43692.65567		 889.56308			42803.09259		224.98400		875.00000 
 43692.65567		 305.27265			43387.38302		65.25400		324.00000 
 43692.65567		 889.56308			42803.09259		224.98400		875.00000 
 43692.65567		 305.27265			43387.38302		65.25400		324.00000 
 43692.65567		 889.56308			42803.09259		224.98400		875.00000 
 43692.65567		 305.27265			43387.38302		65.25400		324.00000 
 43692.65567		 889.56308			42803.09259		224.98400		875.00000 
 43692.65567		 305.27265			43387.38302		65.25400		324.00000 
 43692.65567		 889.56308			42803.09259		224.98400		875.00000 
 43692.65567		 305.27265			43387.38302		65.25400		324.00000 
 43692.65567		 889.56308			42803.09259		224.98400		875.00000 
 43692.65567		 305.27265			43387.38302		65.25400		324.00000 
 43692.65567		 889.56308			42803.09259		224.98400		875.00000 
 43692.65567		 305.27265			43387.38302		65.25400		324.00000 
 43692.65567		 889.56308			42803.09259		224.98400		875.00000 
 43692.65567		 305.27265			43387.38302		65.25400		324.00000 
 43692.65567		 889.56308			42803.09259		224.98400		875.00000 
 43692.65567		 305.27265			43387.38302		65.25400		324.00000 
 43692.65567		 889.56308			42803.09259		224.98400		875.00000 
 43692.65567		 305.27265			43387.38302		65.25400		324.00000 
 43692.65567		 889.56308			42803.09259		224.98400		875.00000 
 43692.65567		 305.27265			43387.38302		65.25400		324.00000 
 43692.65567		 889.56308			42803.09259		224.98400		875.00000 
 43692.65567		 305.27265			43387.38302		65.25400		324.00000 
 43692.65567		 889.56308			42803.09259		224.98400		875.00000 
 43692.65567		 305.27265			43387.38302		65.25400		324.00000 
 43692.65567		 889.56308			42803.09259		224.98400		875.00000 
 43692.65567		 305.27265			43387.38302		65.25400		324.00000 
 43692.65567		 889.56308			42803.09259		224.98400		875.00000 
 43692.65567		 305.27265			43387.38302		65.25400		324.00000 
 43692.65567		 889.56308			42803.09259		224.98400		875.00000 
 43692.65567		 305.27265			43387.38302		65.25400		324.00000 
 43692.65567		 889.56308			42803.09259		224.98400		875.00000 
 43692.65567		 305.27265			43387.38302		65.25400		324.00000 
 43692.65567		 889.56308			42803.09259		224.98400		875.00000 
 43692.65567		 305.27265			43387.38302		65.25400		324.00000 
 43692.65567		 889.56308			42803.09259		224.98400		875.00000 
 43692.65567		 305.27265			43387.38302		65.25400		324.00000 
 43692.65567		 889.56308			42803.09259		224.98400		875.00000 
 43692.65567		 305.27265			43387.38302		65.25400		324.00000 
 43692.65567		 889.56308			42803.09259		224.98400		875.00000 
 43692.65567		 305.27265			43387.38302		65.25400		324.00000 
 43692.65567		 889.56308			42803.09259		224.98400		875.00000 
 43692.65567		 305.27265			43387.38302		65.25400		324.00000 
 43692.65567		 889.56308			42803.09259		224.98400		875.00000 
 43692.65567		 305.27265			43387.38302		65.25400		324.00000 
 43692.65567		 889.56308			42803.09259		224.98400		875.00000 
 43692.65567		 305.27265			43387.38302		65.25400		324.00000 
 43692.65567		 889.56308			42803.09259		224.98400		875.00000 
 43692.65567		 305.27265			43387.38302		65.25400		324.00000 
 43692.65567		 889.56308			42803.09259		224.98400		875.00000 
 43692.65567		 305.27265			43387.38302		65.25400		324.00000 
 43692.65567		 889.56308			42803.09259		224.98400		875.00000 
 43692.65567		 305.27265			43387.38302		65.25400		324.00000 
 43692.65567		 889.56308			42803.09259		224.98400		875.00000 
 43692.65567		 305.27265			43387.38302		65.25400		324.00000 
 43692.65567		 889.56308			42803.09259		224.98400		875.00000 
 43692.65567		 305.27265			43387.38302		65.25400		324.00000 
 43692.65567		 889.56308			42803.09259		224.98400		875.00000 
 43692.65567		 305.27265			43387.38302		65.25400		324.00000 
 43692.65567		 889.56308			42803.09259		224.98400		875.00000 
 43692.65567		 305.27265			43387.38302		65.25400		324.00000 
 43692.65567		 889.56308			42803.09259		224.98400		875.00000 
 43692.65567		 305.27265			43387.38302		65.25400		324.00000 
 43692.65567		 889.56308			42803.09259		224.98400		875.00000 
 43692.65567		 305.27265			43387.38302		65.25400		324.00000 
 43692.65567		 889.56308			42803.09259		224.98400		875.00000 
 43692.65567		 305.27265			43387.38302		65.25400		324.00000 
 43692.65567		 889.56308			42803.09259		225.94800		875.00000 
 43692.65567		 305.27265			43387.38302		65.25400		324.00000 
 43692.65567		 889.56308			42803.09259		225.94800		875.00000 
 43692.65567		 305.27265			43387.38302		65.25400		324.00000 
 43692.65567		 889.56308			42803.09259		225.94800		875.00000 
 43692.65567		 305.27265			43387.38302		65.25400		324.00000 
 43692.65567		 889.56308			42803.09259		225.94800		875.00000 
 43692.65567		 305.27265			43387.38302		65.25400		324.00000 
 43692.65567		 889.56308			42803.09259		225.94800		875.00000 
 43692.65567		 305.27265			43387.38302		65.25400		324.00000 
 43692.65567		 889.56308			42803.09259		225.94800		875.00000 
 43692.65567		 305.27265			43387.38302		65.25400		324.00000 
 43692.65567		 889.56308			42803.09259		225.94800		875.00000 
 43692.65567		 305.27265			43387.38302		65.25400		324.00000 
 43692.65567		 889.56308			42803.09259		225.94800		875.00000 
 43692.65567		 305.27265			43387.38302		65.25400		324.00000 
 43692.65567		 889.56308			42803.09259		225.94800		875.00000 
 43692.65567		 305.27265			43387.38302		65.25400		324.00000 
 43692.65567		 889.56308			42803.09259		225.94800		875.00000 
 43692.65567		 305.27265			43387.38302		65.25400		324.00000 
 43692.65567		 889.56308			42803.09259		225.94800		875.00000 
 43692.65567		 305.27265			43387.38302		65.25400		324.00000 
 43692.65567		 889.56308			42803.09259		225.94800		875.00000 
 43692.65567		 305.27265			43387.38302		65.25400		324.00000 
 43692.65567		 889.56308			42803.09259		225.94800		875.00000 
 43692.65567		 305.27265			43387.38302		65.25400		324.00000 
 43692.65567		 889.56308			42803.09259		225.94800		875.00000 
 43692.65567		 305.27265			43387.38302		65.25400		324.00000 
 43692.65567		 889.56308			42803.09259		225.94800		875.00000 
 43692.65567		 305.27265			43387.38302		65.25400		324.00000 
 43692.65567		 889.56308			42803.09259		225.94800		875.00000 
 43692.65567		 305.27265			43387.38302		65.25400		324.00000 
 43692.65567		 889.56308			42803.09259		225.94800		875.00000 
 43692.65567		 305.27265			43387.38302		65.25400		324.00000 
 43692.65567		 889.56308			42803.09259		225.94800		875.00000 
 43692.65567		 305.27265			43387.38302		65.25400		324.00000 
 43692.65567		 889.56308			42803.09259		225.94800		875.00000 
 43692.65567		 305.27265			43387.38302		65.25400		324.00000 
 43692.65567		 889.56308			42803.09259		225.94800		875.00000 
 43692.65567		 305.27265			43387.38302		65.25400		324.00000 
 43692.65567		 889.56308			42803.09259		225.94800		875.00000 
 43692.65567		 305.27265			43387.38302		65.25400		324.00000 
 43692.65567		 889.56308			42803.09259		225.94800		875.00000 
 43692.65567		 305.27265			43387.38302		65.25400		324.00000 
 43692.65567		 889.56308			42803.09259		225.94800		875.00000 
 43692.65567		 305.27265			43387.38302		65.25400		324.00000 
 43692.65567		 889.56308			42803.09259		225.94800		875.00000 
 43692.65567		 305.27265			43387.38302		65.25400		324.00000 
 43692.65567		 889.56308			42803.09259		225.94800		875.00000 
 43692.65567		 305.27265			43387.38302		65.25400		324.00000 
 43692.65567		 889.56308			42803.09259		225.94800		875.00000 
 43692.65567		 305.27265			43387.38302		65.25400		324.00000 
 43692.65567		 889.56308			42803.09259		225.94800		875.00000 
 43692.65567		 305.27265			43387.38302		65.25400		324.00000 
 43692.65567		 889.56308			42803.09259		225.94800		875.00000 
 43692.65567		 305.27265			43387.38302		65.25400		324.00000 
 43692.65567		 889.56308			42803.09259		225.94800		875.00000 
 43692.65567		 305.27265			43387.38302		65.25400		324.00000 
 43692.65567		 889.56308			42803.09259		225.94800		875.00000 
 43692.65567		 305.27265			43387.38302		65.25400		324.00000 
 43692.65567		 889.56308			42803.09259		225.94800		875.00000 
 43692.65567		 305.27265			43387.38302		65.25400		324.00000 
 43692.65567		 889.56308			42803.09259		225.94800		875.00000 
 43692.65567		 305.27265			43387.38302		65.25400		324.00000 
 43692.65567		 889.56308			42803.09259		225.94800		875.00000 
 43692.65567		 305.27265			43387.38302		65.25400		324.00000 
 43692.65567		 889.56308			42803.09259		225.94800		875.00000 
 43692.65567		 305.27265			43387.38302		65.25400		324.00000 
 43692.65567		 889.56308			42803.09259		225.94800		875.00000 
 43692.65567		 305.27265			43387.38302		65.25400		324.00000 
 43692.65567		 889.56308			42803.09259		225.94800		875.00000 
 43692.65567		 305.27265			43387.38302		65.25400		324.00000 
 43692.65567		 889.56308			42803.09259		225.94800		875.00000 
 43692.65567		 305.27265			43387.38302		65.25400		324.00000 
 43692.65567		 889.56308			42803.09259		225.94800		875.00000 
 43692.65567		 305.27265			43387.38302		65.25400		324.00000 
 43692.65567		 889.56308			42803.09259		225.94800		875.00000 
 43692.65567		 305.27265			43387.38302		65.25400		324.00000 
 43692.65567		 889.56308			42803.09259		225.94800		875.00000 
 43692.65567		 305.27265			43387.38302		65.25400		324.00000 
 43692.65567		 889.56308			42803.09259		225.94800		875.00000 
 43692.65567		 305.27265			43387.38302		65.25400		324.00000 
 43692.65567		 889.56308			42803.09259		225.94800		875.00000 
 43692.65567		 305.27265			43387.38302		65.25400		324.00000 
 43692.65567		 889.56308			42803.09259		225.94800		875.00000 
 43692.65567		 305.27265			43387.38302		65.25400		324.00000 
 43692.65567		 889.56308			42803.09259		225.94800		875.00000 
 43692.65567		 305.27265			43387.38302		65.25400		324.00000 
 43692.65567		 889.56308			42803.09259		225.94800		875.00000 
 43692.65567		 305.27265			43387.38302		65.25400		324.00000 
 43692.65567		 889.56308			42803.09259		225.94800		875.00000 
 43692.65567		 305.27265			43387.38302		65.25400		324.00000 
 43692.65567		 889.56308			42803.09259		225.94800		875.00000 
 43692.65567		 305.27265			43387.38302		65.25400		324.00000 
 43692.65567		 889.56308			42803.09259		225.94800		875.00000 
 43692.65567		 305.27265			43387.38302		65.25400		324.00000 
 43692.65567		 889.56308			42803.09259		225.94800		875.00000 
 43692.65567		 305.27265			43387.38302		65.25400		324.00000 
 43692.65567		 889.56308			42803.09259		225.94800		875.00000 
 43692.65567		 305.27265			43387.38302		65.25400		324.00000 
 43692.65567		 889.56308			42803.09259		225.94800		875.00000 
 43692.65567		 305.27265			43387.38302		65.25400		324.00000 
 43692.65567		 889.56308			42803.09259		225.94800		875.00000 
 43692.65567		 305.27265			43387.38302		65.25400		324.00000 
 43692.65567		 889.56308			42803.09259		225.94800		875.00000 
 43692.65567		 305.27265			43387.38302		65.25400		324.00000 
 43692.65567		 889.56308			42803.09259		225.94800		875.00000 
 43692.65567		 305.27265			43387.38302		65.25400		324.00000 
 43692.65567		 889.56308			42803.09259		225.94800		875.00000 
 43692.65567		 305.27265			43387.38302		65.25400		324.00000 
 43692.65567		 889.56308			42803.09259		225.94800		875.00000 
 43692.65567		 305.27265			43387.38302		65.25400		324.00000 
 43692.65567		 889.56308			42803.09259		225.94800		875.00000 
 43692.65567		 305.27265			43387.38302		65.25400		324.00000 
 43692.65567		 889.56308			42803.09259		225.94800		875.00000 
 43692.65567		 305.27265			43387.38302		65.25400		324.00000 
 43692.65567		 889.56308			42803.09259		225.94800		875.00000 
 43692.65567		 305.27265			43387.38302		65.25400		324.00000 
 43692.65567		 889.56308			42803.09259		225.94800		875.00000 
 43692.65567		 305.27265			43387.38302		65.25400		324.00000 
 43692.65567		 889.56308			42803.09259		225.94800		875.00000 
 43692.65567		 305.27265			43387.38302		65.25400		324.00000 
 43692.65567		 889.56308			42803.09259		225.94800		875.00000 
 43692.65567		 305.27265			43387.38302		65.25400		324.00000 
 43692.65567		 889.56308			42803.09259		225.94800		875.00000 
 43692.65567		 305.27265			43387.38302		65.25400		324.00000 
 43692.65567		 889.56308			42803.09259		225.94800		875.00000 
 43692.65567		 305.27265			43387.38302		65.25400		324.00000 
 43692.65567		 889.56308			42803.09259		225.94800		875.00000 
 43692.65567		 305.27265			43387.38302		65.25400		324.00000 
 43692.65567		 889.56308			42803.09259		226.54800		875.00000 
 43692.65567		 305.27265			43387.38302		65.25400		324.00000 
 43692.65567		 889.56308			42803.09259		226.54800		875.00000 
 43692.65567		 305.27265			43387.38302		65.25400		324.00000 
 43692.65567		 889.56308			42803.09259		226.54800		875.00000 
 43692.65567		 305.27265			43387.38302		65.25400		324.00000 
 43692.65567		 889.56308			42803.09259		226.54800		875.00000 
 43692.65567		 305.27265			43387.38302		65.25400		324.00000 
 43692.65567		 889.56308			42803.09259		226.54800		875.00000 
 43692.65567		 305.27265			43387.38302		65.25400		324.00000 
 43692.65567		 889.56308			42803.09259		226.54800		875.00000 
 43692.65567		 305.27265			43387.38302		65.25400		324.00000 
 43692.65567		 889.56308			42803.09259		226.54800		875.00000 
 43692.65567		 305.27265			43387.38302		65.25400		324.00000 
 43692.65567		 889.56308			42803.09259		226.54800		875.00000 
 43692.65567		 305.27265			43387.38302		65.25400		324.00000 
 43692.65567		 889.56308			42803.09259		226.54800		875.00000 
 43692.65567		 305.27265			43387.38302		65.25400		324.00000 
 43692.65567		 889.56308			42803.09259		226.54800		875.00000 
 43692.65567		 305.27265			43387.38302		65.25400		324.00000 
 43692.65567		 889.56308			42803.09259		226.54800		875.00000 
 43692.65567		 305.27265			43387.38302		65.25400		324.00000 
 43692.65567		 889.56308			42803.09259		226.54800		875.00000 
 43692.65567		 305.27265			43387.38302		65.25400		324.00000 
 43692.65567		 889.56308			42803.09259		226.54800		875.00000 
 43692.65567		 305.27265			43387.38302		65.25400		324.00000 
 43692.65567		 889.56308			42803.09259		226.54800		875.00000 
 43692.65567		 305.27265			43387.38302		65.25400		324.00000 
 43692.65567		 889.56308			42803.09259		226.54800		875.00000 
 43692.65567		 305.27265			43387.38302		65.25400		324.00000 
 43692.65567		 889.56308			42803.09259		226.54800		875.00000 
 43692.65567		 305.27265			43387.38302		65.25400		324.00000 
 43692.65567		 889.56308			42803.09259		226.54800		875.00000 
 43692.65567		 305.27265			43387.38302		65.25400		324.00000 
 43692.65567		 889.56308			42803.09259		226.54800		875.00000 
 43692.65567		 305.27265			43387.38302		65.25400		324.00000 
 43692.65567		 889.56308			42803.09259		226.54800		875.00000 
 43692.65567		 305.27265			43387.38302		65.25400		324.00000 
 43692.65567		 889.56308			42803.09259		226.54800		875.00000 
 43692.65567		 305.27265			43387.38302		65.25400		324.00000 
 43692.65567		 889.56308			42803.09259		226.54800		875.00000 
 43692.65567		 305.27265			43387.38302		65.25400		324.00000 
 43692.65567		 889.56308			42803.09259		226.54800		875.00000 
 43692.65567		 305.27265			43387.38302		65.25400		324.00000 
 43692.65567		 889.56308			42803.09259		226.54800		875.00000 
 43692.65567		 305.27265			43387.38302		65.25400		324.00000 
 43692.65567		 889.56308			42803.09259		226.54800		875.00000 
 43692.65567		 305.27265			43387.38302		65.25400		324.00000 
 43692.65567		 889.56308			42803.09259		226.54800		875.00000 
 43692.65567		 305.27265			43387.38302		65.25400		324.00000 
 43692.65567		 889.56308			42803.09259		226.54800		875.00000 
 43692.65567		 305.27265			43387.38302		65.25400		324.00000 
 43692.65567		 889.56308			42803.09259		226.54800		875.00000 
 43692.65567		 305.27265			43387.38302		65.25400		324.00000 
 43692.65567		 889.56308			42803.09259		226.54800		875.00000 
 43692.65567		 305.27265			43387.38302		65.25400		324.00000 
 43692.65567		 889.56308			42803.09259		226.54800		875.00000 
 43692.65567		 305.27265			43387.38302		65.25400		324.00000 
 43692.65567		 889.56308			42803.09259		226.54800		875.00000 
 43692.65567		 305.27265			43387.38302		65.25400		324.00000 
 43692.65567		 889.56308			42803.09259		226.54800		875.00000 
 43692.65567		 305.27265			43387.38302		65.25400		324.00000 
 43692.65567		 889.56308			42803.09259		226.54800		875.00000 
 43692.65567		 305.27265			43387.38302		65.25400		324.00000 
 43692.65567		 889.56308			42803.09259		226.54800		875.00000 
 43692.65567		 305.27265			43387.38302		65.25400		324.00000 
 43692.65567		 889.56308			42803.09259		226.54800		875.00000 
 43692.65567		 305.27265			43387.38302		65.25400		324.00000 
 43692.65567		 889.56308			42803.09259		226.54800		875.00000 
 43692.65567		 305.27265			43387.38302		65.25400		324.00000 
 43692.65567		 889.56308			42803.09259		226.54800		875.00000 
 43692.65567		 305.27265			43387.38302		65.25400		324.00000 
 43692.65567		 889.56308			42803.09259		226.54800		875.00000 
 43692.65567		 305.27265			43387.38302		65.25400		324.00000 
 43692.65567		 889.56308			42803.09259		226.54800		875.00000 
 43692.65567		 305.27265			43387.38302		65.25400		324.00000 
 43692.65567		 889.56308			42803.09259		226.54800		875.00000 
 43692.65567		 305.27265			43387.38302		65.25400		324.00000 
 43692.65567		 889.56308			42803.09259		226.54800		875.00000 
 43692.65567		 305.27265			43387.38302		65.25400		324.00000 
 43692.65567		 889.56308			42803.09259		226.54800		875.00000 
 43692.65567		 305.27265			43387.38302		65.25400		324.00000 
 43692.65567		 889.56308			42803.09259		226.54800		875.00000 
 43692.65567		 305.27265			43387.38302		65.25400		324.00000 
 43692.65567		 889.56308			42803.09259		226.54800		875.00000 
 43692.65567		 305.27265			43387.38302		65.25400		324.00000 
 43692.65567		 889.56308			42803.09259		226.54800		875.00000 
 43692.65567		 305.27265			43387.38302		65.25400		324.00000 
 43692.65567		 889.56308			42803.09259		226.54800		875.00000 
 43692.65567		 305.27265			43387.38302		65.25400		324.00000 
 43692.65567		 889.56308			42803.09259		226.54800		875.00000 
 43692.65567		 305.27265			43387.38302		65.25400		324.00000 
 43692.65567		 889.56308			42803.09259		226.54800		875.00000 
 43692.65567		 305.27265			43387.38302		65.25400		324.00000 
 43692.65567		 889.56308			42803.09259		226.54800		875.00000 
 43692.65567		 305.27265			43387.38302		65.25400		324.00000 
 43692.65567		 889.56308			42803.09259		226.54800		875.00000 
 43692.65567		 305.27265			43387.38302		65.25400		324.00000 
 43692.65567		 889.56308			42803.09259		226.54800		875.00000 
 43692.65567		 305.27265			43387.38302		65.25400		324.00000 
 43692.65567		 889.56308			42803.09259		226.54800		875.00000 
 43692.65567		 305.27265			43387.38302		65.25400		324.00000 
 43692.65567		 889.56308			42803.09259		226.54800		875.00000 
 43692.65567		 305.27265			43387.38302		65.25400		324.00000 
 43692.65567		 889.56308			42803.09259		226.54800		875.00000 
 43692.65567		 305.27265			43387.38302		65.25400		324.00000 
 43692.65567		 889.56308			42803.09259		226.54800		875.00000 
 43692.65567		 305.27265			43387.38302		65.25400		324.00000 
 43692.65567		 889.56308			42803.09259		226.54800		875.00000 
 43692.65567		 305.27265			43387.38302		65.25400		324.00000 
 43692.65567		 889.56308			42803.09259		226.54800		875.00000 
 43692.65567		 305.27265			43387.38302		65.25400		324.00000 
 43692.65567		 889.56308			42803.09259		226.54800		875.00000 
 43692.65567		 305.27265			43387.38302		65.25400		324.00000 
 43692.65567		 889.56308			42803.09259		226.54800		875.00000 
 43692.65567		 305.27265			43387.38302		65.25400		324.00000 
 43692.65567		 889.56308			42803.09259		226.54800		875.00000 
 43692.65567		 305.27265			43387.38302		65.25400		324.00000 
 43692.65567		 889.56308			42803.09259		226.54800		875.00000 
 43692.65567		 305.27265			43387.38302		65.25400		324.00000 
 43692.65567		 889.56308			42803.09259		226.54800		875.00000 
 43692.65567		 305.27265			43387.38302		65.25400		324.00000 
 43692.65567		 889.56308			42803.09259		226.54800		875.00000 
 43692.65567		 305.27265			43387.38302		65.25400		324.00000 
 43692.65567		 889.56308			42803.09259		226.54800		875.00000 
 43692.65567		 305.27265			43387.38302		65.25400		324.00000 
 43692.65567		 889.56308			42803.09259		226.54800		875.00000 
 43692.65567		 305.27265			43387.38302		65.25400		324.00000 
 43692.65567		 889.56308			42803.09259		226.54800		875.00000 
 43692.65567		 305.27265			43387.38302		65.25400		324.00000 
 43692.65567		 889.56308			42803.09259		226.54800		875.00000 
 43692.65567		 305.27265			43387.38302		65.25400		324.00000 
 43692.65567		 889.56308			42803.09259		226.54800		875.00000 
 43692.65567		 305.27265			43387.38302		65.25400		324.00000 
 43692.65567		 889.56308			42803.09259		226.54800		875.00000 
 43692.65567		 305.27265			43387.38302		65.25400		324.00000 
 43692.65567		 889.56308			42803.09259		226.54800		875.00000 
 43692.65567		 305.27265			43387.38302		65.25400		324.00000 
 43692.65567		 889.56308			42803.09259		226.54800		875.00000 
 43692.65567		 305.27265			43387.38302		65.25400		324.00000 
 43692.65567		 889.56308			42803.09259		226.54800		875.00000 
 43692.65567		 305.27265			43387.38302		65.25400		324.00000 
 43692.65567		 889.56308			42803.09259		226.54800		875.00000 
 43692.65567		 305.27265			43387.38302		65.25400		324.00000 
 43692.65567		 889.56308			42803.09259		226.54800		875.00000 
 43692.65567		 305.27265			43387.38302		65.25400		324.00000 
 43692.65567		 889.56308			42803.09259		226.54800		875.00000 
 43692.65567		 305.27265			43387.38302		65.25400		324.00000 
 43692.65567		 889.56308			42803.09259		226.54800		875.00000 
 43692.65567		 305.27265			43387.38302		65.25400		324.00000 
 43692.65567		 889.56308			42803.09259		226.54800		875.00000 
 43692.65567		 305.27265			43387.38302		65.25400		324.00000 
 43692.65567		 889.56308			42803.09259		226.54800		875.00000 
 43692.65567		 305.27265			43387.38302		65.25400		324.00000 
 43692.65567		 889.56308			42803.09259		226.54800		875.00000 
 43692.65567		 305.27265			43387.38302		65.25400		324.00000 
 43692.65567		 889.56308			42803.09259		226.54800		875.00000 
 43692.65567		 305.27265			43387.38302		65.25400		324.00000 
 43692.65567		 889.56308			42803.09259		226.54800		875.00000 
 43692.65567		 305.27265			43387.38302		65.25400		324.00000 
 43692.65567		 889.56308			42803.09259		226.54800		875.00000 
 43692.65567		 305.27265			43387.38302		65.25400		324.00000 
 43692.65567		 889.56308			42803.09259		226.54800		875.00000 
 43692.65567		 305.27265			43387.38302		65.25400		324.00000 
 43692.65567		 889.56308			42803.09259		226.54800		875.00000 
 43692.65567		 305.27265			43387.38302		65.25400		324.00000 
 43692.65567		 889.56308			42803.09259		226.54800		875.00000 
 43692.65567		 305.27265			43387.38302		65.25400		324.00000 
 43692.65567		 889.56308			42803.09259		226.54800		875.00000 
 43692.65567		 305.27265			43387.38302		65.25400		324.00000 
 43692.65567		 889.56308			42803.09259		226.54800		875.00000 
 43692.65567		 305.27265			43387.38302		65.25400		324.00000 
 43692.65567		 889.56308			42803.09259		226.54800		875.00000 
 43692.65567		 305.27265			43387.38302		65.25400		324.00000 
 43692.65567		 889.56308			42803.09259		226.54800		875.00000 
 43692.65567		 305.27265			43387.38302		65.25400		324.00000 
 43692.65567		 889.56308			42803.09259		226.54800		875.00000 
 43692.65567		 305.27265			43387.38302		65.25400		324.00000 
 43692.65567		 889.56308			42803.09259		226.54800		875.00000 
 43692.65567		 305.27265			43387.38302		65.25400		324.00000 
 43692.65567		 889.56308			42803.09259		226.54800		875.00000 
 43692.65567		 305.27265			43387.38302		65.25400		324.00000 
 43692.65567		 889.56308			42803.09259		226.54800		875.00000 
 43692.65567		 305.27265			43387.38302		65.25400		324.00000 
 43692.65567		 889.56308			42803.09259		226.54800		875.00000 
 43692.65567		 305.27265			43387.38302		65.25400		324.00000 
 43692.65567		 889.56308			42803.09259		226.54800		875.00000 
 43692.65567		 305.27265			43387.38302		65.25400		324.00000 
 43692.65567		 889.56308			42803.09259		226.54800		875.00000 
 43692.65567		 305.27265			43387.38302		65.25400		324.00000 
 43692.65567		 889.56308			42803.09259		226.54800		875.00000 
 43692.65567		 305.27265			43387.38302		65.25400		324.00000 
 43692.65567		 889.56308			42803.09259		226.54800		875.00000 
 43692.65567		 305.27265			43387.38302		70.72800		324.00000 
 43692.65567		 889.56308			42803.09259		226.54800		875.00000 
 43692.65567		 305.27265			43387.38302		70.72800		324.00000 
 43692.65567		 889.56308			42803.09259		226.54800		875.00000 
 43692.65567		 305.27265			43387.38302		70.72800		324.00000 
 43692.65567		 889.56308			42803.09259		226.54800		875.00000 
 43692.65567		 305.27265			43387.38302		70.72800		324.00000 
 43692.65567		 889.56308			42803.09259		226.54800		875.00000 
 43692.65567		 305.27265			43387.38302		70.72800		324.00000 
 43692.65567		 889.56308			42803.09259		226.54800		875.00000 
 43692.65567		 305.27265			43387.38302		70.72800		324.00000 
 43692.65567		 889.56308			42803.09259		226.54800		875.00000 
 43692.65567		 305.27265			43387.38302		70.72800		324.00000 
 43692.65567		 889.56308			42803.09259		226.54800		875.00000 
 43692.65567		 305.27265			43387.38302		70.72800		324.00000 
 43692.65567		 889.56308			42803.09259		226.54800		875.00000 
 43692.65567		 305.27265			43387.38302		70.72800		324.00000 
 43692.65567		 889.56308			42803.09259		226.54800		875.00000 
 43692.65567		 305.27265			43387.38302		70.72800		324.00000 
 43692.65567		 889.56308			42803.09259		226.54800		875.00000 
 43692.65567		 305.27265			43387.38302		70.72800		324.00000 
 43692.65567		 889.56308			42803.09259		226.54800		875.00000 
 43692.65567		 305.27265			43387.38302		70.72800		324.00000 
 43692.65567		 889.56308			42803.09259		226.54800		875.00000 
 43692.65567		 305.27265			43387.38302		70.72800		324.00000 
 43692.65567		 889.56308			42803.09259		226.54800		875.00000 
 43692.65567		 305.27265			43387.38302		70.72800		324.00000 
 43692.65567		 889.56308			42803.09259		226.54800		875.00000 
 43692.65567		 305.27265			43387.38302		70.72800		324.00000 
 43692.65567		 889.56308			42803.09259		226.54800		875.00000 
 43692.65567		 305.27265			43387.38302		70.72800		324.00000 
 43692.65567		 889.56308			42803.09259		226.54800		875.00000 
 43692.65567		 305.27265			43387.38302		70.72800		324.00000 
 43692.65567		 889.56308			42803.09259		226.54800		875.00000 
 43692.65567		 305.27265			43387.38302		70.72800		324.00000 
 43692.65567		 889.56308			42803.09259		226.54800		875.00000 
 43692.65567		 305.27265			43387.38302		70.72800		324.00000 
 43692.65567		 889.56308			42803.09259		226.54800		875.00000 
 43692.65567		 305.27265			43387.38302		70.72800		324.00000 
 43692.65567		 889.56308			42803.09259		226.54800		875.00000 
 43692.65567		 305.27265			43387.38302		70.72800		324.00000 
 43692.65567		 889.56308			42803.09259		226.54800		875.00000 
 43692.65567		 305.27265			43387.38302		70.72800		324.00000 
 43692.65567		 889.56308			42803.09259		226.54800		875.00000 
 43692.65567		 305.27265			43387.38302		70.72800		324.00000 
 43692.65567		 889.56308			42803.09259		226.54800		875.00000 
 43692.65567		 305.27265			43387.38302		70.72800		324.00000 
 43692.65567		 889.56308			42803.09259		226.54800		875.00000 
 43692.65567		 305.27265			43387.38302		70.72800		324.00000 
 43692.65567		 889.56308			42803.09259		226.54800		875.00000 
 43692.65567		 305.27265			43387.38302		70.72800		324.00000 
 43692.65567		 889.56308			42803.09259		226.54800		875.00000 
 43692.65567		 305.27265			43387.38302		70.72800		324.00000 
 43692.65567		 889.56308			42803.09259		226.54800		875.00000 
 43692.65567		 305.27265			43387.38302		70.72800		324.00000 
 43692.65567		 889.56308			42803.09259		226.54800		875.00000 
 43692.65567		 305.27265			43387.38302		70.72800		324.00000 
 43692.65567		 889.56308			42803.09259		226.54800		875.00000 
 43692.65567		 305.27265			43387.38302		70.72800		324.00000 
 43692.65567		 889.56308			42803.09259		226.54800		875.00000 
 43692.65567		 305.27265			43387.38302		70.72800		324.00000 
 43692.65567		 889.56308			42803.09259		226.54800		875.00000 
 43692.65567		 305.27265			43387.38302		70.72800		324.00000 
 43692.65567		 889.56308			42803.09259		226.54800		875.00000 
 43692.65567		 305.27265			43387.38302		70.72800		324.00000 
 43692.65567		 889.56308			42803.09259		226.54800		875.00000 
 43692.65567		 305.27265			43387.38302		70.72800		324.00000 
 43692.65567		 889.56308			42803.09259		226.54800		875.00000 
 43692.65567		 305.27265			43387.38302		70.72800		324.00000 
 43692.65567		 889.56308			42803.09259		226.54800		875.00000 
 43692.65567		 305.27265			43387.38302		70.72800		324.00000 
 43692.65567		 889.56308			42803.09259		226.54800		875.00000 
 43692.65567		 305.27265			43387.38302		70.72800		324.00000 
 43692.65567		 889.56308			42803.09259		226.54800		875.00000 
 43692.65567		 305.27265			43387.38302		70.72800		324.00000 
 43692.65567		 889.56308			42803.09259		226.54800		875.00000 
 43692.65567		 305.27265			43387.38302		70.72800		324.00000 
 43692.65567		 889.56308			42803.09259		226.54800		875.00000 
 43692.65567		 305.27265			43387.38302		70.72800		324.00000 
 43692.65567		 889.56308			42803.09259		226.54800		875.00000 
 43692.65567		 305.27265			43387.38302		70.72800		324.00000 
 43692.65567		 889.56308			42803.09259		226.54800		875.00000 
 43692.65567		 305.27265			43387.38302		70.72800		324.00000 
 43692.65567		 889.56308			42803.09259		226.54800		875.00000 
 43692.65567		 305.27265			43387.38302		70.72800		324.00000 
 43692.65567		 889.56308			42803.09259		226.54800		875.00000 
 43692.65567		 305.27265			43387.38302		70.72800		324.00000 
 43692.65567		 889.56308			42803.09259		226.54800		875.00000 
 43692.65567		 305.27265			43387.38302		70.72800		324.00000 
 43692.65567		 889.56308			42803.09259		226.54800		875.00000 
 43692.65567		 305.27265			43387.38302		70.72800		324.00000 
 43692.65567		 889.56308			42803.09259		226.54800		875.00000 
 43692.65567		 305.27265			43387.38302		70.72800		324.00000 
 43692.65567		 889.56308			42803.09259		226.54800		875.00000 
 43692.65567		 305.27265			43387.38302		70.72800		324.00000 
 43692.65567		 889.56308			42803.09259		226.54800		875.00000 
 43692.65567		 305.27265			43387.38302		70.72800		324.00000 
 43692.65567		 889.56308			42803.09259		226.54800		875.00000 
 43692.65567		 305.27265			43387.38302		70.72800		324.00000 
 43692.65567		 889.56308			42803.09259		226.54800		875.00000 
 43692.65567		 305.27265			43387.38302		70.72800		324.00000 
 43692.65567		 889.56308			42803.09259		226.54800		875.00000 
 43692.65567		 305.27265			43387.38302		70.72800		324.00000 
 43692.65567		 889.56308			42803.09259		226.54800		875.00000 
 43692.65567		 305.27265			43387.38302		70.72800		324.00000 
 43692.65567		 889.56308			42803.09259		226.54800		875.00000 
 43692.65567		 305.27265			43387.38302		70.72800		324.00000 
 43692.65567		 889.56308			42803.09259		226.54800		875.00000 
 43692.65567		 305.27265			43387.38302		70.72800		324.00000 
 43692.65567		 889.56308			42803.09259		226.54800		875.00000 
 43692.65567		 305.27265			43387.38302		70.72800		324.00000 
 43692.65567		 889.56308			42803.09259		226.54800		875.00000 
 43692.65567		 305.27265			43387.38302		70.72800		324.00000 
 43692.65567		 889.56308			42803.09259		226.54800		875.00000 
 43692.65567		 305.27265			43387.38302		70.72800		324.00000 
 43692.65567		 889.56308			42803.09259		226.54800		875.00000 
 43692.65567		 305.27265			43387.38302		70.72800		324.00000 
 43692.65567		 889.56308			42803.09259		226.54800		875.00000 
 43692.65567		 305.27265			43387.38302		70.72800		324.00000 
 43692.65567		 889.56308			42803.09259		226.54800		875.00000 
 43692.65567		 305.27265			43387.38302		70.72800		324.00000 
 43692.65567		 889.56308			42803.09259		226.54800		875.00000 
 43692.65567		 305.27265			43387.38302		70.72800		324.00000 
 43692.65567		 889.56308			42803.09259		226.54800		875.00000 
 43692.65567		 305.27265			43387.38302		70.72800		324.00000 
 43692.65567		 889.56308			42803.09259		226.54800		875.00000 
 43692.65567		 305.27265			43387.38302		70.72800		324.00000 
 43692.65567		 889.56308			42803.09259		226.54800		875.00000 
 43692.65567		 305.27265			43387.38302		70.72800		324.00000 
 43692.65567		 889.56308			42803.09259		226.54800		875.00000 
 43692.65567		 305.27265			43387.38302		70.72800		324.00000 
 43692.65567		 889.56308			42803.09259		226.54800		875.00000 
 43692.65567		 305.27265			43387.38302		70.72800		324.00000 
 43692.65567		 889.56308			42803.09259		226.54800		875.00000 
 43692.65567		 305.27265			43387.38302		70.72800		324.00000 
 43692.65567		 889.56308			42803.09259		226.54800		875.00000 
 43692.65567		 305.27265			43387.38302		70.72800		324.00000 
 43692.65567		 889.56308			42803.09259		226.54800		875.00000 
 43692.65567		 305.27265			43387.38302		70.72800		324.00000 
 43692.65567		 889.56308			42803.09259		226.54800		875.00000 
 43692.65567		 305.27265			43387.38302		70.72800		324.00000 
 43692.65567		 889.56308			42803.09259		226.54800		875.00000 
 43692.65567		 305.27265			43387.38302		70.72800		324.00000 
 43692.65567		 889.56308			42803.09259		226.54800		875.00000 
 43692.65567		 305.27265			43387.38302		70.72800		324.00000 
 43692.65567		 889.56308			42803.09259		226.54800		875.00000 
 43692.65567		 305.27265			43387.38302		70.72800		324.00000 
 43692.65567		 889.56308			42803.09259		226.54800		875.00000 
 43692.65567		 305.27265			43387.38302		70.72800		324.00000 
 43692.65567		 889.56308			42803.09259		226.54800		875.00000 
 43692.65567		 305.27265			43387.38302		70.72800		324.00000 
 43692.65567		 889.56308			42803.09259		226.54800		875.00000 
 43692.65567		 305.27265			43387.38302		70.72800		324.00000 
 43692.65567		 889.56308			42803.09259		226.54800		875.00000 
 43692.65567		 305.27265			43387.38302		70.72800		324.00000 
 43692.65567		 889.56308			42803.09259		226.54800		875.00000 
 43692.65567		 305.27265			43387.38302		70.72800		324.00000 
 43692.65567		 889.56308			42803.09259		226.54800		875.00000 
 43692.65567		 305.27265			43387.38302		70.72800		324.00000 
 43692.65567		 889.56308			42803.09259		226.54800		875.00000 
 43692.65567		 305.27265			43387.38302		70.72800		324.00000 
 43692.65567		 889.56308			42803.09259		226.54800		875.00000 
 43692.65567		 305.27265			43387.38302		70.72800		324.00000 
 43692.65567		 889.56308			42803.09259		226.54800		875.00000 
 43692.65567		 305.27265			43387.38302		70.72800		324.00000 
 43692.65567		 889.56308			42803.09259		226.54800		875.00000 
 43692.65567		 305.27265			43387.38302		70.72800		324.00000 
 43692.65567		 889.56308			42803.09259		226.54800		875.00000 
 43692.65567		 305.27265			43387.38302		70.72800		324.00000 
 43692.65567		 889.56308			42803.09259		226.54800		875.00000 
 43692.65567		 305.27265			43387.38302		70.72800		324.00000 
 43692.65567		 889.56308			42803.09259		226.54800		875.00000 
 43692.65567		 305.27265			43387.38302		70.72800		324.00000 
 43692.65567		 889.56308			42803.09259		226.54800		875.00000 
 43692.65567		 305.27265			43387.38302		70.72800		324.00000 
 43692.65567		 889.56308			42803.09259		226.54800		875.00000 
 43692.65567		 305.27265			43387.38302		70.72800		324.00000 
 43692.65567		 889.56308			42803.09259		226.54800		875.00000 
 43692.65567		 305.27265			43387.38302		70.72800		324.00000 
 43692.65567		 889.56308			42803.09259		226.54800		875.00000 
 43692.65567		 305.27265			43387.38302		70.72800		324.00000 
 43692.65567		 889.56308			42803.09259		226.54800		875.00000 
 43692.65567		 305.27265			43387.38302		70.72800		324.00000 
 43692.65567		 889.56308			42803.09259		226.54800		875.00000 
 43692.65567		 305.27265			43387.38302		70.72800		324.00000 
 43692.65567		 889.56308			42803.09259		226.54800		875.00000 
 43692.65567		 305.27265			43387.38302		70.72800		324.00000 
 43692.65567		 889.56308			42803.09259		226.54800		875.00000 
 43692.65567		 305.27265			43387.38302		70.72800		324.00000 
 43692.65567		 889.56308			42803.09259		226.54800		875.00000 
 43692.65567		 305.27265			43387.38302		70.72800		324.00000 
 43692.65567		 889.56308			42803.09259		226.54800		875.00000 
 43692.65567		 305.27265			43387.38302		70.72800		324.00000 
 43692.65567		 889.56308			42803.09259		226.54800		875.00000 
 43692.65567		 305.27265			43387.38302		70.72800		324.00000 
 43692.65567		 889.56308			42803.09259		226.54800		875.00000 
 43692.65567		 305.27265			43387.38302		70.72800		324.00000 
 43692.65567		 889.56308			42803.09259		227.14800		875.00000 
 43692.65567		 305.27265			43387.38302		70.72800		324.00000 
 43692.65567		 889.56308			42803.09259		227.14800		875.00000 
 43692.65567		 305.27265			43387.38302		70.72800		324.00000 
 43692.65567		 889.56308			42803.09259		227.14800		875.00000 
 43692.65567		 305.27265			43387.38302		70.72800		324.00000 
 43692.65567		 889.56308			42803.09259		227.14800		875.00000 
 43692.65567		 305.27265			43387.38302		70.72800		324.00000 
 43692.65567		 889.56308			42803.09259		227.14800		875.00000 
 43692.65567		 305.27265			43387.38302		70.72800		324.00000 
 43692.65567		 889.56308			42803.09259		227.14800		875.00000 
 43692.65567		 305.27265			43387.38302		70.72800		324.00000 
 43692.65567		 889.56308			42803.09259		227.14800		875.00000 
 43692.65567		 305.27265			43387.38302		70.72800		324.00000 
 43692.65567		 889.56308			42803.09259		227.14800		875.00000 
 43692.65567		 305.27265			43387.38302		70.72800		324.00000 
 43692.65567		 889.56308			42803.09259		227.14800		875.00000 
 43692.65567		 305.27265			43387.38302		70.72800		324.00000 
 43692.65567		 889.56308			42803.09259		227.14800		875.00000 
 43692.65567		 305.27265			43387.38302		70.72800		324.00000 
 43692.65567		 889.56308			42803.09259		227.14800		875.00000 
 43692.65567		 305.27265			43387.38302		70.72800		324.00000 
 43692.65567		 889.56308			42803.09259		227.14800		875.00000 
 43692.65567		 305.27265			43387.38302		70.72800		324.00000 
 43692.65567		 889.56308			42803.09259		227.14800		875.00000 
 43692.65567		 305.27265			43387.38302		70.72800		324.00000 
 43692.65567		 889.56308			42803.09259		227.14800		875.00000 
 43692.65567		 305.27265			43387.38302		70.72800		324.00000 
 43692.65567		 889.56308			42803.09259		227.14800		875.00000 
 43692.65567		 305.27265			43387.38302		70.72800		324.00000 
 43692.65567		 889.56308			42803.09259		227.14800		875.00000 
 43692.65567		 305.27265			43387.38302		70.72800		324.00000 
 43692.65567		 889.56308			42803.09259		227.14800		875.00000 
 43692.65567		 305.27265			43387.38302		70.72800		324.00000 
 43692.65567		 889.56308			42803.09259		227.14800		875.00000 
 43692.65567		 305.27265			43387.38302		70.72800		324.00000 
 43692.65567		 889.56308			42803.09259		227.14800		875.00000 
 43692.65567		 305.27265			43387.38302		70.72800		324.00000 
 43692.65567		 889.56308			42803.09259		227.14800		875.00000 
 43692.65567		 305.27265			43387.38302		70.72800		324.00000 
 43692.65567		 889.56308			42803.09259		227.14800		875.00000 
 43692.65567		 305.27265			43387.38302		70.72800		324.00000 
 43692.65567		 889.56308			42803.09259		227.14800		875.00000 
 43692.65567		 305.27265			43387.38302		70.72800		324.00000 
 43692.65567		 889.56308			42803.09259		227.14800		875.00000 
 43692.65567		 305.27265			43387.38302		70.72800		324.00000 
 43692.65567		 889.56308			42803.09259		227.14800		875.00000 
 43692.65567		 305.27265			43387.38302		70.72800		324.00000 
 43692.65567		 889.56308			42803.09259		227.14800		875.00000 
 43692.65567		 305.27265			43387.38302		70.72800		324.00000 
 43692.65567		 889.56308			42803.09259		227.14800		875.00000 
 43692.65567		 305.27265			43387.38302		70.72800		324.00000 
 43692.65567		 889.56308			42803.09259		227.14800		875.00000 
 43692.65567		 305.27265			43387.38302		70.72800		324.00000 
 43692.65567		 889.56308			42803.09259		227.14800		875.00000 
 43692.65567		 305.27265			43387.38302		70.72800		324.00000 
 43692.65567		 889.56308			42803.09259		227.14800		875.00000 
 43692.65567		 305.27265			43387.38302		70.72800		324.00000 
 43692.65567		 889.56308			42803.09259		227.14800		875.00000 
 43692.65567		 305.27265			43387.38302		70.72800		324.00000 
 43692.65567		 889.56308			42803.09259		227.14800		875.00000 
 43692.65567		 305.27265			43387.38302		70.72800		324.00000 
 43692.65567		 889.56308			42803.09259		227.14800		875.00000 
 43692.65567		 305.27265			43387.38302		70.72800		324.00000 
 43692.65567		 889.56308			42803.09259		227.14800		875.00000 
 43692.65567		 305.27265			43387.38302		70.72800		324.00000 
 43692.65567		 889.56308			42803.09259		227.14800		875.00000 
 43692.65567		 305.27265			43387.38302		70.72800		324.00000 
 43692.65567		 889.56308			42803.09259		227.14800		875.00000 
 43692.65567		 305.27265			43387.38302		70.72800		324.00000 
 43692.65567		 889.56308			42803.09259		227.14800		875.00000 
 43692.65567		 305.27265			43387.38302		70.72800		324.00000 
 43692.65567		 889.56308			42803.09259		227.14800		875.00000 
 43692.65567		 305.27265			43387.38302		70.72800		324.00000 
 43692.65567		 889.56308			42803.09259		227.14800		875.00000 
 43692.65567		 305.27265			43387.38302		70.72800		324.00000 
 43692.65567		 889.56308			42803.09259		227.14800		875.00000 
 43692.65567		 305.27265			43387.38302		70.72800		324.00000 
 43692.65567		 889.56308			42803.09259		227.14800		875.00000 
 43692.65567		 305.27265			43387.38302		70.72800		324.00000 
 43692.65567		 889.56308			42803.09259		227.14800		875.00000 
 43692.65567		 305.27265			43387.38302		70.72800		324.00000 
 43692.65567		 889.56308			42803.09259		227.14800		875.00000 
 43692.65567		 305.27265			43387.38302		70.72800		324.00000 
 43692.65567		 889.56308			42803.09259		227.14800		875.00000 
 43692.65567		 305.27265			43387.38302		70.72800		324.00000 
 43692.65567		 889.56308			42803.09259		227.14800		875.00000 
 43692.65567		 305.27265			43387.38302		70.72800		324.00000 
 43692.65567		 889.56308			42803.09259		227.14800		875.00000 
 43692.65567		 305.27265			43387.38302		70.72800		324.00000 
 43692.65567		 889.56308			42803.09259		227.14800		875.00000 
 43692.65567		 305.27265			43387.38302		70.72800		324.00000 
 43692.65567		 889.56308			42803.09259		227.14800		875.00000 
 43692.65567		 305.27265			43387.38302		70.72800		324.00000 
 43692.65567		 889.56308			42803.09259		227.14800		875.00000 
 43692.65567		 305.27265			43387.38302		70.72800		324.00000 
 43692.65567		 889.56308			42803.09259		227.14800		875.00000 
 43692.65567		 305.27265			43387.38302		70.72800		324.00000 
 43692.65567		 889.56308			42803.09259		227.14800		875.00000 
 43692.65567		 305.27265			43387.38302		70.72800		324.00000 
 43692.65567		 889.56308			42803.09259		227.14800		875.00000 
 43692.65567		 305.27265			43387.38302		70.72800		324.00000 
 43692.65567		 889.56308			42803.09259		227.14800		875.00000 
 43692.65567		 305.27265			43387.38302		70.72800		324.00000 
 43692.65567		 889.56308			42803.09259		227.14800		875.00000 
 43692.65567		 305.27265			43387.38302		70.72800		324.00000 
 43692.65567		 889.56308			42803.09259		227.14800		875.00000 
 43692.65567		 305.27265			43387.38302		70.72800		324.00000 
 43692.65567		 889.56308			42803.09259		227.14800		875.00000 
 43692.65567		 305.27265			43387.38302		70.72800		324.00000 
 43692.65567		 889.56308			42803.09259		227.14800		875.00000 
 43692.65567		 305.27265			43387.38302		70.72800		324.00000 
 43692.65567		 889.56308			42803.09259		227.14800		875.00000 
 43692.65567		 305.27265			43387.38302		70.72800		324.00000 
 43692.65567		 889.56308			42803.09259		227.14800		875.00000 
 43692.65567		 305.27265			43387.38302		70.72800		324.00000 
 43692.65567		 889.56308			42803.09259		227.14800		875.00000 
 43692.65567		 305.27265			43387.38302		70.72800		324.00000 
 43692.65567		 889.56308			42803.09259		227.14800		875.00000 
 43692.65567		 305.27265			43387.38302		70.72800		324.00000 
 43692.65567		 889.56308			42803.09259		227.14800		875.00000 
 43692.65567		 305.27265			43387.38302		70.72800		324.00000 
 43692.65567		 889.56308			42803.09259		227.14800		875.00000 
 43692.65567		 305.27265			43387.38302		70.72800		324.00000 
 43692.65567		 889.56308			42803.09259		227.14800		875.00000 
 43692.65567		 305.27265			43387.38302		70.72800		324.00000 
 43692.65567		 889.56308			42803.09259		227.14800		875.00000 
 43692.65567		 305.27265			43387.38302		70.72800		324.00000 
 43692.65567		 889.56308			42803.09259		227.14800		875.00000 
 43692.65567		 305.27265			43387.38302		70.72800		324.00000 
 43692.65567		 889.56308			42803.09259		226.54800		875.00000 
 43692.65567		 305.27265			43387.38302		70.72800		324.00000 
 43692.65567		 889.56308			42803.09259		226.54800		875.00000 
 43692.65567		 305.27265			43387.38302		70.72800		324.00000 
 43692.65567		 889.56308			42803.09259		226.54800		875.00000 
 43692.65567		 305.27265			43387.38302		70.72800		324.00000 
 43692.65567		 889.56308			42803.09259		226.54800		875.00000 
 43692.65567		 305.27265			43387.38302		70.72800		324.00000 
 43692.65567		 889.56308			42803.09259		226.54800		875.00000 
 43692.65567		 305.27265			43387.38302		70.72800		324.00000 
 43692.65567		 889.56308			42803.09259		226.54800		875.00000 
 43692.65567		 305.27265			43387.38302		70.72800		324.00000 
 43692.65567		 889.56308			42803.09259		226.54800		875.00000 
 43692.65567		 305.27265			43387.38302		70.72800		324.00000 
 43692.65567		 889.56308			42803.09259		226.54800		875.00000 
 43692.65567		 305.27265			43387.38302		70.72800		324.00000 
 43692.65567		 889.56308			42803.09259		226.54800		875.00000 
 43692.65567		 305.27265			43387.38302		70.72800		324.00000 
 43692.65567		 889.56308			42803.09259		226.54800		875.00000 
 43692.65567		 305.27265			43387.38302		70.72800		324.00000 
 43692.65567		 889.56308			42803.09259		226.54800		875.00000 
 43692.65567		 305.27265			43387.38302		70.72800		324.00000 
 43692.65567		 889.56308			42803.09259		226.54800		875.00000 
 43692.65567		 305.27265			43387.38302		70.72800		324.00000 
 43692.65567		 889.56308			42803.09259		226.54800		875.00000 
 43692.65567		 305.27265			43387.38302		70.72800		324.00000 
 43692.65567		 889.56308			42803.09259		226.54800		875.00000 
 43692.65567		 305.27265			43387.38302		70.72800		324.00000 
 43692.65567		 889.56308			42803.09259		226.54800		875.00000 
 43692.65567		 305.27265			43387.38302		70.72800		324.00000 
 43692.65567		 889.56308			42803.09259		226.54800		875.00000 
 43692.65567		 305.27265			43387.38302		70.72800		324.00000 
 43692.65567		 889.56308			42803.09259		226.54800		875.00000 
 43692.65567		 305.27265			43387.38302		70.72800		324.00000 
 43692.65567		 889.56308			42803.09259		226.54800		875.00000 
 43692.65567		 305.27265			43387.38302		70.72800		324.00000 
 43692.65567		 889.56308			42803.09259		226.54800		875.00000 
 43692.65567		 305.27265			43387.38302		70.72800		324.00000 
 43692.65567		 889.56308			42803.09259		226.54800		875.00000 
 43692.65567		 305.27265			43387.38302		70.72800		324.00000 
 43692.65567		 889.56308			42803.09259		226.54800		875.00000 
 43692.65567		 305.27265			43387.38302		70.72800		324.00000 
 43692.65567		 889.56308			42803.09259		226.54800		875.00000 
 43692.65567		 305.27265			43387.38302		70.72800		324.00000 
 43692.65567		 889.56308			42803.09259		226.54800		875.00000 
 43692.65567		 305.27265			43387.38302		70.72800		324.00000 
 43692.65567		 889.56308			42803.09259		226.54800		875.00000 
 43692.65567		 305.27265			43387.38302		70.72800		324.00000 
 43692.65567		 889.56308			42803.09259		226.54800		875.00000 
 43692.65567		 305.27265			43387.38302		70.72800		324.00000 
 43692.65567		 889.56308			42803.09259		226.54800		875.00000 
 43692.65567		 305.27265			43387.38302		70.72800		324.00000 
 43692.65567		 889.56308			42803.09259		226.54800		875.00000 
 43692.65567		 305.27265			43387.38302		70.72800		324.00000 
 43692.65567		 889.56308			42803.09259		226.54800		875.00000 
 43692.65567		 305.27265			43387.38302		70.72800		324.00000 
 43692.65567		 889.56308			42803.09259		226.54800		875.00000 
 43692.65567		 305.27265			43387.38302		70.72800		324.00000 
 43692.65567		 889.56308			42803.09259		226.54800		875.00000 
 43692.65567		 305.27265			43387.38302		70.72800		324.00000 
 43692.65567		 889.56308			42803.09259		226.54800		875.00000 
 43692.65567		 305.27265			43387.38302		70.72800		324.00000 
 43692.65567		 889.56308			42803.09259		226.54800		875.00000 
 43692.65567		 305.27265			43387.38302		70.72800		324.00000 
 43692.65567		 889.56308			42803.09259		226.54800		875.00000 
 43692.65567		 305.27265			43387.38302		70.72800		324.00000 
 43692.65567		 889.56308			42803.09259		226.54800		875.00000 
 43692.65567		 305.27265			43387.38302		70.72800		324.00000 
 43692.65567		 889.56308			42803.09259		226.54800		875.00000 
 43692.65567		 305.27265			43387.38302		70.72800		324.00000 
 43692.65567		 889.56308			42803.09259		226.54800		875.00000 
 43692.65567		 305.27265			43387.38302		70.72800		324.00000 
 43692.65567		 889.56308			42803.09259		226.54800		875.00000 
 43692.65567		 305.27265			43387.38302		70.72800		324.00000 
 43692.65567		 889.56308			42803.09259		226.54800		875.00000 
 43692.65567		 305.27265			43387.38302		70.72800		324.00000 
 43692.65567		 889.56308			42803.09259		226.54800		875.00000 
 43692.65567		 305.27265			43387.38302		70.72800		324.00000 
 43692.65567		 889.56308			42803.09259		226.54800		875.00000 
 43692.65567		 305.27265			43387.38302		70.72800		324.00000 
 43692.65567		 889.56308			42803.09259		226.54800		875.00000 
 43692.65567		 305.27265			43387.38302		70.72800		324.00000 
 43692.65567		 889.56308			42803.09259		226.54800		875.00000 
 43692.65567		 305.27265			43387.38302		70.72800		324.00000 
 43692.65567		 889.56308			42803.09259		226.54800		875.00000 
 43692.65567		 305.27265			43387.38302		70.72800		324.00000 
 43692.65567		 889.56308			42803.09259		226.54800		875.00000 
 43692.65567		 305.27265			43387.38302		70.72800		324.00000 
 43692.65567		 889.56308			42803.09259		226.54800		875.00000 
 43692.65567		 305.27265			43387.38302		70.72800		324.00000 
 43692.65567		 889.56308			42803.09259		226.54800		875.00000 
 43692.65567		 305.27265			43387.38302		70.72800		324.00000 
 43692.65567		 889.56308			42803.09259		226.54800		875.00000 
 43692.65567		 305.27265			43387.38302		70.72800		324.00000 
 43692.65567		 889.56308			42803.09259		226.54800		875.00000 
 43692.65567		 305.27265			43387.38302		70.72800		324.00000 
 43692.65567		 889.56308			42803.09259		226.54800		875.00000 
 43692.65567		 305.27265			43387.38302		70.72800		324.00000 
 43692.65567		 889.56308			42803.09259		226.54800		875.00000 
 43692.65567		 305.27265			43387.38302		70.72800		324.00000 
 43692.65567		 889.56308			42803.09259		226.54800		875.00000 
 43692.65567		 305.27265			43387.38302		70.72800		324.00000 
 43692.65567		 889.56308			42803.09259		226.54800		875.00000 
 43692.65567		 305.27265			43387.38302		70.72800		324.00000 
 43692.65567		 889.56308			42803.09259		226.54800		875.00000 
 43692.65567		 305.27265			43387.38302		70.72800		324.00000 
 43692.65567		 889.56308			42803.09259		226.54800		875.00000 
 43692.65567		 305.27265			43387.38302		70.72800		324.00000 
 43692.65567		 889.56308			42803.09259		226.54800		875.00000 
 43692.65567		 305.27265			43387.38302		70.72800		324.00000 
 43692.65567		 889.56308			42803.09259		226.54800		875.00000 
 43692.65567		 305.27265			43387.38302		70.72800		324.00000 
 43692.65567		 889.56308			42803.09259		226.54800		875.00000 
 43692.65567		 305.27265			43387.38302		70.72800		324.00000 
 43692.65567		 889.56308			42803.09259		226.54800		875.00000 
 43692.65567		 305.27265			43387.38302		70.72800		324.00000 
 43692.65567		 889.56308			42803.09259		226.54800		875.00000 
 43692.65567		 305.27265			43387.38302		70.72800		324.00000 
 43692.65567		 889.56308			42803.09259		226.54800		875.00000 
 43692.65567		 305.27265			43387.38302		70.72800		324.00000 
 43692.65567		 889.56308			42803.09259		225.94800		875.00000 
 43692.65567		 305.27265			43387.38302		70.72800		324.00000 
 43692.65567		 889.56308			42803.09259		225.94800		875.00000 
 43692.65567		 305.27265			43387.38302		70.72800		324.00000 
 43692.65567		 889.56308			42803.09259		225.94800		875.00000 
 43692.65567		 305.27265			43387.38302		70.72800		324.00000 
 43692.65567		 889.56308			42803.09259		225.94800		875.00000 
 43692.65567		 305.27265			43387.38302		70.72800		324.00000 
 43692.65567		 889.56308			42803.09259		225.94800		875.00000 
 43692.65567		 305.27265			43387.38302		70.72800		324.00000 
 43692.65567		 889.56308			42803.09259		225.94800		875.00000 
 43692.65567		 305.27265			43387.38302		70.72800		324.00000 
 43692.65567		 889.56308			42803.09259		225.94800		875.00000 
 43692.65567		 305.27265			43387.38302		70.72800		324.00000 
 43692.65567		 889.56308			42803.09259		225.94800		875.00000 
 43692.65567		 305.27265			43387.38302		70.72800		324.00000 
 43692.65567		 889.56308			42803.09259		225.94800		875.00000 
 43692.65567		 305.27265			43387.38302		70.72800		324.00000 
 43692.65567		 889.56308			42803.09259		225.94800		875.00000 
 43692.65567		 305.27265			43387.38302		70.72800		324.00000 
 43692.65567		 889.56308			42803.09259		225.94800		875.00000 
 43692.65567		 305.27265			43387.38302		70.72800		324.00000 
 43692.65567		 889.56308			42803.09259		225.94800		875.00000 
 43692.65567		 305.27265			43387.38302		70.72800		324.00000 
 43692.65567		 889.56308			42803.09259		225.94800		875.00000 
 43692.65567		 305.27265			43387.38302		70.72800		324.00000 
 43692.65567		 889.56308			42803.09259		225.94800		875.00000 
 43692.65567		 305.27265			43387.38302		70.72800		324.00000 
 43692.65567		 889.56308			42803.09259		225.94800		875.00000 
 43692.65567		 305.27265			43387.38302		70.72800		324.00000 
 43692.65567		 889.56308			42803.09259		225.94800		875.00000 
 43692.65567		 305.27265			43387.38302		70.72800		324.00000 
 43692.65567		 889.56308			42803.09259		225.94800		875.00000 
 43692.65567		 305.27265			43387.38302		70.72800		324.00000 
 43692.65567		 889.56308			42803.09259		225.94800		875.00000 
 43692.65567		 305.27265			43387.38302		70.72800		324.00000 
 43692.65567		 889.56308			42803.09259		225.94800		875.00000 
 43692.65567		 305.27265			43387.38302		70.72800		324.00000 
 43692.65567		 889.56308			42803.09259		225.94800		875.00000 
 43692.65567		 305.27265			43387.38302		70.72800		324.00000 
 43692.65567		 889.56308			42803.09259		225.94800		875.00000 
 43692.65567		 305.27265			43387.38302		70.72800		324.00000 
 43692.65567		 889.56308			42803.09259		225.94800		875.00000 
 43692.65567		 305.27265			43387.38302		70.72800		324.00000 
 43692.65567		 889.56308			42803.09259		225.94800		875.00000 
 43692.65567		 305.27265			43387.38302		70.72800		324.00000 
 43692.65567		 889.56308			42803.09259		225.94800		875.00000 
 43692.65567		 305.27265			43387.38302		70.72800		324.00000 
 43692.65567		 889.56308			42803.09259		225.94800		875.00000 
 43692.65567		 305.27265			43387.38302		70.72800		324.00000 
 43692.65567		 889.56308			42803.09259		225.94800		875.00000 
 43692.65567		 305.27265			43387.38302		70.72800		324.00000 
 43692.65567		 889.56308			42803.09259		225.94800		875.00000 
 43692.65567		 305.27265			43387.38302		70.72800		324.00000 
 43692.65567		 889.56308			42803.09259		225.94800		875.00000 
 43692.65567		 305.27265			43387.38302		70.72800		324.00000 
 43692.65567		 889.56308			42803.09259		225.94800		875.00000 
 43692.65567		 305.27265			43387.38302		70.72800		324.00000 
 43692.65567		 889.56308			42803.09259		225.94800		875.00000 
 43692.65567		 305.27265			43387.38302		70.72800		324.00000 
 43692.65567		 889.56308			42803.09259		225.94800		875.00000 
 43692.65567		 305.27265			43387.38302		70.72800		324.00000 
 43692.65567		 889.56308			42803.09259		225.94800		875.00000 
 43692.65567		 305.27265			43387.38302		70.72800		324.00000 
 43692.65567		 889.56308			42803.09259		225.94800		875.00000 
 43692.65567		 305.27265			43387.38302		70.72800		324.00000 
 43692.65567		 889.56308			42803.09259		225.94800		875.00000 
 43692.65567		 305.27265			43387.38302		70.72800		324.00000 
 43692.65567		 889.56308			42803.09259		225.94800		875.00000 
 43692.65567		 305.27265			43387.38302		70.72800		324.00000 
 43692.65567		 889.56308			42803.09259		225.94800		875.00000 
 43692.65567		 305.27265			43387.38302		70.72800		324.00000 
 43692.65567		 889.56308			42803.09259		225.94800		875.00000 
 43692.65567		 305.27265			43387.38302		70.72800		324.00000 
 43692.65567		 889.56308			42803.09259		225.94800		875.00000 
 43692.65567		 305.27265			43387.38302		70.72800		324.00000 
 43692.65567		 889.56308			42803.09259		225.94800		875.00000 
 43692.65567		 305.27265			43387.38302		70.72800		324.00000 
 43692.65567		 889.56308			42803.09259		225.94800		875.00000 
 43692.65567		 305.27265			43387.38302		70.72800		324.00000 
 43692.65567		 889.56308			42803.09259		225.94800		875.00000 
 43692.65567		 305.27265			43387.38302		70.72800		324.00000 
 43692.65567		 889.56308			42803.09259		225.94800		875.00000 
 43692.65567		 305.27265			43387.38302		70.72800		324.00000 
 43692.65567		 889.56308			42803.09259		225.94800		875.00000 
 43692.65567		 305.27265			43387.38302		70.72800		324.00000 
 43692.65567		 889.56308			42803.09259		225.94800		875.00000 
 43692.65567		 305.27265			43387.38302		70.72800		324.00000 
 43692.65567		 889.56308			42803.09259		225.94800		875.00000 
 43692.65567		 305.27265			43387.38302		70.72800		324.00000 
 43692.65567		 889.56308			42803.09259		225.94800		875.00000 
 43692.65567		 305.27265			43387.38302		70.72800		324.00000 
 43692.65567		 889.56308			42803.09259		225.94800		875.00000 
 43692.65567		 305.27265			43387.38302		70.72800		324.00000 
 43692.65567		 889.56308			42803.09259		225.94800		875.00000 
 43692.65567		 305.27265			43387.38302		70.72800		324.00000 
 43692.65567		 889.56308			42803.09259		225.94800		875.00000 
 43692.65567		 305.27265			43387.38302		70.72800		324.00000 
 43692.65567		 889.56308			42803.09259		225.94800		875.00000 
 43692.65567		 305.27265			43387.38302		70.72800		324.00000 
 43692.65567		 889.56308			42803.09259		225.94800		875.00000 
 43692.65567		 305.27265			43387.38302		70.72800		324.00000 
 43692.65567		 889.56308			42803.09259		225.94800		875.00000 
 43692.65567		 305.27265			43387.38302		70.72800		324.00000 
 43692.65567		 889.56308			42803.09259		225.94800		875.00000 
 43692.65567		 305.27265			43387.38302		70.72800		324.00000 
 43692.65567		 889.56308			42803.09259		225.94800		875.00000 
 43692.65567		 305.27265			43387.38302		70.72800		324.00000 
 43692.65567		 889.56308			42803.09259		225.94800		875.00000 
 43692.65567		 305.27265			43387.38302		70.72800		324.00000 
 43692.65567		 889.56308			42803.09259		225.94800		875.00000 
 43692.65567		 305.27265			43387.38302		70.72800		324.00000 
 43692.65567		 889.56308			42803.09259		225.94800		875.00000 
 43692.65567		 305.27265			43387.38302		70.72800		324.00000 
 43692.65567		 889.56308			42803.09259		225.94800		875.00000 
 43692.65567		 305.27265			43387.38302		70.72800		324.00000 
 43692.65567		 889.56308			42803.09259		225.94800		875.00000 
 43692.65567		 305.27265			43387.38302		70.72800		324.00000 
 43692.65567		 889.56308			42803.09259		225.94800		875.00000 
 43692.65567		 305.27265			43387.38302		70.72800		324.00000 
 43692.65567		 889.56308			42803.09259		225.94800		875.00000 
 43692.65567		 305.27265			43387.38302		70.72800		324.00000 
 43692.65567		 889.56308			42803.09259		226.54800		875.00000 
 43692.65567		 305.27265			43387.38302		70.72800		324.00000 
 43692.65567		 889.56308			42803.09259		226.54800		875.00000 
 43692.65567		 305.27265			43387.38302		70.72800		324.00000 
 43692.65567		 889.56308			42803.09259		226.54800		875.00000 
 43692.65567		 305.27265			43387.38302		70.72800		324.00000 
 43692.65567		 889.56308			42803.09259		226.54800		875.00000 
 43692.65567		 305.27265			43387.38302		70.72800		324.00000 
 43692.65567		 889.56308			42803.09259		226.54800		875.00000 
 43692.65567		 305.27265			43387.38302		70.72800		324.00000 
 43692.65567		 889.56308			42803.09259		226.54800		875.00000 
 43692.65567		 305.27265			43387.38302		70.72800		324.00000 
 43692.65567		 889.56308			42803.09259		226.54800		875.00000 
 43692.65567		 305.27265			43387.38302		70.72800		324.00000 
 43692.65567		 889.56308			42803.09259		226.54800		875.00000 
 43692.65567		 305.27265			43387.38302		70.72800		324.00000 
 43692.65567		 889.56308			42803.09259		226.54800		875.00000 
 43692.65567		 305.27265			43387.38302		70.72800		324.00000 
 43692.65567		 889.56308			42803.09259		226.54800		875.00000 
 43692.65567		 305.27265			43387.38302		70.72800		324.00000 
 43692.65567		 889.56308			42803.09259		226.54800		875.00000 
 43692.65567		 305.27265			43387.38302		70.72800		324.00000 
 43692.65567		 889.56308			42803.09259		226.54800		875.00000 
 43692.65567		 305.27265			43387.38302		70.72800		324.00000 
 43692.65567		 889.56308			42803.09259		226.54800		875.00000 
 43692.65567		 305.27265			43387.38302		70.72800		324.00000 
 43692.65567		 889.56308			42803.09259		226.54800		875.00000 
 43692.65567		 305.27265			43387.38302		70.72800		324.00000 
 43692.65567		 889.56308			42803.09259		226.54800		875.00000 
 43692.65567		 305.27265			43387.38302		70.72800		324.00000 
 43692.65567		 889.56308			42803.09259		226.54800		875.00000 
 43692.65567		 305.27265			43387.38302		70.72800		324.00000 
 43692.65567		 889.56308			42803.09259		226.54800		875.00000 
 43692.65567		 305.27265			43387.38302		70.72800		324.00000 
 43692.65567		 889.56308			42803.09259		226.54800		875.00000 
 43692.65567		 305.27265			43387.38302		70.72800		324.00000 
 43692.65567		 889.56308			42803.09259		226.54800		875.00000 
 43692.65567		 305.27265			43387.38302		70.72800		324.00000 
 43692.65567		 889.56308			42803.09259		226.54800		875.00000 
 43692.65567		 305.27265			43387.38302		70.72800		324.00000 
 43692.65567		 889.56308			42803.09259		226.54800		875.00000 
 43692.65567		 305.27265			43387.38302		70.72800		324.00000 
 43692.65567		 889.56308			42803.09259		226.54800		875.00000 
 43692.65567		 305.27265			43387.38302		70.72800		324.00000 
 43692.65567		 889.56308			42803.09259		226.54800		875.00000 
 43692.65567		 305.27265			43387.38302		70.72800		324.00000 
 43692.65567		 889.56308			42803.09259		226.54800		875.00000 
 43692.65567		 305.27265			43387.38302		70.72800		324.00000 
 43692.65567		 889.56308			42803.09259		226.54800		875.00000 
 43692.65567		 305.27265			43387.38302		70.72800		324.00000 
 43692.65567		 889.56308			42803.09259		226.54800		875.00000 
 43692.65567		 305.27265			43387.38302		70.72800		324.00000 
 43692.65567		 889.56308			42803.09259		226.54800		875.00000 
 43692.65567		 305.27265			43387.38302		70.72800		324.00000 
 43692.65567		 889.56308			42803.09259		226.54800		875.00000 
 43692.65567		 305.27265			43387.38302		70.72800		324.00000 
 43692.65567		 889.56308			42803.09259		226.54800		875.00000 
 43692.65567		 305.27265			43387.38302		70.72800		324.00000 
 43692.65567		 889.56308			42803.09259		226.54800		875.00000 
 43692.65567		 305.27265			43387.38302		70.72800		324.00000 
 43692.65567		 889.56308			42803.09259		226.54800		875.00000 
 43692.65567		 305.27265			43387.38302		70.72800		324.00000 
 43692.65567		 889.56308			42803.09259		226.54800		875.00000 
 43692.65567		 305.27265			43387.38302		70.72800		324.00000 
 43692.65567		 889.56308			42803.09259		226.54800		875.00000 
 43692.65567		 305.27265			43387.38302		70.72800		324.00000 
 43692.65567		 889.56308			42803.09259		226.54800		875.00000 
 43692.65567		 305.27265			43387.38302		70.72800		324.00000 
 43692.65567		 889.56308			42803.09259		226.54800		875.00000 
 43692.65567		 305.27265			43387.38302		70.72800		324.00000 
 43692.65567		 889.56308			42803.09259		226.54800		875.00000 
 43692.65567		 305.27265			43387.38302		70.72800		324.00000 
 43692.65567		 889.56308			42803.09259		226.54800		875.00000 
 43692.65567		 305.27265			43387.38302		70.72800		324.00000 
 43692.65567		 889.56308			42803.09259		226.54800		875.00000 
 43692.65567		 305.27265			43387.38302		70.72800		324.00000 
 43692.65567		 889.56308			42803.09259		226.54800		875.00000 
 43692.65567		 305.27265			43387.38302		70.72800		324.00000 
 43692.65567		 889.56308			42803.09259		226.54800		875.00000 
 43692.65567		 305.27265			43387.38302		70.72800		324.00000 
 43692.65567		 889.56308			42803.09259		226.54800		875.00000 
 43692.65567		 305.27265			43387.38302		70.72800		324.00000 
 43692.65567		 889.56308			42803.09259		226.54800		875.00000 
 43692.65567		 305.27265			43387.38302		70.72800		324.00000 
 43692.65567		 889.56308			42803.09259		226.54800		875.00000 
 43692.65567		 305.27265			43387.38302		70.72800		324.00000 
 43692.65567		 889.56308			42803.09259		226.54800		875.00000 
 43692.65567		 305.27265			43387.38302		70.72800		324.00000 
 43692.65567		 889.56308			42803.09259		226.54800		875.00000 
 43692.65567		 305.27265			43387.38302		70.72800		324.00000 
 43692.65567		 889.56308			42803.09259		226.54800		875.00000 
 43692.65567		 305.27265			43387.38302		70.72800		324.00000 
 43692.65567		 889.56308			42803.09259		226.54800		875.00000 
 43692.65567		 305.27265			43387.38302		70.72800		324.00000 
 43692.65567		 889.56308			42803.09259		226.54800		875.00000 
 43692.65567		 305.27265			43387.38302		70.72800		324.00000 
 43692.65567		 889.56308			42803.09259		226.54800		875.00000 
 43692.65567		 305.27265			43387.38302		70.72800		324.00000 
 43692.65567		 889.56308			42803.09259		226.54800		875.00000 
 43692.65567		 305.27265			43387.38302		70.72800		324.00000 
 43692.65567		 889.56308			42803.09259		226.54800		875.00000 
 43692.65567		 305.27265			43387.38302		70.72800		324.00000 
 43692.65567		 889.56308			42803.09259		226.54800		875.00000 
 43692.65567		 305.27265			43387.38302		70.72800		324.00000 
 43692.65567		 889.56308			42803.09259		226.54800		875.00000 
 43692.65567		 305.27265			43387.38302		70.72800		324.00000 
 43692.65567		 889.56308			42803.09259		226.54800		875.00000 
 43692.65567		 305.27265			43387.38302		70.72800		324.00000 
 43692.65567		 889.56308			42803.09259		226.54800		875.00000 
 43692.65567		 305.27265			43387.38302		70.72800		324.00000 
 43692.65567		 889.56308			42803.09259		226.54800		875.00000 
 43692.65567		 305.27265			43387.38302		70.72800		324.00000 
 43692.65567		 889.56308			42803.09259		226.54800		875.00000 
 43692.65567		 305.27265			43387.38302		70.72800		324.00000 
 43692.65567		 889.56308			42803.09259		226.54800		875.00000 
 43692.65567		 305.27265			43387.38302		70.72800		324.00000 
 43692.65567		 889.56308			42803.09259		226.54800		875.00000 
 43692.65567		 305.27265			43387.38302		70.72800		324.00000 
 43692.65567		 889.56308			42803.09259		226.54800		875.00000 
 43692.65567		 305.27265			43387.38302		70.72800		324.00000 
 43692.65567		 889.56308			42803.09259		226.54800		875.00000 
 43692.65567		 305.27265			43387.38302		70.72800		324.00000 
 43692.65567		 889.56308			42803.09259		226.54800		875.00000 
 43692.65567		 305.27265			43387.38302		70.72800		324.00000 
 43692.65567		 889.56308			42803.09259		226.54800		875.00000 
 43692.65567		 305.27265			43387.38302		70.72800		324.00000 
 43692.65567		 889.56308			42803.09259		226.54800		875.00000 
 43692.65567		 305.27265			43387.38302		70.72800		324.00000 
 43692.65567		 889.56308			42803.09259		226.54800		875.00000 
 43692.65567		 305.27265			43387.38302		70.72800		324.00000 
 43692.65567		 889.56308			42803.09259		226.54800		875.00000 
 43692.65567		 305.27265			43387.38302		70.72800		324.00000 
 43692.65567		 889.56308			42803.09259		226.54800		875.00000 
 43692.65567		 305.27265			43387.38302		70.72800		324.00000 
 43692.65567		 889.56308			42803.09259		226.54800		875.00000 
 43692.65567		 305.27265			43387.38302		70.72800		324.00000 
 43692.65567		 889.56308			42803.09259		226.54800		875.00000 
 43692.65567		 305.27265			43387.38302		70.72800		324.00000 
 43692.65567		 889.56308			42803.09259		226.54800		875.00000 
 43692.65567		 305.27265			43387.38302		70.72800		324.00000 
 43692.65567		 889.56308			42803.09259		226.54800		875.00000 
 43692.65567		 305.27265			43387.38302		70.72800		324.00000 
 43692.65567		 889.56308			42803.09259		226.54800		875.00000 
 43692.65567		 305.27265			43387.38302		70.72800		324.00000 
 43692.65567		 889.56308			42803.09259		226.54800		875.00000 
 43692.65567		 305.27265			43387.38302		70.72800		324.00000 
 43692.65567		 889.56308			42803.09259		226.54800		875.00000 
 43692.65567		 305.27265			43387.38302		70.72800		324.00000 
 43692.65567		 889.56308			42803.09259		226.54800		875.00000 
 43692.65567		 305.27265			43387.38302		70.72800		324.00000 
 43692.65567		 889.56308			42803.09259		226.54800		875.00000 
 43692.65567		 305.27265			43387.38302		70.72800		324.00000 
 43692.65567		 889.56308			42803.09259		226.54800		875.00000 
 43692.65567		 305.27265			43387.38302		70.72800		324.00000 
 43692.65567		 889.56308			42803.09259		226.54800		875.00000 
 43692.65567		 305.27265			43387.38302		70.72800		324.00000 
 43692.65567		 889.56308			42803.09259		226.54800		875.00000 
 43692.65567		 305.27265			43387.38302		70.72800		324.00000 
 43692.65567		 889.56308			42803.09259		226.54800		875.00000 
 43692.65567		 305.27265			43387.38302		70.72800		324.00000 
 43692.65567		 889.56308			42803.09259		226.54800		875.00000 
 43692.65567		 305.27265			43387.38302		70.72800		324.00000 
 43692.65567		 889.56308			42803.09259		226.54800		875.00000 
 43692.65567		 305.27265			43387.38302		70.72800		324.00000 
 43692.65567		 889.56308			42803.09259		226.54800		875.00000 
 43692.65567		 305.27265			43387.38302		70.72800		324.00000 
 43692.65567		 889.56308			42803.09259		226.54800		875.00000 
 43692.65567		 305.27265			43387.38302		70.72800		324.00000 
 43692.65567		 889.56308			42803.09259		226.54800		875.00000 
 43692.65567		 305.27265			43387.38302		70.72800		324.00000 
 43692.65567		 889.56308			42803.09259		226.54800		875.00000 
 43692.65567		 305.27265			43387.38302		70.72800		324.00000 
 43692.65567		 889.56308			42803.09259		226.54800		875.00000 
 43692.65567		 305.27265			43387.38302		70.72800		324.00000 
 43692.65567		 889.56308			42803.09259		226.54800		875.00000 
 43692.65567		 305.27265			43387.38302		70.72800		324.00000 
 43692.65567		 889.56308			42803.09259		226.54800		875.00000 
 43692.65567		 305.27265			43387.38302		70.72800		324.00000 
 43692.65567		 889.56308			42803.09259		226.54800		875.00000 
 43692.65567		 305.27265			43387.38302		70.72800		324.00000 
 43692.65567		 889.56308			42803.09259		226.54800		875.00000 
 43692.65567		 305.27265			43387.38302		70.72800		324.00000 
 43692.65567		 889.56308			42803.09259		226.54800		875.00000 
 43692.65567		 305.27265			43387.38302		70.72800		324.00000 
 43692.65567		 889.56308			42803.09259		226.54800		875.00000 
 43692.65567		 305.27265			43387.38302		70.72800		324.00000 
 43692.65567		 889.56308			42803.09259		226.54800		875.00000 
 43692.65567		 305.27265			43387.38302		70.72800		324.00000 
 43692.65567		 889.56308			42803.09259		226.54800		875.00000 
 43692.65567		 305.27265			43387.38302		70.72800		324.00000 
 43692.65567		 889.56308			42803.09259		226.54800		875.00000 
 43692.65567		 305.27265			43387.38302		70.72800		324.00000 
 43692.65567		 889.56308			42803.09259		226.54800		875.00000 
 43692.65567		 305.27265			43387.38302		70.72800		324.00000 
 43692.65567		 889.56308			42803.09259		226.54800		875.00000 
 43692.65567		 305.27265			43387.38302		70.72800		324.00000 
 43692.65567		 889.56308			42803.09259		226.54800		875.00000 
 43692.65567		 305.27265			43387.38302		70.72800		324.00000 
 43692.65567		 889.56308			42803.09259		226.54800		875.00000 
 43692.65567		 305.27265			43387.38302		70.72800		324.00000 
 43692.65567		 889.56308			42803.09259		226.54800		875.00000 
 43692.65567		 305.27265			43387.38302		70.72800		324.00000 
 43692.65567		 889.56308			42803.09259		226.54800		875.00000 
 43692.65567		 305.27265			43387.38302		70.72800		324.00000 
 43692.65567		 889.56308			42803.09259		226.54800		875.00000 
 43692.65567		 305.27265			43387.38302		70.72800		324.00000 
 43692.65567		 889.56308			42803.09259		226.54800		875.00000 
 43692.65567		 305.27265			43387.38302		70.72800		324.00000 
 43692.65567		 889.56308			42803.09259		226.54800		875.00000 
 43692.65567		 305.27265			43387.38302		70.72800		324.00000 
 43692.65567		 889.56308			42803.09259		226.54800		875.00000 
 43692.65567		 305.27265			43387.38302		70.72800		324.00000 
 43692.65567		 889.56308			42803.09259		226.54800		875.00000 
 43692.65567		 305.27265			43387.38302		70.72800		324.00000 
 43692.65567		 889.56308			42803.09259		226.54800		875.00000 
 43692.65567		 305.27265			43387.38302		70.72800		324.00000 
 43692.65567		 889.56308			42803.09259		226.54800		875.00000 
 43692.65567		 305.27265			43387.38302		70.72800		324.00000 
 43692.65567		 889.56308			42803.09259		226.54800		875.00000 
 43692.65567		 305.27265			43387.38302		70.72800		324.00000 
 43692.65567		 889.56308			42803.09259		226.54800		875.00000 
 43692.65567		 305.27265			43387.38302		70.72800		324.00000 
 43692.65567		 889.56308			42803.09259		226.54800		875.00000 
 43692.65567		 305.27265			43387.38302		70.72800		324.00000 
 43692.65567		 889.56308			42803.09259		226.54800		875.00000 
 43692.65567		 305.27265			43387.38302		70.72800		324.00000 
 43692.65567		 889.56308			42803.09259		226.54800		875.00000 
 43692.65567		 305.27265			43387.38302		70.72800		324.00000 
 43692.65567		 889.56308			42803.09259		226.54800		875.00000 
 43692.65567		 305.27265			43387.38302		70.72800		324.00000 
 43692.65567		 889.56308			42803.09259		226.54800		875.00000 
 43692.65567		 305.27265			43387.38302		70.72800		324.00000 
 43692.65567		 889.56308			42803.09259		226.54800		875.00000 
 43692.65567		 305.27265			43387.38302		70.72800		324.00000 
 43692.65567		 889.56308			42803.09259		226.54800		875.00000 
 43692.65567		 305.27265			43387.38302		70.72800		324.00000 
 43692.65567		 889.56308			42803.09259		226.54800		875.00000 
 43692.65567		 305.27265			43387.38302		70.72800		324.00000 
 43692.65567		 889.56308			42803.09259		226.54800		875.00000 
 43692.65567		 305.27265			43387.38302		70.72800		324.00000 
 43692.65567		 889.56308			42803.09259		226.54800		875.00000 
 43692.65567		 305.27265			43387.38302		70.72800		324.00000 
 43692.65567		 889.56308			42803.09259		226.54800		875.00000 
 43692.65567		 305.27265			43387.38302		70.72800		324.00000 
 43692.65567		 889.56308			42803.09259		226.54800		875.00000 
 43692.65567		 305.27265			43387.38302		70.72800		324.00000 
 43692.65567		 889.56308			42803.09259		226.54800		875.00000 
 43692.65567		 305.27265			43387.38302		70.72800		324.00000 
 43692.65567		 889.56308			42803.09259		226.54800		875.00000 
 43692.65567		 305.27265			43387.38302		70.72800		324.00000 
 43692.65567		 889.56308			42803.09259		226.54800		875.00000 
 43692.65567		 305.27265			43387.38302		70.72800		324.00000 
 43692.65567		 889.56308			42803.09259		226.54800		875.00000 
 43692.65567		 305.27265			43387.38302		70.72800		324.00000 
 43692.65567		 889.56308			42803.09259		226.54800		875.00000 
 43692.65567		 305.27265			43387.38302		70.72800		324.00000 
 43692.65567		 889.56308			42803.09259		226.54800		875.00000 
 43692.65567		 305.27265			43387.38302		70.72800		324.00000 
 43692.65567		 889.56308			42803.09259		226.54800		875.00000 
 43692.65567		 305.27265			43387.38302		70.72800		324.00000 
 43692.65567		 889.56308			42803.09259		226.54800		875.00000 
 43692.65567		 305.27265			43387.38302		70.72800		324.00000 
 43692.65567		 889.56308			42803.09259		226.54800		875.00000 
 43692.65567		 305.27265			43387.38302		70.72800		324.00000 
 43692.65567		 889.56308			42803.09259		226.54800		875.00000 
 43692.65567		 305.27265			43387.38302		70.72800		324.00000 
 43692.65567		 889.56308			42803.09259		226.54800		875.00000 
 43692.65567		 305.27265			43387.38302		70.72800		324.00000 
 43692.65567		 889.56308			42803.09259		226.54800		875.00000 
 43692.65567		 305.27265			43387.38302		70.72800		324.00000 
 43692.65567		 889.56308			42803.09259		226.54800		875.00000 
 43692.65567		 305.27265			43387.38302		70.72800		324.00000 
 43692.65567		 889.56308			42803.09259		226.54800		875.00000 
 43692.65567		 305.27265			43387.38302		70.72800		324.00000 
 43692.65567		 889.56308			42803.09259		226.54800		875.00000 
 43692.65567		 305.27265			43387.38302		70.72800		324.00000 
 43692.65567		 889.56308			42803.09259		226.54800		875.00000 
 43692.65567		 305.27265			43387.38302		70.72800		324.00000 
 43692.65567		 889.56308			42803.09259		226.54800		875.00000 
 43692.65567		 305.27265			43387.38302		70.72800		324.00000 
 43692.65567		 889.56308			42803.09259		226.54800		875.00000 
 43692.65567		 305.27265			43387.38302		70.72800		324.00000 
 43692.65567		 889.56308			42803.09259		226.54800		875.00000 
 43692.65567		 305.27265			43387.38302		70.72800		324.00000 
 43692.65567		 889.56308			42803.09259		226.54800		875.00000 
 43692.65567		 305.27265			43387.38302		70.72800		324.00000 
 43692.65567		 889.56308			42803.09259		226.54800		875.00000 
 43692.65567		 305.27265			43387.38302		70.72800		324.00000 
 43692.65567		 889.56308			42803.09259		226.54800		875.00000 
 43692.65567		 305.27265			43387.38302		70.72800		324.00000 
 43692.65567		 889.56308			42803.09259		226.54800		875.00000 
 43692.65567		 305.27265			43387.38302		70.72800		324.00000 
 43692.65567		 889.56308			42803.09259		226.54800		875.00000 
 43692.65567		 305.27265			43387.38302		70.72800		324.00000 
 43692.65567		 889.56308			42803.09259		226.54800		875.00000 
 43692.65567		 305.27265			43387.38302		70.72800		324.00000 
 43692.65567		 889.56308			42803.09259		226.54800		875.00000 
 43692.65567		 305.27265			43387.38302		70.72800		324.00000 
 43692.65567		 889.56308			42803.09259		226.54800		875.00000 
 43692.65567		 305.27265			43387.38302		70.72800		324.00000 
 43692.65567		 889.56308			42803.09259		226.54800		875.00000 
 43692.65567		 305.27265			43387.38302		70.72800		324.00000 
 43692.65567		 889.56308			42803.09259		226.54800		875.00000 
 43692.65567		 305.27265			43387.38302		70.72800		324.00000 
 43692.65567		 889.56308			42803.09259		226.54800		875.00000 
 43692.65567		 305.27265			43387.38302		70.72800		324.00000 
 43692.65567		 889.56308			42803.09259		226.54800		875.00000 
 43692.65567		 305.27265			43387.38302		70.72800		324.00000 
 43692.65567		 889.56308			42803.09259		226.54800		875.00000 
 43692.65567		 305.27265			43387.38302		70.72800		324.00000 
 43692.65567		 889.56308			42803.09259		226.54800		875.00000 
 43692.65567		 305.27265			43387.38302		70.72800		324.00000 
 43692.65567		 889.56308			42803.09259		226.54800		875.00000 
 43692.65567		 305.27265			43387.38302		70.72800		324.00000 
 43692.65567		 889.56308			42803.09259		226.54800		875.00000 
 43692.65567		 305.27265			43387.38302		70.72800		324.00000 
 43692.65567		 889.56308			42803.09259		226.54800		875.00000 
 43692.65567		 305.27265			43387.38302		70.72800		324.00000 
 43692.65567		 889.56308			42803.09259		226.54800		875.00000 
 43692.65567		 305.27265			43387.38302		70.72800		324.00000 
 43692.65567		 889.56308			42803.09259		226.54800		875.00000 
 43692.65567		 305.27265			43387.38302		70.72800		324.00000 
 43692.65567		 889.56308			42803.09259		226.54800		875.00000 
 43692.65567		 305.27265			43387.38302		70.72800		324.00000 
 43692.65567		 889.56308			42803.09259		226.54800		875.00000 
 43692.65567		 305.27265			43387.38302		70.72800		324.00000 
 43692.65567		 889.56308			42803.09259		226.54800		875.00000 
 43692.65567		 305.27265			43387.38302		70.72800		324.00000 
 43692.65567		 889.56308			42803.09259		226.54800		875.00000 
 43692.65567		 305.27265			43387.38302		70.72800		324.00000 
 43692.65567		 889.56308			42803.09259		226.54800		875.00000 
 43692.65567		 305.27265			43387.38302		70.72800		324.00000 
 43692.65567		 889.56308			42803.09259		226.54800		875.00000 
 43692.65567		 305.27265			43387.38302		70.72800		324.00000 
 43692.65567		 889.56308			42803.09259		226.54800		875.00000 
 43692.65567		 305.27265			43387.38302		70.72800		324.00000 
 43692.65567		 889.56308			42803.09259		226.54800		875.00000 
 43692.65567		 305.27265			43387.38302		70.72800		324.00000 
 43692.65567		 889.56308			42803.09259		226.54800		875.00000 
 43692.65567		 305.27265			43387.38302		70.72800		324.00000 
 43692.65567		 889.56308			42803.09259		226.54800		875.00000 
 43692.65567		 305.27265			43387.38302		70.72800		324.00000 
 43692.65567		 889.56308			42803.09259		226.54800		875.00000 
 43692.65567		 305.27265			43387.38302		70.72800		324.00000 
 43692.65567		 889.56308			42803.09259		226.54800		875.00000 
 43692.65567		 305.27265			43387.38302		70.72800		324.00000 
 43692.65567		 889.56308			42803.09259		226.54800		875.00000 
 43692.65567		 305.27265			43387.38302		70.72800		324.00000 
 43692.65567		 889.56308			42803.09259		227.14800		875.00000 
 43692.65567		 305.27265			43387.38302		70.72800		324.00000 
 43692.65567		 889.56308			42803.09259		227.14800		875.00000 
 43692.65567		 305.27265			43387.38302		70.72800		324.00000 
 43692.65567		 889.56308			42803.09259		227.14800		875.00000 
 43692.65567		 305.27265			43387.38302		70.72800		324.00000 
 43692.65567		 889.56308			42803.09259		227.14800		875.00000 
 43692.65567		 305.27265			43387.38302		70.72800		324.00000 
 43692.65567		 889.56308			42803.09259		227.14800		875.00000 
 43692.65567		 305.27265			43387.38302		70.72800		324.00000 
 43692.65567		 889.56308			42803.09259		227.14800		875.00000 
 43692.65567		 305.27265			43387.38302		70.72800		324.00000 
 43692.65567		 889.56308			42803.09259		227.14800		875.00000 
 43692.65567		 305.27265			43387.38302		70.72800		324.00000 
 43692.65567		 889.56308			42803.09259		227.14800		875.00000 
 43692.65567		 305.27265			43387.38302		70.72800		324.00000 
 43692.65567		 889.56308			42803.09259		227.14800		875.00000 
 43692.65567		 305.27265			43387.38302		70.72800		324.00000 
 43692.65567		 889.56308			42803.09259		227.14800		875.00000 
 43692.65567		 305.27265			43387.38302		70.72800		324.00000 
 43692.65567		 889.56308			42803.09259		227.14800		875.00000 
 43692.65567		 305.27265			43387.38302		70.72800		324.00000 
 43692.65567		 889.56308			42803.09259		227.14800		875.00000 
 43692.65567		 305.27265			43387.38302		70.72800		324.00000 
 43692.65567		 889.56308			42803.09259		227.14800		875.00000 
 43692.65567		 305.27265			43387.38302		70.72800		324.00000 
 43692.65567		 889.56308			42803.09259		227.14800		875.00000 
 43692.65567		 305.27265			43387.38302		70.72800		324.00000 
 43692.65567		 889.56308			42803.09259		227.14800		875.00000 
 43692.65567		 305.27265			43387.38302		70.72800		324.00000 
 43692.65567		 889.56308			42803.09259		227.14800		875.00000 
 43692.65567		 305.27265			43387.38302		70.72800		324.00000 
 43692.65567		 889.56308			42803.09259		227.14800		875.00000 
 43692.65567		 305.27265			43387.38302		70.72800		324.00000 
 43692.65567		 889.56308			42803.09259		227.14800		875.00000 
 43692.65567		 305.27265			43387.38302		70.72800		324.00000 
 43692.65567		 889.56308			42803.09259		227.14800		875.00000 
 43692.65567		 305.27265			43387.38302		70.72800		324.00000 
 43692.65567		 889.56308			42803.09259		227.14800		875.00000 
 43692.65567		 305.27265			43387.38302		70.72800		324.00000 
 43692.65567		 889.56308			42803.09259		227.14800		875.00000 
 43692.65567		 305.27265			43387.38302		70.72800		324.00000 
 43692.65567		 889.56308			42803.09259		227.14800		875.00000 
 43692.65567		 305.27265			43387.38302		70.72800		324.00000 
 43692.65567		 889.56308			42803.09259		227.14800		875.00000 
 43692.65567		 305.27265			43387.38302		70.72800		324.00000 
 43692.65567		 889.56308			42803.09259		227.14800		875.00000 
 43692.65567		 305.27265			43387.38302		70.72800		324.00000 
 43692.65567		 889.56308			42803.09259		227.14800		875.00000 
 43692.65567		 305.27265			43387.38302		70.72800		324.00000 
 43692.65567		 889.56308			42803.09259		227.14800		875.00000 
 43692.65567		 305.27265			43387.38302		70.72800		324.00000 
 43692.65567		 889.56308			42803.09259		227.14800		875.00000 
 43692.65567		 305.27265			43387.38302		70.72800		324.00000 
 43692.65567		 889.56308			42803.09259		227.14800		875.00000 
 43692.65567		 305.27265			43387.38302		70.72800		324.00000 
 43692.65567		 889.56308			42803.09259		227.14800		875.00000 
 43692.65567		 305.27265			43387.38302		70.72800		324.00000 
 43692.65567		 889.56308			42803.09259		227.14800		875.00000 
 43692.65567		 305.27265			43387.38302		70.72800		324.00000 
 43692.65567		 889.56308			42803.09259		227.14800		875.00000 
 43692.65567		 305.27265			43387.38302		70.72800		324.00000 
 43692.65567		 889.56308			42803.09259		227.14800		875.00000 
 43692.65567		 305.27265			43387.38302		70.72800		324.00000 
 43692.65567		 889.56308			42803.09259		227.14800		875.00000 
 43692.65567		 305.27265			43387.38302		70.72800		324.00000 
 43692.65567		 889.56308			42803.09259		227.14800		875.00000 
 43692.65567		 305.27265			43387.38302		70.72800		324.00000 
 43692.65567		 889.56308			42803.09259		227.14800		875.00000 
 43692.65567		 305.27265			43387.38302		70.72800		324.00000 
 43692.65567		 889.56308			42803.09259		227.14800		875.00000 
 43692.65567		 305.27265			43387.38302		70.72800		324.00000 
 43692.65567		 889.56308			42803.09259		227.14800		875.00000 
 43692.65567		 305.27265			43387.38302		70.72800		324.00000 
 43692.65567		 889.56308			42803.09259		227.14800		875.00000 
 43692.65567		 305.27265			43387.38302		70.72800		324.00000 
 43692.65567		 889.56308			42803.09259		227.14800		875.00000 
 43692.65567		 305.27265			43387.38302		70.72800		324.00000 
 43692.65567		 889.56308			42803.09259		227.14800		875.00000 
 43692.65567		 305.27265			43387.38302		70.72800		324.00000 
 43692.65567		 889.56308			42803.09259		227.14800		875.00000 
 43692.65567		 305.27265			43387.38302		70.72800		324.00000 
 43692.65567		 889.56308			42803.09259		227.14800		875.00000 
 43692.65567		 305.27265			43387.38302		70.72800		324.00000 
 43692.65567		 889.56308			42803.09259		227.14800		875.00000 
 43692.65567		 305.27265			43387.38302		70.72800		324.00000 
 43692.65567		 889.56308			42803.09259		227.14800		875.00000 
 43692.65567		 305.27265			43387.38302		70.72800		324.00000 
 43692.65567		 889.56308			42803.09259		227.14800		875.00000 
 43692.65567		 305.27265			43387.38302		70.72800		324.00000 
 43692.65567		 889.56308			42803.09259		227.14800		875.00000 
 43692.65567		 305.27265			43387.38302		70.72800		324.00000 
 43692.65567		 889.56308			42803.09259		227.14800		875.00000 
 43692.65567		 305.27265			43387.38302		70.72800		324.00000 
 43692.65567		 889.56308			42803.09259		227.14800		875.00000 
 43692.65567		 305.27265			43387.38302		70.72800		324.00000 
 43692.65567		 889.56308			42803.09259		227.14800		875.00000 
 43692.65567		 305.27265			43387.38302		70.72800		324.00000 
 43692.65567		 889.56308			42803.09259		227.14800		875.00000 
 43692.65567		 305.27265			43387.38302		70.72800		324.00000 
 43692.65567		 889.56308			42803.09259		227.14800		875.00000 
 43692.65567		 305.27265			43387.38302		70.72800		324.00000 
 43692.65567		 889.56308			42803.09259		227.14800		875.00000 
 43692.65567		 305.27265			43387.38302		70.72800		324.00000 
 43692.65567		 889.56308			42803.09259		227.14800		875.00000 
 43692.65567		 305.27265			43387.38302		70.72800		324.00000 
 43692.65567		 889.56308			42803.09259		227.14800		875.00000 
 43692.65567		 305.27265			43387.38302		70.72800		324.00000 
 43692.65567		 889.56308			42803.09259		227.14800		875.00000 
 43692.65567		 305.27265			43387.38302		70.72800		324.00000 
 43692.65567		 889.56308			42803.09259		227.14800		875.00000 
 43692.65567		 305.27265			43387.38302		70.72800		324.00000 
 43692.65567		 889.56308			42803.09259		227.14800		875.00000 
 43692.65567		 305.27265			43387.38302		70.72800		324.00000 
 43692.65567		 889.56308			42803.09259		227.14800		875.00000 
 43692.65567		 305.27265			43387.38302		70.72800		324.00000 
 43692.65567		 889.56308			42803.09259		227.14800		875.00000 
 43692.65567		 305.27265			43387.38302		70.72800		324.00000 
 43692.65567		 889.56308			42803.09259		227.14800		875.00000 
 43692.65567		 305.27265			43387.38302		70.72800		324.00000 
 43692.65567		 889.56308			42803.09259		227.14800		875.00000 
 43692.65567		 305.27265			43387.38302		70.72800		324.00000 
 43692.65567		 889.56308			42803.09259		227.14800		875.00000 
 43692.65567		 305.27265			43387.38302		70.72800		324.00000 
 43692.65567		 889.56308			42803.09259		227.14800		875.00000 
 43692.65567		 305.27265			43387.38302		70.72800		324.00000 
 43692.65567		 889.56308			42803.09259		227.14800		875.00000 
 43692.65567		 305.27265			43387.38302		70.72800		324.00000 
 43692.65567		 889.56308			42803.09259		227.14800		875.00000 
 43692.65567		 305.27265			43387.38302		70.72800		324.00000 
 43692.65567		 889.56308			42803.09259		227.14800		875.00000 
 43692.65567		 305.27265			43387.38302		70.72800		324.00000 
 43692.65567		 889.56308			42803.09259		227.14800		875.00000 
 43692.65567		 305.27265			43387.38302		70.72800		324.00000 
 43692.65567		 889.56308			42803.09259		227.14800		875.00000 
 43692.65567		 305.27265			43387.38302		70.72800		324.00000 
 43692.65567		 889.56308			42803.09259		227.14800		875.00000 
 43692.65567		 305.27265			43387.38302		70.72800		324.00000 
 43692.65567		 889.56308			42803.09259		227.14800		875.00000 
 43692.65567		 305.27265			43387.38302		70.72800		324.00000 
 43692.65567		 889.56308			42803.09259		227.14800		875.00000 
 43692.65567		 305.27265			43387.38302		70.72800		324.00000 
 43692.65567		 889.56308			42803.09259		227.14800		875.00000 
 43692.65567		 305.27265			43387.38302		70.72800		324.00000 
 43692.65567		 889.56308			42803.09259		227.14800		875.00000 
 43692.65567		 305.27265			43387.38302		70.72800		324.00000 
 43692.65567		 889.56308			42803.09259		227.14800		875.00000 
 43692.65567		 305.27265			43387.38302		70.72800		324.00000 
 43692.65567		 889.56308			42803.09259		227.14800		875.00000 
 43692.65567		 305.27265			43387.38302		70.72800		324.00000 
 43692.65567		 889.56308			42803.09259		227.14800		875.00000 
 43692.65567		 305.27265			43387.38302		70.72800		324.00000 
 43692.65567		 889.56308			42803.09259		227.14800		875.00000 
 43692.65567		 305.27265			43387.38302		70.72800		324.00000 
 43692.65567		 889.56308			42803.09259		227.14800		875.00000 
 43692.65567		 305.27265			43387.38302		70.72800		324.00000 
 43692.65567		 889.56308			42803.09259		227.14800		875.00000 
 43692.65567		 305.27265			43387.38302		70.72800		324.00000 
 43692.65567		 889.56308			42803.09259		227.14800		875.00000 
 43692.65567		 305.27265			43387.38302		70.72800		324.00000 
 43692.65567		 889.56308			42803.09259		227.14800		875.00000 
 43692.65567		 305.27265			43387.38302		70.72800		324.00000 
 43692.65567		 889.56308			42803.09259		227.14800		875.00000 
 43692.65567		 305.27265			43387.38302		70.72800		324.00000 
 43692.65567		 889.56308			42803.09259		227.14800		875.00000 
 43692.65567		 305.27265			43387.38302		70.72800		324.00000 
 43692.65567		 889.56308			42803.09259		227.14800		875.00000 
 43692.65567		 305.27265			43387.38302		70.72800		324.00000 
 43692.65567		 889.56308			42803.09259		227.14800		875.00000 
 43692.65567		 305.27265			43387.38302		70.72800		324.00000 
 43692.65567		 889.56308			42803.09259		227.14800		875.00000 
 43692.65567		 305.27265			43387.38302		70.72800		324.00000 
 43692.65567		 889.56308			42803.09259		227.14800		875.00000 
 43692.65567		 305.27265			43387.38302		70.72800		324.00000 
 43692.65567		 889.56308			42803.09259		227.14800		875.00000 
 43692.65567		 305.27265			43387.38302		70.72800		324.00000 
 43692.65567		 889.56308			42803.09259		227.14800		875.00000 
 43692.65567		 305.27265			43387.38302		70.72800		324.00000 
 43692.65567		 889.56308			42803.09259		227.14800		875.00000 
 43692.65567		 305.27265			43387.38302		70.72800		324.00000 
 43692.65567		 889.56308			42803.09259		227.14800		875.00000 
 43692.65567		 305.27265			43387.38302		70.72800		324.00000 
 43692.65567		 889.56308			42803.09259		227.14800		875.00000 
 43692.65567		 305.27265			43387.38302		70.72800		324.00000 
 43692.65567		 889.56308			42803.09259		227.14800		875.00000 
 43692.65567		 305.27265			43387.38302		70.72800		324.00000 
 43692.65567		 889.56308			42803.09259		227.14800		875.00000 
 43692.65567		 305.27265			43387.38302		70.72800		324.00000 
 43692.65567		 889.56308			42803.09259		227.14800		875.00000 
 43692.65567		 305.27265			43387.38302		70.72800		324.00000 
 43692.65567		 889.56308			42803.09259		227.14800		875.00000 
 43692.65567		 305.27265			43387.38302		70.72800		324.00000 
 43692.65567		 889.56308			42803.09259		227.14800		875.00000 
 43692.65567		 305.27265			43387.38302		70.72800		324.00000 
 43692.65567		 889.56308			42803.09259		227.14800		875.00000 
 43692.65567		 305.27265			43387.38302		70.72800		324.00000 
 43692.65567		 889.56308			42803.09259		227.14800		875.00000 
 43692.65567		 305.27265			43387.38302		70.72800		324.00000 
 43692.65567		 889.56308			42803.09259		227.14800		875.00000 
 43692.65567		 305.27265			43387.38302		70.72800		324.00000 
 43692.65567		 889.56308			42803.09259		227.14800		875.00000 
 43692.65567		 305.27265			43387.38302		70.72800		324.00000 
 43692.65567		 889.56308			42803.09259		227.14800		875.00000 
 43692.65567		 305.27265			43387.38302		70.72800		324.00000 
 43692.65567		 889.56308			42803.09259		227.14800		875.00000 
 43692.65567		 305.27265			43387.38302		70.72800		324.00000 
 43692.65567		 889.56308			42803.09259		227.14800		875.00000 
 43692.65567		 305.27265			43387.38302		70.72800		324.00000 
 43692.65567		 889.56308			42803.09259		227.14800		875.00000 
 43692.65567		 305.27265			43387.38302		70.72800		324.00000 
 43692.65567		 889.56308			42803.09259		227.14800		875.00000 
 43692.65567		 305.27265			43387.38302		70.72800		324.00000 
 43692.65567		 889.56308			42803.09259		227.14800		875.00000 
 43692.65567		 305.27265			43387.38302		70.72800		324.00000 
 43692.65567		 889.56308			42803.09259		227.14800		875.00000 
 43692.65567		 305.27265			43387.38302		70.72800		324.00000 
 43692.65567		 889.56308			42803.09259		227.14800		875.00000 
 43692.65567		 305.27265			43387.38302		70.72800		324.00000 
 43692.65567		 889.56308			42803.09259		227.14800		875.00000 
 43692.65567		 305.27265			43387.38302		70.72800		324.00000 
 43692.65567		 889.56308			42803.09259		227.14800		875.00000 
 43692.65567		 305.27265			43387.38302		70.72800		324.00000 
 43692.65567		 889.56308			42803.09259		227.14800		875.00000 
 43692.65567		 305.27265			43387.38302		70.72800		324.00000 
 43692.65567		 889.56308			42803.09259		227.14800		875.00000 
 43692.65567		 305.27265			43387.38302		70.72800		324.00000 
 43692.65567		 889.56308			42803.09259		227.14800		875.00000 
 43692.65567		 305.27265			43387.38302		70.72800		324.00000 
 43692.65567		 889.56308			42803.09259		227.14800		875.00000 
 43692.65567		 305.27265			43387.38302		70.72800		324.00000 
 43692.65567		 889.56308			42803.09259		227.14800		875.00000 
 43692.65567		 305.27265			43387.38302		70.72800		324.00000 
 43692.65567		 889.56308			42803.09259		227.14800		875.00000 
 43692.65567		 305.27265			43387.38302		70.72800		324.00000 
 43692.65567		 889.56308			42803.09259		227.14800		875.00000 
 43692.65567		 305.27265			43387.38302		70.72800		324.00000 
 43692.65567		 889.56308			42803.09259		227.14800		875.00000 
 43692.65567		 305.27265			43387.38302		70.72800		324.00000 
 43692.65567		 889.56308			42803.09259		227.14800		875.00000 
 43692.65567		 305.27265			43387.38302		70.72800		324.00000 
 43692.65567		 889.56308			42803.09259		227.14800		875.00000 
 43692.65567		 305.27265			43387.38302		70.72800		324.00000 
 43692.65567		 889.56308			42803.09259		227.14800		875.00000 
 43692.65567		 305.27265			43387.38302		70.72800		324.00000 
 43692.65567		 889.56308			42803.09259		227.14800		875.00000 
 43692.65567		 305.27265			43387.38302		70.72800		324.00000 
 43692.65567		 889.56308			42803.09259		227.14800		875.00000 
 43692.65567		 305.27265			43387.38302		70.72800		324.00000 
 43692.65567		 889.56308			42803.09259		227.14800		875.00000 
 43692.65567		 305.27265			43387.38302		70.72800		324.00000 
 43692.65567		 889.56308			42803.09259		227.14800		875.00000 
 43692.65567		 305.27265			43387.38302		70.72800		324.00000 
 43692.65567		 889.56308			42803.09259		227.14800		875.00000 
 43692.65567		 305.27265			43387.38302		70.72800		324.00000 
 43692.65567		 889.56308			42803.09259		227.14800		875.00000 
 43692.65567		 305.27265			43387.38302		70.72800		324.00000 
 43692.65567		 889.56308			42803.09259		227.14800		875.00000 
 43692.65567		 305.27265			43387.38302		70.72800		324.00000 
 43692.65567		 889.56308			42803.09259		227.14800		875.00000 
 43692.65567		 305.27265			43387.38302		70.72800		324.00000 
 43692.65567		 889.56308			42803.09259		227.14800		875.00000 
 43692.65567		 305.27265			43387.38302		70.72800		324.00000 
 43692.65567		 889.56308			42803.09259		227.14800		875.00000 
 43692.65567		 305.27265			43387.38302		70.72800		324.00000 
 43692.65567		 889.56308			42803.09259		227.14800		875.00000 
 43692.65567		 305.27265			43387.38302		70.72800		324.00000 
 43692.65567		 889.56308			42803.09259		227.14800		875.00000 
 43692.65567		 305.27265			43387.38302		70.72800		324.00000 
 43692.65567		 889.56308			42803.09259		227.14800		875.00000 
 43692.65567		 305.27265			43387.38302		70.72800		324.00000 
 43692.65567		 889.56308			42803.09259		227.14800		875.00000 
 43692.65567		 305.27265			43387.38302		70.72800		324.00000 
 43692.65567		 889.56308			42803.09259		227.14800		875.00000 
 43692.65567		 305.27265			43387.38302		70.72800		324.00000 
 43692.65567		 889.56308			42803.09259		227.14800		875.00000 
 43692.65567		 305.27265			43387.38302		70.72800		324.00000 
 43692.65567		 889.56308			42803.09259		227.14800		875.00000 
 43692.65567		 305.27265			43387.38302		70.72800		324.00000 
 43692.65567		 889.56308			42803.09259		227.14800		875.00000 
 43692.65567		 305.27265			43387.38302		70.72800		324.00000 
 43692.65567		 889.56308			42803.09259		227.14800		875.00000 
 43692.65567		 305.27265			43387.38302		70.72800		324.00000 
 43692.65567		 889.56308			42803.09259		227.14800		875.00000 
 43692.65567		 305.27265			43387.38302		70.72800		324.00000 
 43692.65567		 889.56308			42803.09259		227.14800		875.00000 
 43692.65567		 305.27265			43387.38302		70.72800		324.00000 
 43692.65567		 889.56308			42803.09259		227.14800		875.00000 
 43692.65567		 305.27265			43387.38302		70.72800		324.00000 
 43692.65567		 889.56308			42803.09259		227.14800		875.00000 
 43692.65567		 305.27265			43387.38302		70.72800		324.00000 
 43692.65567		 889.56308			42803.09259		227.14800		875.00000 
 43692.65567		 305.27265			43387.38302		70.72800		324.00000 
 43692.65567		 889.56308			42803.09259		227.14800		875.00000 
 43692.65567		 305.27265			43387.38302		70.72800		324.00000 
 43692.65567		 772.13216			42920.52351		227.14800		875.00000 
 43692.65567		 305.27265			43387.38302		70.72800		324.00000 
 43692.65567		 772.13216			42920.52351		227.14800		875.00000 
 43692.65567		 305.27265			43387.38302		70.72800		324.00000 
 43692.65567		 654.70124			43037.95443		227.14800		875.00000 
 43692.65567		 305.27265			43387.38302		70.72800		324.00000 
 43692.65567		 654.70124			43037.95443		227.14800		875.00000 
 43692.65567		 305.27265			43387.38302		70.72800		324.00000 
 43692.65567		 537.27032			43155.38535		227.14800		875.00000 
 43692.65567		 305.27265			43387.38302		70.72800		324.00000 
 43692.65567		 537.27032			43155.38535		227.14800		875.00000 
 43692.65567		 305.27265			43387.38302		70.72800		324.00000 
 43692.65567		 537.27032			43155.38535		227.14800		875.00000 
 43692.65567		 305.27265			43387.38302		70.72800		324.00000 
 43692.65567		 537.27032			43155.38535		227.14800		875.00000 
 43692.65567		 305.27265			43387.38302		70.72800		324.00000 
 43692.65567		 537.27032			43155.38535		227.14800		875.00000 
 43692.65567		 305.27265			43387.38302		70.72800		324.00000 
 43692.65567		 537.27032			43155.38535		227.14800		875.00000 
 43692.65567		 305.27265			43387.38302		70.72800		324.00000 
 43692.65567		 537.27032			43155.38535		227.14800		875.00000 
 43692.65567		 305.27265			43387.38302		70.72800		324.00000 
 43692.65567		 537.27032			43155.38535		227.14800		875.00000 
 43692.65567		 305.27265			43387.38302		70.72800		324.00000 
 43692.65567		 537.27032			43155.38535		227.14800		875.00000 
 43692.65567		 305.27265			43387.38302		70.72800		324.00000 
 43692.65567		 537.27032			43155.38535		227.14800		875.00000 
 43692.65567		 305.27265			43387.38302		70.72800		324.00000 
 43692.65567		 537.27032			43155.38535		227.14800		875.00000 
 43692.65567		 305.27265			43387.38302		70.72800		324.00000 
 43692.65567		 537.27032			43155.38535		227.14800		875.00000 
 43692.65567		 305.27265			43387.38302		70.72800		324.00000 
 43692.65567		 537.27032			43155.38535		227.14800		875.00000 
 43692.65567		 305.27265			43387.38302		70.72800		324.00000 
 43692.65567		 537.27032			43155.38535		227.14800		875.00000 
 43692.65567		 305.27265			43387.38302		70.72800		324.00000 
 43692.65567		 537.27032			43155.38535		227.14800		875.00000 
 43692.65567		 305.27265			43387.38302		69.67200		324.00000 
 43692.65567		 537.27032			43155.38535		227.14800		875.00000 
 43692.65567		 305.27265			43387.38302		69.67200		324.00000 
 43692.65567		 537.27032			43155.38535		227.14800		875.00000 
 43692.65567		 305.27265			43387.38302		69.67200		324.00000 
 43692.65567		 537.27032			43155.38535		227.14800		875.00000 
 43692.65567		 305.27265			43387.38302		69.67200		324.00000 
 43692.65567		 537.27032			43155.38535		227.14800		875.00000 
 43692.65567		 305.27265			43387.38302		69.67200		324.00000 
 43692.65567		 537.27032			43155.38535		227.14800		875.00000 
 43692.65567		 305.27265			43387.38302		69.67200		324.00000 
 43692.65567		 529.63254			43163.02313		227.14800		875.00000 
 43692.65567		 305.27265			43387.38302		69.67200		324.00000 
 43692.65567		 525.81365			43166.84203		227.14800		875.00000 
 43692.65567		 305.27265			43387.38302		69.67200		324.00000 
 43692.65567		 525.81365			43166.84203		184.84200		875.00000 
 43692.65567		 261.35540			43431.30027		69.67200		324.00000 
