Memory Total (MiB) 	 Memory Used (MiB) 	    Memory Free (MiB) 	 Power Drawed (W) 	 Clocks (Mhz) 	 
 43692.65567		 261.35540			43431.30027		165.78400		875.00000 
 43692.65567		 261.35540			43431.30027		69.69000		324.00000 
 43692.65567		 261.35540			43431.30027		165.78400		875.00000 
 43692.65567		 261.35540			43431.30027		69.69000		324.00000 
 43692.65567		 261.35540			43431.30027		165.78400		875.00000 
 43692.65567		 261.35540			43431.30027		69.69000		324.00000 
 43692.65567		 261.35540			43431.30027		165.78400		875.00000 
 43692.65567		 261.35540			43431.30027		69.69000		324.00000 
 43692.65567		 261.35540			43431.30027		165.78400		875.00000 
 43692.65567		 261.35540			43431.30027		69.69000		324.00000 
 43692.65567		 261.35540			43431.30027		165.78400		875.00000 
 43692.65567		 261.35540			43431.30027		69.69000		324.00000 
 43692.65567		 261.35540			43431.30027		165.78400		875.00000 
 43692.65567		 261.35540			43431.30027		69.69000		324.00000 
 43692.65567		 261.35540			43431.30027		165.78400		875.00000 
 43692.65567		 261.35540			43431.30027		69.69000		324.00000 
 43692.65567		 261.35540			43431.30027		165.78400		875.00000 
 43692.65567		 261.35540			43431.30027		69.69000		324.00000 
 43692.65567		 261.35540			43431.30027		165.78400		875.00000 
 43692.65567		 261.35540			43431.30027		69.69000		324.00000 
 43692.65567		 261.35540			43431.30027		165.78400		875.00000 
 43692.65567		 261.35540			43431.30027		69.69000		324.00000 
 43692.65567		 261.35540			43431.30027		165.78400		875.00000 
 43692.65567		 261.35540			43431.30027		69.69000		324.00000 
 43692.65567		 261.35540			43431.30027		165.78400		875.00000 
 43692.65567		 261.35540			43431.30027		69.69000		324.00000 
 43692.65567		 261.35540			43431.30027		165.78400		875.00000 
 43692.65567		 261.35540			43431.30027		69.69000		324.00000 
 43692.65567		 261.35540			43431.30027		165.78400		875.00000 
 43692.65567		 261.35540			43431.30027		69.69000		324.00000 
 43692.65567		 261.35540			43431.30027		165.78400		875.00000 
 43692.65567		 261.35540			43431.30027		69.69000		324.00000 
 43692.65567		 261.35540			43431.30027		165.78400		875.00000 
 43692.65567		 261.35540			43431.30027		69.69000		324.00000 
 43692.65567		 261.35540			43431.30027		165.78400		875.00000 
 43692.65567		 261.35540			43431.30027		69.69000		324.00000 
 43692.65567		 261.35540			43431.30027		165.78400		875.00000 
 43692.65567		 261.35540			43431.30027		69.69000		324.00000 
 43692.65567		 265.17429			43427.48138		165.78400		875.00000 
 43692.65567		 261.35540			43431.30027		69.69000		324.00000 
 43692.65567		 272.81207			43419.84360		165.78400		875.00000 
 43692.65567		 261.35540			43431.30027		69.69000		324.00000 
 43692.65567		 272.81207			43419.84360		165.78400		875.00000 
 43692.65567		 261.35540			43431.30027		69.69000		324.00000 
 43692.65567		 272.81207			43419.84360		165.78400		875.00000 
 43692.65567		 265.17429			43427.48138		69.69000		324.00000 
 43692.65567		 272.81207			43419.84360		165.78400		875.00000 
 43692.65567		 265.17429			43427.48138		69.69000		324.00000 
 43692.65567		 272.81207			43419.84360		165.78400		875.00000 
 43692.65567		 265.17429			43427.48138		69.69000		324.00000 
 43692.65567		 272.81207			43419.84360		165.78400		875.00000 
 43692.65567		 272.81207			43419.84360		69.69000		324.00000 
 43692.65567		 272.81207			43419.84360		165.78400		875.00000 
 43692.65567		 272.81207			43419.84360		69.69000		324.00000 
 43692.65567		 272.81207			43419.84360		165.78400		875.00000 
 43692.65567		 272.81207			43419.84360		69.69000		324.00000 
 43692.65567		 305.27265			43387.38302		165.78400		875.00000 
 43692.65567		 305.27265			43387.38302		69.69000		324.00000 
 43692.65567		 305.27265			43387.38302		165.78400		875.00000 
 43692.65567		 305.27265			43387.38302		69.69000		324.00000 
 43692.65567		 305.27265			43387.38302		165.78400		875.00000 
 43692.65567		 305.27265			43387.38302		69.69000		324.00000 
 43692.65567		 305.27265			43387.38302		165.78400		875.00000 
 43692.65567		 305.27265			43387.38302		69.69000		324.00000 
 43692.65567		 305.27265			43387.38302		165.78400		875.00000 
 43692.65567		 305.27265			43387.38302		69.69000		324.00000 
 43692.65567		 310.04627			43382.60941		165.78400		875.00000 
 43692.65567		 305.27265			43387.38302		69.69000		324.00000 
 43692.65567		 311.00099			43381.65468		165.78400		875.00000 
 43692.65567		 305.27265			43387.38302		69.69000		324.00000 
 43692.65567		 311.00099			43381.65468		144.74200		875.00000 
 43692.65567		 305.27265			43387.38302		69.69000		324.00000 
 43692.65567		 311.00099			43381.65468		144.74200		875.00000 
 43692.65567		 305.27265			43387.38302		69.69000		324.00000 
 43692.65567		 311.00099			43381.65468		144.74200		875.00000 
 43692.65567		 305.27265			43387.38302		69.69000		324.00000 
 43692.65567		 311.00099			43381.65468		144.74200		875.00000 
 43692.65567		 305.27265			43387.38302		69.69000		324.00000 
 43692.65567		 311.00099			43381.65468		144.74200		875.00000 
 43692.65567		 305.27265			43387.38302		69.69000		324.00000 
 43692.65567		 311.00099			43381.65468		144.74200		875.00000 
 43692.65567		 305.27265			43387.38302		69.69000		324.00000 
 43692.65567		 311.00099			43381.65468		144.74200		875.00000 
 43692.65567		 305.27265			43387.38302		69.69000		324.00000 
 43692.65567		 311.00099			43381.65468		144.74200		875.00000 
 43692.65567		 305.27265			43387.38302		69.69000		324.00000 
 43692.65567		 311.00099			43381.65468		144.74200		875.00000 
 43692.65567		 305.27265			43387.38302		69.69000		324.00000 
 43692.65567		 311.00099			43381.65468		144.74200		875.00000 
 43692.65567		 305.27265			43387.38302		69.69000		324.00000 
 43692.65567		 311.00099			43381.65468		144.74200		875.00000 
 43692.65567		 305.27265			43387.38302		69.69000		324.00000 
 43692.65567		 311.00099			43381.65468		144.74200		875.00000 
 43692.65567		 305.27265			43387.38302		69.69000		324.00000 
 43692.65567		 311.00099			43381.65468		144.74200		875.00000 
 43692.65567		 305.27265			43387.38302		69.69000		324.00000 
 43692.65567		 311.00099			43381.65468		144.74200		875.00000 
 43692.65567		 305.27265			43387.38302		69.69000		324.00000 
 43692.65567		 311.00099			43381.65468		144.74200		875.00000 
 43692.65567		 305.27265			43387.38302		69.69000		324.00000 
 43692.65567		 311.00099			43381.65468		144.74200		875.00000 
 43692.65567		 305.27265			43387.38302		69.69000		324.00000 
 43692.65567		 311.00099			43381.65468		144.74200		875.00000 
 43692.65567		 305.27265			43387.38302		69.69000		324.00000 
 43692.65567		 311.00099			43381.65468		144.74200		875.00000 
 43692.65567		 305.27265			43387.38302		69.69000		324.00000 
 43692.65567		 311.00099			43381.65468		144.74200		875.00000 
 43692.65567		 305.27265			43387.38302		69.69000		324.00000 
 43692.65567		 311.00099			43381.65468		144.74200		875.00000 
 43692.65567		 305.27265			43387.38302		69.69000		324.00000 
 43692.65567		 311.00099			43381.65468		144.74200		875.00000 
 43692.65567		 305.27265			43387.38302		69.69000		324.00000 
 43692.65567		 311.00099			43381.65468		144.74200		875.00000 
 43692.65567		 305.27265			43387.38302		69.69000		324.00000 
 43692.65567		 311.00099			43381.65468		144.74200		875.00000 
 43692.65567		 305.27265			43387.38302		69.69000		324.00000 
 43692.65567		 311.00099			43381.65468		144.74200		875.00000 
 43692.65567		 305.27265			43387.38302		69.69000		324.00000 
 43692.65567		 311.00099			43381.65468		144.74200		875.00000 
 43692.65567		 305.27265			43387.38302		69.69000		324.00000 
 43692.65567		 311.00099			43381.65468		144.74200		875.00000 
 43692.65567		 305.27265			43387.38302		69.69000		324.00000 
 43692.65567		 311.00099			43381.65468		144.74200		875.00000 
 43692.65567		 305.27265			43387.38302		69.69000		324.00000 
 43692.65567		 311.00099			43381.65468		144.74200		875.00000 
 43692.65567		 305.27265			43387.38302		69.69000		324.00000 
 43692.65567		 311.00099			43381.65468		144.74200		875.00000 
 43692.65567		 305.27265			43387.38302		69.69000		324.00000 
 43692.65567		 311.00099			43381.65468		144.74200		875.00000 
 43692.65567		 305.27265			43387.38302		69.69000		324.00000 
 43692.65567		 311.00099			43381.65468		144.74200		875.00000 
 43692.65567		 305.27265			43387.38302		69.69000		324.00000 
 43692.65567		 311.00099			43381.65468		136.53400		875.00000 
 43692.65567		 305.27265			43387.38302		69.69000		324.00000 
 43692.65567		 311.00099			43381.65468		136.53400		875.00000 
 43692.65567		 305.27265			43387.38302		69.69000		324.00000 
 43692.65567		 311.00099			43381.65468		136.53400		875.00000 
 43692.65567		 305.27265			43387.38302		69.69000		324.00000 
 43692.65567		 311.00099			43381.65468		136.53400		875.00000 
 43692.65567		 305.27265			43387.38302		69.69000		324.00000 
 43692.65567		 311.00099			43381.65468		136.53400		875.00000 
 43692.65567		 305.27265			43387.38302		69.69000		324.00000 
 43692.65567		 311.00099			43381.65468		136.53400		875.00000 
 43692.65567		 305.27265			43387.38302		69.69000		324.00000 
 43692.65567		 311.00099			43381.65468		136.53400		875.00000 
 43692.65567		 305.27265			43387.38302		69.69000		324.00000 
 43692.65567		 311.00099			43381.65468		136.53400		875.00000 
 43692.65567		 305.27265			43387.38302		69.69000		324.00000 
 43692.65567		 311.00099			43381.65468		136.53400		875.00000 
 43692.65567		 305.27265			43387.38302		69.69000		324.00000 
 43692.65567		 311.00099			43381.65468		136.53400		875.00000 
 43692.65567		 305.27265			43387.38302		69.69000		324.00000 
 43692.65567		 311.00099			43381.65468		136.53400		875.00000 
 43692.65567		 305.27265			43387.38302		69.69000		324.00000 
 43692.65567		 311.00099			43381.65468		136.53400		875.00000 
 43692.65567		 305.27265			43387.38302		69.69000		324.00000 
 43692.65567		 311.00099			43381.65468		136.53400		875.00000 
 43692.65567		 305.27265			43387.38302		69.69000		324.00000 
 43692.65567		 311.00099			43381.65468		136.53400		875.00000 
 43692.65567		 305.27265			43387.38302		69.69000		324.00000 
 43692.65567		 311.00099			43381.65468		136.53400		875.00000 
 43692.65567		 305.27265			43387.38302		69.69000		324.00000 
 43692.65567		 311.00099			43381.65468		136.53400		875.00000 
 43692.65567		 305.27265			43387.38302		69.69000		324.00000 
 43692.65567		 311.00099			43381.65468		136.53400		875.00000 
 43692.65567		 305.27265			43387.38302		69.69000		324.00000 
 43692.65567		 311.00099			43381.65468		136.53400		875.00000 
 43692.65567		 305.27265			43387.38302		69.69000		324.00000 
 43692.65567		 311.00099			43381.65468		136.53400		875.00000 
 43692.65567		 305.27265			43387.38302		69.69000		324.00000 
 43692.65567		 311.00099			43381.65468		136.53400		875.00000 
 43692.65567		 305.27265			43387.38302		69.69000		324.00000 
 43692.65567		 314.81988			43377.83579		136.53400		875.00000 
 43692.65567		 305.27265			43387.38302		69.69000		324.00000 
 43692.65567		 314.81988			43377.83579		136.53400		875.00000 
 43692.65567		 305.27265			43387.38302		69.69000		324.00000 
 43692.65567		 314.81988			43377.83579		136.53400		875.00000 
 43692.65567		 305.27265			43387.38302		69.69000		324.00000 
 43692.65567		 318.63877			43374.01690		136.53400		875.00000 
 43692.65567		 305.27265			43387.38302		69.69000		324.00000 
 43692.65567		 322.45767			43370.19801		136.53400		875.00000 
 43692.65567		 305.27265			43387.38302		69.69000		324.00000 
 43692.65567		 326.27656			43366.37912		136.53400		875.00000 
 43692.65567		 305.27265			43387.38302		69.69000		324.00000 
 43692.65567		 326.27656			43366.37912		136.53400		875.00000 
 43692.65567		 305.27265			43387.38302		69.69000		324.00000 
 43692.65567		 326.27656			43366.37912		136.53400		875.00000 
 43692.65567		 305.27265			43387.38302		69.69000		324.00000 
 43692.65567		 537.27032			43155.38535		136.53400		875.00000 
 43692.65567		 305.27265			43387.38302		69.69000		324.00000 
 43692.65567		 732.98852			42959.66715		136.53400		875.00000 
 43692.65567		 305.27265			43387.38302		69.69000		324.00000 
 43692.65567		 830.84762			42861.80805		136.53400		875.00000 
 43692.65567		 305.27265			43387.38302		69.69000		324.00000 
 43692.65567		 830.84762			42861.80805		136.53400		875.00000 
 43692.65567		 305.27265			43387.38302		69.69000		324.00000 
 43692.65567		 830.84762			42861.80805		136.53400		875.00000 
 43692.65567		 305.27265			43387.38302		69.69000		324.00000 
 43692.65567		 830.84762			42861.80805		136.53400		875.00000 
 43692.65567		 305.27265			43387.38302		69.69000		324.00000 
 43692.65567		 830.84762			42861.80805		136.53400		875.00000 
 43692.65567		 305.27265			43387.38302		69.69000		324.00000 
 43692.65567		 830.84762			42861.80805		136.53400		875.00000 
 43692.65567		 305.27265			43387.38302		69.69000		324.00000 
 43692.65567		 830.84762			42861.80805		136.53400		875.00000 
 43692.65567		 305.27265			43387.38302		69.69000		324.00000 
 43692.65567		 830.84762			42861.80805		136.53400		875.00000 
 43692.65567		 305.27265			43387.38302		69.69000		324.00000 
 43692.65567		 830.84762			42861.80805		145.56400		875.00000 
 43692.65567		 305.27265			43387.38302		69.69000		324.00000 
 43692.65567		 830.84762			42861.80805		145.56400		875.00000 
 43692.65567		 305.27265			43387.38302		69.69000		324.00000 
 43692.65567		 830.84762			42861.80805		145.56400		875.00000 
 43692.65567		 305.27265			43387.38302		69.69000		324.00000 
 43692.65567		 830.84762			42861.80805		145.56400		875.00000 
 43692.65567		 305.27265			43387.38302		69.69000		324.00000 
 43692.65567		 830.84762			42861.80805		145.56400		875.00000 
 43692.65567		 305.27265			43387.38302		69.69000		324.00000 
 43692.65567		 830.84762			42861.80805		145.56400		875.00000 
 43692.65567		 305.27265			43387.38302		69.69000		324.00000 
 43692.65567		 830.84762			42861.80805		145.56400		875.00000 
 43692.65567		 305.27265			43387.38302		69.69000		324.00000 
 43692.65567		 830.84762			42861.80805		145.56400		875.00000 
 43692.65567		 305.27265			43387.38302		69.69000		324.00000 
 43692.65567		 830.84762			42861.80805		145.56400		875.00000 
 43692.65567		 305.27265			43387.38302		69.69000		324.00000 
 43692.65567		 830.84762			42861.80805		145.56400		875.00000 
 43692.65567		 305.27265			43387.38302		69.69000		324.00000 
 43692.65567		 830.84762			42861.80805		145.56400		875.00000 
 43692.65567		 305.27265			43387.38302		69.69000		324.00000 
 43692.65567		 830.84762			42861.80805		145.56400		875.00000 
 43692.65567		 305.27265			43387.38302		69.69000		324.00000 
 43692.65567		 830.84762			42861.80805		145.56400		875.00000 
 43692.65567		 305.27265			43387.38302		69.69000		324.00000 
 43692.65567		 830.84762			42861.80805		145.56400		875.00000 
 43692.65567		 305.27265			43387.38302		69.69000		324.00000 
 43692.65567		 830.84762			42861.80805		145.56400		875.00000 
 43692.65567		 305.27265			43387.38302		69.69000		324.00000 
 43692.65567		 830.84762			42861.80805		145.56400		875.00000 
 43692.65567		 305.27265			43387.38302		69.69000		324.00000 
 43692.65567		 830.84762			42861.80805		145.56400		875.00000 
 43692.65567		 305.27265			43387.38302		69.69000		324.00000 
 43692.65567		 830.84762			42861.80805		145.56400		875.00000 
 43692.65567		 305.27265			43387.38302		69.69000		324.00000 
 43692.65567		 830.84762			42861.80805		145.56400		875.00000 
 43692.65567		 305.27265			43387.38302		69.69000		324.00000 
 43692.65567		 830.84762			42861.80805		145.56400		875.00000 
 43692.65567		 305.27265			43387.38302		69.69000		324.00000 
 43692.65567		 830.84762			42861.80805		145.56400		875.00000 
 43692.65567		 305.27265			43387.38302		69.69000		324.00000 
 43692.65567		 830.84762			42861.80805		145.56400		875.00000 
 43692.65567		 305.27265			43387.38302		69.69000		324.00000 
 43692.65567		 830.84762			42861.80805		145.56400		875.00000 
 43692.65567		 305.27265			43387.38302		69.69000		324.00000 
 43692.65567		 830.84762			42861.80805		145.56400		875.00000 
 43692.65567		 305.27265			43387.38302		69.69000		324.00000 
 43692.65567		 830.84762			42861.80805		145.56400		875.00000 
 43692.65567		 305.27265			43387.38302		69.69000		324.00000 
 43692.65567		 830.84762			42861.80805		145.56400		875.00000 
 43692.65567		 305.27265			43387.38302		69.69000		324.00000 
 43692.65567		 830.84762			42861.80805		145.56400		875.00000 
 43692.65567		 305.27265			43387.38302		69.69000		324.00000 
 43692.65567		 830.84762			42861.80805		145.56400		875.00000 
 43692.65567		 305.27265			43387.38302		69.69000		324.00000 
 43692.65567		 830.84762			42861.80805		145.56400		875.00000 
 43692.65567		 305.27265			43387.38302		69.69000		324.00000 
 43692.65567		 830.84762			42861.80805		145.56400		875.00000 
 43692.65567		 305.27265			43387.38302		69.69000		324.00000 
 43692.65567		 830.84762			42861.80805		145.56400		875.00000 
 43692.65567		 305.27265			43387.38302		69.69000		324.00000 
 43692.65567		 830.84762			42861.80805		145.56400		875.00000 
 43692.65567		 305.27265			43387.38302		69.69000		324.00000 
 43692.65567		 830.84762			42861.80805		145.56400		875.00000 
 43692.65567		 305.27265			43387.38302		69.69000		324.00000 
 43692.65567		 830.84762			42861.80805		145.56400		875.00000 
 43692.65567		 305.27265			43387.38302		69.69000		324.00000 
 43692.65567		 830.84762			42861.80805		145.56400		875.00000 
 43692.65567		 305.27265			43387.38302		69.69000		324.00000 
 43692.65567		 830.84762			42861.80805		145.56400		875.00000 
 43692.65567		 305.27265			43387.38302		69.69000		324.00000 
 43692.65567		 830.84762			42861.80805		145.56400		875.00000 
 43692.65567		 305.27265			43387.38302		69.69000		324.00000 
 43692.65567		 830.84762			42861.80805		145.56400		875.00000 
 43692.65567		 305.27265			43387.38302		69.69000		324.00000 
 43692.65567		 830.84762			42861.80805		145.56400		875.00000 
 43692.65567		 305.27265			43387.38302		69.69000		324.00000 
 43692.65567		 830.84762			42861.80805		145.56400		875.00000 
 43692.65567		 305.27265			43387.38302		69.69000		324.00000 
 43692.65567		 830.84762			42861.80805		145.56400		875.00000 
 43692.65567		 305.27265			43387.38302		69.69000		324.00000 
 43692.65567		 830.84762			42861.80805		145.56400		875.00000 
 43692.65567		 305.27265			43387.38302		69.69000		324.00000 
 43692.65567		 830.84762			42861.80805		145.56400		875.00000 
 43692.65567		 305.27265			43387.38302		69.69000		324.00000 
 43692.65567		 830.84762			42861.80805		145.56400		875.00000 
 43692.65567		 305.27265			43387.38302		69.69000		324.00000 
 43692.65567		 830.84762			42861.80805		145.56400		875.00000 
 43692.65567		 305.27265			43387.38302		69.69000		324.00000 
 43692.65567		 830.84762			42861.80805		145.56400		875.00000 
 43692.65567		 305.27265			43387.38302		69.69000		324.00000 
 43692.65567		 830.84762			42861.80805		145.56400		875.00000 
 43692.65567		 305.27265			43387.38302		69.69000		324.00000 
 43692.65567		 830.84762			42861.80805		145.56400		875.00000 
 43692.65567		 305.27265			43387.38302		69.69000		324.00000 
 43692.65567		 830.84762			42861.80805		145.56400		875.00000 
 43692.65567		 305.27265			43387.38302		69.69000		324.00000 
 43692.65567		 830.84762			42861.80805		145.56400		875.00000 
 43692.65567		 305.27265			43387.38302		69.69000		324.00000 
 43692.65567		 830.84762			42861.80805		145.56400		875.00000 
 43692.65567		 305.27265			43387.38302		69.69000		324.00000 
 43692.65567		 830.84762			42861.80805		145.56400		875.00000 
 43692.65567		 305.27265			43387.38302		69.69000		324.00000 
 43692.65567		 830.84762			42861.80805		145.56400		875.00000 
 43692.65567		 305.27265			43387.38302		69.69000		324.00000 
 43692.65567		 830.84762			42861.80805		145.56400		875.00000 
 43692.65567		 305.27265			43387.38302		69.69000		324.00000 
 43692.65567		 830.84762			42861.80805		145.56400		875.00000 
 43692.65567		 305.27265			43387.38302		69.69000		324.00000 
 43692.65567		 830.84762			42861.80805		145.56400		875.00000 
 43692.65567		 305.27265			43387.38302		69.69000		324.00000 
 43692.65567		 830.84762			42861.80805		145.56400		875.00000 
 43692.65567		 305.27265			43387.38302		69.69000		324.00000 
 43692.65567		 830.84762			42861.80805		145.56400		875.00000 
 43692.65567		 305.27265			43387.38302		69.69000		324.00000 
 43692.65567		 830.84762			42861.80805		145.56400		875.00000 
 43692.65567		 305.27265			43387.38302		69.69000		324.00000 
 43692.65567		 830.84762			42861.80805		145.56400		875.00000 
 43692.65567		 305.27265			43387.38302		69.69000		324.00000 
 43692.65567		 830.84762			42861.80805		145.56400		875.00000 
 43692.65567		 305.27265			43387.38302		69.69000		324.00000 
 43692.65567		 830.84762			42861.80805		145.56400		875.00000 
 43692.65567		 305.27265			43387.38302		69.69000		324.00000 
 43692.65567		 830.84762			42861.80805		145.56400		875.00000 
 43692.65567		 305.27265			43387.38302		69.69000		324.00000 
 43692.65567		 830.84762			42861.80805		145.56400		875.00000 
 43692.65567		 305.27265			43387.38302		69.69000		324.00000 
 43692.65567		 830.84762			42861.80805		194.02200		875.00000 
 43692.65567		 305.27265			43387.38302		69.69000		324.00000 
 43692.65567		 830.84762			42861.80805		194.02200		875.00000 
 43692.65567		 305.27265			43387.38302		69.69000		324.00000 
 43692.65567		 830.84762			42861.80805		194.02200		875.00000 
 43692.65567		 305.27265			43387.38302		69.69000		324.00000 
 43692.65567		 830.84762			42861.80805		194.02200		875.00000 
 43692.65567		 305.27265			43387.38302		69.69000		324.00000 
 43692.65567		 830.84762			42861.80805		194.02200		875.00000 
 43692.65567		 305.27265			43387.38302		69.69000		324.00000 
 43692.65567		 830.84762			42861.80805		194.02200		875.00000 
 43692.65567		 305.27265			43387.38302		69.69000		324.00000 
 43692.65567		 830.84762			42861.80805		194.02200		875.00000 
 43692.65567		 305.27265			43387.38302		69.69000		324.00000 
 43692.65567		 830.84762			42861.80805		194.02200		875.00000 
 43692.65567		 305.27265			43387.38302		69.69000		324.00000 
 43692.65567		 830.84762			42861.80805		194.02200		875.00000 
 43692.65567		 305.27265			43387.38302		69.69000		324.00000 
 43692.65567		 830.84762			42861.80805		194.02200		875.00000 
 43692.65567		 305.27265			43387.38302		69.69000		324.00000 
 43692.65567		 830.84762			42861.80805		194.02200		875.00000 
 43692.65567		 305.27265			43387.38302		69.69000		324.00000 
 43692.65567		 830.84762			42861.80805		194.02200		875.00000 
 43692.65567		 305.27265			43387.38302		69.69000		324.00000 
 43692.65567		 830.84762			42861.80805		194.02200		875.00000 
 43692.65567		 305.27265			43387.38302		69.69000		324.00000 
 43692.65567		 830.84762			42861.80805		194.02200		875.00000 
 43692.65567		 305.27265			43387.38302		69.69000		324.00000 
 43692.65567		 830.84762			42861.80805		194.02200		875.00000 
 43692.65567		 305.27265			43387.38302		69.69000		324.00000 
 43692.65567		 830.84762			42861.80805		194.02200		875.00000 
 43692.65567		 305.27265			43387.38302		69.69000		324.00000 
 43692.65567		 830.84762			42861.80805		194.02200		875.00000 
 43692.65567		 305.27265			43387.38302		69.69000		324.00000 
 43692.65567		 830.84762			42861.80805		194.02200		875.00000 
 43692.65567		 305.27265			43387.38302		69.69000		324.00000 
 43692.65567		 830.84762			42861.80805		194.02200		875.00000 
 43692.65567		 305.27265			43387.38302		69.69000		324.00000 
 43692.65567		 830.84762			42861.80805		194.02200		875.00000 
 43692.65567		 305.27265			43387.38302		69.69000		324.00000 
 43692.65567		 830.84762			42861.80805		194.02200		875.00000 
 43692.65567		 305.27265			43387.38302		69.69000		324.00000 
 43692.65567		 830.84762			42861.80805		194.02200		875.00000 
 43692.65567		 305.27265			43387.38302		69.69000		324.00000 
 43692.65567		 830.84762			42861.80805		194.02200		875.00000 
 43692.65567		 305.27265			43387.38302		69.69000		324.00000 
 43692.65567		 830.84762			42861.80805		194.02200		875.00000 
 43692.65567		 305.27265			43387.38302		69.69000		324.00000 
 43692.65567		 830.84762			42861.80805		194.02200		875.00000 
 43692.65567		 305.27265			43387.38302		69.69000		324.00000 
 43692.65567		 830.84762			42861.80805		194.02200		875.00000 
 43692.65567		 305.27265			43387.38302		69.69000		324.00000 
 43692.65567		 830.84762			42861.80805		194.02200		875.00000 
 43692.65567		 305.27265			43387.38302		69.69000		324.00000 
 43692.65567		 830.84762			42861.80805		194.02200		875.00000 
 43692.65567		 305.27265			43387.38302		69.69000		324.00000 
 43692.65567		 830.84762			42861.80805		194.02200		875.00000 
 43692.65567		 305.27265			43387.38302		69.69000		324.00000 
 43692.65567		 830.84762			42861.80805		194.02200		875.00000 
 43692.65567		 305.27265			43387.38302		69.69000		324.00000 
 43692.65567		 830.84762			42861.80805		194.02200		875.00000 
 43692.65567		 305.27265			43387.38302		69.69000		324.00000 
 43692.65567		 830.84762			42861.80805		194.02200		875.00000 
 43692.65567		 305.27265			43387.38302		69.69000		324.00000 
 43692.65567		 830.84762			42861.80805		194.02200		875.00000 
 43692.65567		 305.27265			43387.38302		69.69000		324.00000 
 43692.65567		 830.84762			42861.80805		194.02200		875.00000 
 43692.65567		 305.27265			43387.38302		69.69000		324.00000 
 43692.65567		 830.84762			42861.80805		194.02200		875.00000 
 43692.65567		 305.27265			43387.38302		69.69000		324.00000 
 43692.65567		 830.84762			42861.80805		194.02200		875.00000 
 43692.65567		 305.27265			43387.38302		69.69000		324.00000 
 43692.65567		 830.84762			42861.80805		194.02200		875.00000 
 43692.65567		 305.27265			43387.38302		69.69000		324.00000 
 43692.65567		 830.84762			42861.80805		194.02200		875.00000 
 43692.65567		 305.27265			43387.38302		69.69000		324.00000 
 43692.65567		 830.84762			42861.80805		194.02200		875.00000 
 43692.65567		 305.27265			43387.38302		69.69000		324.00000 
 43692.65567		 830.84762			42861.80805		194.02200		875.00000 
 43692.65567		 305.27265			43387.38302		69.69000		324.00000 
 43692.65567		 830.84762			42861.80805		194.02200		875.00000 
 43692.65567		 305.27265			43387.38302		69.69000		324.00000 
 43692.65567		 830.84762			42861.80805		194.02200		875.00000 
 43692.65567		 305.27265			43387.38302		69.69000		324.00000 
 43692.65567		 830.84762			42861.80805		194.02200		875.00000 
 43692.65567		 305.27265			43387.38302		69.69000		324.00000 
 43692.65567		 830.84762			42861.80805		194.02200		875.00000 
 43692.65567		 305.27265			43387.38302		69.69000		324.00000 
 43692.65567		 830.84762			42861.80805		194.02200		875.00000 
 43692.65567		 305.27265			43387.38302		69.69000		324.00000 
 43692.65567		 830.84762			42861.80805		194.02200		875.00000 
 43692.65567		 305.27265			43387.38302		69.69000		324.00000 
 43692.65567		 830.84762			42861.80805		194.02200		875.00000 
 43692.65567		 305.27265			43387.38302		69.69000		324.00000 
 43692.65567		 830.84762			42861.80805		194.02200		875.00000 
 43692.65567		 305.27265			43387.38302		69.69000		324.00000 
 43692.65567		 830.84762			42861.80805		194.02200		875.00000 
 43692.65567		 305.27265			43387.38302		69.69000		324.00000 
 43692.65567		 830.84762			42861.80805		194.02200		875.00000 
 43692.65567		 305.27265			43387.38302		69.69000		324.00000 
 43692.65567		 830.84762			42861.80805		194.02200		875.00000 
 43692.65567		 305.27265			43387.38302		69.69000		324.00000 
 43692.65567		 830.84762			42861.80805		194.02200		875.00000 
 43692.65567		 305.27265			43387.38302		69.69000		324.00000 
 43692.65567		 830.84762			42861.80805		194.02200		875.00000 
 43692.65567		 305.27265			43387.38302		69.69000		324.00000 
 43692.65567		 830.84762			42861.80805		194.02200		875.00000 
 43692.65567		 305.27265			43387.38302		69.69000		324.00000 
 43692.65567		 830.84762			42861.80805		194.02200		875.00000 
 43692.65567		 305.27265			43387.38302		69.69000		324.00000 
 43692.65567		 830.84762			42861.80805		194.02200		875.00000 
 43692.65567		 305.27265			43387.38302		69.69000		324.00000 
 43692.65567		 830.84762			42861.80805		194.02200		875.00000 
 43692.65567		 305.27265			43387.38302		69.69000		324.00000 
 43692.65567		 830.84762			42861.80805		194.02200		875.00000 
 43692.65567		 305.27265			43387.38302		69.69000		324.00000 
 43692.65567		 830.84762			42861.80805		194.02200		875.00000 
 43692.65567		 305.27265			43387.38302		69.69000		324.00000 
 43692.65567		 830.84762			42861.80805		194.02200		875.00000 
 43692.65567		 305.27265			43387.38302		69.69000		324.00000 
 43692.65567		 830.84762			42861.80805		194.02200		875.00000 
 43692.65567		 305.27265			43387.38302		69.69000		324.00000 
 43692.65567		 830.84762			42861.80805		194.02200		875.00000 
 43692.65567		 305.27265			43387.38302		69.69000		324.00000 
 43692.65567		 830.84762			42861.80805		194.02200		875.00000 
 43692.65567		 305.27265			43387.38302		69.69000		324.00000 
 43692.65567		 830.84762			42861.80805		194.02200		875.00000 
 43692.65567		 305.27265			43387.38302		69.69000		324.00000 
 43692.65567		 830.84762			42861.80805		212.72400		875.00000 
 43692.65567		 305.27265			43387.38302		69.69000		324.00000 
 43692.65567		 830.84762			42861.80805		212.72400		875.00000 
 43692.65567		 305.27265			43387.38302		69.69000		324.00000 
 43692.65567		 830.84762			42861.80805		212.72400		875.00000 
 43692.65567		 305.27265			43387.38302		69.69000		324.00000 
 43692.65567		 830.84762			42861.80805		212.72400		875.00000 
 43692.65567		 305.27265			43387.38302		69.69000		324.00000 
 43692.65567		 830.84762			42861.80805		212.72400		875.00000 
 43692.65567		 305.27265			43387.38302		69.69000		324.00000 
 43692.65567		 830.84762			42861.80805		212.72400		875.00000 
 43692.65567		 305.27265			43387.38302		69.69000		324.00000 
 43692.65567		 830.84762			42861.80805		212.72400		875.00000 
 43692.65567		 305.27265			43387.38302		69.69000		324.00000 
 43692.65567		 830.84762			42861.80805		212.72400		875.00000 
 43692.65567		 305.27265			43387.38302		69.69000		324.00000 
 43692.65567		 830.84762			42861.80805		212.72400		875.00000 
 43692.65567		 305.27265			43387.38302		69.69000		324.00000 
 43692.65567		 830.84762			42861.80805		212.72400		875.00000 
 43692.65567		 305.27265			43387.38302		69.69000		324.00000 
 43692.65567		 830.84762			42861.80805		212.72400		875.00000 
 43692.65567		 305.27265			43387.38302		69.69000		324.00000 
 43692.65567		 830.84762			42861.80805		212.72400		875.00000 
 43692.65567		 305.27265			43387.38302		69.69000		324.00000 
 43692.65567		 830.84762			42861.80805		212.72400		875.00000 
 43692.65567		 305.27265			43387.38302		69.69000		324.00000 
 43692.65567		 830.84762			42861.80805		212.72400		875.00000 
 43692.65567		 305.27265			43387.38302		69.69000		324.00000 
 43692.65567		 830.84762			42861.80805		212.72400		875.00000 
 43692.65567		 305.27265			43387.38302		69.69000		324.00000 
 43692.65567		 830.84762			42861.80805		212.72400		875.00000 
 43692.65567		 305.27265			43387.38302		69.69000		324.00000 
 43692.65567		 830.84762			42861.80805		212.72400		875.00000 
 43692.65567		 305.27265			43387.38302		69.69000		324.00000 
 43692.65567		 830.84762			42861.80805		212.72400		875.00000 
 43692.65567		 305.27265			43387.38302		69.69000		324.00000 
 43692.65567		 830.84762			42861.80805		212.72400		875.00000 
 43692.65567		 305.27265			43387.38302		69.69000		324.00000 
 43692.65567		 830.84762			42861.80805		212.72400		875.00000 
 43692.65567		 305.27265			43387.38302		69.69000		324.00000 
 43692.65567		 830.84762			42861.80805		212.72400		875.00000 
 43692.65567		 305.27265			43387.38302		69.69000		324.00000 
 43692.65567		 830.84762			42861.80805		212.72400		875.00000 
 43692.65567		 305.27265			43387.38302		69.69000		324.00000 
 43692.65567		 830.84762			42861.80805		212.72400		875.00000 
 43692.65567		 305.27265			43387.38302		69.69000		324.00000 
 43692.65567		 830.84762			42861.80805		212.72400		875.00000 
 43692.65567		 305.27265			43387.38302		69.69000		324.00000 
 43692.65567		 830.84762			42861.80805		212.72400		875.00000 
 43692.65567		 305.27265			43387.38302		69.69000		324.00000 
 43692.65567		 830.84762			42861.80805		212.72400		875.00000 
 43692.65567		 305.27265			43387.38302		69.69000		324.00000 
 43692.65567		 830.84762			42861.80805		212.72400		875.00000 
 43692.65567		 305.27265			43387.38302		69.69000		324.00000 
 43692.65567		 830.84762			42861.80805		212.72400		875.00000 
 43692.65567		 305.27265			43387.38302		69.69000		324.00000 
 43692.65567		 830.84762			42861.80805		212.72400		875.00000 
 43692.65567		 305.27265			43387.38302		69.69000		324.00000 
 43692.65567		 830.84762			42861.80805		212.72400		875.00000 
 43692.65567		 305.27265			43387.38302		69.69000		324.00000 
 43692.65567		 830.84762			42861.80805		212.72400		875.00000 
 43692.65567		 305.27265			43387.38302		69.69000		324.00000 
 43692.65567		 830.84762			42861.80805		212.72400		875.00000 
 43692.65567		 305.27265			43387.38302		69.69000		324.00000 
 43692.65567		 830.84762			42861.80805		212.72400		875.00000 
 43692.65567		 305.27265			43387.38302		69.69000		324.00000 
 43692.65567		 830.84762			42861.80805		212.72400		875.00000 
 43692.65567		 305.27265			43387.38302		69.69000		324.00000 
 43692.65567		 830.84762			42861.80805		212.72400		875.00000 
 43692.65567		 305.27265			43387.38302		69.69000		324.00000 
 43692.65567		 830.84762			42861.80805		212.72400		875.00000 
 43692.65567		 305.27265			43387.38302		69.69000		324.00000 
 43692.65567		 830.84762			42861.80805		212.72400		875.00000 
 43692.65567		 305.27265			43387.38302		69.69000		324.00000 
 43692.65567		 830.84762			42861.80805		212.72400		875.00000 
 43692.65567		 305.27265			43387.38302		69.69000		324.00000 
 43692.65567		 830.84762			42861.80805		212.72400		875.00000 
 43692.65567		 305.27265			43387.38302		69.69000		324.00000 
 43692.65567		 830.84762			42861.80805		212.72400		875.00000 
 43692.65567		 305.27265			43387.38302		69.69000		324.00000 
 43692.65567		 830.84762			42861.80805		212.72400		875.00000 
 43692.65567		 305.27265			43387.38302		69.69000		324.00000 
 43692.65567		 830.84762			42861.80805		212.72400		875.00000 
 43692.65567		 305.27265			43387.38302		69.69000		324.00000 
 43692.65567		 830.84762			42861.80805		212.72400		875.00000 
 43692.65567		 305.27265			43387.38302		69.69000		324.00000 
 43692.65567		 830.84762			42861.80805		212.72400		875.00000 
 43692.65567		 305.27265			43387.38302		69.69000		324.00000 
 43692.65567		 830.84762			42861.80805		212.72400		875.00000 
 43692.65567		 305.27265			43387.38302		69.69000		324.00000 
 43692.65567		 830.84762			42861.80805		212.72400		875.00000 
 43692.65567		 305.27265			43387.38302		69.69000		324.00000 
 43692.65567		 830.84762			42861.80805		212.72400		875.00000 
 43692.65567		 305.27265			43387.38302		69.69000		324.00000 
 43692.65567		 830.84762			42861.80805		212.72400		875.00000 
 43692.65567		 305.27265			43387.38302		69.69000		324.00000 
 43692.65567		 830.84762			42861.80805		212.72400		875.00000 
 43692.65567		 305.27265			43387.38302		69.69000		324.00000 
 43692.65567		 830.84762			42861.80805		212.72400		875.00000 
 43692.65567		 305.27265			43387.38302		69.69000		324.00000 
 43692.65567		 830.84762			42861.80805		212.72400		875.00000 
 43692.65567		 305.27265			43387.38302		69.69000		324.00000 
 43692.65567		 830.84762			42861.80805		212.72400		875.00000 
 43692.65567		 305.27265			43387.38302		69.69000		324.00000 
 43692.65567		 830.84762			42861.80805		212.72400		875.00000 
 43692.65567		 305.27265			43387.38302		69.69000		324.00000 
 43692.65567		 830.84762			42861.80805		212.72400		875.00000 
 43692.65567		 305.27265			43387.38302		69.69000		324.00000 
 43692.65567		 830.84762			42861.80805		212.72400		875.00000 
 43692.65567		 305.27265			43387.38302		69.69000		324.00000 
 43692.65567		 830.84762			42861.80805		212.72400		875.00000 
 43692.65567		 305.27265			43387.38302		69.69000		324.00000 
 43692.65567		 830.84762			42861.80805		212.72400		875.00000 
 43692.65567		 305.27265			43387.38302		69.69000		324.00000 
 43692.65567		 830.84762			42861.80805		212.72400		875.00000 
 43692.65567		 305.27265			43387.38302		69.69000		324.00000 
 43692.65567		 830.84762			42861.80805		212.72400		875.00000 
 43692.65567		 305.27265			43387.38302		69.69000		324.00000 
 43692.65567		 830.84762			42861.80805		212.72400		875.00000 
 43692.65567		 305.27265			43387.38302		69.69000		324.00000 
 43692.65567		 830.84762			42861.80805		212.72400		875.00000 
 43692.65567		 305.27265			43387.38302		69.69000		324.00000 
 43692.65567		 830.84762			42861.80805		212.72400		875.00000 
 43692.65567		 305.27265			43387.38302		69.69000		324.00000 
 43692.65567		 830.84762			42861.80805		212.72400		875.00000 
 43692.65567		 305.27265			43387.38302		69.69000		324.00000 
 43692.65567		 830.84762			42861.80805		212.72400		875.00000 
 43692.65567		 305.27265			43387.38302		69.69000		324.00000 
 43692.65567		 830.84762			42861.80805		219.52400		875.00000 
 43692.65567		 305.27265			43387.38302		69.69000		324.00000 
 43692.65567		 830.84762			42861.80805		219.52400		875.00000 
 43692.65567		 305.27265			43387.38302		69.69000		324.00000 
 43692.65567		 830.84762			42861.80805		219.52400		875.00000 
 43692.65567		 305.27265			43387.38302		69.69000		324.00000 
 43692.65567		 830.84762			42861.80805		219.52400		875.00000 
 43692.65567		 305.27265			43387.38302		69.69000		324.00000 
 43692.65567		 830.84762			42861.80805		219.52400		875.00000 
 43692.65567		 305.27265			43387.38302		69.69000		324.00000 
 43692.65567		 830.84762			42861.80805		219.52400		875.00000 
 43692.65567		 305.27265			43387.38302		69.69000		324.00000 
 43692.65567		 830.84762			42861.80805		219.52400		875.00000 
 43692.65567		 305.27265			43387.38302		69.69000		324.00000 
 43692.65567		 830.84762			42861.80805		219.52400		875.00000 
 43692.65567		 305.27265			43387.38302		69.69000		324.00000 
 43692.65567		 830.84762			42861.80805		219.52400		875.00000 
 43692.65567		 305.27265			43387.38302		69.69000		324.00000 
 43692.65567		 830.84762			42861.80805		219.52400		875.00000 
 43692.65567		 305.27265			43387.38302		69.69000		324.00000 
 43692.65567		 830.84762			42861.80805		219.52400		875.00000 
 43692.65567		 305.27265			43387.38302		69.69000		324.00000 
 43692.65567		 830.84762			42861.80805		219.52400		875.00000 
 43692.65567		 305.27265			43387.38302		69.69000		324.00000 
 43692.65567		 830.84762			42861.80805		219.52400		875.00000 
 43692.65567		 305.27265			43387.38302		69.69000		324.00000 
 43692.65567		 830.84762			42861.80805		219.52400		875.00000 
 43692.65567		 305.27265			43387.38302		69.69000		324.00000 
 43692.65567		 830.84762			42861.80805		219.52400		875.00000 
 43692.65567		 305.27265			43387.38302		69.69000		324.00000 
 43692.65567		 830.84762			42861.80805		219.52400		875.00000 
 43692.65567		 305.27265			43387.38302		69.69000		324.00000 
 43692.65567		 830.84762			42861.80805		219.52400		875.00000 
 43692.65567		 305.27265			43387.38302		69.69000		324.00000 
 43692.65567		 830.84762			42861.80805		219.52400		875.00000 
 43692.65567		 305.27265			43387.38302		69.69000		324.00000 
 43692.65567		 830.84762			42861.80805		219.52400		875.00000 
 43692.65567		 305.27265			43387.38302		69.69000		324.00000 
 43692.65567		 830.84762			42861.80805		219.52400		875.00000 
 43692.65567		 305.27265			43387.38302		69.69000		324.00000 
 43692.65567		 830.84762			42861.80805		219.52400		875.00000 
 43692.65567		 305.27265			43387.38302		69.69000		324.00000 
 43692.65567		 830.84762			42861.80805		219.52400		875.00000 
 43692.65567		 305.27265			43387.38302		69.69000		324.00000 
 43692.65567		 830.84762			42861.80805		219.52400		875.00000 
 43692.65567		 305.27265			43387.38302		69.69000		324.00000 
 43692.65567		 830.84762			42861.80805		219.52400		875.00000 
 43692.65567		 305.27265			43387.38302		69.69000		324.00000 
 43692.65567		 830.84762			42861.80805		219.52400		875.00000 
 43692.65567		 305.27265			43387.38302		69.69000		324.00000 
 43692.65567		 830.84762			42861.80805		219.52400		875.00000 
 43692.65567		 305.27265			43387.38302		69.69000		324.00000 
 43692.65567		 830.84762			42861.80805		219.52400		875.00000 
 43692.65567		 305.27265			43387.38302		69.69000		324.00000 
 43692.65567		 830.84762			42861.80805		219.52400		875.00000 
 43692.65567		 305.27265			43387.38302		69.69000		324.00000 
 43692.65567		 830.84762			42861.80805		219.52400		875.00000 
 43692.65567		 305.27265			43387.38302		69.69000		324.00000 
 43692.65567		 830.84762			42861.80805		219.52400		875.00000 
 43692.65567		 305.27265			43387.38302		69.69000		324.00000 
 43692.65567		 830.84762			42861.80805		219.52400		875.00000 
 43692.65567		 305.27265			43387.38302		69.69000		324.00000 
 43692.65567		 830.84762			42861.80805		219.52400		875.00000 
 43692.65567		 305.27265			43387.38302		69.69000		324.00000 
 43692.65567		 830.84762			42861.80805		219.52400		875.00000 
 43692.65567		 305.27265			43387.38302		69.69000		324.00000 
 43692.65567		 830.84762			42861.80805		219.52400		875.00000 
 43692.65567		 305.27265			43387.38302		69.69000		324.00000 
 43692.65567		 830.84762			42861.80805		219.52400		875.00000 
 43692.65567		 305.27265			43387.38302		69.69000		324.00000 
 43692.65567		 830.84762			42861.80805		219.52400		875.00000 
 43692.65567		 305.27265			43387.38302		69.69000		324.00000 
 43692.65567		 830.84762			42861.80805		219.52400		875.00000 
 43692.65567		 305.27265			43387.38302		69.69000		324.00000 
 43692.65567		 830.84762			42861.80805		219.52400		875.00000 
 43692.65567		 305.27265			43387.38302		69.69000		324.00000 
 43692.65567		 830.84762			42861.80805		219.52400		875.00000 
 43692.65567		 305.27265			43387.38302		69.69000		324.00000 
 43692.65567		 830.84762			42861.80805		219.52400		875.00000 
 43692.65567		 305.27265			43387.38302		69.69000		324.00000 
 43692.65567		 830.84762			42861.80805		219.52400		875.00000 
 43692.65567		 305.27265			43387.38302		69.69000		324.00000 
 43692.65567		 830.84762			42861.80805		219.52400		875.00000 
 43692.65567		 305.27265			43387.38302		69.69000		324.00000 
 43692.65567		 830.84762			42861.80805		219.52400		875.00000 
 43692.65567		 305.27265			43387.38302		69.69000		324.00000 
 43692.65567		 830.84762			42861.80805		219.52400		875.00000 
 43692.65567		 305.27265			43387.38302		69.69000		324.00000 
 43692.65567		 830.84762			42861.80805		219.52400		875.00000 
 43692.65567		 305.27265			43387.38302		69.69000		324.00000 
 43692.65567		 830.84762			42861.80805		219.52400		875.00000 
 43692.65567		 305.27265			43387.38302		69.69000		324.00000 
 43692.65567		 830.84762			42861.80805		219.52400		875.00000 
 43692.65567		 305.27265			43387.38302		69.69000		324.00000 
 43692.65567		 830.84762			42861.80805		219.52400		875.00000 
 43692.65567		 305.27265			43387.38302		69.69000		324.00000 
 43692.65567		 830.84762			42861.80805		219.52400		875.00000 
 43692.65567		 305.27265			43387.38302		69.69000		324.00000 
 43692.65567		 830.84762			42861.80805		219.52400		875.00000 
 43692.65567		 305.27265			43387.38302		69.69000		324.00000 
 43692.65567		 830.84762			42861.80805		219.52400		875.00000 
 43692.65567		 305.27265			43387.38302		69.69000		324.00000 
 43692.65567		 830.84762			42861.80805		219.52400		875.00000 
 43692.65567		 305.27265			43387.38302		69.69000		324.00000 
 43692.65567		 830.84762			42861.80805		219.52400		875.00000 
 43692.65567		 305.27265			43387.38302		69.69000		324.00000 
 43692.65567		 830.84762			42861.80805		219.52400		875.00000 
 43692.65567		 305.27265			43387.38302		69.69000		324.00000 
 43692.65567		 830.84762			42861.80805		219.52400		875.00000 
 43692.65567		 305.27265			43387.38302		69.69000		324.00000 
 43692.65567		 830.84762			42861.80805		219.52400		875.00000 
 43692.65567		 305.27265			43387.38302		69.69000		324.00000 
 43692.65567		 830.84762			42861.80805		219.52400		875.00000 
 43692.65567		 305.27265			43387.38302		69.69000		324.00000 
 43692.65567		 830.84762			42861.80805		219.52400		875.00000 
 43692.65567		 305.27265			43387.38302		69.69000		324.00000 
 43692.65567		 830.84762			42861.80805		219.52400		875.00000 
 43692.65567		 305.27265			43387.38302		69.69000		324.00000 
 43692.65567		 830.84762			42861.80805		219.52400		875.00000 
 43692.65567		 305.27265			43387.38302		69.69000		324.00000 
 43692.65567		 830.84762			42861.80805		219.52400		875.00000 
 43692.65567		 305.27265			43387.38302		69.69000		324.00000 
 43692.65567		 830.84762			42861.80805		219.52400		875.00000 
 43692.65567		 305.27265			43387.38302		69.69000		324.00000 
 43692.65567		 830.84762			42861.80805		219.52400		875.00000 
 43692.65567		 305.27265			43387.38302		69.69000		324.00000 
 43692.65567		 830.84762			42861.80805		219.52400		875.00000 
 43692.65567		 305.27265			43387.38302		69.69000		324.00000 
 43692.65567		 830.84762			42861.80805		222.39000		875.00000 
 43692.65567		 305.27265			43387.38302		69.69000		324.00000 
 43692.65567		 830.84762			42861.80805		222.39000		875.00000 
 43692.65567		 305.27265			43387.38302		69.69000		324.00000 
 43692.65567		 830.84762			42861.80805		222.39000		875.00000 
 43692.65567		 305.27265			43387.38302		69.69000		324.00000 
 43692.65567		 830.84762			42861.80805		222.39000		875.00000 
 43692.65567		 305.27265			43387.38302		69.69000		324.00000 
 43692.65567		 830.84762			42861.80805		222.39000		875.00000 
 43692.65567		 305.27265			43387.38302		69.69000		324.00000 
 43692.65567		 830.84762			42861.80805		222.39000		875.00000 
 43692.65567		 305.27265			43387.38302		69.69000		324.00000 
 43692.65567		 830.84762			42861.80805		222.39000		875.00000 
 43692.65567		 305.27265			43387.38302		69.69000		324.00000 
 43692.65567		 830.84762			42861.80805		222.39000		875.00000 
 43692.65567		 305.27265			43387.38302		69.69000		324.00000 
 43692.65567		 830.84762			42861.80805		222.39000		875.00000 
 43692.65567		 305.27265			43387.38302		69.69000		324.00000 
 43692.65567		 830.84762			42861.80805		222.39000		875.00000 
 43692.65567		 305.27265			43387.38302		69.69000		324.00000 
 43692.65567		 830.84762			42861.80805		222.39000		875.00000 
 43692.65567		 305.27265			43387.38302		69.69000		324.00000 
 43692.65567		 830.84762			42861.80805		222.39000		875.00000 
 43692.65567		 305.27265			43387.38302		69.69000		324.00000 
 43692.65567		 830.84762			42861.80805		222.39000		875.00000 
 43692.65567		 305.27265			43387.38302		69.69000		324.00000 
 43692.65567		 830.84762			42861.80805		222.39000		875.00000 
 43692.65567		 305.27265			43387.38302		69.69000		324.00000 
 43692.65567		 830.84762			42861.80805		222.39000		875.00000 
 43692.65567		 305.27265			43387.38302		69.69000		324.00000 
 43692.65567		 830.84762			42861.80805		222.39000		875.00000 
 43692.65567		 305.27265			43387.38302		69.69000		324.00000 
 43692.65567		 830.84762			42861.80805		222.39000		875.00000 
 43692.65567		 305.27265			43387.38302		69.69000		324.00000 
 43692.65567		 830.84762			42861.80805		222.39000		875.00000 
 43692.65567		 305.27265			43387.38302		69.69000		324.00000 
 43692.65567		 830.84762			42861.80805		222.39000		875.00000 
 43692.65567		 305.27265			43387.38302		69.69000		324.00000 
 43692.65567		 830.84762			42861.80805		222.39000		875.00000 
 43692.65567		 305.27265			43387.38302		69.69000		324.00000 
 43692.65567		 830.84762			42861.80805		222.39000		875.00000 
 43692.65567		 305.27265			43387.38302		69.69000		324.00000 
 43692.65567		 830.84762			42861.80805		222.39000		875.00000 
 43692.65567		 305.27265			43387.38302		69.69000		324.00000 
 43692.65567		 830.84762			42861.80805		222.39000		875.00000 
 43692.65567		 305.27265			43387.38302		69.69000		324.00000 
 43692.65567		 830.84762			42861.80805		222.39000		875.00000 
 43692.65567		 305.27265			43387.38302		69.69000		324.00000 
 43692.65567		 830.84762			42861.80805		222.39000		875.00000 
 43692.65567		 305.27265			43387.38302		69.69000		324.00000 
 43692.65567		 830.84762			42861.80805		222.39000		875.00000 
 43692.65567		 305.27265			43387.38302		69.69000		324.00000 
 43692.65567		 830.84762			42861.80805		222.39000		875.00000 
 43692.65567		 305.27265			43387.38302		69.69000		324.00000 
 43692.65567		 830.84762			42861.80805		222.39000		875.00000 
 43692.65567		 305.27265			43387.38302		69.69000		324.00000 
 43692.65567		 830.84762			42861.80805		222.39000		875.00000 
 43692.65567		 305.27265			43387.38302		69.69000		324.00000 
 43692.65567		 830.84762			42861.80805		222.39000		875.00000 
 43692.65567		 305.27265			43387.38302		69.69000		324.00000 
 43692.65567		 830.84762			42861.80805		222.39000		875.00000 
 43692.65567		 305.27265			43387.38302		69.69000		324.00000 
 43692.65567		 830.84762			42861.80805		222.39000		875.00000 
 43692.65567		 305.27265			43387.38302		69.69000		324.00000 
 43692.65567		 830.84762			42861.80805		222.39000		875.00000 
 43692.65567		 305.27265			43387.38302		69.69000		324.00000 
 43692.65567		 830.84762			42861.80805		222.39000		875.00000 
 43692.65567		 305.27265			43387.38302		69.69000		324.00000 
 43692.65567		 830.84762			42861.80805		222.39000		875.00000 
 43692.65567		 305.27265			43387.38302		69.69000		324.00000 
 43692.65567		 830.84762			42861.80805		222.39000		875.00000 
 43692.65567		 305.27265			43387.38302		69.69000		324.00000 
 43692.65567		 830.84762			42861.80805		222.39000		875.00000 
 43692.65567		 305.27265			43387.38302		69.69000		324.00000 
 43692.65567		 830.84762			42861.80805		222.39000		875.00000 
 43692.65567		 305.27265			43387.38302		69.69000		324.00000 
 43692.65567		 830.84762			42861.80805		222.39000		875.00000 
 43692.65567		 305.27265			43387.38302		69.69000		324.00000 
 43692.65567		 830.84762			42861.80805		222.39000		875.00000 
 43692.65567		 305.27265			43387.38302		69.69000		324.00000 
 43692.65567		 830.84762			42861.80805		222.39000		875.00000 
 43692.65567		 305.27265			43387.38302		69.69000		324.00000 
 43692.65567		 830.84762			42861.80805		222.39000		875.00000 
 43692.65567		 305.27265			43387.38302		69.69000		324.00000 
 43692.65567		 830.84762			42861.80805		222.39000		875.00000 
 43692.65567		 305.27265			43387.38302		69.69000		324.00000 
 43692.65567		 830.84762			42861.80805		222.39000		875.00000 
 43692.65567		 305.27265			43387.38302		69.69000		324.00000 
 43692.65567		 830.84762			42861.80805		222.39000		875.00000 
 43692.65567		 305.27265			43387.38302		69.69000		324.00000 
 43692.65567		 830.84762			42861.80805		222.39000		875.00000 
 43692.65567		 305.27265			43387.38302		69.69000		324.00000 
 43692.65567		 830.84762			42861.80805		222.39000		875.00000 
 43692.65567		 305.27265			43387.38302		69.69000		324.00000 
 43692.65567		 830.84762			42861.80805		222.39000		875.00000 
 43692.65567		 305.27265			43387.38302		69.69000		324.00000 
 43692.65567		 830.84762			42861.80805		222.39000		875.00000 
 43692.65567		 305.27265			43387.38302		69.69000		324.00000 
 43692.65567		 830.84762			42861.80805		222.39000		875.00000 
 43692.65567		 305.27265			43387.38302		69.69000		324.00000 
 43692.65567		 830.84762			42861.80805		222.39000		875.00000 
 43692.65567		 305.27265			43387.38302		69.69000		324.00000 
 43692.65567		 830.84762			42861.80805		222.39000		875.00000 
 43692.65567		 305.27265			43387.38302		69.69000		324.00000 
 43692.65567		 830.84762			42861.80805		222.39000		875.00000 
 43692.65567		 305.27265			43387.38302		69.69000		324.00000 
 43692.65567		 830.84762			42861.80805		222.39000		875.00000 
 43692.65567		 305.27265			43387.38302		69.69000		324.00000 
 43692.65567		 830.84762			42861.80805		222.39000		875.00000 
 43692.65567		 305.27265			43387.38302		69.69000		324.00000 
 43692.65567		 830.84762			42861.80805		222.39000		875.00000 
 43692.65567		 305.27265			43387.38302		69.69000		324.00000 
 43692.65567		 830.84762			42861.80805		222.39000		875.00000 
 43692.65567		 305.27265			43387.38302		69.69000		324.00000 
 43692.65567		 830.84762			42861.80805		222.39000		875.00000 
 43692.65567		 305.27265			43387.38302		69.69000		324.00000 
 43692.65567		 830.84762			42861.80805		222.39000		875.00000 
 43692.65567		 305.27265			43387.38302		69.69000		324.00000 
 43692.65567		 830.84762			42861.80805		222.39000		875.00000 
 43692.65567		 305.27265			43387.38302		69.69000		324.00000 
 43692.65567		 830.84762			42861.80805		222.39000		875.00000 
 43692.65567		 305.27265			43387.38302		69.69000		324.00000 
 43692.65567		 830.84762			42861.80805		222.39000		875.00000 
 43692.65567		 305.27265			43387.38302		69.69000		324.00000 
 43692.65567		 830.84762			42861.80805		222.39000		875.00000 
 43692.65567		 305.27265			43387.38302		69.69000		324.00000 
 43692.65567		 830.84762			42861.80805		222.39000		875.00000 
 43692.65567		 305.27265			43387.38302		69.69000		324.00000 
 43692.65567		 830.84762			42861.80805		222.66000		875.00000 
 43692.65567		 305.27265			43387.38302		69.69000		324.00000 
 43692.65567		 830.84762			42861.80805		222.66000		875.00000 
 43692.65567		 305.27265			43387.38302		69.69000		324.00000 
 43692.65567		 830.84762			42861.80805		222.66000		875.00000 
 43692.65567		 305.27265			43387.38302		69.69000		324.00000 
 43692.65567		 830.84762			42861.80805		222.66000		875.00000 
 43692.65567		 305.27265			43387.38302		69.69000		324.00000 
 43692.65567		 830.84762			42861.80805		222.66000		875.00000 
 43692.65567		 305.27265			43387.38302		69.69000		324.00000 
 43692.65567		 830.84762			42861.80805		222.66000		875.00000 
 43692.65567		 305.27265			43387.38302		69.69000		324.00000 
 43692.65567		 830.84762			42861.80805		222.66000		875.00000 
 43692.65567		 305.27265			43387.38302		69.69000		324.00000 
 43692.65567		 830.84762			42861.80805		222.66000		875.00000 
 43692.65567		 305.27265			43387.38302		69.69000		324.00000 
 43692.65567		 830.84762			42861.80805		222.66000		875.00000 
 43692.65567		 305.27265			43387.38302		69.69000		324.00000 
 43692.65567		 830.84762			42861.80805		222.66000		875.00000 
 43692.65567		 305.27265			43387.38302		69.69000		324.00000 
 43692.65567		 830.84762			42861.80805		222.66000		875.00000 
 43692.65567		 305.27265			43387.38302		69.69000		324.00000 
 43692.65567		 830.84762			42861.80805		222.66000		875.00000 
 43692.65567		 305.27265			43387.38302		69.69000		324.00000 
 43692.65567		 830.84762			42861.80805		222.66000		875.00000 
 43692.65567		 305.27265			43387.38302		69.69000		324.00000 
 43692.65567		 830.84762			42861.80805		222.66000		875.00000 
 43692.65567		 305.27265			43387.38302		69.69000		324.00000 
 43692.65567		 830.84762			42861.80805		222.66000		875.00000 
 43692.65567		 305.27265			43387.38302		69.69000		324.00000 
 43692.65567		 830.84762			42861.80805		222.66000		875.00000 
 43692.65567		 305.27265			43387.38302		69.69000		324.00000 
 43692.65567		 830.84762			42861.80805		222.66000		875.00000 
 43692.65567		 305.27265			43387.38302		69.69000		324.00000 
 43692.65567		 830.84762			42861.80805		222.66000		875.00000 
 43692.65567		 305.27265			43387.38302		69.69000		324.00000 
 43692.65567		 830.84762			42861.80805		222.66000		875.00000 
 43692.65567		 305.27265			43387.38302		69.69000		324.00000 
 43692.65567		 830.84762			42861.80805		222.66000		875.00000 
 43692.65567		 305.27265			43387.38302		69.69000		324.00000 
 43692.65567		 830.84762			42861.80805		222.66000		875.00000 
 43692.65567		 305.27265			43387.38302		69.69000		324.00000 
 43692.65567		 830.84762			42861.80805		222.66000		875.00000 
 43692.65567		 305.27265			43387.38302		69.69000		324.00000 
 43692.65567		 830.84762			42861.80805		222.66000		875.00000 
 43692.65567		 305.27265			43387.38302		69.69000		324.00000 
 43692.65567		 830.84762			42861.80805		222.66000		875.00000 
 43692.65567		 305.27265			43387.38302		69.69000		324.00000 
 43692.65567		 830.84762			42861.80805		222.66000		875.00000 
 43692.65567		 305.27265			43387.38302		69.69000		324.00000 
 43692.65567		 830.84762			42861.80805		222.66000		875.00000 
 43692.65567		 305.27265			43387.38302		69.69000		324.00000 
 43692.65567		 830.84762			42861.80805		222.66000		875.00000 
 43692.65567		 305.27265			43387.38302		69.69000		324.00000 
 43692.65567		 830.84762			42861.80805		222.66000		875.00000 
 43692.65567		 305.27265			43387.38302		69.69000		324.00000 
 43692.65567		 830.84762			42861.80805		222.66000		875.00000 
 43692.65567		 305.27265			43387.38302		69.69000		324.00000 
 43692.65567		 830.84762			42861.80805		222.66000		875.00000 
 43692.65567		 305.27265			43387.38302		69.69000		324.00000 
 43692.65567		 830.84762			42861.80805		222.66000		875.00000 
 43692.65567		 305.27265			43387.38302		69.69000		324.00000 
 43692.65567		 830.84762			42861.80805		222.66000		875.00000 
 43692.65567		 305.27265			43387.38302		69.69000		324.00000 
 43692.65567		 830.84762			42861.80805		222.66000		875.00000 
 43692.65567		 305.27265			43387.38302		69.69000		324.00000 
 43692.65567		 830.84762			42861.80805		222.66000		875.00000 
 43692.65567		 305.27265			43387.38302		69.69000		324.00000 
 43692.65567		 830.84762			42861.80805		222.66000		875.00000 
 43692.65567		 305.27265			43387.38302		69.69000		324.00000 
 43692.65567		 830.84762			42861.80805		222.66000		875.00000 
 43692.65567		 305.27265			43387.38302		69.69000		324.00000 
 43692.65567		 830.84762			42861.80805		222.66000		875.00000 
 43692.65567		 305.27265			43387.38302		69.69000		324.00000 
 43692.65567		 830.84762			42861.80805		222.66000		875.00000 
 43692.65567		 305.27265			43387.38302		69.69000		324.00000 
 43692.65567		 830.84762			42861.80805		222.66000		875.00000 
 43692.65567		 305.27265			43387.38302		69.69000		324.00000 
 43692.65567		 830.84762			42861.80805		222.66000		875.00000 
 43692.65567		 305.27265			43387.38302		69.69000		324.00000 
 43692.65567		 830.84762			42861.80805		222.66000		875.00000 
 43692.65567		 305.27265			43387.38302		69.69000		324.00000 
 43692.65567		 830.84762			42861.80805		222.66000		875.00000 
 43692.65567		 305.27265			43387.38302		69.69000		324.00000 
 43692.65567		 830.84762			42861.80805		222.66000		875.00000 
 43692.65567		 305.27265			43387.38302		69.69000		324.00000 
 43692.65567		 830.84762			42861.80805		222.66000		875.00000 
 43692.65567		 305.27265			43387.38302		69.69000		324.00000 
 43692.65567		 830.84762			42861.80805		222.66000		875.00000 
 43692.65567		 305.27265			43387.38302		69.69000		324.00000 
 43692.65567		 830.84762			42861.80805		222.66000		875.00000 
 43692.65567		 305.27265			43387.38302		69.69000		324.00000 
 43692.65567		 830.84762			42861.80805		222.66000		875.00000 
 43692.65567		 305.27265			43387.38302		69.69000		324.00000 
 43692.65567		 830.84762			42861.80805		222.66000		875.00000 
 43692.65567		 305.27265			43387.38302		69.69000		324.00000 
 43692.65567		 830.84762			42861.80805		222.66000		875.00000 
 43692.65567		 305.27265			43387.38302		69.69000		324.00000 
 43692.65567		 830.84762			42861.80805		222.66000		875.00000 
 43692.65567		 305.27265			43387.38302		69.69000		324.00000 
 43692.65567		 830.84762			42861.80805		222.66000		875.00000 
 43692.65567		 305.27265			43387.38302		69.69000		324.00000 
 43692.65567		 830.84762			42861.80805		222.66000		875.00000 
 43692.65567		 305.27265			43387.38302		69.69000		324.00000 
 43692.65567		 830.84762			42861.80805		222.66000		875.00000 
 43692.65567		 305.27265			43387.38302		69.69000		324.00000 
 43692.65567		 830.84762			42861.80805		222.66000		875.00000 
 43692.65567		 305.27265			43387.38302		69.69000		324.00000 
 43692.65567		 830.84762			42861.80805		222.66000		875.00000 
 43692.65567		 305.27265			43387.38302		69.69000		324.00000 
 43692.65567		 830.84762			42861.80805		222.66000		875.00000 
 43692.65567		 305.27265			43387.38302		69.69000		324.00000 
 43692.65567		 830.84762			42861.80805		222.66000		875.00000 
 43692.65567		 305.27265			43387.38302		69.69000		324.00000 
 43692.65567		 830.84762			42861.80805		222.66000		875.00000 
 43692.65567		 305.27265			43387.38302		69.69000		324.00000 
 43692.65567		 830.84762			42861.80805		222.66000		875.00000 
 43692.65567		 305.27265			43387.38302		69.69000		324.00000 
 43692.65567		 830.84762			42861.80805		222.66000		875.00000 
 43692.65567		 305.27265			43387.38302		69.69000		324.00000 
 43692.65567		 830.84762			42861.80805		222.66000		875.00000 
 43692.65567		 305.27265			43387.38302		69.69000		324.00000 
 43692.65567		 830.84762			42861.80805		222.66000		875.00000 
 43692.65567		 305.27265			43387.38302		69.69000		324.00000 
 43692.65567		 830.84762			42861.80805		222.66000		875.00000 
 43692.65567		 305.27265			43387.38302		69.69000		324.00000 
 43692.65567		 830.84762			42861.80805		222.66000		875.00000 
 43692.65567		 305.27265			43387.38302		69.69000		324.00000 
 43692.65567		 830.84762			42861.80805		222.66000		875.00000 
 43692.65567		 305.27265			43387.38302		69.69000		324.00000 
 43692.65567		 830.84762			42861.80805		222.06000		875.00000 
 43692.65567		 305.27265			43387.38302		69.69000		324.00000 
 43692.65567		 830.84762			42861.80805		222.06000		875.00000 
 43692.65567		 305.27265			43387.38302		69.69000		324.00000 
 43692.65567		 830.84762			42861.80805		222.06000		875.00000 
 43692.65567		 305.27265			43387.38302		69.69000		324.00000 
 43692.65567		 830.84762			42861.80805		222.06000		875.00000 
 43692.65567		 305.27265			43387.38302		69.69000		324.00000 
 43692.65567		 830.84762			42861.80805		222.06000		875.00000 
 43692.65567		 305.27265			43387.38302		69.69000		324.00000 
 43692.65567		 830.84762			42861.80805		222.06000		875.00000 
 43692.65567		 305.27265			43387.38302		69.69000		324.00000 
 43692.65567		 830.84762			42861.80805		222.06000		875.00000 
 43692.65567		 305.27265			43387.38302		69.69000		324.00000 
 43692.65567		 830.84762			42861.80805		222.06000		875.00000 
 43692.65567		 305.27265			43387.38302		69.69000		324.00000 
 43692.65567		 830.84762			42861.80805		222.06000		875.00000 
 43692.65567		 305.27265			43387.38302		69.69000		324.00000 
 43692.65567		 830.84762			42861.80805		222.06000		875.00000 
 43692.65567		 305.27265			43387.38302		69.69000		324.00000 
 43692.65567		 830.84762			42861.80805		222.06000		875.00000 
 43692.65567		 305.27265			43387.38302		69.69000		324.00000 
 43692.65567		 830.84762			42861.80805		222.06000		875.00000 
 43692.65567		 305.27265			43387.38302		69.69000		324.00000 
 43692.65567		 830.84762			42861.80805		222.06000		875.00000 
 43692.65567		 305.27265			43387.38302		69.69000		324.00000 
 43692.65567		 830.84762			42861.80805		222.06000		875.00000 
 43692.65567		 305.27265			43387.38302		69.69000		324.00000 
 43692.65567		 830.84762			42861.80805		222.06000		875.00000 
 43692.65567		 305.27265			43387.38302		69.69000		324.00000 
 43692.65567		 830.84762			42861.80805		222.06000		875.00000 
 43692.65567		 305.27265			43387.38302		69.69000		324.00000 
 43692.65567		 830.84762			42861.80805		222.06000		875.00000 
 43692.65567		 305.27265			43387.38302		69.69000		324.00000 
 43692.65567		 830.84762			42861.80805		222.06000		875.00000 
 43692.65567		 305.27265			43387.38302		69.69000		324.00000 
 43692.65567		 830.84762			42861.80805		222.06000		875.00000 
 43692.65567		 305.27265			43387.38302		69.69000		324.00000 
 43692.65567		 830.84762			42861.80805		222.06000		875.00000 
 43692.65567		 305.27265			43387.38302		69.69000		324.00000 
 43692.65567		 830.84762			42861.80805		222.06000		875.00000 
 43692.65567		 305.27265			43387.38302		69.69000		324.00000 
 43692.65567		 830.84762			42861.80805		222.06000		875.00000 
 43692.65567		 305.27265			43387.38302		69.69000		324.00000 
 43692.65567		 830.84762			42861.80805		222.06000		875.00000 
 43692.65567		 305.27265			43387.38302		69.69000		324.00000 
 43692.65567		 830.84762			42861.80805		222.06000		875.00000 
 43692.65567		 305.27265			43387.38302		69.69000		324.00000 
 43692.65567		 830.84762			42861.80805		222.06000		875.00000 
 43692.65567		 305.27265			43387.38302		69.69000		324.00000 
 43692.65567		 830.84762			42861.80805		222.06000		875.00000 
 43692.65567		 305.27265			43387.38302		69.69000		324.00000 
 43692.65567		 830.84762			42861.80805		222.06000		875.00000 
 43692.65567		 305.27265			43387.38302		69.69000		324.00000 
 43692.65567		 830.84762			42861.80805		222.06000		875.00000 
 43692.65567		 305.27265			43387.38302		69.69000		324.00000 
 43692.65567		 830.84762			42861.80805		222.06000		875.00000 
 43692.65567		 305.27265			43387.38302		69.69000		324.00000 
 43692.65567		 830.84762			42861.80805		222.06000		875.00000 
 43692.65567		 305.27265			43387.38302		69.69000		324.00000 
 43692.65567		 830.84762			42861.80805		222.06000		875.00000 
 43692.65567		 305.27265			43387.38302		69.69000		324.00000 
 43692.65567		 830.84762			42861.80805		222.06000		875.00000 
 43692.65567		 305.27265			43387.38302		69.69000		324.00000 
 43692.65567		 830.84762			42861.80805		222.06000		875.00000 
 43692.65567		 305.27265			43387.38302		69.69000		324.00000 
 43692.65567		 830.84762			42861.80805		222.06000		875.00000 
 43692.65567		 305.27265			43387.38302		69.69000		324.00000 
 43692.65567		 830.84762			42861.80805		222.06000		875.00000 
 43692.65567		 305.27265			43387.38302		69.69000		324.00000 
 43692.65567		 830.84762			42861.80805		222.06000		875.00000 
 43692.65567		 305.27265			43387.38302		69.69000		324.00000 
 43692.65567		 830.84762			42861.80805		222.06000		875.00000 
 43692.65567		 305.27265			43387.38302		69.69000		324.00000 
 43692.65567		 830.84762			42861.80805		222.06000		875.00000 
 43692.65567		 305.27265			43387.38302		69.69000		324.00000 
 43692.65567		 830.84762			42861.80805		222.06000		875.00000 
 43692.65567		 305.27265			43387.38302		69.69000		324.00000 
 43692.65567		 830.84762			42861.80805		222.06000		875.00000 
 43692.65567		 305.27265			43387.38302		69.69000		324.00000 
 43692.65567		 830.84762			42861.80805		222.06000		875.00000 
 43692.65567		 305.27265			43387.38302		69.69000		324.00000 
 43692.65567		 830.84762			42861.80805		222.06000		875.00000 
 43692.65567		 305.27265			43387.38302		69.69000		324.00000 
 43692.65567		 830.84762			42861.80805		222.06000		875.00000 
 43692.65567		 305.27265			43387.38302		69.69000		324.00000 
 43692.65567		 830.84762			42861.80805		222.06000		875.00000 
 43692.65567		 305.27265			43387.38302		69.69000		324.00000 
 43692.65567		 830.84762			42861.80805		222.06000		875.00000 
 43692.65567		 305.27265			43387.38302		69.69000		324.00000 
 43692.65567		 830.84762			42861.80805		222.06000		875.00000 
 43692.65567		 305.27265			43387.38302		69.69000		324.00000 
 43692.65567		 830.84762			42861.80805		222.06000		875.00000 
 43692.65567		 305.27265			43387.38302		69.69000		324.00000 
 43692.65567		 830.84762			42861.80805		222.06000		875.00000 
 43692.65567		 305.27265			43387.38302		69.69000		324.00000 
 43692.65567		 830.84762			42861.80805		222.06000		875.00000 
 43692.65567		 305.27265			43387.38302		69.69000		324.00000 
 43692.65567		 830.84762			42861.80805		222.06000		875.00000 
 43692.65567		 305.27265			43387.38302		69.69000		324.00000 
 43692.65567		 830.84762			42861.80805		222.06000		875.00000 
 43692.65567		 305.27265			43387.38302		69.69000		324.00000 
 43692.65567		 830.84762			42861.80805		222.06000		875.00000 
 43692.65567		 305.27265			43387.38302		69.69000		324.00000 
 43692.65567		 830.84762			42861.80805		222.06000		875.00000 
 43692.65567		 305.27265			43387.38302		69.69000		324.00000 
 43692.65567		 830.84762			42861.80805		222.06000		875.00000 
 43692.65567		 305.27265			43387.38302		69.69000		324.00000 
 43692.65567		 830.84762			42861.80805		222.06000		875.00000 
 43692.65567		 305.27265			43387.38302		69.69000		324.00000 
 43692.65567		 830.84762			42861.80805		222.06000		875.00000 
 43692.65567		 305.27265			43387.38302		69.69000		324.00000 
 43692.65567		 830.84762			42861.80805		222.06000		875.00000 
 43692.65567		 305.27265			43387.38302		69.69000		324.00000 
 43692.65567		 830.84762			42861.80805		222.06000		875.00000 
 43692.65567		 305.27265			43387.38302		69.17400		324.00000 
 43692.65567		 830.84762			42861.80805		222.06000		875.00000 
 43692.65567		 305.27265			43387.38302		69.17400		324.00000 
 43692.65567		 830.84762			42861.80805		222.06000		875.00000 
 43692.65567		 305.27265			43387.38302		69.17400		324.00000 
 43692.65567		 830.84762			42861.80805		222.06000		875.00000 
 43692.65567		 305.27265			43387.38302		69.17400		324.00000 
 43692.65567		 830.84762			42861.80805		221.99000		875.00000 
 43692.65567		 305.27265			43387.38302		69.17400		324.00000 
 43692.65567		 830.84762			42861.80805		221.99000		875.00000 
 43692.65567		 305.27265			43387.38302		69.17400		324.00000 
 43692.65567		 830.84762			42861.80805		221.99000		875.00000 
 43692.65567		 305.27265			43387.38302		69.17400		324.00000 
 43692.65567		 830.84762			42861.80805		221.99000		875.00000 
 43692.65567		 305.27265			43387.38302		69.17400		324.00000 
 43692.65567		 830.84762			42861.80805		221.99000		875.00000 
 43692.65567		 305.27265			43387.38302		69.17400		324.00000 
 43692.65567		 830.84762			42861.80805		221.99000		875.00000 
 43692.65567		 305.27265			43387.38302		69.17400		324.00000 
 43692.65567		 830.84762			42861.80805		221.99000		875.00000 
 43692.65567		 305.27265			43387.38302		69.17400		324.00000 
 43692.65567		 830.84762			42861.80805		221.99000		875.00000 
 43692.65567		 305.27265			43387.38302		69.17400		324.00000 
 43692.65567		 830.84762			42861.80805		221.99000		875.00000 
 43692.65567		 305.27265			43387.38302		69.17400		324.00000 
 43692.65567		 830.84762			42861.80805		221.99000		875.00000 
 43692.65567		 305.27265			43387.38302		69.17400		324.00000 
 43692.65567		 830.84762			42861.80805		221.99000		875.00000 
 43692.65567		 305.27265			43387.38302		69.17400		324.00000 
 43692.65567		 830.84762			42861.80805		221.99000		875.00000 
 43692.65567		 305.27265			43387.38302		69.17400		324.00000 
 43692.65567		 830.84762			42861.80805		221.99000		875.00000 
 43692.65567		 305.27265			43387.38302		69.17400		324.00000 
 43692.65567		 830.84762			42861.80805		221.99000		875.00000 
 43692.65567		 305.27265			43387.38302		69.17400		324.00000 
 43692.65567		 830.84762			42861.80805		221.99000		875.00000 
 43692.65567		 305.27265			43387.38302		69.17400		324.00000 
 43692.65567		 830.84762			42861.80805		221.99000		875.00000 
 43692.65567		 305.27265			43387.38302		69.17400		324.00000 
 43692.65567		 830.84762			42861.80805		221.99000		875.00000 
 43692.65567		 305.27265			43387.38302		69.17400		324.00000 
 43692.65567		 830.84762			42861.80805		221.99000		875.00000 
 43692.65567		 305.27265			43387.38302		69.17400		324.00000 
 43692.65567		 830.84762			42861.80805		221.99000		875.00000 
 43692.65567		 305.27265			43387.38302		69.17400		324.00000 
 43692.65567		 830.84762			42861.80805		221.99000		875.00000 
 43692.65567		 305.27265			43387.38302		69.17400		324.00000 
 43692.65567		 830.84762			42861.80805		221.99000		875.00000 
 43692.65567		 305.27265			43387.38302		69.17400		324.00000 
 43692.65567		 830.84762			42861.80805		221.99000		875.00000 
 43692.65567		 305.27265			43387.38302		69.17400		324.00000 
 43692.65567		 830.84762			42861.80805		221.99000		875.00000 
 43692.65567		 305.27265			43387.38302		69.17400		324.00000 
 43692.65567		 830.84762			42861.80805		221.99000		875.00000 
 43692.65567		 305.27265			43387.38302		69.17400		324.00000 
 43692.65567		 830.84762			42861.80805		221.99000		875.00000 
 43692.65567		 305.27265			43387.38302		69.17400		324.00000 
 43692.65567		 830.84762			42861.80805		221.99000		875.00000 
 43692.65567		 305.27265			43387.38302		69.17400		324.00000 
 43692.65567		 830.84762			42861.80805		221.99000		875.00000 
 43692.65567		 305.27265			43387.38302		69.17400		324.00000 
 43692.65567		 830.84762			42861.80805		221.99000		875.00000 
 43692.65567		 305.27265			43387.38302		69.17400		324.00000 
 43692.65567		 830.84762			42861.80805		221.99000		875.00000 
 43692.65567		 305.27265			43387.38302		69.17400		324.00000 
 43692.65567		 830.84762			42861.80805		221.99000		875.00000 
 43692.65567		 305.27265			43387.38302		69.17400		324.00000 
 43692.65567		 830.84762			42861.80805		221.99000		875.00000 
 43692.65567		 305.27265			43387.38302		69.17400		324.00000 
 43692.65567		 830.84762			42861.80805		221.99000		875.00000 
 43692.65567		 305.27265			43387.38302		69.17400		324.00000 
 43692.65567		 830.84762			42861.80805		221.99000		875.00000 
 43692.65567		 305.27265			43387.38302		69.17400		324.00000 
 43692.65567		 830.84762			42861.80805		221.99000		875.00000 
 43692.65567		 305.27265			43387.38302		69.17400		324.00000 
 43692.65567		 830.84762			42861.80805		221.99000		875.00000 
 43692.65567		 305.27265			43387.38302		69.17400		324.00000 
 43692.65567		 830.84762			42861.80805		221.99000		875.00000 
 43692.65567		 305.27265			43387.38302		69.17400		324.00000 
 43692.65567		 830.84762			42861.80805		221.99000		875.00000 
 43692.65567		 305.27265			43387.38302		69.17400		324.00000 
 43692.65567		 830.84762			42861.80805		221.99000		875.00000 
 43692.65567		 305.27265			43387.38302		69.17400		324.00000 
 43692.65567		 830.84762			42861.80805		221.99000		875.00000 
 43692.65567		 305.27265			43387.38302		69.17400		324.00000 
 43692.65567		 830.84762			42861.80805		221.99000		875.00000 
 43692.65567		 305.27265			43387.38302		69.17400		324.00000 
 43692.65567		 830.84762			42861.80805		221.99000		875.00000 
 43692.65567		 305.27265			43387.38302		69.17400		324.00000 
 43692.65567		 830.84762			42861.80805		221.99000		875.00000 
 43692.65567		 305.27265			43387.38302		69.17400		324.00000 
 43692.65567		 830.84762			42861.80805		221.99000		875.00000 
 43692.65567		 305.27265			43387.38302		69.17400		324.00000 
 43692.65567		 830.84762			42861.80805		221.99000		875.00000 
 43692.65567		 305.27265			43387.38302		69.17400		324.00000 
 43692.65567		 830.84762			42861.80805		221.99000		875.00000 
 43692.65567		 305.27265			43387.38302		69.17400		324.00000 
 43692.65567		 830.84762			42861.80805		221.99000		875.00000 
 43692.65567		 305.27265			43387.38302		69.17400		324.00000 
 43692.65567		 830.84762			42861.80805		221.99000		875.00000 
 43692.65567		 305.27265			43387.38302		69.17400		324.00000 
 43692.65567		 830.84762			42861.80805		221.99000		875.00000 
 43692.65567		 305.27265			43387.38302		69.17400		324.00000 
 43692.65567		 830.84762			42861.80805		221.99000		875.00000 
 43692.65567		 305.27265			43387.38302		69.17400		324.00000 
 43692.65567		 830.84762			42861.80805		221.99000		875.00000 
 43692.65567		 305.27265			43387.38302		69.17400		324.00000 
 43692.65567		 830.84762			42861.80805		221.99000		875.00000 
 43692.65567		 305.27265			43387.38302		69.17400		324.00000 
 43692.65567		 830.84762			42861.80805		221.99000		875.00000 
 43692.65567		 305.27265			43387.38302		69.17400		324.00000 
 43692.65567		 830.84762			42861.80805		221.99000		875.00000 
 43692.65567		 305.27265			43387.38302		69.17400		324.00000 
 43692.65567		 830.84762			42861.80805		221.99000		875.00000 
 43692.65567		 305.27265			43387.38302		69.17400		324.00000 
 43692.65567		 830.84762			42861.80805		221.99000		875.00000 
 43692.65567		 305.27265			43387.38302		69.17400		324.00000 
 43692.65567		 830.84762			42861.80805		221.99000		875.00000 
 43692.65567		 305.27265			43387.38302		69.17400		324.00000 
 43692.65567		 830.84762			42861.80805		221.99000		875.00000 
 43692.65567		 305.27265			43387.38302		69.17400		324.00000 
 43692.65567		 830.84762			42861.80805		221.99000		875.00000 
 43692.65567		 305.27265			43387.38302		69.17400		324.00000 
 43692.65567		 830.84762			42861.80805		221.99000		875.00000 
 43692.65567		 305.27265			43387.38302		69.17400		324.00000 
 43692.65567		 830.84762			42861.80805		221.99000		875.00000 
 43692.65567		 305.27265			43387.38302		69.17400		324.00000 
 43692.65567		 830.84762			42861.80805		221.99000		875.00000 
 43692.65567		 305.27265			43387.38302		69.17400		324.00000 
 43692.65567		 830.84762			42861.80805		221.99000		875.00000 
 43692.65567		 305.27265			43387.38302		69.17400		324.00000 
 43692.65567		 830.84762			42861.80805		221.99000		875.00000 
 43692.65567		 305.27265			43387.38302		69.17400		324.00000 
 43692.65567		 830.84762			42861.80805		221.99000		875.00000 
 43692.65567		 305.27265			43387.38302		69.17400		324.00000 
 43692.65567		 830.84762			42861.80805		222.06000		875.00000 
 43692.65567		 305.27265			43387.38302		69.17400		324.00000 
 43692.65567		 830.84762			42861.80805		222.06000		875.00000 
 43692.65567		 305.27265			43387.38302		69.17400		324.00000 
 43692.65567		 830.84762			42861.80805		222.06000		875.00000 
 43692.65567		 305.27265			43387.38302		69.17400		324.00000 
 43692.65567		 830.84762			42861.80805		222.06000		875.00000 
 43692.65567		 305.27265			43387.38302		69.17400		324.00000 
 43692.65567		 830.84762			42861.80805		222.06000		875.00000 
 43692.65567		 305.27265			43387.38302		69.17400		324.00000 
 43692.65567		 830.84762			42861.80805		222.06000		875.00000 
 43692.65567		 305.27265			43387.38302		69.17400		324.00000 
 43692.65567		 830.84762			42861.80805		222.06000		875.00000 
 43692.65567		 305.27265			43387.38302		69.17400		324.00000 
 43692.65567		 830.84762			42861.80805		222.06000		875.00000 
 43692.65567		 305.27265			43387.38302		69.17400		324.00000 
 43692.65567		 830.84762			42861.80805		222.06000		875.00000 
 43692.65567		 305.27265			43387.38302		69.17400		324.00000 
 43692.65567		 830.84762			42861.80805		222.06000		875.00000 
 43692.65567		 305.27265			43387.38302		69.17400		324.00000 
 43692.65567		 830.84762			42861.80805		222.06000		875.00000 
 43692.65567		 305.27265			43387.38302		69.17400		324.00000 
 43692.65567		 830.84762			42861.80805		222.06000		875.00000 
 43692.65567		 305.27265			43387.38302		69.17400		324.00000 
 43692.65567		 830.84762			42861.80805		222.06000		875.00000 
 43692.65567		 305.27265			43387.38302		69.17400		324.00000 
 43692.65567		 830.84762			42861.80805		222.06000		875.00000 
 43692.65567		 305.27265			43387.38302		69.17400		324.00000 
 43692.65567		 830.84762			42861.80805		222.06000		875.00000 
 43692.65567		 305.27265			43387.38302		69.17400		324.00000 
 43692.65567		 830.84762			42861.80805		222.06000		875.00000 
 43692.65567		 305.27265			43387.38302		69.17400		324.00000 
 43692.65567		 830.84762			42861.80805		222.06000		875.00000 
 43692.65567		 305.27265			43387.38302		69.17400		324.00000 
 43692.65567		 830.84762			42861.80805		222.06000		875.00000 
 43692.65567		 305.27265			43387.38302		69.17400		324.00000 
 43692.65567		 830.84762			42861.80805		222.06000		875.00000 
 43692.65567		 305.27265			43387.38302		69.17400		324.00000 
 43692.65567		 830.84762			42861.80805		222.06000		875.00000 
 43692.65567		 305.27265			43387.38302		69.17400		324.00000 
 43692.65567		 830.84762			42861.80805		222.06000		875.00000 
 43692.65567		 305.27265			43387.38302		69.17400		324.00000 
 43692.65567		 830.84762			42861.80805		222.06000		875.00000 
 43692.65567		 305.27265			43387.38302		69.17400		324.00000 
 43692.65567		 830.84762			42861.80805		222.06000		875.00000 
 43692.65567		 305.27265			43387.38302		69.17400		324.00000 
 43692.65567		 830.84762			42861.80805		222.06000		875.00000 
 43692.65567		 305.27265			43387.38302		69.17400		324.00000 
 43692.65567		 830.84762			42861.80805		222.06000		875.00000 
 43692.65567		 305.27265			43387.38302		69.17400		324.00000 
 43692.65567		 830.84762			42861.80805		222.06000		875.00000 
 43692.65567		 305.27265			43387.38302		69.17400		324.00000 
 43692.65567		 830.84762			42861.80805		222.06000		875.00000 
 43692.65567		 305.27265			43387.38302		69.17400		324.00000 
 43692.65567		 830.84762			42861.80805		222.06000		875.00000 
 43692.65567		 305.27265			43387.38302		69.17400		324.00000 
 43692.65567		 830.84762			42861.80805		222.06000		875.00000 
 43692.65567		 305.27265			43387.38302		69.17400		324.00000 
 43692.65567		 830.84762			42861.80805		222.06000		875.00000 
 43692.65567		 305.27265			43387.38302		69.17400		324.00000 
 43692.65567		 830.84762			42861.80805		222.06000		875.00000 
 43692.65567		 305.27265			43387.38302		69.17400		324.00000 
 43692.65567		 830.84762			42861.80805		222.06000		875.00000 
 43692.65567		 305.27265			43387.38302		69.17400		324.00000 
 43692.65567		 830.84762			42861.80805		222.06000		875.00000 
 43692.65567		 305.27265			43387.38302		69.17400		324.00000 
 43692.65567		 830.84762			42861.80805		222.06000		875.00000 
 43692.65567		 305.27265			43387.38302		69.17400		324.00000 
 43692.65567		 830.84762			42861.80805		222.06000		875.00000 
 43692.65567		 305.27265			43387.38302		69.17400		324.00000 
 43692.65567		 830.84762			42861.80805		222.06000		875.00000 
 43692.65567		 305.27265			43387.38302		69.17400		324.00000 
 43692.65567		 830.84762			42861.80805		222.06000		875.00000 
 43692.65567		 305.27265			43387.38302		69.17400		324.00000 
 43692.65567		 830.84762			42861.80805		222.06000		875.00000 
 43692.65567		 305.27265			43387.38302		69.17400		324.00000 
 43692.65567		 830.84762			42861.80805		222.06000		875.00000 
 43692.65567		 305.27265			43387.38302		69.17400		324.00000 
 43692.65567		 830.84762			42861.80805		222.06000		875.00000 
 43692.65567		 305.27265			43387.38302		69.17400		324.00000 
 43692.65567		 830.84762			42861.80805		222.06000		875.00000 
 43692.65567		 305.27265			43387.38302		69.17400		324.00000 
 43692.65567		 830.84762			42861.80805		222.06000		875.00000 
 43692.65567		 305.27265			43387.38302		69.17400		324.00000 
 43692.65567		 830.84762			42861.80805		222.06000		875.00000 
 43692.65567		 305.27265			43387.38302		69.17400		324.00000 
 43692.65567		 830.84762			42861.80805		222.06000		875.00000 
 43692.65567		 305.27265			43387.38302		69.17400		324.00000 
 43692.65567		 830.84762			42861.80805		222.06000		875.00000 
 43692.65567		 305.27265			43387.38302		69.17400		324.00000 
 43692.65567		 830.84762			42861.80805		222.06000		875.00000 
 43692.65567		 305.27265			43387.38302		69.17400		324.00000 
 43692.65567		 830.84762			42861.80805		222.06000		875.00000 
 43692.65567		 305.27265			43387.38302		69.17400		324.00000 
 43692.65567		 830.84762			42861.80805		222.06000		875.00000 
 43692.65567		 305.27265			43387.38302		69.17400		324.00000 
 43692.65567		 830.84762			42861.80805		222.06000		875.00000 
 43692.65567		 305.27265			43387.38302		69.17400		324.00000 
 43692.65567		 830.84762			42861.80805		222.06000		875.00000 
 43692.65567		 305.27265			43387.38302		69.17400		324.00000 
 43692.65567		 830.84762			42861.80805		222.06000		875.00000 
 43692.65567		 305.27265			43387.38302		69.17400		324.00000 
 43692.65567		 830.84762			42861.80805		222.06000		875.00000 
 43692.65567		 305.27265			43387.38302		69.17400		324.00000 
 43692.65567		 830.84762			42861.80805		222.06000		875.00000 
 43692.65567		 305.27265			43387.38302		69.17400		324.00000 
 43692.65567		 830.84762			42861.80805		222.06000		875.00000 
 43692.65567		 305.27265			43387.38302		69.17400		324.00000 
 43692.65567		 830.84762			42861.80805		222.06000		875.00000 
 43692.65567		 305.27265			43387.38302		69.17400		324.00000 
 43692.65567		 830.84762			42861.80805		222.06000		875.00000 
 43692.65567		 305.27265			43387.38302		69.17400		324.00000 
 43692.65567		 830.84762			42861.80805		222.06000		875.00000 
 43692.65567		 305.27265			43387.38302		69.17400		324.00000 
 43692.65567		 830.84762			42861.80805		222.06000		875.00000 
 43692.65567		 305.27265			43387.38302		69.17400		324.00000 
 43692.65567		 830.84762			42861.80805		222.06000		875.00000 
 43692.65567		 305.27265			43387.38302		69.17400		324.00000 
 43692.65567		 830.84762			42861.80805		222.06000		875.00000 
 43692.65567		 305.27265			43387.38302		69.17400		324.00000 
 43692.65567		 830.84762			42861.80805		222.06000		875.00000 
 43692.65567		 305.27265			43387.38302		69.17400		324.00000 
 43692.65567		 830.84762			42861.80805		222.06000		875.00000 
 43692.65567		 305.27265			43387.38302		69.17400		324.00000 
 43692.65567		 830.84762			42861.80805		222.06000		875.00000 
 43692.65567		 305.27265			43387.38302		69.17400		324.00000 
 43692.65567		 830.84762			42861.80805		222.06000		875.00000 
 43692.65567		 305.27265			43387.38302		69.17400		324.00000 
 43692.65567		 830.84762			42861.80805		222.06000		875.00000 
 43692.65567		 305.27265			43387.38302		69.17400		324.00000 
 43692.65567		 830.84762			42861.80805		222.06000		875.00000 
 43692.65567		 305.27265			43387.38302		69.17400		324.00000 
 43692.65567		 830.84762			42861.80805		222.06000		875.00000 
 43692.65567		 305.27265			43387.38302		69.17400		324.00000 
 43692.65567		 830.84762			42861.80805		222.06000		875.00000 
 43692.65567		 305.27265			43387.38302		69.17400		324.00000 
 43692.65567		 830.84762			42861.80805		222.06000		875.00000 
 43692.65567		 305.27265			43387.38302		69.17400		324.00000 
 43692.65567		 830.84762			42861.80805		222.06000		875.00000 
 43692.65567		 305.27265			43387.38302		69.17400		324.00000 
 43692.65567		 830.84762			42861.80805		222.06000		875.00000 
 43692.65567		 305.27265			43387.38302		69.17400		324.00000 
 43692.65567		 830.84762			42861.80805		222.06000		875.00000 
 43692.65567		 305.27265			43387.38302		69.17400		324.00000 
 43692.65567		 830.84762			42861.80805		222.06000		875.00000 
 43692.65567		 305.27265			43387.38302		69.17400		324.00000 
 43692.65567		 830.84762			42861.80805		222.06000		875.00000 
 43692.65567		 305.27265			43387.38302		69.17400		324.00000 
 43692.65567		 830.84762			42861.80805		222.06000		875.00000 
 43692.65567		 305.27265			43387.38302		69.17400		324.00000 
 43692.65567		 830.84762			42861.80805		222.06000		875.00000 
 43692.65567		 305.27265			43387.38302		69.17400		324.00000 
 43692.65567		 830.84762			42861.80805		222.06000		875.00000 
 43692.65567		 305.27265			43387.38302		69.17400		324.00000 
 43692.65567		 830.84762			42861.80805		222.06000		875.00000 
 43692.65567		 305.27265			43387.38302		69.17400		324.00000 
 43692.65567		 830.84762			42861.80805		222.06000		875.00000 
 43692.65567		 305.27265			43387.38302		69.17400		324.00000 
 43692.65567		 830.84762			42861.80805		222.06000		875.00000 
 43692.65567		 305.27265			43387.38302		69.17400		324.00000 
 43692.65567		 830.84762			42861.80805		222.06000		875.00000 
 43692.65567		 305.27265			43387.38302		69.17400		324.00000 
 43692.65567		 830.84762			42861.80805		222.06000		875.00000 
 43692.65567		 305.27265			43387.38302		69.17400		324.00000 
 43692.65567		 830.84762			42861.80805		222.06000		875.00000 
 43692.65567		 305.27265			43387.38302		69.17400		324.00000 
 43692.65567		 830.84762			42861.80805		222.06000		875.00000 
 43692.65567		 305.27265			43387.38302		69.17400		324.00000 
 43692.65567		 830.84762			42861.80805		222.06000		875.00000 
 43692.65567		 305.27265			43387.38302		69.17400		324.00000 
 43692.65567		 830.84762			42861.80805		222.06000		875.00000 
 43692.65567		 305.27265			43387.38302		69.17400		324.00000 
 43692.65567		 830.84762			42861.80805		222.06000		875.00000 
 43692.65567		 305.27265			43387.38302		69.17400		324.00000 
 43692.65567		 830.84762			42861.80805		222.06000		875.00000 
 43692.65567		 305.27265			43387.38302		69.17400		324.00000 
 43692.65567		 830.84762			42861.80805		222.06000		875.00000 
 43692.65567		 305.27265			43387.38302		69.17400		324.00000 
 43692.65567		 830.84762			42861.80805		222.06000		875.00000 
 43692.65567		 305.27265			43387.38302		69.17400		324.00000 
 43692.65567		 830.84762			42861.80805		222.06000		875.00000 
 43692.65567		 305.27265			43387.38302		69.17400		324.00000 
 43692.65567		 830.84762			42861.80805		222.06000		875.00000 
 43692.65567		 305.27265			43387.38302		69.17400		324.00000 
 43692.65567		 830.84762			42861.80805		222.06000		875.00000 
 43692.65567		 305.27265			43387.38302		69.17400		324.00000 
 43692.65567		 830.84762			42861.80805		222.06000		875.00000 
 43692.65567		 305.27265			43387.38302		69.17400		324.00000 
 43692.65567		 830.84762			42861.80805		222.06000		875.00000 
 43692.65567		 305.27265			43387.38302		69.17400		324.00000 
 43692.65567		 830.84762			42861.80805		222.06000		875.00000 
 43692.65567		 305.27265			43387.38302		69.17400		324.00000 
 43692.65567		 830.84762			42861.80805		222.06000		875.00000 
 43692.65567		 305.27265			43387.38302		69.17400		324.00000 
 43692.65567		 830.84762			42861.80805		222.06000		875.00000 
 43692.65567		 305.27265			43387.38302		69.17400		324.00000 
 43692.65567		 830.84762			42861.80805		222.06000		875.00000 
 43692.65567		 305.27265			43387.38302		69.17400		324.00000 
 43692.65567		 830.84762			42861.80805		222.06000		875.00000 
 43692.65567		 305.27265			43387.38302		69.17400		324.00000 
 43692.65567		 830.84762			42861.80805		222.06000		875.00000 
 43692.65567		 305.27265			43387.38302		69.17400		324.00000 
 43692.65567		 830.84762			42861.80805		222.06000		875.00000 
 43692.65567		 305.27265			43387.38302		69.17400		324.00000 
 43692.65567		 830.84762			42861.80805		222.06000		875.00000 
 43692.65567		 305.27265			43387.38302		69.17400		324.00000 
 43692.65567		 830.84762			42861.80805		222.06000		875.00000 
 43692.65567		 305.27265			43387.38302		69.17400		324.00000 
 43692.65567		 830.84762			42861.80805		222.06000		875.00000 
 43692.65567		 305.27265			43387.38302		69.17400		324.00000 
 43692.65567		 830.84762			42861.80805		222.06000		875.00000 
 43692.65567		 305.27265			43387.38302		69.17400		324.00000 
 43692.65567		 830.84762			42861.80805		222.06000		875.00000 
 43692.65567		 305.27265			43387.38302		69.17400		324.00000 
 43692.65567		 830.84762			42861.80805		222.06000		875.00000 
 43692.65567		 305.27265			43387.38302		69.17400		324.00000 
 43692.65567		 830.84762			42861.80805		222.06000		875.00000 
 43692.65567		 305.27265			43387.38302		69.17400		324.00000 
 43692.65567		 830.84762			42861.80805		222.06000		875.00000 
 43692.65567		 305.27265			43387.38302		69.17400		324.00000 
 43692.65567		 830.84762			42861.80805		222.06000		875.00000 
 43692.65567		 305.27265			43387.38302		69.17400		324.00000 
 43692.65567		 830.84762			42861.80805		222.06000		875.00000 
 43692.65567		 305.27265			43387.38302		69.17400		324.00000 
 43692.65567		 830.84762			42861.80805		222.06000		875.00000 
 43692.65567		 305.27265			43387.38302		69.17400		324.00000 
 43692.65567		 830.84762			42861.80805		222.06000		875.00000 
 43692.65567		 305.27265			43387.38302		69.17400		324.00000 
 43692.65567		 830.84762			42861.80805		222.06000		875.00000 
 43692.65567		 305.27265			43387.38302		69.17400		324.00000 
 43692.65567		 830.84762			42861.80805		222.06000		875.00000 
 43692.65567		 305.27265			43387.38302		69.17400		324.00000 
 43692.65567		 830.84762			42861.80805		222.06000		875.00000 
 43692.65567		 305.27265			43387.38302		69.17400		324.00000 
 43692.65567		 830.84762			42861.80805		222.06000		875.00000 
 43692.65567		 305.27265			43387.38302		69.17400		324.00000 
 43692.65567		 830.84762			42861.80805		222.06000		875.00000 
 43692.65567		 305.27265			43387.38302		69.17400		324.00000 
 43692.65567		 830.84762			42861.80805		222.06000		875.00000 
 43692.65567		 305.27265			43387.38302		69.17400		324.00000 
 43692.65567		 830.84762			42861.80805		222.06000		875.00000 
 43692.65567		 305.27265			43387.38302		69.17400		324.00000 
 43692.65567		 830.84762			42861.80805		222.06000		875.00000 
 43692.65567		 305.27265			43387.38302		69.17400		324.00000 
 43692.65567		 830.84762			42861.80805		222.06000		875.00000 
 43692.65567		 305.27265			43387.38302		69.17400		324.00000 
 43692.65567		 830.84762			42861.80805		222.06000		875.00000 
 43692.65567		 305.27265			43387.38302		69.17400		324.00000 
 43692.65567		 830.84762			42861.80805		222.06000		875.00000 
 43692.65567		 305.27265			43387.38302		69.17400		324.00000 
 43692.65567		 830.84762			42861.80805		222.06000		875.00000 
 43692.65567		 305.27265			43387.38302		69.17400		324.00000 
 43692.65567		 830.84762			42861.80805		222.06000		875.00000 
 43692.65567		 305.27265			43387.38302		69.17400		324.00000 
 43692.65567		 830.84762			42861.80805		222.06000		875.00000 
 43692.65567		 305.27265			43387.38302		69.17400		324.00000 
 43692.65567		 830.84762			42861.80805		222.06000		875.00000 
 43692.65567		 305.27265			43387.38302		69.17400		324.00000 
 43692.65567		 830.84762			42861.80805		222.66000		875.00000 
 43692.65567		 305.27265			43387.38302		69.17400		324.00000 
 43692.65567		 830.84762			42861.80805		222.66000		875.00000 
 43692.65567		 305.27265			43387.38302		69.17400		324.00000 
 43692.65567		 830.84762			42861.80805		222.66000		875.00000 
 43692.65567		 305.27265			43387.38302		69.17400		324.00000 
 43692.65567		 830.84762			42861.80805		222.66000		875.00000 
 43692.65567		 305.27265			43387.38302		69.17400		324.00000 
 43692.65567		 830.84762			42861.80805		222.66000		875.00000 
 43692.65567		 305.27265			43387.38302		69.17400		324.00000 
 43692.65567		 830.84762			42861.80805		222.66000		875.00000 
 43692.65567		 305.27265			43387.38302		69.17400		324.00000 
 43692.65567		 830.84762			42861.80805		222.66000		875.00000 
 43692.65567		 305.27265			43387.38302		69.17400		324.00000 
 43692.65567		 830.84762			42861.80805		222.66000		875.00000 
 43692.65567		 305.27265			43387.38302		69.17400		324.00000 
 43692.65567		 830.84762			42861.80805		222.66000		875.00000 
 43692.65567		 305.27265			43387.38302		69.17400		324.00000 
 43692.65567		 830.84762			42861.80805		222.66000		875.00000 
 43692.65567		 305.27265			43387.38302		69.17400		324.00000 
 43692.65567		 830.84762			42861.80805		222.66000		875.00000 
 43692.65567		 305.27265			43387.38302		69.17400		324.00000 
 43692.65567		 830.84762			42861.80805		222.66000		875.00000 
 43692.65567		 305.27265			43387.38302		69.17400		324.00000 
 43692.65567		 830.84762			42861.80805		222.66000		875.00000 
 43692.65567		 305.27265			43387.38302		69.17400		324.00000 
 43692.65567		 830.84762			42861.80805		222.66000		875.00000 
 43692.65567		 305.27265			43387.38302		69.17400		324.00000 
 43692.65567		 830.84762			42861.80805		222.66000		875.00000 
 43692.65567		 305.27265			43387.38302		69.17400		324.00000 
 43692.65567		 830.84762			42861.80805		222.66000		875.00000 
 43692.65567		 305.27265			43387.38302		69.17400		324.00000 
 43692.65567		 830.84762			42861.80805		222.66000		875.00000 
 43692.65567		 305.27265			43387.38302		69.17400		324.00000 
 43692.65567		 830.84762			42861.80805		222.66000		875.00000 
 43692.65567		 305.27265			43387.38302		69.17400		324.00000 
 43692.65567		 830.84762			42861.80805		222.66000		875.00000 
 43692.65567		 305.27265			43387.38302		69.17400		324.00000 
 43692.65567		 830.84762			42861.80805		222.66000		875.00000 
 43692.65567		 305.27265			43387.38302		69.17400		324.00000 
 43692.65567		 830.84762			42861.80805		222.66000		875.00000 
 43692.65567		 305.27265			43387.38302		69.17400		324.00000 
 43692.65567		 830.84762			42861.80805		222.66000		875.00000 
 43692.65567		 305.27265			43387.38302		69.17400		324.00000 
 43692.65567		 830.84762			42861.80805		222.66000		875.00000 
 43692.65567		 305.27265			43387.38302		69.17400		324.00000 
 43692.65567		 830.84762			42861.80805		222.66000		875.00000 
 43692.65567		 305.27265			43387.38302		69.17400		324.00000 
 43692.65567		 830.84762			42861.80805		222.66000		875.00000 
 43692.65567		 305.27265			43387.38302		69.17400		324.00000 
 43692.65567		 830.84762			42861.80805		222.66000		875.00000 
 43692.65567		 305.27265			43387.38302		69.17400		324.00000 
 43692.65567		 830.84762			42861.80805		222.66000		875.00000 
 43692.65567		 305.27265			43387.38302		69.17400		324.00000 
 43692.65567		 830.84762			42861.80805		222.66000		875.00000 
 43692.65567		 305.27265			43387.38302		69.17400		324.00000 
 43692.65567		 830.84762			42861.80805		222.66000		875.00000 
 43692.65567		 305.27265			43387.38302		69.17400		324.00000 
 43692.65567		 830.84762			42861.80805		222.66000		875.00000 
 43692.65567		 305.27265			43387.38302		69.17400		324.00000 
 43692.65567		 830.84762			42861.80805		222.66000		875.00000 
 43692.65567		 305.27265			43387.38302		69.17400		324.00000 
 43692.65567		 830.84762			42861.80805		222.66000		875.00000 
 43692.65567		 305.27265			43387.38302		69.17400		324.00000 
 43692.65567		 830.84762			42861.80805		222.66000		875.00000 
 43692.65567		 305.27265			43387.38302		69.17400		324.00000 
 43692.65567		 830.84762			42861.80805		222.66000		875.00000 
 43692.65567		 305.27265			43387.38302		69.17400		324.00000 
 43692.65567		 830.84762			42861.80805		222.66000		875.00000 
 43692.65567		 305.27265			43387.38302		69.17400		324.00000 
 43692.65567		 830.84762			42861.80805		222.66000		875.00000 
 43692.65567		 305.27265			43387.38302		69.17400		324.00000 
 43692.65567		 830.84762			42861.80805		222.66000		875.00000 
 43692.65567		 305.27265			43387.38302		69.17400		324.00000 
 43692.65567		 830.84762			42861.80805		222.66000		875.00000 
 43692.65567		 305.27265			43387.38302		69.17400		324.00000 
 43692.65567		 830.84762			42861.80805		222.66000		875.00000 
 43692.65567		 305.27265			43387.38302		69.17400		324.00000 
 43692.65567		 830.84762			42861.80805		222.66000		875.00000 
 43692.65567		 305.27265			43387.38302		69.17400		324.00000 
 43692.65567		 830.84762			42861.80805		222.66000		875.00000 
 43692.65567		 305.27265			43387.38302		69.17400		324.00000 
 43692.65567		 830.84762			42861.80805		222.66000		875.00000 
 43692.65567		 305.27265			43387.38302		69.17400		324.00000 
 43692.65567		 830.84762			42861.80805		222.66000		875.00000 
 43692.65567		 305.27265			43387.38302		69.17400		324.00000 
 43692.65567		 830.84762			42861.80805		222.66000		875.00000 
 43692.65567		 305.27265			43387.38302		69.17400		324.00000 
 43692.65567		 830.84762			42861.80805		222.66000		875.00000 
 43692.65567		 305.27265			43387.38302		69.17400		324.00000 
 43692.65567		 830.84762			42861.80805		222.66000		875.00000 
 43692.65567		 305.27265			43387.38302		69.17400		324.00000 
 43692.65567		 830.84762			42861.80805		222.66000		875.00000 
 43692.65567		 305.27265			43387.38302		69.17400		324.00000 
 43692.65567		 830.84762			42861.80805		222.66000		875.00000 
 43692.65567		 305.27265			43387.38302		69.17400		324.00000 
 43692.65567		 830.84762			42861.80805		222.66000		875.00000 
 43692.65567		 305.27265			43387.38302		69.17400		324.00000 
 43692.65567		 830.84762			42861.80805		222.66000		875.00000 
 43692.65567		 305.27265			43387.38302		69.17400		324.00000 
 43692.65567		 830.84762			42861.80805		222.66000		875.00000 
 43692.65567		 305.27265			43387.38302		69.17400		324.00000 
 43692.65567		 830.84762			42861.80805		222.66000		875.00000 
 43692.65567		 305.27265			43387.38302		69.17400		324.00000 
 43692.65567		 830.84762			42861.80805		222.66000		875.00000 
 43692.65567		 305.27265			43387.38302		69.17400		324.00000 
 43692.65567		 830.84762			42861.80805		222.66000		875.00000 
 43692.65567		 305.27265			43387.38302		69.17400		324.00000 
 43692.65567		 830.84762			42861.80805		222.66000		875.00000 
 43692.65567		 305.27265			43387.38302		69.17400		324.00000 
 43692.65567		 830.84762			42861.80805		222.66000		875.00000 
 43692.65567		 305.27265			43387.38302		69.17400		324.00000 
 43692.65567		 830.84762			42861.80805		222.66000		875.00000 
 43692.65567		 305.27265			43387.38302		69.17400		324.00000 
 43692.65567		 830.84762			42861.80805		222.66000		875.00000 
 43692.65567		 305.27265			43387.38302		69.17400		324.00000 
 43692.65567		 830.84762			42861.80805		222.66000		875.00000 
 43692.65567		 305.27265			43387.38302		69.17400		324.00000 
 43692.65567		 830.84762			42861.80805		222.66000		875.00000 
 43692.65567		 305.27265			43387.38302		69.17400		324.00000 
 43692.65567		 830.84762			42861.80805		222.66000		875.00000 
 43692.65567		 305.27265			43387.38302		69.17400		324.00000 
 43692.65567		 830.84762			42861.80805		222.66000		875.00000 
 43692.65567		 305.27265			43387.38302		69.17400		324.00000 
 43692.65567		 830.84762			42861.80805		222.66000		875.00000 
 43692.65567		 305.27265			43387.38302		69.17400		324.00000 
 43692.65567		 830.84762			42861.80805		222.66000		875.00000 
 43692.65567		 305.27265			43387.38302		69.17400		324.00000 
 43692.65567		 830.84762			42861.80805		222.66000		875.00000 
 43692.65567		 305.27265			43387.38302		69.17400		324.00000 
 43692.65567		 830.84762			42861.80805		222.66000		875.00000 
 43692.65567		 305.27265			43387.38302		69.17400		324.00000 
 43692.65567		 830.84762			42861.80805		222.66000		875.00000 
 43692.65567		 305.27265			43387.38302		69.17400		324.00000 
 43692.65567		 830.84762			42861.80805		222.66000		875.00000 
 43692.65567		 305.27265			43387.38302		69.17400		324.00000 
 43692.65567		 830.84762			42861.80805		222.66000		875.00000 
 43692.65567		 305.27265			43387.38302		69.17400		324.00000 
 43692.65567		 830.84762			42861.80805		222.66000		875.00000 
 43692.65567		 305.27265			43387.38302		69.17400		324.00000 
 43692.65567		 830.84762			42861.80805		222.66000		875.00000 
 43692.65567		 305.27265			43387.38302		69.17400		324.00000 
 43692.65567		 830.84762			42861.80805		222.66000		875.00000 
 43692.65567		 305.27265			43387.38302		69.17400		324.00000 
 43692.65567		 830.84762			42861.80805		222.66000		875.00000 
 43692.65567		 305.27265			43387.38302		69.17400		324.00000 
 43692.65567		 830.84762			42861.80805		222.66000		875.00000 
 43692.65567		 305.27265			43387.38302		69.17400		324.00000 
 43692.65567		 830.84762			42861.80805		222.66000		875.00000 
 43692.65567		 305.27265			43387.38302		69.17400		324.00000 
 43692.65567		 830.84762			42861.80805		222.66000		875.00000 
 43692.65567		 305.27265			43387.38302		69.17400		324.00000 
 43692.65567		 830.84762			42861.80805		222.66000		875.00000 
 43692.65567		 305.27265			43387.38302		69.17400		324.00000 
 43692.65567		 830.84762			42861.80805		222.66000		875.00000 
 43692.65567		 305.27265			43387.38302		69.17400		324.00000 
 43692.65567		 830.84762			42861.80805		222.66000		875.00000 
 43692.65567		 305.27265			43387.38302		69.17400		324.00000 
 43692.65567		 830.84762			42861.80805		222.66000		875.00000 
 43692.65567		 305.27265			43387.38302		69.17400		324.00000 
 43692.65567		 830.84762			42861.80805		222.66000		875.00000 
 43692.65567		 305.27265			43387.38302		69.17400		324.00000 
 43692.65567		 830.84762			42861.80805		222.66000		875.00000 
 43692.65567		 305.27265			43387.38302		69.17400		324.00000 
 43692.65567		 830.84762			42861.80805		222.66000		875.00000 
 43692.65567		 305.27265			43387.38302		69.17400		324.00000 
 43692.65567		 830.84762			42861.80805		222.66000		875.00000 
 43692.65567		 305.27265			43387.38302		69.17400		324.00000 
 43692.65567		 830.84762			42861.80805		222.66000		875.00000 
 43692.65567		 305.27265			43387.38302		69.17400		324.00000 
 43692.65567		 830.84762			42861.80805		222.66000		875.00000 
 43692.65567		 305.27265			43387.38302		69.17400		324.00000 
 43692.65567		 830.84762			42861.80805		222.66000		875.00000 
 43692.65567		 305.27265			43387.38302		69.17400		324.00000 
 43692.65567		 830.84762			42861.80805		222.66000		875.00000 
 43692.65567		 305.27265			43387.38302		69.17400		324.00000 
 43692.65567		 830.84762			42861.80805		222.66000		875.00000 
 43692.65567		 305.27265			43387.38302		69.17400		324.00000 
 43692.65567		 830.84762			42861.80805		222.66000		875.00000 
 43692.65567		 305.27265			43387.38302		69.17400		324.00000 
 43692.65567		 830.84762			42861.80805		222.66000		875.00000 
 43692.65567		 305.27265			43387.38302		69.17400		324.00000 
 43692.65567		 830.84762			42861.80805		222.66000		875.00000 
 43692.65567		 305.27265			43387.38302		69.17400		324.00000 
 43692.65567		 830.84762			42861.80805		222.66000		875.00000 
 43692.65567		 305.27265			43387.38302		69.17400		324.00000 
 43692.65567		 830.84762			42861.80805		222.66000		875.00000 
 43692.65567		 305.27265			43387.38302		69.17400		324.00000 
 43692.65567		 830.84762			42861.80805		222.66000		875.00000 
 43692.65567		 305.27265			43387.38302		69.17400		324.00000 
 43692.65567		 830.84762			42861.80805		222.66000		875.00000 
 43692.65567		 305.27265			43387.38302		69.17400		324.00000 
 43692.65567		 830.84762			42861.80805		222.66000		875.00000 
 43692.65567		 305.27265			43387.38302		69.17400		324.00000 
 43692.65567		 830.84762			42861.80805		222.66000		875.00000 
 43692.65567		 305.27265			43387.38302		69.17400		324.00000 
 43692.65567		 830.84762			42861.80805		222.66000		875.00000 
 43692.65567		 305.27265			43387.38302		69.17400		324.00000 
 43692.65567		 830.84762			42861.80805		222.66000		875.00000 
 43692.65567		 305.27265			43387.38302		69.17400		324.00000 
 43692.65567		 830.84762			42861.80805		222.66000		875.00000 
 43692.65567		 305.27265			43387.38302		69.17400		324.00000 
 43692.65567		 830.84762			42861.80805		222.66000		875.00000 
 43692.65567		 305.27265			43387.38302		69.17400		324.00000 
 43692.65567		 830.84762			42861.80805		222.66000		875.00000 
 43692.65567		 305.27265			43387.38302		69.17400		324.00000 
 43692.65567		 830.84762			42861.80805		222.66000		875.00000 
 43692.65567		 305.27265			43387.38302		69.17400		324.00000 
 43692.65567		 830.84762			42861.80805		222.66000		875.00000 
 43692.65567		 305.27265			43387.38302		69.17400		324.00000 
 43692.65567		 830.84762			42861.80805		222.66000		875.00000 
 43692.65567		 305.27265			43387.38302		69.17400		324.00000 
 43692.65567		 830.84762			42861.80805		222.66000		875.00000 
 43692.65567		 305.27265			43387.38302		69.17400		324.00000 
 43692.65567		 830.84762			42861.80805		222.66000		875.00000 
 43692.65567		 305.27265			43387.38302		69.17400		324.00000 
 43692.65567		 830.84762			42861.80805		222.66000		875.00000 
 43692.65567		 305.27265			43387.38302		69.17400		324.00000 
 43692.65567		 830.84762			42861.80805		222.66000		875.00000 
 43692.65567		 305.27265			43387.38302		69.17400		324.00000 
 43692.65567		 830.84762			42861.80805		222.66000		875.00000 
 43692.65567		 305.27265			43387.38302		69.17400		324.00000 
 43692.65567		 830.84762			42861.80805		222.66000		875.00000 
 43692.65567		 305.27265			43387.38302		69.17400		324.00000 
 43692.65567		 830.84762			42861.80805		222.66000		875.00000 
 43692.65567		 305.27265			43387.38302		69.17400		324.00000 
 43692.65567		 830.84762			42861.80805		222.66000		875.00000 
 43692.65567		 305.27265			43387.38302		69.17400		324.00000 
 43692.65567		 830.84762			42861.80805		222.66000		875.00000 
 43692.65567		 305.27265			43387.38302		69.17400		324.00000 
 43692.65567		 830.84762			42861.80805		222.66000		875.00000 
 43692.65567		 305.27265			43387.38302		69.17400		324.00000 
 43692.65567		 830.84762			42861.80805		222.66000		875.00000 
 43692.65567		 305.27265			43387.38302		69.17400		324.00000 
 43692.65567		 830.84762			42861.80805		222.66000		875.00000 
 43692.65567		 305.27265			43387.38302		69.17400		324.00000 
 43692.65567		 830.84762			42861.80805		222.66000		875.00000 
 43692.65567		 305.27265			43387.38302		69.17400		324.00000 
 43692.65567		 830.84762			42861.80805		222.66000		875.00000 
 43692.65567		 305.27265			43387.38302		69.17400		324.00000 
 43692.65567		 830.84762			42861.80805		222.66000		875.00000 
 43692.65567		 305.27265			43387.38302		69.17400		324.00000 
 43692.65567		 830.84762			42861.80805		222.66000		875.00000 
 43692.65567		 305.27265			43387.38302		69.17400		324.00000 
 43692.65567		 830.84762			42861.80805		222.66000		875.00000 
 43692.65567		 305.27265			43387.38302		69.17400		324.00000 
 43692.65567		 830.84762			42861.80805		222.66000		875.00000 
 43692.65567		 305.27265			43387.38302		69.17400		324.00000 
 43692.65567		 830.84762			42861.80805		222.66000		875.00000 
 43692.65567		 305.27265			43387.38302		69.17400		324.00000 
 43692.65567		 830.84762			42861.80805		222.66000		875.00000 
 43692.65567		 305.27265			43387.38302		69.17400		324.00000 
 43692.65567		 830.84762			42861.80805		222.66000		875.00000 
 43692.65567		 305.27265			43387.38302		69.17400		324.00000 
 43692.65567		 830.84762			42861.80805		222.66000		875.00000 
 43692.65567		 305.27265			43387.38302		69.17400		324.00000 
 43692.65567		 830.84762			42861.80805		222.06000		875.00000 
 43692.65567		 305.27265			43387.38302		69.17400		324.00000 
 43692.65567		 830.84762			42861.80805		222.06000		875.00000 
 43692.65567		 305.27265			43387.38302		69.17400		324.00000 
 43692.65567		 830.84762			42861.80805		222.06000		875.00000 
 43692.65567		 305.27265			43387.38302		69.17400		324.00000 
 43692.65567		 830.84762			42861.80805		222.06000		875.00000 
 43692.65567		 305.27265			43387.38302		69.17400		324.00000 
 43692.65567		 830.84762			42861.80805		222.06000		875.00000 
 43692.65567		 305.27265			43387.38302		69.17400		324.00000 
 43692.65567		 830.84762			42861.80805		222.06000		875.00000 
 43692.65567		 305.27265			43387.38302		69.17400		324.00000 
 43692.65567		 830.84762			42861.80805		222.06000		875.00000 
 43692.65567		 305.27265			43387.38302		69.17400		324.00000 
 43692.65567		 830.84762			42861.80805		222.06000		875.00000 
 43692.65567		 305.27265			43387.38302		69.17400		324.00000 
 43692.65567		 830.84762			42861.80805		222.06000		875.00000 
 43692.65567		 305.27265			43387.38302		69.17400		324.00000 
 43692.65567		 830.84762			42861.80805		222.06000		875.00000 
 43692.65567		 305.27265			43387.38302		69.17400		324.00000 
 43692.65567		 830.84762			42861.80805		222.06000		875.00000 
 43692.65567		 305.27265			43387.38302		69.17400		324.00000 
 43692.65567		 830.84762			42861.80805		222.06000		875.00000 
 43692.65567		 305.27265			43387.38302		69.17400		324.00000 
 43692.65567		 830.84762			42861.80805		222.06000		875.00000 
 43692.65567		 305.27265			43387.38302		69.17400		324.00000 
 43692.65567		 830.84762			42861.80805		222.06000		875.00000 
 43692.65567		 305.27265			43387.38302		69.17400		324.00000 
 43692.65567		 830.84762			42861.80805		222.06000		875.00000 
 43692.65567		 305.27265			43387.38302		69.17400		324.00000 
 43692.65567		 830.84762			42861.80805		222.06000		875.00000 
 43692.65567		 305.27265			43387.38302		69.17400		324.00000 
 43692.65567		 830.84762			42861.80805		222.06000		875.00000 
 43692.65567		 305.27265			43387.38302		69.17400		324.00000 
 43692.65567		 830.84762			42861.80805		222.06000		875.00000 
 43692.65567		 305.27265			43387.38302		69.17400		324.00000 
 43692.65567		 830.84762			42861.80805		222.06000		875.00000 
 43692.65567		 305.27265			43387.38302		69.17400		324.00000 
 43692.65567		 830.84762			42861.80805		222.06000		875.00000 
 43692.65567		 305.27265			43387.38302		69.17400		324.00000 
 43692.65567		 830.84762			42861.80805		222.06000		875.00000 
 43692.65567		 305.27265			43387.38302		69.17400		324.00000 
 43692.65567		 830.84762			42861.80805		222.06000		875.00000 
 43692.65567		 305.27265			43387.38302		69.17400		324.00000 
 43692.65567		 830.84762			42861.80805		222.06000		875.00000 
 43692.65567		 305.27265			43387.38302		69.17400		324.00000 
 43692.65567		 830.84762			42861.80805		222.06000		875.00000 
 43692.65567		 305.27265			43387.38302		69.17400		324.00000 
 43692.65567		 830.84762			42861.80805		222.06000		875.00000 
 43692.65567		 305.27265			43387.38302		69.17400		324.00000 
 43692.65567		 830.84762			42861.80805		222.06000		875.00000 
 43692.65567		 305.27265			43387.38302		69.17400		324.00000 
 43692.65567		 830.84762			42861.80805		222.06000		875.00000 
 43692.65567		 305.27265			43387.38302		69.17400		324.00000 
 43692.65567		 830.84762			42861.80805		222.06000		875.00000 
 43692.65567		 305.27265			43387.38302		69.17400		324.00000 
 43692.65567		 830.84762			42861.80805		222.06000		875.00000 
 43692.65567		 305.27265			43387.38302		69.17400		324.00000 
 43692.65567		 830.84762			42861.80805		222.06000		875.00000 
 43692.65567		 305.27265			43387.38302		69.17400		324.00000 
 43692.65567		 830.84762			42861.80805		222.06000		875.00000 
 43692.65567		 305.27265			43387.38302		69.17400		324.00000 
 43692.65567		 830.84762			42861.80805		222.06000		875.00000 
 43692.65567		 305.27265			43387.38302		69.17400		324.00000 
 43692.65567		 830.84762			42861.80805		222.06000		875.00000 
 43692.65567		 305.27265			43387.38302		69.17400		324.00000 
 43692.65567		 830.84762			42861.80805		222.06000		875.00000 
 43692.65567		 305.27265			43387.38302		69.17400		324.00000 
 43692.65567		 830.84762			42861.80805		222.06000		875.00000 
 43692.65567		 305.27265			43387.38302		69.17400		324.00000 
 43692.65567		 830.84762			42861.80805		222.06000		875.00000 
 43692.65567		 305.27265			43387.38302		69.17400		324.00000 
 43692.65567		 830.84762			42861.80805		222.06000		875.00000 
 43692.65567		 305.27265			43387.38302		69.17400		324.00000 
 43692.65567		 830.84762			42861.80805		222.06000		875.00000 
 43692.65567		 305.27265			43387.38302		69.17400		324.00000 
 43692.65567		 830.84762			42861.80805		222.06000		875.00000 
 43692.65567		 305.27265			43387.38302		69.17400		324.00000 
 43692.65567		 830.84762			42861.80805		222.06000		875.00000 
 43692.65567		 305.27265			43387.38302		69.17400		324.00000 
 43692.65567		 830.84762			42861.80805		222.06000		875.00000 
 43692.65567		 305.27265			43387.38302		69.17400		324.00000 
 43692.65567		 830.84762			42861.80805		222.06000		875.00000 
 43692.65567		 305.27265			43387.38302		69.17400		324.00000 
 43692.65567		 830.84762			42861.80805		222.06000		875.00000 
 43692.65567		 305.27265			43387.38302		69.17400		324.00000 
 43692.65567		 830.84762			42861.80805		222.06000		875.00000 
 43692.65567		 305.27265			43387.38302		69.17400		324.00000 
 43692.65567		 830.84762			42861.80805		222.06000		875.00000 
 43692.65567		 305.27265			43387.38302		69.17400		324.00000 
 43692.65567		 830.84762			42861.80805		222.06000		875.00000 
 43692.65567		 305.27265			43387.38302		69.17400		324.00000 
 43692.65567		 830.84762			42861.80805		222.06000		875.00000 
 43692.65567		 305.27265			43387.38302		69.17400		324.00000 
 43692.65567		 830.84762			42861.80805		222.06000		875.00000 
 43692.65567		 305.27265			43387.38302		69.17400		324.00000 
 43692.65567		 830.84762			42861.80805		222.06000		875.00000 
 43692.65567		 305.27265			43387.38302		69.17400		324.00000 
 43692.65567		 830.84762			42861.80805		222.06000		875.00000 
 43692.65567		 305.27265			43387.38302		69.17400		324.00000 
 43692.65567		 830.84762			42861.80805		222.06000		875.00000 
 43692.65567		 305.27265			43387.38302		69.17400		324.00000 
 43692.65567		 830.84762			42861.80805		222.06000		875.00000 
 43692.65567		 305.27265			43387.38302		69.17400		324.00000 
 43692.65567		 830.84762			42861.80805		222.06000		875.00000 
 43692.65567		 305.27265			43387.38302		69.17400		324.00000 
 43692.65567		 830.84762			42861.80805		222.06000		875.00000 
 43692.65567		 305.27265			43387.38302		69.17400		324.00000 
 43692.65567		 830.84762			42861.80805		222.06000		875.00000 
 43692.65567		 305.27265			43387.38302		69.17400		324.00000 
 43692.65567		 830.84762			42861.80805		222.06000		875.00000 
 43692.65567		 305.27265			43387.38302		69.17400		324.00000 
 43692.65567		 830.84762			42861.80805		222.06000		875.00000 
 43692.65567		 305.27265			43387.38302		69.17400		324.00000 
 43692.65567		 830.84762			42861.80805		222.06000		875.00000 
 43692.65567		 305.27265			43387.38302		69.17400		324.00000 
 43692.65567		 830.84762			42861.80805		222.06000		875.00000 
 43692.65567		 305.27265			43387.38302		69.17400		324.00000 
 43692.65567		 830.84762			42861.80805		222.06000		875.00000 
 43692.65567		 305.27265			43387.38302		69.17400		324.00000 
 43692.65567		 830.84762			42861.80805		222.06000		875.00000 
 43692.65567		 305.27265			43387.38302		69.17400		324.00000 
 43692.65567		 830.84762			42861.80805		222.06000		875.00000 
 43692.65567		 305.27265			43387.38302		69.17400		324.00000 
 43692.65567		 830.84762			42861.80805		222.06000		875.00000 
 43692.65567		 305.27265			43387.38302		69.17400		324.00000 
 43692.65567		 830.84762			42861.80805		222.06000		875.00000 
 43692.65567		 305.27265			43387.38302		69.17400		324.00000 
 43692.65567		 830.84762			42861.80805		222.66000		875.00000 
 43692.65567		 305.27265			43387.38302		69.17400		324.00000 
 43692.65567		 830.84762			42861.80805		222.66000		875.00000 
 43692.65567		 305.27265			43387.38302		69.17400		324.00000 
 43692.65567		 830.84762			42861.80805		222.66000		875.00000 
 43692.65567		 305.27265			43387.38302		69.17400		324.00000 
 43692.65567		 830.84762			42861.80805		222.66000		875.00000 
 43692.65567		 305.27265			43387.38302		69.17400		324.00000 
 43692.65567		 830.84762			42861.80805		222.66000		875.00000 
 43692.65567		 305.27265			43387.38302		69.17400		324.00000 
 43692.65567		 830.84762			42861.80805		222.66000		875.00000 
 43692.65567		 305.27265			43387.38302		69.17400		324.00000 
 43692.65567		 830.84762			42861.80805		222.66000		875.00000 
 43692.65567		 305.27265			43387.38302		69.17400		324.00000 
 43692.65567		 830.84762			42861.80805		222.66000		875.00000 
 43692.65567		 305.27265			43387.38302		69.17400		324.00000 
 43692.65567		 830.84762			42861.80805		222.66000		875.00000 
 43692.65567		 305.27265			43387.38302		69.17400		324.00000 
 43692.65567		 830.84762			42861.80805		222.66000		875.00000 
 43692.65567		 305.27265			43387.38302		69.17400		324.00000 
 43692.65567		 830.84762			42861.80805		222.66000		875.00000 
 43692.65567		 305.27265			43387.38302		69.17400		324.00000 
 43692.65567		 830.84762			42861.80805		222.66000		875.00000 
 43692.65567		 305.27265			43387.38302		69.17400		324.00000 
 43692.65567		 830.84762			42861.80805		222.66000		875.00000 
 43692.65567		 305.27265			43387.38302		69.17400		324.00000 
 43692.65567		 830.84762			42861.80805		222.66000		875.00000 
 43692.65567		 305.27265			43387.38302		69.17400		324.00000 
 43692.65567		 830.84762			42861.80805		222.66000		875.00000 
 43692.65567		 305.27265			43387.38302		69.17400		324.00000 
 43692.65567		 830.84762			42861.80805		222.66000		875.00000 
 43692.65567		 305.27265			43387.38302		69.17400		324.00000 
 43692.65567		 830.84762			42861.80805		222.66000		875.00000 
 43692.65567		 305.27265			43387.38302		69.17400		324.00000 
 43692.65567		 830.84762			42861.80805		222.66000		875.00000 
 43692.65567		 305.27265			43387.38302		69.17400		324.00000 
 43692.65567		 830.84762			42861.80805		222.66000		875.00000 
 43692.65567		 305.27265			43387.38302		69.17400		324.00000 
 43692.65567		 830.84762			42861.80805		222.66000		875.00000 
 43692.65567		 305.27265			43387.38302		69.17400		324.00000 
 43692.65567		 830.84762			42861.80805		222.66000		875.00000 
 43692.65567		 305.27265			43387.38302		69.17400		324.00000 
 43692.65567		 830.84762			42861.80805		222.66000		875.00000 
 43692.65567		 305.27265			43387.38302		69.17400		324.00000 
 43692.65567		 830.84762			42861.80805		222.66000		875.00000 
 43692.65567		 305.27265			43387.38302		69.17400		324.00000 
 43692.65567		 830.84762			42861.80805		222.66000		875.00000 
 43692.65567		 305.27265			43387.38302		69.17400		324.00000 
 43692.65567		 830.84762			42861.80805		222.66000		875.00000 
 43692.65567		 305.27265			43387.38302		69.17400		324.00000 
 43692.65567		 830.84762			42861.80805		222.66000		875.00000 
 43692.65567		 305.27265			43387.38302		69.17400		324.00000 
 43692.65567		 830.84762			42861.80805		222.66000		875.00000 
 43692.65567		 305.27265			43387.38302		69.17400		324.00000 
 43692.65567		 830.84762			42861.80805		222.66000		875.00000 
 43692.65567		 305.27265			43387.38302		69.17400		324.00000 
 43692.65567		 830.84762			42861.80805		222.66000		875.00000 
 43692.65567		 305.27265			43387.38302		69.17400		324.00000 
 43692.65567		 830.84762			42861.80805		222.66000		875.00000 
 43692.65567		 305.27265			43387.38302		69.17400		324.00000 
 43692.65567		 830.84762			42861.80805		222.66000		875.00000 
 43692.65567		 305.27265			43387.38302		69.17400		324.00000 
 43692.65567		 830.84762			42861.80805		222.66000		875.00000 
 43692.65567		 305.27265			43387.38302		69.17400		324.00000 
 43692.65567		 830.84762			42861.80805		222.66000		875.00000 
 43692.65567		 305.27265			43387.38302		69.17400		324.00000 
 43692.65567		 830.84762			42861.80805		222.66000		875.00000 
 43692.65567		 305.27265			43387.38302		69.17400		324.00000 
 43692.65567		 830.84762			42861.80805		222.66000		875.00000 
 43692.65567		 305.27265			43387.38302		69.17400		324.00000 
 43692.65567		 830.84762			42861.80805		222.66000		875.00000 
 43692.65567		 305.27265			43387.38302		69.17400		324.00000 
 43692.65567		 830.84762			42861.80805		222.66000		875.00000 
 43692.65567		 305.27265			43387.38302		69.17400		324.00000 
 43692.65567		 830.84762			42861.80805		222.66000		875.00000 
 43692.65567		 305.27265			43387.38302		69.17400		324.00000 
 43692.65567		 830.84762			42861.80805		222.66000		875.00000 
 43692.65567		 305.27265			43387.38302		69.17400		324.00000 
 43692.65567		 830.84762			42861.80805		222.66000		875.00000 
 43692.65567		 305.27265			43387.38302		69.17400		324.00000 
 43692.65567		 830.84762			42861.80805		222.66000		875.00000 
 43692.65567		 305.27265			43387.38302		69.17400		324.00000 
 43692.65567		 830.84762			42861.80805		222.66000		875.00000 
 43692.65567		 305.27265			43387.38302		69.17400		324.00000 
 43692.65567		 830.84762			42861.80805		222.66000		875.00000 
 43692.65567		 305.27265			43387.38302		69.17400		324.00000 
 43692.65567		 830.84762			42861.80805		222.66000		875.00000 
 43692.65567		 305.27265			43387.38302		69.17400		324.00000 
 43692.65567		 830.84762			42861.80805		222.66000		875.00000 
 43692.65567		 305.27265			43387.38302		69.17400		324.00000 
 43692.65567		 830.84762			42861.80805		222.66000		875.00000 
 43692.65567		 305.27265			43387.38302		69.17400		324.00000 
 43692.65567		 830.84762			42861.80805		222.66000		875.00000 
 43692.65567		 305.27265			43387.38302		69.17400		324.00000 
 43692.65567		 830.84762			42861.80805		222.66000		875.00000 
 43692.65567		 305.27265			43387.38302		69.17400		324.00000 
 43692.65567		 830.84762			42861.80805		222.66000		875.00000 
 43692.65567		 305.27265			43387.38302		69.17400		324.00000 
 43692.65567		 830.84762			42861.80805		222.66000		875.00000 
 43692.65567		 305.27265			43387.38302		69.17400		324.00000 
 43692.65567		 830.84762			42861.80805		222.66000		875.00000 
 43692.65567		 305.27265			43387.38302		69.17400		324.00000 
 43692.65567		 830.84762			42861.80805		222.66000		875.00000 
 43692.65567		 305.27265			43387.38302		69.17400		324.00000 
 43692.65567		 830.84762			42861.80805		222.66000		875.00000 
 43692.65567		 305.27265			43387.38302		69.17400		324.00000 
 43692.65567		 830.84762			42861.80805		222.66000		875.00000 
 43692.65567		 305.27265			43387.38302		69.17400		324.00000 
 43692.65567		 830.84762			42861.80805		222.66000		875.00000 
 43692.65567		 305.27265			43387.38302		69.17400		324.00000 
 43692.65567		 830.84762			42861.80805		222.66000		875.00000 
 43692.65567		 305.27265			43387.38302		69.17400		324.00000 
 43692.65567		 830.84762			42861.80805		222.66000		875.00000 
 43692.65567		 305.27265			43387.38302		69.17400		324.00000 
 43692.65567		 830.84762			42861.80805		222.66000		875.00000 
 43692.65567		 305.27265			43387.38302		69.17400		324.00000 
 43692.65567		 830.84762			42861.80805		222.66000		875.00000 
 43692.65567		 305.27265			43387.38302		69.17400		324.00000 
 43692.65567		 830.84762			42861.80805		222.66000		875.00000 
 43692.65567		 305.27265			43387.38302		69.17400		324.00000 
 43692.65567		 830.84762			42861.80805		222.66000		875.00000 
 43692.65567		 305.27265			43387.38302		69.17400		324.00000 
 43692.65567		 830.84762			42861.80805		222.66000		875.00000 
 43692.65567		 305.27265			43387.38302		69.17400		324.00000 
 43692.65567		 830.84762			42861.80805		222.66000		875.00000 
 43692.65567		 305.27265			43387.38302		69.17400		324.00000 
 43692.65567		 830.84762			42861.80805		222.66000		875.00000 
 43692.65567		 305.27265			43387.38302		69.17400		324.00000 
 43692.65567		 830.84762			42861.80805		222.66000		875.00000 
 43692.65567		 305.27265			43387.38302		69.17400		324.00000 
 43692.65567		 830.84762			42861.80805		222.66000		875.00000 
 43692.65567		 305.27265			43387.38302		69.17400		324.00000 
 43692.65567		 830.84762			42861.80805		222.66000		875.00000 
 43692.65567		 305.27265			43387.38302		69.17400		324.00000 
 43692.65567		 830.84762			42861.80805		222.66000		875.00000 
 43692.65567		 305.27265			43387.38302		69.17400		324.00000 
 43692.65567		 830.84762			42861.80805		222.66000		875.00000 
 43692.65567		 305.27265			43387.38302		69.17400		324.00000 
 43692.65567		 830.84762			42861.80805		222.66000		875.00000 
 43692.65567		 305.27265			43387.38302		69.17400		324.00000 
 43692.65567		 830.84762			42861.80805		222.66000		875.00000 
 43692.65567		 305.27265			43387.38302		69.17400		324.00000 
 43692.65567		 830.84762			42861.80805		222.66000		875.00000 
 43692.65567		 305.27265			43387.38302		69.17400		324.00000 
 43692.65567		 830.84762			42861.80805		222.66000		875.00000 
 43692.65567		 305.27265			43387.38302		69.17400		324.00000 
 43692.65567		 830.84762			42861.80805		222.66000		875.00000 
 43692.65567		 305.27265			43387.38302		69.17400		324.00000 
 43692.65567		 830.84762			42861.80805		222.66000		875.00000 
 43692.65567		 305.27265			43387.38302		69.17400		324.00000 
 43692.65567		 830.84762			42861.80805		222.66000		875.00000 
 43692.65567		 305.27265			43387.38302		69.17400		324.00000 
 43692.65567		 830.84762			42861.80805		222.66000		875.00000 
 43692.65567		 305.27265			43387.38302		69.17400		324.00000 
 43692.65567		 830.84762			42861.80805		222.66000		875.00000 
 43692.65567		 305.27265			43387.38302		69.17400		324.00000 
 43692.65567		 830.84762			42861.80805		222.66000		875.00000 
 43692.65567		 305.27265			43387.38302		69.17400		324.00000 
 43692.65567		 830.84762			42861.80805		222.66000		875.00000 
 43692.65567		 305.27265			43387.38302		69.17400		324.00000 
 43692.65567		 830.84762			42861.80805		222.66000		875.00000 
 43692.65567		 305.27265			43387.38302		69.17400		324.00000 
 43692.65567		 830.84762			42861.80805		222.66000		875.00000 
 43692.65567		 305.27265			43387.38302		69.17400		324.00000 
 43692.65567		 830.84762			42861.80805		222.66000		875.00000 
 43692.65567		 305.27265			43387.38302		69.17400		324.00000 
 43692.65567		 830.84762			42861.80805		222.66000		875.00000 
 43692.65567		 305.27265			43387.38302		69.17400		324.00000 
 43692.65567		 830.84762			42861.80805		222.66000		875.00000 
 43692.65567		 305.27265			43387.38302		69.17400		324.00000 
 43692.65567		 830.84762			42861.80805		222.66000		875.00000 
 43692.65567		 305.27265			43387.38302		69.17400		324.00000 
 43692.65567		 830.84762			42861.80805		222.66000		875.00000 
 43692.65567		 305.27265			43387.38302		69.17400		324.00000 
 43692.65567		 830.84762			42861.80805		222.66000		875.00000 
 43692.65567		 305.27265			43387.38302		69.17400		324.00000 
 43692.65567		 830.84762			42861.80805		222.66000		875.00000 
 43692.65567		 305.27265			43387.38302		69.17400		324.00000 
 43692.65567		 830.84762			42861.80805		222.66000		875.00000 
 43692.65567		 305.27265			43387.38302		69.17400		324.00000 
 43692.65567		 830.84762			42861.80805		222.66000		875.00000 
 43692.65567		 305.27265			43387.38302		69.17400		324.00000 
 43692.65567		 830.84762			42861.80805		222.66000		875.00000 
 43692.65567		 305.27265			43387.38302		69.17400		324.00000 
 43692.65567		 830.84762			42861.80805		222.66000		875.00000 
 43692.65567		 305.27265			43387.38302		69.17400		324.00000 
 43692.65567		 830.84762			42861.80805		222.66000		875.00000 
 43692.65567		 305.27265			43387.38302		69.17400		324.00000 
 43692.65567		 830.84762			42861.80805		222.66000		875.00000 
 43692.65567		 305.27265			43387.38302		69.17400		324.00000 
 43692.65567		 830.84762			42861.80805		222.66000		875.00000 
 43692.65567		 305.27265			43387.38302		69.17400		324.00000 
 43692.65567		 830.84762			42861.80805		222.66000		875.00000 
 43692.65567		 305.27265			43387.38302		69.17400		324.00000 
 43692.65567		 830.84762			42861.80805		222.66000		875.00000 
 43692.65567		 305.27265			43387.38302		69.17400		324.00000 
 43692.65567		 830.84762			42861.80805		222.66000		875.00000 
 43692.65567		 305.27265			43387.38302		69.17400		324.00000 
 43692.65567		 830.84762			42861.80805		222.66000		875.00000 
 43692.65567		 305.27265			43387.38302		69.17400		324.00000 
 43692.65567		 830.84762			42861.80805		222.66000		875.00000 
 43692.65567		 305.27265			43387.38302		69.17400		324.00000 
 43692.65567		 830.84762			42861.80805		222.66000		875.00000 
 43692.65567		 305.27265			43387.38302		69.17400		324.00000 
 43692.65567		 830.84762			42861.80805		222.66000		875.00000 
 43692.65567		 305.27265			43387.38302		69.17400		324.00000 
 43692.65567		 830.84762			42861.80805		222.66000		875.00000 
 43692.65567		 305.27265			43387.38302		69.17400		324.00000 
 43692.65567		 830.84762			42861.80805		222.66000		875.00000 
 43692.65567		 305.27265			43387.38302		69.17400		324.00000 
 43692.65567		 830.84762			42861.80805		222.66000		875.00000 
 43692.65567		 305.27265			43387.38302		69.17400		324.00000 
 43692.65567		 830.84762			42861.80805		222.66000		875.00000 
 43692.65567		 305.27265			43387.38302		69.17400		324.00000 
 43692.65567		 830.84762			42861.80805		222.66000		875.00000 
 43692.65567		 305.27265			43387.38302		69.17400		324.00000 
 43692.65567		 830.84762			42861.80805		222.66000		875.00000 
 43692.65567		 305.27265			43387.38302		69.17400		324.00000 
 43692.65567		 830.84762			42861.80805		222.66000		875.00000 
 43692.65567		 305.27265			43387.38302		69.17400		324.00000 
 43692.65567		 830.84762			42861.80805		222.66000		875.00000 
 43692.65567		 305.27265			43387.38302		69.17400		324.00000 
 43692.65567		 830.84762			42861.80805		222.66000		875.00000 
 43692.65567		 305.27265			43387.38302		69.17400		324.00000 
 43692.65567		 830.84762			42861.80805		222.66000		875.00000 
 43692.65567		 305.27265			43387.38302		69.17400		324.00000 
 43692.65567		 830.84762			42861.80805		222.66000		875.00000 
 43692.65567		 305.27265			43387.38302		69.17400		324.00000 
 43692.65567		 830.84762			42861.80805		222.66000		875.00000 
 43692.65567		 305.27265			43387.38302		69.17400		324.00000 
 43692.65567		 830.84762			42861.80805		222.66000		875.00000 
 43692.65567		 305.27265			43387.38302		69.17400		324.00000 
 43692.65567		 830.84762			42861.80805		222.66000		875.00000 
 43692.65567		 305.27265			43387.38302		69.17400		324.00000 
 43692.65567		 830.84762			42861.80805		222.66000		875.00000 
 43692.65567		 305.27265			43387.38302		69.17400		324.00000 
 43692.65567		 830.84762			42861.80805		222.66000		875.00000 
 43692.65567		 305.27265			43387.38302		69.17400		324.00000 
 43692.65567		 830.84762			42861.80805		222.66000		875.00000 
 43692.65567		 305.27265			43387.38302		69.17400		324.00000 
 43692.65567		 830.84762			42861.80805		222.66000		875.00000 
 43692.65567		 305.27265			43387.38302		69.17400		324.00000 
 43692.65567		 830.84762			42861.80805		222.66000		875.00000 
 43692.65567		 305.27265			43387.38302		69.17400		324.00000 
 43692.65567		 830.84762			42861.80805		222.66000		875.00000 
 43692.65567		 305.27265			43387.38302		69.17400		324.00000 
 43692.65567		 830.84762			42861.80805		222.66000		875.00000 
 43692.65567		 305.27265			43387.38302		69.17400		324.00000 
 43692.65567		 830.84762			42861.80805		222.66000		875.00000 
 43692.65567		 305.27265			43387.38302		69.17400		324.00000 
 43692.65567		 830.84762			42861.80805		222.66000		875.00000 
 43692.65567		 305.27265			43387.38302		69.17400		324.00000 
 43692.65567		 830.84762			42861.80805		222.66000		875.00000 
 43692.65567		 305.27265			43387.38302		69.17400		324.00000 
 43692.65567		 830.84762			42861.80805		222.66000		875.00000 
 43692.65567		 305.27265			43387.38302		69.17400		324.00000 
 43692.65567		 830.84762			42861.80805		222.66000		875.00000 
 43692.65567		 305.27265			43387.38302		69.17400		324.00000 
 43692.65567		 830.84762			42861.80805		222.66000		875.00000 
 43692.65567		 305.27265			43387.38302		69.17400		324.00000 
 43692.65567		 830.84762			42861.80805		222.66000		875.00000 
 43692.65567		 305.27265			43387.38302		69.17400		324.00000 
 43692.65567		 830.84762			42861.80805		222.66000		875.00000 
 43692.65567		 305.27265			43387.38302		69.17400		324.00000 
 43692.65567		 830.84762			42861.80805		222.66000		875.00000 
 43692.65567		 305.27265			43387.38302		69.17400		324.00000 
 43692.65567		 830.84762			42861.80805		222.66000		875.00000 
 43692.65567		 305.27265			43387.38302		69.17400		324.00000 
 43692.65567		 830.84762			42861.80805		222.66000		875.00000 
 43692.65567		 305.27265			43387.38302		69.17400		324.00000 
 43692.65567		 830.84762			42861.80805		222.66000		875.00000 
 43692.65567		 305.27265			43387.38302		69.17400		324.00000 
 43692.65567		 830.84762			42861.80805		222.66000		875.00000 
 43692.65567		 305.27265			43387.38302		69.17400		324.00000 
 43692.65567		 830.84762			42861.80805		222.66000		875.00000 
 43692.65567		 305.27265			43387.38302		69.17400		324.00000 
 43692.65567		 830.84762			42861.80805		222.66000		875.00000 
 43692.65567		 305.27265			43387.38302		69.17400		324.00000 
 43692.65567		 830.84762			42861.80805		222.66000		875.00000 
 43692.65567		 305.27265			43387.38302		69.17400		324.00000 
 43692.65567		 830.84762			42861.80805		222.66000		875.00000 
 43692.65567		 305.27265			43387.38302		69.17400		324.00000 
 43692.65567		 830.84762			42861.80805		222.66000		875.00000 
 43692.65567		 305.27265			43387.38302		69.17400		324.00000 
 43692.65567		 830.84762			42861.80805		222.66000		875.00000 
 43692.65567		 305.27265			43387.38302		69.17400		324.00000 
 43692.65567		 830.84762			42861.80805		222.66000		875.00000 
 43692.65567		 305.27265			43387.38302		69.17400		324.00000 
 43692.65567		 830.84762			42861.80805		222.66000		875.00000 
 43692.65567		 305.27265			43387.38302		69.17400		324.00000 
 43692.65567		 830.84762			42861.80805		222.66000		875.00000 
 43692.65567		 305.27265			43387.38302		69.17400		324.00000 
 43692.65567		 830.84762			42861.80805		222.66000		875.00000 
 43692.65567		 305.27265			43387.38302		69.17400		324.00000 
 43692.65567		 830.84762			42861.80805		222.66000		875.00000 
 43692.65567		 305.27265			43387.38302		69.17400		324.00000 
 43692.65567		 830.84762			42861.80805		222.66000		875.00000 
 43692.65567		 305.27265			43387.38302		69.17400		324.00000 
 43692.65567		 830.84762			42861.80805		222.66000		875.00000 
 43692.65567		 305.27265			43387.38302		69.17400		324.00000 
 43692.65567		 830.84762			42861.80805		222.66000		875.00000 
 43692.65567		 305.27265			43387.38302		69.17400		324.00000 
 43692.65567		 830.84762			42861.80805		222.66000		875.00000 
 43692.65567		 305.27265			43387.38302		69.17400		324.00000 
 43692.65567		 830.84762			42861.80805		222.66000		875.00000 
 43692.65567		 305.27265			43387.38302		69.17400		324.00000 
 43692.65567		 830.84762			42861.80805		222.66000		875.00000 
 43692.65567		 305.27265			43387.38302		69.17400		324.00000 
 43692.65567		 830.84762			42861.80805		222.66000		875.00000 
 43692.65567		 305.27265			43387.38302		69.17400		324.00000 
 43692.65567		 830.84762			42861.80805		222.66000		875.00000 
 43692.65567		 305.27265			43387.38302		69.17400		324.00000 
 43692.65567		 830.84762			42861.80805		222.66000		875.00000 
 43692.65567		 305.27265			43387.38302		69.17400		324.00000 
 43692.65567		 830.84762			42861.80805		222.66000		875.00000 
 43692.65567		 305.27265			43387.38302		69.17400		324.00000 
 43692.65567		 830.84762			42861.80805		222.66000		875.00000 
 43692.65567		 305.27265			43387.38302		69.17400		324.00000 
 43692.65567		 830.84762			42861.80805		222.66000		875.00000 
 43692.65567		 305.27265			43387.38302		69.17400		324.00000 
 43692.65567		 830.84762			42861.80805		222.66000		875.00000 
 43692.65567		 305.27265			43387.38302		69.17400		324.00000 
 43692.65567		 830.84762			42861.80805		222.66000		875.00000 
 43692.65567		 305.27265			43387.38302		69.17400		324.00000 
 43692.65567		 830.84762			42861.80805		222.66000		875.00000 
 43692.65567		 305.27265			43387.38302		69.17400		324.00000 
 43692.65567		 830.84762			42861.80805		222.66000		875.00000 
 43692.65567		 305.27265			43387.38302		69.17400		324.00000 
 43692.65567		 830.84762			42861.80805		222.66000		875.00000 
 43692.65567		 305.27265			43387.38302		69.17400		324.00000 
 43692.65567		 830.84762			42861.80805		222.66000		875.00000 
 43692.65567		 305.27265			43387.38302		69.17400		324.00000 
 43692.65567		 830.84762			42861.80805		222.66000		875.00000 
 43692.65567		 305.27265			43387.38302		69.17400		324.00000 
 43692.65567		 830.84762			42861.80805		222.66000		875.00000 
 43692.65567		 305.27265			43387.38302		69.17400		324.00000 
 43692.65567		 830.84762			42861.80805		222.66000		875.00000 
 43692.65567		 305.27265			43387.38302		69.17400		324.00000 
 43692.65567		 830.84762			42861.80805		222.66000		875.00000 
 43692.65567		 305.27265			43387.38302		69.17400		324.00000 
 43692.65567		 830.84762			42861.80805		222.66000		875.00000 
 43692.65567		 305.27265			43387.38302		69.17400		324.00000 
 43692.65567		 830.84762			42861.80805		222.66000		875.00000 
 43692.65567		 305.27265			43387.38302		69.17400		324.00000 
 43692.65567		 830.84762			42861.80805		222.66000		875.00000 
 43692.65567		 305.27265			43387.38302		69.17400		324.00000 
 43692.65567		 830.84762			42861.80805		222.66000		875.00000 
 43692.65567		 305.27265			43387.38302		69.17400		324.00000 
 43692.65567		 830.84762			42861.80805		222.66000		875.00000 
 43692.65567		 305.27265			43387.38302		69.17400		324.00000 
 43692.65567		 830.84762			42861.80805		222.66000		875.00000 
 43692.65567		 305.27265			43387.38302		69.17400		324.00000 
 43692.65567		 830.84762			42861.80805		222.66000		875.00000 
 43692.65567		 305.27265			43387.38302		69.17400		324.00000 
 43692.65567		 830.84762			42861.80805		222.66000		875.00000 
 43692.65567		 305.27265			43387.38302		69.17400		324.00000 
 43692.65567		 830.84762			42861.80805		222.66000		875.00000 
 43692.65567		 305.27265			43387.38302		69.17400		324.00000 
 43692.65567		 830.84762			42861.80805		222.66000		875.00000 
 43692.65567		 305.27265			43387.38302		69.17400		324.00000 
 43692.65567		 830.84762			42861.80805		222.66000		875.00000 
 43692.65567		 305.27265			43387.38302		69.17400		324.00000 
 43692.65567		 830.84762			42861.80805		222.66000		875.00000 
 43692.65567		 305.27265			43387.38302		69.17400		324.00000 
 43692.65567		 830.84762			42861.80805		222.66000		875.00000 
 43692.65567		 305.27265			43387.38302		69.17400		324.00000 
 43692.65567		 830.84762			42861.80805		222.66000		875.00000 
 43692.65567		 305.27265			43387.38302		69.17400		324.00000 
 43692.65567		 830.84762			42861.80805		222.66000		875.00000 
 43692.65567		 305.27265			43387.38302		69.17400		324.00000 
 43692.65567		 830.84762			42861.80805		222.66000		875.00000 
 43692.65567		 305.27265			43387.38302		69.17400		324.00000 
 43692.65567		 830.84762			42861.80805		222.66000		875.00000 
 43692.65567		 305.27265			43387.38302		69.17400		324.00000 
 43692.65567		 830.84762			42861.80805		222.66000		875.00000 
 43692.65567		 305.27265			43387.38302		69.17400		324.00000 
 43692.65567		 830.84762			42861.80805		222.66000		875.00000 
 43692.65567		 305.27265			43387.38302		69.17400		324.00000 
 43692.65567		 830.84762			42861.80805		222.66000		875.00000 
 43692.65567		 305.27265			43387.38302		69.17400		324.00000 
 43692.65567		 830.84762			42861.80805		222.66000		875.00000 
 43692.65567		 305.27265			43387.38302		69.17400		324.00000 
 43692.65567		 830.84762			42861.80805		222.66000		875.00000 
 43692.65567		 305.27265			43387.38302		69.17400		324.00000 
 43692.65567		 830.84762			42861.80805		222.66000		875.00000 
 43692.65567		 305.27265			43387.38302		69.17400		324.00000 
 43692.65567		 830.84762			42861.80805		222.66000		875.00000 
 43692.65567		 305.27265			43387.38302		69.17400		324.00000 
 43692.65567		 830.84762			42861.80805		222.66000		875.00000 
 43692.65567		 305.27265			43387.38302		69.17400		324.00000 
 43692.65567		 830.84762			42861.80805		222.66000		875.00000 
 43692.65567		 305.27265			43387.38302		69.17400		324.00000 
 43692.65567		 830.84762			42861.80805		222.66000		875.00000 
 43692.65567		 305.27265			43387.38302		69.17400		324.00000 
 43692.65567		 830.84762			42861.80805		222.66000		875.00000 
 43692.65567		 305.27265			43387.38302		69.17400		324.00000 
 43692.65567		 830.84762			42861.80805		222.66000		875.00000 
 43692.65567		 305.27265			43387.38302		69.17400		324.00000 
 43692.65567		 830.84762			42861.80805		222.66000		875.00000 
 43692.65567		 305.27265			43387.38302		69.17400		324.00000 
 43692.65567		 830.84762			42861.80805		222.66000		875.00000 
 43692.65567		 305.27265			43387.38302		69.17400		324.00000 
 43692.65567		 830.84762			42861.80805		222.66000		875.00000 
 43692.65567		 305.27265			43387.38302		69.17400		324.00000 
 43692.65567		 830.84762			42861.80805		222.66000		875.00000 
 43692.65567		 305.27265			43387.38302		69.17400		324.00000 
 43692.65567		 830.84762			42861.80805		222.66000		875.00000 
 43692.65567		 305.27265			43387.38302		69.17400		324.00000 
 43692.65567		 830.84762			42861.80805		222.66000		875.00000 
 43692.65567		 305.27265			43387.38302		69.17400		324.00000 
 43692.65567		 830.84762			42861.80805		222.66000		875.00000 
 43692.65567		 305.27265			43387.38302		69.17400		324.00000 
 43692.65567		 830.84762			42861.80805		222.66000		875.00000 
 43692.65567		 305.27265			43387.38302		69.17400		324.00000 
 43692.65567		 830.84762			42861.80805		222.66000		875.00000 
 43692.65567		 305.27265			43387.38302		69.17400		324.00000 
 43692.65567		 830.84762			42861.80805		222.66000		875.00000 
 43692.65567		 305.27265			43387.38302		69.17400		324.00000 
 43692.65567		 830.84762			42861.80805		222.66000		875.00000 
 43692.65567		 305.27265			43387.38302		69.17400		324.00000 
 43692.65567		 830.84762			42861.80805		222.66000		875.00000 
 43692.65567		 305.27265			43387.38302		69.17400		324.00000 
 43692.65567		 830.84762			42861.80805		222.66000		875.00000 
 43692.65567		 305.27265			43387.38302		69.17400		324.00000 
 43692.65567		 830.84762			42861.80805		222.66000		875.00000 
 43692.65567		 305.27265			43387.38302		69.17400		324.00000 
 43692.65567		 830.84762			42861.80805		222.66000		875.00000 
 43692.65567		 305.27265			43387.38302		69.17400		324.00000 
 43692.65567		 830.84762			42861.80805		222.66000		875.00000 
 43692.65567		 305.27265			43387.38302		69.17400		324.00000 
 43692.65567		 830.84762			42861.80805		222.66000		875.00000 
 43692.65567		 305.27265			43387.38302		69.17400		324.00000 
 43692.65567		 830.84762			42861.80805		222.66000		875.00000 
 43692.65567		 305.27265			43387.38302		69.17400		324.00000 
 43692.65567		 830.84762			42861.80805		222.66000		875.00000 
 43692.65567		 305.27265			43387.38302		69.17400		324.00000 
 43692.65567		 830.84762			42861.80805		222.66000		875.00000 
 43692.65567		 305.27265			43387.38302		69.17400		324.00000 
 43692.65567		 732.98852			42959.66715		222.66000		875.00000 
 43692.65567		 305.27265			43387.38302		69.17400		324.00000 
 43692.65567		 732.98852			42959.66715		222.66000		875.00000 
 43692.65567		 305.27265			43387.38302		69.17400		324.00000 
 43692.65567		 635.12942			43057.52625		222.66000		875.00000 
 43692.65567		 305.27265			43387.38302		69.17400		324.00000 
 43692.65567		 537.27032			43155.38535		222.66000		875.00000 
 43692.65567		 305.27265			43387.38302		69.17400		324.00000 
 43692.65567		 537.27032			43155.38535		222.66000		875.00000 
 43692.65567		 305.27265			43387.38302		69.17400		324.00000 
 43692.65567		 537.27032			43155.38535		222.66000		875.00000 
 43692.65567		 305.27265			43387.38302		69.17400		324.00000 
 43692.65567		 537.27032			43155.38535		222.66000		875.00000 
 43692.65567		 305.27265			43387.38302		69.17400		324.00000 
 43692.65567		 537.27032			43155.38535		222.66000		875.00000 
 43692.65567		 305.27265			43387.38302		69.17400		324.00000 
 43692.65567		 537.27032			43155.38535		222.66000		875.00000 
 43692.65567		 305.27265			43387.38302		69.17400		324.00000 
 43692.65567		 537.27032			43155.38535		222.66000		875.00000 
 43692.65567		 305.27265			43387.38302		69.17400		324.00000 
 43692.65567		 537.27032			43155.38535		222.66000		875.00000 
 43692.65567		 305.27265			43387.38302		69.17400		324.00000 
 43692.65567		 537.27032			43155.38535		222.66000		875.00000 
 43692.65567		 305.27265			43387.38302		69.17400		324.00000 
 43692.65567		 537.27032			43155.38535		222.66000		875.00000 
 43692.65567		 305.27265			43387.38302		69.17400		324.00000 
 43692.65567		 537.27032			43155.38535		222.66000		875.00000 
 43692.65567		 305.27265			43387.38302		69.17400		324.00000 
 43692.65567		 537.27032			43155.38535		222.66000		875.00000 
 43692.65567		 305.27265			43387.38302		69.17400		324.00000 
 43692.65567		 537.27032			43155.38535		222.66000		875.00000 
 43692.65567		 305.27265			43387.38302		69.17400		324.00000 
 43692.65567		 537.27032			43155.38535		222.66000		875.00000 
 43692.65567		 305.27265			43387.38302		69.17400		324.00000 
 43692.65567		 537.27032			43155.38535		222.66000		875.00000 
 43692.65567		 305.27265			43387.38302		69.17400		324.00000 
 43692.65567		 537.27032			43155.38535		222.66000		875.00000 
 43692.65567		 305.27265			43387.38302		69.17400		324.00000 
 43692.65567		 537.27032			43155.38535		222.66000		875.00000 
 43692.65567		 305.27265			43387.38302		69.17400		324.00000 
 43692.65567		 537.27032			43155.38535		222.66000		875.00000 
 43692.65567		 305.27265			43387.38302		69.17400		324.00000 
 43692.65567		 537.27032			43155.38535		222.66000		875.00000 
 43692.65567		 305.27265			43387.38302		69.17400		324.00000 
 43692.65567		 537.27032			43155.38535		222.66000		875.00000 
 43692.65567		 305.27265			43387.38302		69.17400		324.00000 
 43692.65567		 529.63254			43163.02313		222.66000		875.00000 
 43692.65567		 305.27265			43387.38302		69.17400		324.00000 
 43692.65567		 525.81365			43166.84203		222.66000		875.00000 
 43692.65567		 305.27265			43387.38302		69.17400		324.00000 
 43692.65567		 525.81365			43166.84203		222.66000		875.00000 
 43692.65567		 261.35540			43431.30027		68.72400		324.00000 
 43692.65567		 261.35540			43431.30027		183.63800		875.00000 
 43692.65567		 261.35540			43431.30027		68.72400		324.00000 
