Memory Total (MiB) 	 Memory Used (MiB) 	    Memory Free (MiB) 	 Power Drawed (W) 	 Clocks (Mhz) 	 
 43692.65567		 261.35540			43431.30027		154.18000		875.00000 
 43692.65567		 261.35540			43431.30027		70.74000		324.00000 
 43692.65567		 261.35540			43431.30027		154.18000		875.00000 
 43692.65567		 261.35540			43431.30027		70.74000		324.00000 
 43692.65567		 261.35540			43431.30027		154.18000		875.00000 
 43692.65567		 261.35540			43431.30027		70.74000		324.00000 
 43692.65567		 261.35540			43431.30027		154.18000		875.00000 
 43692.65567		 261.35540			43431.30027		70.74000		324.00000 
 43692.65567		 261.35540			43431.30027		154.18000		875.00000 
 43692.65567		 261.35540			43431.30027		70.74000		324.00000 
 43692.65567		 261.35540			43431.30027		154.18000		875.00000 
 43692.65567		 261.35540			43431.30027		70.74000		324.00000 
 43692.65567		 261.35540			43431.30027		154.18000		875.00000 
 43692.65567		 261.35540			43431.30027		70.74000		324.00000 
 43692.65567		 261.35540			43431.30027		154.18000		875.00000 
 43692.65567		 261.35540			43431.30027		70.74000		324.00000 
 43692.65567		 261.35540			43431.30027		154.18000		875.00000 
 43692.65567		 261.35540			43431.30027		70.74000		324.00000 
 43692.65567		 261.35540			43431.30027		154.18000		875.00000 
 43692.65567		 261.35540			43431.30027		70.74000		324.00000 
 43692.65567		 261.35540			43431.30027		154.18000		875.00000 
 43692.65567		 261.35540			43431.30027		70.74000		324.00000 
 43692.65567		 261.35540			43431.30027		154.18000		875.00000 
 43692.65567		 261.35540			43431.30027		70.74000		324.00000 
 43692.65567		 261.35540			43431.30027		154.18000		875.00000 
 43692.65567		 261.35540			43431.30027		70.74000		324.00000 
 43692.65567		 261.35540			43431.30027		154.18000		875.00000 
 43692.65567		 261.35540			43431.30027		70.74000		324.00000 
 43692.65567		 261.35540			43431.30027		154.18000		875.00000 
 43692.65567		 261.35540			43431.30027		70.74000		324.00000 
 43692.65567		 261.35540			43431.30027		154.18000		875.00000 
 43692.65567		 261.35540			43431.30027		70.74000		324.00000 
 43692.65567		 261.35540			43431.30027		154.18000		875.00000 
 43692.65567		 261.35540			43431.30027		70.74000		324.00000 
 43692.65567		 261.35540			43431.30027		154.18000		875.00000 
 43692.65567		 261.35540			43431.30027		70.74000		324.00000 
 43692.65567		 261.35540			43431.30027		154.18000		875.00000 
 43692.65567		 261.35540			43431.30027		70.74000		324.00000 
 43692.65567		 265.17429			43427.48138		154.18000		875.00000 
 43692.65567		 261.35540			43431.30027		70.74000		324.00000 
 43692.65567		 265.17429			43427.48138		154.18000		875.00000 
 43692.65567		 261.35540			43431.30027		70.74000		324.00000 
 43692.65567		 272.81207			43419.84360		154.18000		875.00000 
 43692.65567		 261.35540			43431.30027		70.74000		324.00000 
 43692.65567		 272.81207			43419.84360		154.18000		875.00000 
 43692.65567		 261.35540			43431.30027		70.74000		324.00000 
 43692.65567		 272.81207			43419.84360		154.18000		875.00000 
 43692.65567		 265.17429			43427.48138		70.74000		324.00000 
 43692.65567		 272.81207			43419.84360		154.18000		875.00000 
 43692.65567		 265.17429			43427.48138		70.74000		324.00000 
 43692.65567		 272.81207			43419.84360		154.18000		875.00000 
 43692.65567		 272.81207			43419.84360		70.74000		324.00000 
 43692.65567		 272.81207			43419.84360		154.18000		875.00000 
 43692.65567		 272.81207			43419.84360		70.74000		324.00000 
 43692.65567		 272.81207			43419.84360		154.18000		875.00000 
 43692.65567		 272.81207			43419.84360		70.74000		324.00000 
 43692.65567		 272.81207			43419.84360		154.18000		875.00000 
 43692.65567		 272.81207			43419.84360		70.74000		324.00000 
 43692.65567		 305.27265			43387.38302		154.18000		875.00000 
 43692.65567		 305.27265			43387.38302		70.74000		324.00000 
 43692.65567		 305.27265			43387.38302		154.18000		875.00000 
 43692.65567		 305.27265			43387.38302		70.74000		324.00000 
 43692.65567		 305.27265			43387.38302		154.18000		875.00000 
 43692.65567		 305.27265			43387.38302		70.74000		324.00000 
 43692.65567		 305.27265			43387.38302		154.18000		875.00000 
 43692.65567		 305.27265			43387.38302		70.74000		324.00000 
 43692.65567		 305.27265			43387.38302		154.18000		875.00000 
 43692.65567		 305.27265			43387.38302		70.74000		324.00000 
 43692.65567		 309.56891			43383.08677		154.18000		875.00000 
 43692.65567		 305.27265			43387.38302		70.74000		324.00000 
 43692.65567		 311.00099			43381.65468		140.43600		875.00000 
 43692.65567		 305.27265			43387.38302		70.74000		324.00000 
 43692.65567		 311.00099			43381.65468		140.43600		875.00000 
 43692.65567		 305.27265			43387.38302		70.74000		324.00000 
 43692.65567		 311.00099			43381.65468		140.43600		875.00000 
 43692.65567		 305.27265			43387.38302		70.74000		324.00000 
 43692.65567		 311.00099			43381.65468		140.43600		875.00000 
 43692.65567		 305.27265			43387.38302		70.74000		324.00000 
 43692.65567		 311.00099			43381.65468		140.43600		875.00000 
 43692.65567		 305.27265			43387.38302		70.74000		324.00000 
 43692.65567		 311.00099			43381.65468		140.43600		875.00000 
 43692.65567		 305.27265			43387.38302		70.74000		324.00000 
 43692.65567		 311.00099			43381.65468		140.43600		875.00000 
 43692.65567		 305.27265			43387.38302		70.74000		324.00000 
 43692.65567		 311.00099			43381.65468		140.43600		875.00000 
 43692.65567		 305.27265			43387.38302		70.74000		324.00000 
 43692.65567		 311.00099			43381.65468		140.43600		875.00000 
 43692.65567		 305.27265			43387.38302		70.74000		324.00000 
 43692.65567		 311.00099			43381.65468		140.43600		875.00000 
 43692.65567		 305.27265			43387.38302		70.74000		324.00000 
 43692.65567		 311.00099			43381.65468		140.43600		875.00000 
 43692.65567		 305.27265			43387.38302		70.74000		324.00000 
 43692.65567		 311.00099			43381.65468		140.43600		875.00000 
 43692.65567		 305.27265			43387.38302		70.74000		324.00000 
 43692.65567		 311.00099			43381.65468		140.43600		875.00000 
 43692.65567		 305.27265			43387.38302		70.74000		324.00000 
 43692.65567		 311.00099			43381.65468		140.43600		875.00000 
 43692.65567		 305.27265			43387.38302		70.74000		324.00000 
 43692.65567		 311.00099			43381.65468		140.43600		875.00000 
 43692.65567		 305.27265			43387.38302		70.74000		324.00000 
 43692.65567		 311.00099			43381.65468		140.43600		875.00000 
 43692.65567		 305.27265			43387.38302		70.74000		324.00000 
 43692.65567		 311.00099			43381.65468		140.43600		875.00000 
 43692.65567		 305.27265			43387.38302		70.74000		324.00000 
 43692.65567		 311.00099			43381.65468		140.43600		875.00000 
 43692.65567		 305.27265			43387.38302		70.74000		324.00000 
 43692.65567		 311.00099			43381.65468		140.43600		875.00000 
 43692.65567		 305.27265			43387.38302		70.74000		324.00000 
 43692.65567		 311.00099			43381.65468		140.43600		875.00000 
 43692.65567		 305.27265			43387.38302		70.74000		324.00000 
 43692.65567		 311.00099			43381.65468		140.43600		875.00000 
 43692.65567		 305.27265			43387.38302		70.74000		324.00000 
 43692.65567		 311.00099			43381.65468		140.43600		875.00000 
 43692.65567		 305.27265			43387.38302		70.74000		324.00000 
 43692.65567		 311.00099			43381.65468		140.43600		875.00000 
 43692.65567		 305.27265			43387.38302		66.22000		324.00000 
 43692.65567		 311.00099			43381.65468		140.43600		875.00000 
 43692.65567		 305.27265			43387.38302		66.22000		324.00000 
 43692.65567		 311.00099			43381.65468		140.43600		875.00000 
 43692.65567		 305.27265			43387.38302		66.22000		324.00000 
 43692.65567		 311.00099			43381.65468		140.43600		875.00000 
 43692.65567		 305.27265			43387.38302		66.22000		324.00000 
 43692.65567		 311.00099			43381.65468		140.43600		875.00000 
 43692.65567		 305.27265			43387.38302		66.22000		324.00000 
 43692.65567		 311.00099			43381.65468		140.43600		875.00000 
 43692.65567		 305.27265			43387.38302		66.22000		324.00000 
 43692.65567		 311.00099			43381.65468		140.43600		875.00000 
 43692.65567		 305.27265			43387.38302		66.22000		324.00000 
 43692.65567		 311.00099			43381.65468		140.43600		875.00000 
 43692.65567		 305.27265			43387.38302		66.22000		324.00000 
 43692.65567		 311.00099			43381.65468		135.62600		875.00000 
 43692.65567		 305.27265			43387.38302		66.22000		324.00000 
 43692.65567		 311.00099			43381.65468		135.62600		875.00000 
 43692.65567		 305.27265			43387.38302		66.22000		324.00000 
 43692.65567		 311.00099			43381.65468		135.62600		875.00000 
 43692.65567		 305.27265			43387.38302		66.22000		324.00000 
 43692.65567		 311.00099			43381.65468		135.62600		875.00000 
 43692.65567		 305.27265			43387.38302		66.22000		324.00000 
 43692.65567		 311.00099			43381.65468		135.62600		875.00000 
 43692.65567		 305.27265			43387.38302		66.22000		324.00000 
 43692.65567		 311.00099			43381.65468		135.62600		875.00000 
 43692.65567		 305.27265			43387.38302		66.22000		324.00000 
 43692.65567		 311.00099			43381.65468		135.62600		875.00000 
 43692.65567		 305.27265			43387.38302		66.22000		324.00000 
 43692.65567		 311.00099			43381.65468		135.62600		875.00000 
 43692.65567		 305.27265			43387.38302		66.22000		324.00000 
 43692.65567		 311.00099			43381.65468		135.62600		875.00000 
 43692.65567		 305.27265			43387.38302		66.22000		324.00000 
 43692.65567		 311.00099			43381.65468		135.62600		875.00000 
 43692.65567		 305.27265			43387.38302		66.22000		324.00000 
 43692.65567		 311.00099			43381.65468		135.62600		875.00000 
 43692.65567		 305.27265			43387.38302		66.22000		324.00000 
 43692.65567		 311.00099			43381.65468		135.62600		875.00000 
 43692.65567		 305.27265			43387.38302		66.22000		324.00000 
 43692.65567		 311.00099			43381.65468		135.62600		875.00000 
 43692.65567		 305.27265			43387.38302		66.22000		324.00000 
 43692.65567		 311.00099			43381.65468		135.62600		875.00000 
 43692.65567		 305.27265			43387.38302		66.22000		324.00000 
 43692.65567		 311.00099			43381.65468		135.62600		875.00000 
 43692.65567		 305.27265			43387.38302		66.22000		324.00000 
 43692.65567		 311.00099			43381.65468		135.62600		875.00000 
 43692.65567		 305.27265			43387.38302		66.22000		324.00000 
 43692.65567		 311.00099			43381.65468		135.62600		875.00000 
 43692.65567		 305.27265			43387.38302		66.22000		324.00000 
 43692.65567		 311.00099			43381.65468		135.62600		875.00000 
 43692.65567		 305.27265			43387.38302		66.22000		324.00000 
 43692.65567		 311.00099			43381.65468		135.62600		875.00000 
 43692.65567		 305.27265			43387.38302		66.22000		324.00000 
 43692.65567		 311.00099			43381.65468		135.62600		875.00000 
 43692.65567		 305.27265			43387.38302		66.22000		324.00000 
 43692.65567		 311.00099			43381.65468		135.62600		875.00000 
 43692.65567		 305.27265			43387.38302		66.22000		324.00000 
 43692.65567		 314.81988			43377.83579		135.62600		875.00000 
 43692.65567		 305.27265			43387.38302		66.22000		324.00000 
 43692.65567		 314.81988			43377.83579		135.62600		875.00000 
 43692.65567		 305.27265			43387.38302		66.22000		324.00000 
 43692.65567		 314.81988			43377.83579		135.62600		875.00000 
 43692.65567		 305.27265			43387.38302		66.22000		324.00000 
 43692.65567		 318.63877			43374.01690		135.62600		875.00000 
 43692.65567		 305.27265			43387.38302		66.22000		324.00000 
 43692.65567		 322.45767			43370.19801		135.62600		875.00000 
 43692.65567		 305.27265			43387.38302		66.22000		324.00000 
 43692.65567		 326.27656			43366.37912		135.62600		875.00000 
 43692.65567		 305.27265			43387.38302		66.22000		324.00000 
 43692.65567		 326.27656			43366.37912		135.62600		875.00000 
 43692.65567		 305.27265			43387.38302		66.22000		324.00000 
 43692.65567		 326.27656			43366.37912		135.62600		875.00000 
 43692.65567		 305.27265			43387.38302		66.22000		324.00000 
 43692.65567		 537.27032			43155.38535		135.62600		875.00000 
 43692.65567		 305.27265			43387.38302		66.22000		324.00000 
 43692.65567		 668.54472			43024.11095		135.62600		875.00000 
 43692.65567		 305.27265			43387.38302		66.22000		324.00000 
 43692.65567		 931.09353			42761.56215		135.62600		875.00000 
 43692.65567		 305.27265			43387.38302		66.22000		324.00000 
 43692.65567		 931.09353			42761.56215		135.62600		875.00000 
 43692.65567		 305.27265			43387.38302		66.22000		324.00000 
 43692.65567		 931.09353			42761.56215		135.62600		875.00000 
 43692.65567		 305.27265			43387.38302		66.22000		324.00000 
 43692.65567		 931.09353			42761.56215		135.62600		875.00000 
 43692.65567		 305.27265			43387.38302		66.22000		324.00000 
 43692.65567		 931.09353			42761.56215		139.18000		875.00000 
 43692.65567		 305.27265			43387.38302		66.22000		324.00000 
 43692.65567		 931.09353			42761.56215		139.18000		875.00000 
 43692.65567		 305.27265			43387.38302		66.22000		324.00000 
 43692.65567		 931.09353			42761.56215		139.18000		875.00000 
 43692.65567		 305.27265			43387.38302		66.22000		324.00000 
 43692.65567		 931.09353			42761.56215		139.18000		875.00000 
 43692.65567		 305.27265			43387.38302		66.22000		324.00000 
 43692.65567		 931.09353			42761.56215		139.18000		875.00000 
 43692.65567		 305.27265			43387.38302		66.22000		324.00000 
 43692.65567		 931.09353			42761.56215		139.18000		875.00000 
 43692.65567		 305.27265			43387.38302		66.22000		324.00000 
 43692.65567		 931.09353			42761.56215		139.18000		875.00000 
 43692.65567		 305.27265			43387.38302		66.22000		324.00000 
 43692.65567		 931.09353			42761.56215		139.18000		875.00000 
 43692.65567		 305.27265			43387.38302		66.22000		324.00000 
 43692.65567		 931.09353			42761.56215		139.18000		875.00000 
 43692.65567		 305.27265			43387.38302		66.22000		324.00000 
 43692.65567		 931.09353			42761.56215		139.18000		875.00000 
 43692.65567		 305.27265			43387.38302		66.22000		324.00000 
 43692.65567		 931.09353			42761.56215		139.18000		875.00000 
 43692.65567		 305.27265			43387.38302		66.22000		324.00000 
 43692.65567		 931.09353			42761.56215		139.18000		875.00000 
 43692.65567		 305.27265			43387.38302		66.22000		324.00000 
 43692.65567		 931.09353			42761.56215		139.18000		875.00000 
 43692.65567		 305.27265			43387.38302		66.22000		324.00000 
 43692.65567		 931.09353			42761.56215		139.18000		875.00000 
 43692.65567		 305.27265			43387.38302		66.22000		324.00000 
 43692.65567		 931.09353			42761.56215		139.18000		875.00000 
 43692.65567		 305.27265			43387.38302		66.22000		324.00000 
 43692.65567		 931.09353			42761.56215		139.18000		875.00000 
 43692.65567		 305.27265			43387.38302		66.22000		324.00000 
 43692.65567		 931.09353			42761.56215		139.18000		875.00000 
 43692.65567		 305.27265			43387.38302		66.22000		324.00000 
 43692.65567		 931.09353			42761.56215		139.18000		875.00000 
 43692.65567		 305.27265			43387.38302		66.22000		324.00000 
 43692.65567		 931.09353			42761.56215		139.18000		875.00000 
 43692.65567		 305.27265			43387.38302		66.22000		324.00000 
 43692.65567		 931.09353			42761.56215		139.18000		875.00000 
 43692.65567		 305.27265			43387.38302		66.22000		324.00000 
 43692.65567		 931.09353			42761.56215		139.18000		875.00000 
 43692.65567		 305.27265			43387.38302		66.22000		324.00000 
 43692.65567		 931.09353			42761.56215		139.18000		875.00000 
 43692.65567		 305.27265			43387.38302		66.22000		324.00000 
 43692.65567		 931.09353			42761.56215		139.18000		875.00000 
 43692.65567		 305.27265			43387.38302		66.22000		324.00000 
 43692.65567		 931.09353			42761.56215		139.18000		875.00000 
 43692.65567		 305.27265			43387.38302		66.22000		324.00000 
 43692.65567		 931.09353			42761.56215		139.18000		875.00000 
 43692.65567		 305.27265			43387.38302		66.22000		324.00000 
 43692.65567		 931.09353			42761.56215		139.18000		875.00000 
 43692.65567		 305.27265			43387.38302		66.22000		324.00000 
 43692.65567		 931.09353			42761.56215		139.18000		875.00000 
 43692.65567		 305.27265			43387.38302		66.22000		324.00000 
 43692.65567		 931.09353			42761.56215		139.18000		875.00000 
 43692.65567		 305.27265			43387.38302		66.22000		324.00000 
 43692.65567		 931.09353			42761.56215		139.18000		875.00000 
 43692.65567		 305.27265			43387.38302		66.22000		324.00000 
 43692.65567		 931.09353			42761.56215		139.18000		875.00000 
 43692.65567		 305.27265			43387.38302		66.22000		324.00000 
 43692.65567		 931.09353			42761.56215		139.18000		875.00000 
 43692.65567		 305.27265			43387.38302		66.22000		324.00000 
 43692.65567		 931.09353			42761.56215		139.18000		875.00000 
 43692.65567		 305.27265			43387.38302		66.22000		324.00000 
 43692.65567		 931.09353			42761.56215		139.18000		875.00000 
 43692.65567		 305.27265			43387.38302		66.22000		324.00000 
 43692.65567		 931.09353			42761.56215		139.18000		875.00000 
 43692.65567		 305.27265			43387.38302		66.22000		324.00000 
 43692.65567		 931.09353			42761.56215		139.18000		875.00000 
 43692.65567		 305.27265			43387.38302		66.22000		324.00000 
 43692.65567		 931.09353			42761.56215		139.18000		875.00000 
 43692.65567		 305.27265			43387.38302		66.22000		324.00000 
 43692.65567		 931.09353			42761.56215		139.18000		875.00000 
 43692.65567		 305.27265			43387.38302		66.22000		324.00000 
 43692.65567		 931.09353			42761.56215		139.18000		875.00000 
 43692.65567		 305.27265			43387.38302		66.22000		324.00000 
 43692.65567		 931.09353			42761.56215		139.18000		875.00000 
 43692.65567		 305.27265			43387.38302		66.22000		324.00000 
 43692.65567		 931.09353			42761.56215		139.18000		875.00000 
 43692.65567		 305.27265			43387.38302		66.22000		324.00000 
 43692.65567		 931.09353			42761.56215		139.18000		875.00000 
 43692.65567		 305.27265			43387.38302		66.22000		324.00000 
 43692.65567		 931.09353			42761.56215		139.18000		875.00000 
 43692.65567		 305.27265			43387.38302		66.22000		324.00000 
 43692.65567		 931.09353			42761.56215		139.18000		875.00000 
 43692.65567		 305.27265			43387.38302		66.22000		324.00000 
 43692.65567		 931.09353			42761.56215		139.18000		875.00000 
 43692.65567		 305.27265			43387.38302		66.22000		324.00000 
 43692.65567		 931.09353			42761.56215		139.18000		875.00000 
 43692.65567		 305.27265			43387.38302		66.22000		324.00000 
 43692.65567		 931.09353			42761.56215		139.18000		875.00000 
 43692.65567		 305.27265			43387.38302		66.22000		324.00000 
 43692.65567		 931.09353			42761.56215		139.18000		875.00000 
 43692.65567		 305.27265			43387.38302		66.22000		324.00000 
 43692.65567		 931.09353			42761.56215		139.18000		875.00000 
 43692.65567		 305.27265			43387.38302		66.22000		324.00000 
 43692.65567		 931.09353			42761.56215		139.18000		875.00000 
 43692.65567		 305.27265			43387.38302		66.22000		324.00000 
 43692.65567		 931.09353			42761.56215		139.18000		875.00000 
 43692.65567		 305.27265			43387.38302		66.22000		324.00000 
 43692.65567		 931.09353			42761.56215		139.18000		875.00000 
 43692.65567		 305.27265			43387.38302		66.22000		324.00000 
 43692.65567		 931.09353			42761.56215		139.18000		875.00000 
 43692.65567		 305.27265			43387.38302		66.22000		324.00000 
 43692.65567		 931.09353			42761.56215		139.18000		875.00000 
 43692.65567		 305.27265			43387.38302		66.22000		324.00000 
 43692.65567		 931.09353			42761.56215		139.18000		875.00000 
 43692.65567		 305.27265			43387.38302		66.22000		324.00000 
 43692.65567		 931.09353			42761.56215		139.18000		875.00000 
 43692.65567		 305.27265			43387.38302		66.22000		324.00000 
 43692.65567		 931.09353			42761.56215		139.18000		875.00000 
 43692.65567		 305.27265			43387.38302		66.22000		324.00000 
 43692.65567		 931.09353			42761.56215		139.18000		875.00000 
 43692.65567		 305.27265			43387.38302		66.22000		324.00000 
 43692.65567		 931.09353			42761.56215		139.18000		875.00000 
 43692.65567		 305.27265			43387.38302		66.22000		324.00000 
 43692.65567		 931.09353			42761.56215		139.18000		875.00000 
 43692.65567		 305.27265			43387.38302		66.22000		324.00000 
 43692.65567		 931.09353			42761.56215		139.18000		875.00000 
 43692.65567		 305.27265			43387.38302		66.22000		324.00000 
 43692.65567		 931.09353			42761.56215		139.18000		875.00000 
 43692.65567		 305.27265			43387.38302		66.22000		324.00000 
 43692.65567		 931.09353			42761.56215		139.18000		875.00000 
 43692.65567		 305.27265			43387.38302		66.22000		324.00000 
 43692.65567		 931.09353			42761.56215		196.29400		875.00000 
 43692.65567		 305.27265			43387.38302		66.22000		324.00000 
 43692.65567		 931.09353			42761.56215		196.29400		875.00000 
 43692.65567		 305.27265			43387.38302		66.22000		324.00000 
 43692.65567		 931.09353			42761.56215		196.29400		875.00000 
 43692.65567		 305.27265			43387.38302		66.22000		324.00000 
 43692.65567		 931.09353			42761.56215		196.29400		875.00000 
 43692.65567		 305.27265			43387.38302		66.22000		324.00000 
 43692.65567		 931.09353			42761.56215		196.29400		875.00000 
 43692.65567		 305.27265			43387.38302		66.22000		324.00000 
 43692.65567		 931.09353			42761.56215		196.29400		875.00000 
 43692.65567		 305.27265			43387.38302		66.22000		324.00000 
 43692.65567		 931.09353			42761.56215		196.29400		875.00000 
 43692.65567		 305.27265			43387.38302		66.22000		324.00000 
 43692.65567		 931.09353			42761.56215		196.29400		875.00000 
 43692.65567		 305.27265			43387.38302		66.22000		324.00000 
 43692.65567		 931.09353			42761.56215		196.29400		875.00000 
 43692.65567		 305.27265			43387.38302		66.22000		324.00000 
 43692.65567		 931.09353			42761.56215		196.29400		875.00000 
 43692.65567		 305.27265			43387.38302		66.22000		324.00000 
 43692.65567		 931.09353			42761.56215		196.29400		875.00000 
 43692.65567		 305.27265			43387.38302		66.22000		324.00000 
 43692.65567		 931.09353			42761.56215		196.29400		875.00000 
 43692.65567		 305.27265			43387.38302		66.22000		324.00000 
 43692.65567		 931.09353			42761.56215		196.29400		875.00000 
 43692.65567		 305.27265			43387.38302		66.22000		324.00000 
 43692.65567		 931.09353			42761.56215		196.29400		875.00000 
 43692.65567		 305.27265			43387.38302		66.22000		324.00000 
 43692.65567		 931.09353			42761.56215		196.29400		875.00000 
 43692.65567		 305.27265			43387.38302		66.22000		324.00000 
 43692.65567		 931.09353			42761.56215		196.29400		875.00000 
 43692.65567		 305.27265			43387.38302		66.22000		324.00000 
 43692.65567		 931.09353			42761.56215		196.29400		875.00000 
 43692.65567		 305.27265			43387.38302		66.22000		324.00000 
 43692.65567		 931.09353			42761.56215		196.29400		875.00000 
 43692.65567		 305.27265			43387.38302		66.22000		324.00000 
 43692.65567		 931.09353			42761.56215		196.29400		875.00000 
 43692.65567		 305.27265			43387.38302		66.22000		324.00000 
 43692.65567		 931.09353			42761.56215		196.29400		875.00000 
 43692.65567		 305.27265			43387.38302		66.22000		324.00000 
 43692.65567		 931.09353			42761.56215		196.29400		875.00000 
 43692.65567		 305.27265			43387.38302		66.22000		324.00000 
 43692.65567		 931.09353			42761.56215		196.29400		875.00000 
 43692.65567		 305.27265			43387.38302		66.22000		324.00000 
 43692.65567		 931.09353			42761.56215		196.29400		875.00000 
 43692.65567		 305.27265			43387.38302		66.22000		324.00000 
 43692.65567		 931.09353			42761.56215		196.29400		875.00000 
 43692.65567		 305.27265			43387.38302		66.22000		324.00000 
 43692.65567		 931.09353			42761.56215		196.29400		875.00000 
 43692.65567		 305.27265			43387.38302		66.22000		324.00000 
 43692.65567		 931.09353			42761.56215		196.29400		875.00000 
 43692.65567		 305.27265			43387.38302		66.22000		324.00000 
 43692.65567		 931.09353			42761.56215		196.29400		875.00000 
 43692.65567		 305.27265			43387.38302		66.22000		324.00000 
 43692.65567		 931.09353			42761.56215		196.29400		875.00000 
 43692.65567		 305.27265			43387.38302		66.22000		324.00000 
 43692.65567		 931.09353			42761.56215		196.29400		875.00000 
 43692.65567		 305.27265			43387.38302		66.22000		324.00000 
 43692.65567		 931.09353			42761.56215		196.29400		875.00000 
 43692.65567		 305.27265			43387.38302		66.22000		324.00000 
 43692.65567		 931.09353			42761.56215		196.29400		875.00000 
 43692.65567		 305.27265			43387.38302		66.22000		324.00000 
 43692.65567		 931.09353			42761.56215		196.29400		875.00000 
 43692.65567		 305.27265			43387.38302		66.22000		324.00000 
 43692.65567		 931.09353			42761.56215		196.29400		875.00000 
 43692.65567		 305.27265			43387.38302		66.22000		324.00000 
 43692.65567		 931.09353			42761.56215		196.29400		875.00000 
 43692.65567		 305.27265			43387.38302		66.22000		324.00000 
 43692.65567		 931.09353			42761.56215		196.29400		875.00000 
 43692.65567		 305.27265			43387.38302		66.22000		324.00000 
 43692.65567		 931.09353			42761.56215		196.29400		875.00000 
 43692.65567		 305.27265			43387.38302		66.22000		324.00000 
 43692.65567		 931.09353			42761.56215		196.29400		875.00000 
 43692.65567		 305.27265			43387.38302		66.22000		324.00000 
 43692.65567		 931.09353			42761.56215		196.29400		875.00000 
 43692.65567		 305.27265			43387.38302		66.22000		324.00000 
 43692.65567		 931.09353			42761.56215		196.29400		875.00000 
 43692.65567		 305.27265			43387.38302		66.22000		324.00000 
 43692.65567		 931.09353			42761.56215		196.29400		875.00000 
 43692.65567		 305.27265			43387.38302		66.22000		324.00000 
 43692.65567		 931.09353			42761.56215		196.29400		875.00000 
 43692.65567		 305.27265			43387.38302		66.22000		324.00000 
 43692.65567		 931.09353			42761.56215		196.29400		875.00000 
 43692.65567		 305.27265			43387.38302		66.22000		324.00000 
 43692.65567		 931.09353			42761.56215		196.29400		875.00000 
 43692.65567		 305.27265			43387.38302		66.22000		324.00000 
 43692.65567		 931.09353			42761.56215		196.29400		875.00000 
 43692.65567		 305.27265			43387.38302		66.22000		324.00000 
 43692.65567		 931.09353			42761.56215		196.29400		875.00000 
 43692.65567		 305.27265			43387.38302		66.22000		324.00000 
 43692.65567		 931.09353			42761.56215		196.29400		875.00000 
 43692.65567		 305.27265			43387.38302		66.22000		324.00000 
 43692.65567		 931.09353			42761.56215		196.29400		875.00000 
 43692.65567		 305.27265			43387.38302		66.22000		324.00000 
 43692.65567		 931.09353			42761.56215		196.29400		875.00000 
 43692.65567		 305.27265			43387.38302		66.22000		324.00000 
 43692.65567		 931.09353			42761.56215		196.29400		875.00000 
 43692.65567		 305.27265			43387.38302		66.22000		324.00000 
 43692.65567		 931.09353			42761.56215		196.29400		875.00000 
 43692.65567		 305.27265			43387.38302		66.22000		324.00000 
 43692.65567		 931.09353			42761.56215		196.29400		875.00000 
 43692.65567		 305.27265			43387.38302		66.22000		324.00000 
 43692.65567		 931.09353			42761.56215		196.29400		875.00000 
 43692.65567		 305.27265			43387.38302		66.22000		324.00000 
 43692.65567		 931.09353			42761.56215		196.29400		875.00000 
 43692.65567		 305.27265			43387.38302		66.22000		324.00000 
 43692.65567		 931.09353			42761.56215		196.29400		875.00000 
 43692.65567		 305.27265			43387.38302		66.22000		324.00000 
 43692.65567		 931.09353			42761.56215		196.29400		875.00000 
 43692.65567		 305.27265			43387.38302		66.22000		324.00000 
 43692.65567		 931.09353			42761.56215		196.29400		875.00000 
 43692.65567		 305.27265			43387.38302		66.22000		324.00000 
 43692.65567		 931.09353			42761.56215		196.29400		875.00000 
 43692.65567		 305.27265			43387.38302		66.22000		324.00000 
 43692.65567		 931.09353			42761.56215		196.29400		875.00000 
 43692.65567		 305.27265			43387.38302		66.22000		324.00000 
 43692.65567		 931.09353			42761.56215		196.29400		875.00000 
 43692.65567		 305.27265			43387.38302		66.22000		324.00000 
 43692.65567		 931.09353			42761.56215		196.29400		875.00000 
 43692.65567		 305.27265			43387.38302		66.22000		324.00000 
 43692.65567		 931.09353			42761.56215		196.29400		875.00000 
 43692.65567		 305.27265			43387.38302		66.22000		324.00000 
 43692.65567		 931.09353			42761.56215		196.29400		875.00000 
 43692.65567		 305.27265			43387.38302		66.22000		324.00000 
 43692.65567		 931.09353			42761.56215		196.29400		875.00000 
 43692.65567		 305.27265			43387.38302		66.22000		324.00000 
 43692.65567		 931.09353			42761.56215		196.29400		875.00000 
 43692.65567		 305.27265			43387.38302		66.22000		324.00000 
 43692.65567		 931.09353			42761.56215		196.29400		875.00000 
 43692.65567		 305.27265			43387.38302		66.22000		324.00000 
 43692.65567		 931.09353			42761.56215		218.79400		875.00000 
 43692.65567		 305.27265			43387.38302		66.22000		324.00000 
 43692.65567		 931.09353			42761.56215		218.79400		875.00000 
 43692.65567		 305.27265			43387.38302		66.22000		324.00000 
 43692.65567		 931.09353			42761.56215		218.79400		875.00000 
 43692.65567		 305.27265			43387.38302		66.22000		324.00000 
 43692.65567		 931.09353			42761.56215		218.79400		875.00000 
 43692.65567		 305.27265			43387.38302		66.22000		324.00000 
 43692.65567		 931.09353			42761.56215		218.79400		875.00000 
 43692.65567		 305.27265			43387.38302		66.22000		324.00000 
 43692.65567		 931.09353			42761.56215		218.79400		875.00000 
 43692.65567		 305.27265			43387.38302		66.22000		324.00000 
 43692.65567		 931.09353			42761.56215		218.79400		875.00000 
 43692.65567		 305.27265			43387.38302		66.22000		324.00000 
 43692.65567		 931.09353			42761.56215		218.79400		875.00000 
 43692.65567		 305.27265			43387.38302		66.22000		324.00000 
 43692.65567		 931.09353			42761.56215		218.79400		875.00000 
 43692.65567		 305.27265			43387.38302		66.22000		324.00000 
 43692.65567		 931.09353			42761.56215		218.79400		875.00000 
 43692.65567		 305.27265			43387.38302		66.22000		324.00000 
 43692.65567		 931.09353			42761.56215		218.79400		875.00000 
 43692.65567		 305.27265			43387.38302		66.22000		324.00000 
 43692.65567		 931.09353			42761.56215		218.79400		875.00000 
 43692.65567		 305.27265			43387.38302		66.22000		324.00000 
 43692.65567		 931.09353			42761.56215		218.79400		875.00000 
 43692.65567		 305.27265			43387.38302		66.22000		324.00000 
 43692.65567		 931.09353			42761.56215		218.79400		875.00000 
 43692.65567		 305.27265			43387.38302		66.22000		324.00000 
 43692.65567		 931.09353			42761.56215		218.79400		875.00000 
 43692.65567		 305.27265			43387.38302		66.22000		324.00000 
 43692.65567		 931.09353			42761.56215		218.79400		875.00000 
 43692.65567		 305.27265			43387.38302		66.22000		324.00000 
 43692.65567		 931.09353			42761.56215		218.79400		875.00000 
 43692.65567		 305.27265			43387.38302		66.22000		324.00000 
 43692.65567		 931.09353			42761.56215		218.79400		875.00000 
 43692.65567		 305.27265			43387.38302		66.22000		324.00000 
 43692.65567		 931.09353			42761.56215		218.79400		875.00000 
 43692.65567		 305.27265			43387.38302		66.22000		324.00000 
 43692.65567		 931.09353			42761.56215		218.79400		875.00000 
 43692.65567		 305.27265			43387.38302		66.22000		324.00000 
 43692.65567		 931.09353			42761.56215		218.79400		875.00000 
 43692.65567		 305.27265			43387.38302		66.22000		324.00000 
 43692.65567		 931.09353			42761.56215		218.79400		875.00000 
 43692.65567		 305.27265			43387.38302		66.22000		324.00000 
 43692.65567		 931.09353			42761.56215		218.79400		875.00000 
 43692.65567		 305.27265			43387.38302		66.22000		324.00000 
 43692.65567		 931.09353			42761.56215		218.79400		875.00000 
 43692.65567		 305.27265			43387.38302		66.22000		324.00000 
 43692.65567		 931.09353			42761.56215		218.79400		875.00000 
 43692.65567		 305.27265			43387.38302		66.22000		324.00000 
 43692.65567		 931.09353			42761.56215		218.79400		875.00000 
 43692.65567		 305.27265			43387.38302		66.22000		324.00000 
 43692.65567		 931.09353			42761.56215		218.79400		875.00000 
 43692.65567		 305.27265			43387.38302		66.22000		324.00000 
 43692.65567		 931.09353			42761.56215		218.79400		875.00000 
 43692.65567		 305.27265			43387.38302		66.22000		324.00000 
 43692.65567		 931.09353			42761.56215		218.79400		875.00000 
 43692.65567		 305.27265			43387.38302		66.22000		324.00000 
 43692.65567		 931.09353			42761.56215		218.79400		875.00000 
 43692.65567		 305.27265			43387.38302		66.22000		324.00000 
 43692.65567		 931.09353			42761.56215		218.79400		875.00000 
 43692.65567		 305.27265			43387.38302		66.22000		324.00000 
 43692.65567		 931.09353			42761.56215		218.79400		875.00000 
 43692.65567		 305.27265			43387.38302		66.22000		324.00000 
 43692.65567		 931.09353			42761.56215		218.79400		875.00000 
 43692.65567		 305.27265			43387.38302		66.22000		324.00000 
 43692.65567		 931.09353			42761.56215		218.79400		875.00000 
 43692.65567		 305.27265			43387.38302		66.22000		324.00000 
 43692.65567		 931.09353			42761.56215		218.79400		875.00000 
 43692.65567		 305.27265			43387.38302		66.22000		324.00000 
 43692.65567		 931.09353			42761.56215		218.79400		875.00000 
 43692.65567		 305.27265			43387.38302		66.22000		324.00000 
 43692.65567		 931.09353			42761.56215		218.79400		875.00000 
 43692.65567		 305.27265			43387.38302		66.22000		324.00000 
 43692.65567		 931.09353			42761.56215		218.79400		875.00000 
 43692.65567		 305.27265			43387.38302		66.22000		324.00000 
 43692.65567		 931.09353			42761.56215		218.79400		875.00000 
 43692.65567		 305.27265			43387.38302		66.22000		324.00000 
 43692.65567		 931.09353			42761.56215		218.79400		875.00000 
 43692.65567		 305.27265			43387.38302		66.22000		324.00000 
 43692.65567		 931.09353			42761.56215		218.79400		875.00000 
 43692.65567		 305.27265			43387.38302		66.22000		324.00000 
 43692.65567		 931.09353			42761.56215		218.79400		875.00000 
 43692.65567		 305.27265			43387.38302		66.22000		324.00000 
 43692.65567		 931.09353			42761.56215		218.79400		875.00000 
 43692.65567		 305.27265			43387.38302		66.22000		324.00000 
 43692.65567		 931.09353			42761.56215		218.79400		875.00000 
 43692.65567		 305.27265			43387.38302		66.22000		324.00000 
 43692.65567		 931.09353			42761.56215		218.79400		875.00000 
 43692.65567		 305.27265			43387.38302		66.22000		324.00000 
 43692.65567		 931.09353			42761.56215		218.79400		875.00000 
 43692.65567		 305.27265			43387.38302		66.22000		324.00000 
 43692.65567		 931.09353			42761.56215		218.79400		875.00000 
 43692.65567		 305.27265			43387.38302		66.22000		324.00000 
 43692.65567		 931.09353			42761.56215		218.79400		875.00000 
 43692.65567		 305.27265			43387.38302		66.22000		324.00000 
 43692.65567		 931.09353			42761.56215		218.79400		875.00000 
 43692.65567		 305.27265			43387.38302		66.22000		324.00000 
 43692.65567		 931.09353			42761.56215		218.79400		875.00000 
 43692.65567		 305.27265			43387.38302		66.22000		324.00000 
 43692.65567		 931.09353			42761.56215		218.79400		875.00000 
 43692.65567		 305.27265			43387.38302		66.22000		324.00000 
 43692.65567		 931.09353			42761.56215		218.79400		875.00000 
 43692.65567		 305.27265			43387.38302		66.22000		324.00000 
 43692.65567		 931.09353			42761.56215		218.79400		875.00000 
 43692.65567		 305.27265			43387.38302		66.22000		324.00000 
 43692.65567		 931.09353			42761.56215		218.79400		875.00000 
 43692.65567		 305.27265			43387.38302		66.22000		324.00000 
 43692.65567		 931.09353			42761.56215		218.79400		875.00000 
 43692.65567		 305.27265			43387.38302		66.22000		324.00000 
 43692.65567		 931.09353			42761.56215		218.79400		875.00000 
 43692.65567		 305.27265			43387.38302		66.22000		324.00000 
 43692.65567		 931.09353			42761.56215		218.79400		875.00000 
 43692.65567		 305.27265			43387.38302		66.22000		324.00000 
 43692.65567		 931.09353			42761.56215		218.79400		875.00000 
 43692.65567		 305.27265			43387.38302		66.22000		324.00000 
 43692.65567		 931.09353			42761.56215		218.79400		875.00000 
 43692.65567		 305.27265			43387.38302		66.22000		324.00000 
 43692.65567		 931.09353			42761.56215		218.79400		875.00000 
 43692.65567		 305.27265			43387.38302		66.22000		324.00000 
 43692.65567		 931.09353			42761.56215		218.79400		875.00000 
 43692.65567		 305.27265			43387.38302		66.22000		324.00000 
 43692.65567		 931.09353			42761.56215		218.79400		875.00000 
 43692.65567		 305.27265			43387.38302		66.22000		324.00000 
 43692.65567		 931.09353			42761.56215		218.79400		875.00000 
 43692.65567		 305.27265			43387.38302		66.22000		324.00000 
 43692.65567		 931.09353			42761.56215		218.79400		875.00000 
 43692.65567		 305.27265			43387.38302		66.22000		324.00000 
 43692.65567		 931.09353			42761.56215		226.09400		875.00000 
 43692.65567		 305.27265			43387.38302		66.22000		324.00000 
 43692.65567		 931.09353			42761.56215		226.09400		875.00000 
 43692.65567		 305.27265			43387.38302		66.22000		324.00000 
 43692.65567		 931.09353			42761.56215		226.09400		875.00000 
 43692.65567		 305.27265			43387.38302		66.22000		324.00000 
 43692.65567		 931.09353			42761.56215		226.09400		875.00000 
 43692.65567		 305.27265			43387.38302		66.22000		324.00000 
 43692.65567		 931.09353			42761.56215		226.09400		875.00000 
 43692.65567		 305.27265			43387.38302		66.22000		324.00000 
 43692.65567		 931.09353			42761.56215		226.09400		875.00000 
 43692.65567		 305.27265			43387.38302		66.22000		324.00000 
 43692.65567		 931.09353			42761.56215		226.09400		875.00000 
 43692.65567		 305.27265			43387.38302		66.22000		324.00000 
 43692.65567		 931.09353			42761.56215		226.09400		875.00000 
 43692.65567		 305.27265			43387.38302		66.22000		324.00000 
 43692.65567		 931.09353			42761.56215		226.09400		875.00000 
 43692.65567		 305.27265			43387.38302		66.22000		324.00000 
 43692.65567		 931.09353			42761.56215		226.09400		875.00000 
 43692.65567		 305.27265			43387.38302		66.22000		324.00000 
 43692.65567		 931.09353			42761.56215		226.09400		875.00000 
 43692.65567		 305.27265			43387.38302		66.22000		324.00000 
 43692.65567		 931.09353			42761.56215		226.09400		875.00000 
 43692.65567		 305.27265			43387.38302		66.22000		324.00000 
 43692.65567		 931.09353			42761.56215		226.09400		875.00000 
 43692.65567		 305.27265			43387.38302		66.22000		324.00000 
 43692.65567		 931.09353			42761.56215		226.09400		875.00000 
 43692.65567		 305.27265			43387.38302		66.22000		324.00000 
 43692.65567		 931.09353			42761.56215		226.09400		875.00000 
 43692.65567		 305.27265			43387.38302		66.22000		324.00000 
 43692.65567		 931.09353			42761.56215		226.09400		875.00000 
 43692.65567		 305.27265			43387.38302		66.22000		324.00000 
 43692.65567		 931.09353			42761.56215		226.09400		875.00000 
 43692.65567		 305.27265			43387.38302		66.22000		324.00000 
 43692.65567		 931.09353			42761.56215		226.09400		875.00000 
 43692.65567		 305.27265			43387.38302		66.22000		324.00000 
 43692.65567		 931.09353			42761.56215		226.09400		875.00000 
 43692.65567		 305.27265			43387.38302		66.22000		324.00000 
 43692.65567		 931.09353			42761.56215		226.09400		875.00000 
 43692.65567		 305.27265			43387.38302		66.22000		324.00000 
 43692.65567		 931.09353			42761.56215		226.09400		875.00000 
 43692.65567		 305.27265			43387.38302		66.22000		324.00000 
 43692.65567		 931.09353			42761.56215		226.09400		875.00000 
 43692.65567		 305.27265			43387.38302		66.22000		324.00000 
 43692.65567		 931.09353			42761.56215		226.09400		875.00000 
 43692.65567		 305.27265			43387.38302		66.22000		324.00000 
 43692.65567		 931.09353			42761.56215		226.09400		875.00000 
 43692.65567		 305.27265			43387.38302		66.22000		324.00000 
 43692.65567		 931.09353			42761.56215		226.09400		875.00000 
 43692.65567		 305.27265			43387.38302		66.22000		324.00000 
 43692.65567		 931.09353			42761.56215		226.09400		875.00000 
 43692.65567		 305.27265			43387.38302		66.22000		324.00000 
 43692.65567		 931.09353			42761.56215		226.09400		875.00000 
 43692.65567		 305.27265			43387.38302		66.22000		324.00000 
 43692.65567		 931.09353			42761.56215		226.09400		875.00000 
 43692.65567		 305.27265			43387.38302		66.22000		324.00000 
 43692.65567		 931.09353			42761.56215		226.09400		875.00000 
 43692.65567		 305.27265			43387.38302		66.22000		324.00000 
 43692.65567		 931.09353			42761.56215		226.09400		875.00000 
 43692.65567		 305.27265			43387.38302		66.22000		324.00000 
 43692.65567		 931.09353			42761.56215		226.09400		875.00000 
 43692.65567		 305.27265			43387.38302		66.22000		324.00000 
 43692.65567		 931.09353			42761.56215		226.09400		875.00000 
 43692.65567		 305.27265			43387.38302		66.22000		324.00000 
 43692.65567		 931.09353			42761.56215		226.09400		875.00000 
 43692.65567		 305.27265			43387.38302		66.22000		324.00000 
 43692.65567		 931.09353			42761.56215		226.09400		875.00000 
 43692.65567		 305.27265			43387.38302		66.22000		324.00000 
 43692.65567		 931.09353			42761.56215		226.09400		875.00000 
 43692.65567		 305.27265			43387.38302		66.22000		324.00000 
 43692.65567		 931.09353			42761.56215		226.09400		875.00000 
 43692.65567		 305.27265			43387.38302		66.22000		324.00000 
 43692.65567		 931.09353			42761.56215		226.09400		875.00000 
 43692.65567		 305.27265			43387.38302		66.22000		324.00000 
 43692.65567		 931.09353			42761.56215		226.09400		875.00000 
 43692.65567		 305.27265			43387.38302		66.22000		324.00000 
 43692.65567		 931.09353			42761.56215		226.09400		875.00000 
 43692.65567		 305.27265			43387.38302		66.22000		324.00000 
 43692.65567		 931.09353			42761.56215		226.09400		875.00000 
 43692.65567		 305.27265			43387.38302		66.22000		324.00000 
 43692.65567		 931.09353			42761.56215		226.09400		875.00000 
 43692.65567		 305.27265			43387.38302		66.22000		324.00000 
 43692.65567		 931.09353			42761.56215		226.09400		875.00000 
 43692.65567		 305.27265			43387.38302		66.22000		324.00000 
 43692.65567		 931.09353			42761.56215		226.09400		875.00000 
 43692.65567		 305.27265			43387.38302		66.22000		324.00000 
 43692.65567		 931.09353			42761.56215		226.09400		875.00000 
 43692.65567		 305.27265			43387.38302		66.22000		324.00000 
 43692.65567		 931.09353			42761.56215		226.09400		875.00000 
 43692.65567		 305.27265			43387.38302		66.22000		324.00000 
 43692.65567		 931.09353			42761.56215		226.09400		875.00000 
 43692.65567		 305.27265			43387.38302		66.22000		324.00000 
 43692.65567		 931.09353			42761.56215		226.09400		875.00000 
 43692.65567		 305.27265			43387.38302		66.22000		324.00000 
 43692.65567		 931.09353			42761.56215		226.09400		875.00000 
 43692.65567		 305.27265			43387.38302		66.22000		324.00000 
 43692.65567		 931.09353			42761.56215		226.09400		875.00000 
 43692.65567		 305.27265			43387.38302		66.22000		324.00000 
 43692.65567		 931.09353			42761.56215		226.09400		875.00000 
 43692.65567		 305.27265			43387.38302		66.22000		324.00000 
 43692.65567		 931.09353			42761.56215		226.09400		875.00000 
 43692.65567		 305.27265			43387.38302		66.22000		324.00000 
 43692.65567		 931.09353			42761.56215		226.09400		875.00000 
 43692.65567		 305.27265			43387.38302		66.22000		324.00000 
 43692.65567		 931.09353			42761.56215		226.09400		875.00000 
 43692.65567		 305.27265			43387.38302		66.22000		324.00000 
 43692.65567		 931.09353			42761.56215		226.09400		875.00000 
 43692.65567		 305.27265			43387.38302		66.22000		324.00000 
 43692.65567		 931.09353			42761.56215		226.09400		875.00000 
 43692.65567		 305.27265			43387.38302		66.22000		324.00000 
 43692.65567		 931.09353			42761.56215		226.09400		875.00000 
 43692.65567		 305.27265			43387.38302		66.22000		324.00000 
 43692.65567		 931.09353			42761.56215		226.09400		875.00000 
 43692.65567		 305.27265			43387.38302		66.22000		324.00000 
 43692.65567		 931.09353			42761.56215		226.09400		875.00000 
 43692.65567		 305.27265			43387.38302		66.22000		324.00000 
 43692.65567		 931.09353			42761.56215		226.09400		875.00000 
 43692.65567		 305.27265			43387.38302		66.22000		324.00000 
 43692.65567		 931.09353			42761.56215		226.09400		875.00000 
 43692.65567		 305.27265			43387.38302		66.22000		324.00000 
 43692.65567		 931.09353			42761.56215		226.09400		875.00000 
 43692.65567		 305.27265			43387.38302		66.22000		324.00000 
 43692.65567		 931.09353			42761.56215		226.09400		875.00000 
 43692.65567		 305.27265			43387.38302		66.22000		324.00000 
 43692.65567		 931.09353			42761.56215		226.09400		875.00000 
 43692.65567		 305.27265			43387.38302		66.22000		324.00000 
 43692.65567		 931.09353			42761.56215		226.09400		875.00000 
 43692.65567		 305.27265			43387.38302		66.22000		324.00000 
 43692.65567		 931.09353			42761.56215		226.09400		875.00000 
 43692.65567		 305.27265			43387.38302		66.22000		324.00000 
 43692.65567		 931.09353			42761.56215		228.09000		875.00000 
 43692.65567		 305.27265			43387.38302		66.22000		324.00000 
 43692.65567		 931.09353			42761.56215		228.09000		875.00000 
 43692.65567		 305.27265			43387.38302		66.22000		324.00000 
 43692.65567		 931.09353			42761.56215		228.09000		875.00000 
 43692.65567		 305.27265			43387.38302		66.22000		324.00000 
 43692.65567		 931.09353			42761.56215		228.09000		875.00000 
 43692.65567		 305.27265			43387.38302		66.22000		324.00000 
 43692.65567		 931.09353			42761.56215		228.09000		875.00000 
 43692.65567		 305.27265			43387.38302		66.22000		324.00000 
 43692.65567		 931.09353			42761.56215		228.09000		875.00000 
 43692.65567		 305.27265			43387.38302		66.22000		324.00000 
 43692.65567		 931.09353			42761.56215		228.09000		875.00000 
 43692.65567		 305.27265			43387.38302		66.22000		324.00000 
 43692.65567		 931.09353			42761.56215		228.09000		875.00000 
 43692.65567		 305.27265			43387.38302		66.22000		324.00000 
 43692.65567		 931.09353			42761.56215		228.09000		875.00000 
 43692.65567		 305.27265			43387.38302		66.22000		324.00000 
 43692.65567		 931.09353			42761.56215		228.09000		875.00000 
 43692.65567		 305.27265			43387.38302		66.22000		324.00000 
 43692.65567		 931.09353			42761.56215		228.09000		875.00000 
 43692.65567		 305.27265			43387.38302		66.22000		324.00000 
 43692.65567		 931.09353			42761.56215		228.09000		875.00000 
 43692.65567		 305.27265			43387.38302		66.22000		324.00000 
 43692.65567		 931.09353			42761.56215		228.09000		875.00000 
 43692.65567		 305.27265			43387.38302		66.22000		324.00000 
 43692.65567		 931.09353			42761.56215		228.09000		875.00000 
 43692.65567		 305.27265			43387.38302		66.22000		324.00000 
 43692.65567		 931.09353			42761.56215		228.09000		875.00000 
 43692.65567		 305.27265			43387.38302		66.22000		324.00000 
 43692.65567		 931.09353			42761.56215		228.09000		875.00000 
 43692.65567		 305.27265			43387.38302		66.22000		324.00000 
 43692.65567		 931.09353			42761.56215		228.09000		875.00000 
 43692.65567		 305.27265			43387.38302		66.22000		324.00000 
 43692.65567		 931.09353			42761.56215		228.09000		875.00000 
 43692.65567		 305.27265			43387.38302		66.22000		324.00000 
 43692.65567		 931.09353			42761.56215		228.09000		875.00000 
 43692.65567		 305.27265			43387.38302		66.22000		324.00000 
 43692.65567		 931.09353			42761.56215		228.09000		875.00000 
 43692.65567		 305.27265			43387.38302		66.22000		324.00000 
 43692.65567		 931.09353			42761.56215		228.09000		875.00000 
 43692.65567		 305.27265			43387.38302		66.22000		324.00000 
 43692.65567		 931.09353			42761.56215		228.09000		875.00000 
 43692.65567		 305.27265			43387.38302		66.22000		324.00000 
 43692.65567		 931.09353			42761.56215		228.09000		875.00000 
 43692.65567		 305.27265			43387.38302		66.22000		324.00000 
 43692.65567		 931.09353			42761.56215		228.09000		875.00000 
 43692.65567		 305.27265			43387.38302		66.22000		324.00000 
 43692.65567		 931.09353			42761.56215		228.09000		875.00000 
 43692.65567		 305.27265			43387.38302		66.22000		324.00000 
 43692.65567		 931.09353			42761.56215		228.09000		875.00000 
 43692.65567		 305.27265			43387.38302		66.22000		324.00000 
 43692.65567		 931.09353			42761.56215		228.09000		875.00000 
 43692.65567		 305.27265			43387.38302		66.22000		324.00000 
 43692.65567		 931.09353			42761.56215		228.09000		875.00000 
 43692.65567		 305.27265			43387.38302		66.22000		324.00000 
 43692.65567		 931.09353			42761.56215		228.09000		875.00000 
 43692.65567		 305.27265			43387.38302		66.22000		324.00000 
 43692.65567		 931.09353			42761.56215		228.09000		875.00000 
 43692.65567		 305.27265			43387.38302		66.22000		324.00000 
 43692.65567		 931.09353			42761.56215		228.09000		875.00000 
 43692.65567		 305.27265			43387.38302		66.22000		324.00000 
 43692.65567		 931.09353			42761.56215		228.09000		875.00000 
 43692.65567		 305.27265			43387.38302		66.22000		324.00000 
 43692.65567		 931.09353			42761.56215		228.09000		875.00000 
 43692.65567		 305.27265			43387.38302		66.22000		324.00000 
 43692.65567		 931.09353			42761.56215		228.09000		875.00000 
 43692.65567		 305.27265			43387.38302		66.22000		324.00000 
 43692.65567		 931.09353			42761.56215		228.09000		875.00000 
 43692.65567		 305.27265			43387.38302		66.22000		324.00000 
 43692.65567		 931.09353			42761.56215		228.09000		875.00000 
 43692.65567		 305.27265			43387.38302		66.22000		324.00000 
 43692.65567		 931.09353			42761.56215		228.09000		875.00000 
 43692.65567		 305.27265			43387.38302		66.22000		324.00000 
 43692.65567		 931.09353			42761.56215		228.09000		875.00000 
 43692.65567		 305.27265			43387.38302		66.22000		324.00000 
 43692.65567		 931.09353			42761.56215		228.09000		875.00000 
 43692.65567		 305.27265			43387.38302		66.22000		324.00000 
 43692.65567		 931.09353			42761.56215		228.09000		875.00000 
 43692.65567		 305.27265			43387.38302		66.22000		324.00000 
 43692.65567		 931.09353			42761.56215		228.09000		875.00000 
 43692.65567		 305.27265			43387.38302		66.22000		324.00000 
 43692.65567		 931.09353			42761.56215		228.09000		875.00000 
 43692.65567		 305.27265			43387.38302		66.22000		324.00000 
 43692.65567		 931.09353			42761.56215		228.09000		875.00000 
 43692.65567		 305.27265			43387.38302		66.22000		324.00000 
 43692.65567		 931.09353			42761.56215		228.09000		875.00000 
 43692.65567		 305.27265			43387.38302		66.22000		324.00000 
 43692.65567		 931.09353			42761.56215		228.09000		875.00000 
 43692.65567		 305.27265			43387.38302		66.22000		324.00000 
 43692.65567		 931.09353			42761.56215		228.09000		875.00000 
 43692.65567		 305.27265			43387.38302		66.22000		324.00000 
 43692.65567		 931.09353			42761.56215		228.09000		875.00000 
 43692.65567		 305.27265			43387.38302		66.22000		324.00000 
 43692.65567		 931.09353			42761.56215		228.09000		875.00000 
 43692.65567		 305.27265			43387.38302		66.22000		324.00000 
 43692.65567		 931.09353			42761.56215		228.09000		875.00000 
 43692.65567		 305.27265			43387.38302		66.22000		324.00000 
 43692.65567		 931.09353			42761.56215		228.09000		875.00000 
 43692.65567		 305.27265			43387.38302		66.22000		324.00000 
 43692.65567		 931.09353			42761.56215		228.09000		875.00000 
 43692.65567		 305.27265			43387.38302		66.22000		324.00000 
 43692.65567		 931.09353			42761.56215		228.09000		875.00000 
 43692.65567		 305.27265			43387.38302		66.22000		324.00000 
 43692.65567		 931.09353			42761.56215		228.09000		875.00000 
 43692.65567		 305.27265			43387.38302		66.22000		324.00000 
 43692.65567		 931.09353			42761.56215		228.09000		875.00000 
 43692.65567		 305.27265			43387.38302		66.22000		324.00000 
 43692.65567		 931.09353			42761.56215		228.09000		875.00000 
 43692.65567		 305.27265			43387.38302		66.22000		324.00000 
 43692.65567		 931.09353			42761.56215		228.09000		875.00000 
 43692.65567		 305.27265			43387.38302		66.22000		324.00000 
 43692.65567		 931.09353			42761.56215		228.09000		875.00000 
 43692.65567		 305.27265			43387.38302		66.22000		324.00000 
 43692.65567		 931.09353			42761.56215		228.09000		875.00000 
 43692.65567		 305.27265			43387.38302		66.22000		324.00000 
 43692.65567		 931.09353			42761.56215		228.09000		875.00000 
 43692.65567		 305.27265			43387.38302		66.22000		324.00000 
 43692.65567		 931.09353			42761.56215		228.09000		875.00000 
 43692.65567		 305.27265			43387.38302		66.22000		324.00000 
 43692.65567		 931.09353			42761.56215		228.09000		875.00000 
 43692.65567		 305.27265			43387.38302		66.22000		324.00000 
 43692.65567		 931.09353			42761.56215		228.09000		875.00000 
 43692.65567		 305.27265			43387.38302		66.22000		324.00000 
 43692.65567		 931.09353			42761.56215		228.09000		875.00000 
 43692.65567		 305.27265			43387.38302		66.22000		324.00000 
 43692.65567		 931.09353			42761.56215		228.09000		875.00000 
 43692.65567		 305.27265			43387.38302		66.22000		324.00000 
 43692.65567		 931.09353			42761.56215		229.30200		875.00000 
 43692.65567		 305.27265			43387.38302		66.22000		324.00000 
 43692.65567		 931.09353			42761.56215		229.30200		875.00000 
 43692.65567		 305.27265			43387.38302		66.22000		324.00000 
 43692.65567		 931.09353			42761.56215		229.30200		875.00000 
 43692.65567		 305.27265			43387.38302		66.22000		324.00000 
 43692.65567		 931.09353			42761.56215		229.30200		875.00000 
 43692.65567		 305.27265			43387.38302		66.22000		324.00000 
 43692.65567		 931.09353			42761.56215		229.30200		875.00000 
 43692.65567		 305.27265			43387.38302		66.22000		324.00000 
 43692.65567		 931.09353			42761.56215		229.30200		875.00000 
 43692.65567		 305.27265			43387.38302		66.22000		324.00000 
 43692.65567		 931.09353			42761.56215		229.30200		875.00000 
 43692.65567		 305.27265			43387.38302		66.22000		324.00000 
 43692.65567		 931.09353			42761.56215		229.30200		875.00000 
 43692.65567		 305.27265			43387.38302		66.22000		324.00000 
 43692.65567		 931.09353			42761.56215		229.30200		875.00000 
 43692.65567		 305.27265			43387.38302		66.22000		324.00000 
 43692.65567		 931.09353			42761.56215		229.30200		875.00000 
 43692.65567		 305.27265			43387.38302		66.22000		324.00000 
 43692.65567		 931.09353			42761.56215		229.30200		875.00000 
 43692.65567		 305.27265			43387.38302		66.22000		324.00000 
 43692.65567		 931.09353			42761.56215		229.30200		875.00000 
 43692.65567		 305.27265			43387.38302		66.22000		324.00000 
 43692.65567		 931.09353			42761.56215		229.30200		875.00000 
 43692.65567		 305.27265			43387.38302		66.22000		324.00000 
 43692.65567		 931.09353			42761.56215		229.30200		875.00000 
 43692.65567		 305.27265			43387.38302		66.22000		324.00000 
 43692.65567		 931.09353			42761.56215		229.30200		875.00000 
 43692.65567		 305.27265			43387.38302		66.22000		324.00000 
 43692.65567		 931.09353			42761.56215		229.30200		875.00000 
 43692.65567		 305.27265			43387.38302		66.22000		324.00000 
 43692.65567		 931.09353			42761.56215		229.30200		875.00000 
 43692.65567		 305.27265			43387.38302		66.22000		324.00000 
 43692.65567		 931.09353			42761.56215		229.30200		875.00000 
 43692.65567		 305.27265			43387.38302		66.22000		324.00000 
 43692.65567		 931.09353			42761.56215		229.30200		875.00000 
 43692.65567		 305.27265			43387.38302		66.22000		324.00000 
 43692.65567		 931.09353			42761.56215		229.30200		875.00000 
 43692.65567		 305.27265			43387.38302		66.22000		324.00000 
 43692.65567		 931.09353			42761.56215		229.30200		875.00000 
 43692.65567		 305.27265			43387.38302		66.22000		324.00000 
 43692.65567		 931.09353			42761.56215		229.30200		875.00000 
 43692.65567		 305.27265			43387.38302		66.22000		324.00000 
 43692.65567		 931.09353			42761.56215		229.30200		875.00000 
 43692.65567		 305.27265			43387.38302		66.22000		324.00000 
 43692.65567		 931.09353			42761.56215		229.30200		875.00000 
 43692.65567		 305.27265			43387.38302		66.22000		324.00000 
 43692.65567		 931.09353			42761.56215		229.30200		875.00000 
 43692.65567		 305.27265			43387.38302		66.22000		324.00000 
 43692.65567		 931.09353			42761.56215		229.30200		875.00000 
 43692.65567		 305.27265			43387.38302		66.22000		324.00000 
 43692.65567		 931.09353			42761.56215		229.30200		875.00000 
 43692.65567		 305.27265			43387.38302		66.22000		324.00000 
 43692.65567		 931.09353			42761.56215		229.30200		875.00000 
 43692.65567		 305.27265			43387.38302		66.22000		324.00000 
 43692.65567		 931.09353			42761.56215		229.30200		875.00000 
 43692.65567		 305.27265			43387.38302		66.22000		324.00000 
 43692.65567		 931.09353			42761.56215		229.30200		875.00000 
 43692.65567		 305.27265			43387.38302		66.22000		324.00000 
 43692.65567		 931.09353			42761.56215		229.30200		875.00000 
 43692.65567		 305.27265			43387.38302		66.22000		324.00000 
 43692.65567		 931.09353			42761.56215		229.30200		875.00000 
 43692.65567		 305.27265			43387.38302		66.22000		324.00000 
 43692.65567		 931.09353			42761.56215		229.30200		875.00000 
 43692.65567		 305.27265			43387.38302		66.22000		324.00000 
 43692.65567		 931.09353			42761.56215		229.30200		875.00000 
 43692.65567		 305.27265			43387.38302		66.22000		324.00000 
 43692.65567		 931.09353			42761.56215		229.30200		875.00000 
 43692.65567		 305.27265			43387.38302		66.22000		324.00000 
 43692.65567		 931.09353			42761.56215		229.30200		875.00000 
 43692.65567		 305.27265			43387.38302		66.22000		324.00000 
 43692.65567		 931.09353			42761.56215		229.30200		875.00000 
 43692.65567		 305.27265			43387.38302		66.22000		324.00000 
 43692.65567		 931.09353			42761.56215		229.30200		875.00000 
 43692.65567		 305.27265			43387.38302		66.22000		324.00000 
 43692.65567		 931.09353			42761.56215		229.30200		875.00000 
 43692.65567		 305.27265			43387.38302		66.22000		324.00000 
 43692.65567		 931.09353			42761.56215		229.30200		875.00000 
 43692.65567		 305.27265			43387.38302		66.22000		324.00000 
 43692.65567		 931.09353			42761.56215		229.30200		875.00000 
 43692.65567		 305.27265			43387.38302		66.22000		324.00000 
 43692.65567		 931.09353			42761.56215		229.30200		875.00000 
 43692.65567		 305.27265			43387.38302		66.22000		324.00000 
 43692.65567		 931.09353			42761.56215		229.30200		875.00000 
 43692.65567		 305.27265			43387.38302		66.22000		324.00000 
 43692.65567		 931.09353			42761.56215		229.30200		875.00000 
 43692.65567		 305.27265			43387.38302		66.22000		324.00000 
 43692.65567		 931.09353			42761.56215		229.30200		875.00000 
 43692.65567		 305.27265			43387.38302		66.22000		324.00000 
 43692.65567		 931.09353			42761.56215		229.30200		875.00000 
 43692.65567		 305.27265			43387.38302		66.22000		324.00000 
 43692.65567		 931.09353			42761.56215		229.30200		875.00000 
 43692.65567		 305.27265			43387.38302		66.22000		324.00000 
 43692.65567		 931.09353			42761.56215		229.30200		875.00000 
 43692.65567		 305.27265			43387.38302		66.22000		324.00000 
 43692.65567		 931.09353			42761.56215		229.30200		875.00000 
 43692.65567		 305.27265			43387.38302		66.22000		324.00000 
 43692.65567		 931.09353			42761.56215		229.30200		875.00000 
 43692.65567		 305.27265			43387.38302		66.22000		324.00000 
 43692.65567		 931.09353			42761.56215		229.30200		875.00000 
 43692.65567		 305.27265			43387.38302		66.22000		324.00000 
 43692.65567		 931.09353			42761.56215		229.30200		875.00000 
 43692.65567		 305.27265			43387.38302		66.22000		324.00000 
 43692.65567		 931.09353			42761.56215		229.30200		875.00000 
 43692.65567		 305.27265			43387.38302		66.22000		324.00000 
 43692.65567		 931.09353			42761.56215		229.30200		875.00000 
 43692.65567		 305.27265			43387.38302		66.22000		324.00000 
 43692.65567		 931.09353			42761.56215		229.30200		875.00000 
 43692.65567		 305.27265			43387.38302		66.22000		324.00000 
 43692.65567		 931.09353			42761.56215		229.30200		875.00000 
 43692.65567		 305.27265			43387.38302		66.22000		324.00000 
 43692.65567		 931.09353			42761.56215		229.30200		875.00000 
 43692.65567		 305.27265			43387.38302		66.22000		324.00000 
 43692.65567		 931.09353			42761.56215		229.30200		875.00000 
 43692.65567		 305.27265			43387.38302		66.22000		324.00000 
 43692.65567		 931.09353			42761.56215		229.30200		875.00000 
 43692.65567		 305.27265			43387.38302		66.22000		324.00000 
 43692.65567		 931.09353			42761.56215		229.30200		875.00000 
 43692.65567		 305.27265			43387.38302		66.22000		324.00000 
 43692.65567		 931.09353			42761.56215		229.30200		875.00000 
 43692.65567		 305.27265			43387.38302		66.22000		324.00000 
 43692.65567		 931.09353			42761.56215		229.30200		875.00000 
 43692.65567		 305.27265			43387.38302		66.22000		324.00000 
 43692.65567		 931.09353			42761.56215		229.30200		875.00000 
 43692.65567		 305.27265			43387.38302		66.22000		324.00000 
 43692.65567		 931.09353			42761.56215		229.30200		875.00000 
 43692.65567		 305.27265			43387.38302		66.22000		324.00000 
 43692.65567		 931.09353			42761.56215		229.54400		875.00000 
 43692.65567		 305.27265			43387.38302		66.22000		324.00000 
 43692.65567		 931.09353			42761.56215		229.54400		875.00000 
 43692.65567		 305.27265			43387.38302		66.22000		324.00000 
 43692.65567		 931.09353			42761.56215		229.54400		875.00000 
 43692.65567		 305.27265			43387.38302		66.22000		324.00000 
 43692.65567		 931.09353			42761.56215		229.54400		875.00000 
 43692.65567		 305.27265			43387.38302		66.22000		324.00000 
 43692.65567		 931.09353			42761.56215		229.54400		875.00000 
 43692.65567		 305.27265			43387.38302		66.22000		324.00000 
 43692.65567		 931.09353			42761.56215		229.54400		875.00000 
 43692.65567		 305.27265			43387.38302		66.22000		324.00000 
 43692.65567		 931.09353			42761.56215		229.54400		875.00000 
 43692.65567		 305.27265			43387.38302		66.22000		324.00000 
 43692.65567		 931.09353			42761.56215		229.54400		875.00000 
 43692.65567		 305.27265			43387.38302		66.22000		324.00000 
 43692.65567		 931.09353			42761.56215		229.54400		875.00000 
 43692.65567		 305.27265			43387.38302		66.22000		324.00000 
 43692.65567		 931.09353			42761.56215		229.54400		875.00000 
 43692.65567		 305.27265			43387.38302		66.22000		324.00000 
 43692.65567		 931.09353			42761.56215		229.54400		875.00000 
 43692.65567		 305.27265			43387.38302		66.22000		324.00000 
 43692.65567		 931.09353			42761.56215		229.54400		875.00000 
 43692.65567		 305.27265			43387.38302		66.22000		324.00000 
 43692.65567		 931.09353			42761.56215		229.54400		875.00000 
 43692.65567		 305.27265			43387.38302		66.22000		324.00000 
 43692.65567		 931.09353			42761.56215		229.54400		875.00000 
 43692.65567		 305.27265			43387.38302		66.22000		324.00000 
 43692.65567		 931.09353			42761.56215		229.54400		875.00000 
 43692.65567		 305.27265			43387.38302		66.22000		324.00000 
 43692.65567		 931.09353			42761.56215		229.54400		875.00000 
 43692.65567		 305.27265			43387.38302		66.22000		324.00000 
 43692.65567		 931.09353			42761.56215		229.54400		875.00000 
 43692.65567		 305.27265			43387.38302		66.22000		324.00000 
 43692.65567		 931.09353			42761.56215		229.54400		875.00000 
 43692.65567		 305.27265			43387.38302		66.22000		324.00000 
 43692.65567		 931.09353			42761.56215		229.54400		875.00000 
 43692.65567		 305.27265			43387.38302		66.22000		324.00000 
 43692.65567		 931.09353			42761.56215		229.54400		875.00000 
 43692.65567		 305.27265			43387.38302		66.22000		324.00000 
 43692.65567		 931.09353			42761.56215		229.54400		875.00000 
 43692.65567		 305.27265			43387.38302		66.22000		324.00000 
 43692.65567		 931.09353			42761.56215		229.54400		875.00000 
 43692.65567		 305.27265			43387.38302		66.22000		324.00000 
 43692.65567		 931.09353			42761.56215		229.54400		875.00000 
 43692.65567		 305.27265			43387.38302		66.22000		324.00000 
 43692.65567		 931.09353			42761.56215		229.54400		875.00000 
 43692.65567		 305.27265			43387.38302		66.22000		324.00000 
 43692.65567		 931.09353			42761.56215		229.54400		875.00000 
 43692.65567		 305.27265			43387.38302		66.22000		324.00000 
 43692.65567		 931.09353			42761.56215		229.54400		875.00000 
 43692.65567		 305.27265			43387.38302		66.22000		324.00000 
 43692.65567		 931.09353			42761.56215		229.54400		875.00000 
 43692.65567		 305.27265			43387.38302		66.22000		324.00000 
 43692.65567		 931.09353			42761.56215		229.54400		875.00000 
 43692.65567		 305.27265			43387.38302		66.22000		324.00000 
 43692.65567		 931.09353			42761.56215		229.54400		875.00000 
 43692.65567		 305.27265			43387.38302		66.22000		324.00000 
 43692.65567		 931.09353			42761.56215		229.54400		875.00000 
 43692.65567		 305.27265			43387.38302		66.22000		324.00000 
 43692.65567		 931.09353			42761.56215		229.54400		875.00000 
 43692.65567		 305.27265			43387.38302		66.22000		324.00000 
 43692.65567		 931.09353			42761.56215		229.54400		875.00000 
 43692.65567		 305.27265			43387.38302		66.22000		324.00000 
 43692.65567		 931.09353			42761.56215		229.54400		875.00000 
 43692.65567		 305.27265			43387.38302		66.22000		324.00000 
 43692.65567		 931.09353			42761.56215		229.54400		875.00000 
 43692.65567		 305.27265			43387.38302		66.22000		324.00000 
 43692.65567		 931.09353			42761.56215		229.54400		875.00000 
 43692.65567		 305.27265			43387.38302		66.22000		324.00000 
 43692.65567		 931.09353			42761.56215		229.54400		875.00000 
 43692.65567		 305.27265			43387.38302		66.22000		324.00000 
 43692.65567		 931.09353			42761.56215		229.54400		875.00000 
 43692.65567		 305.27265			43387.38302		66.22000		324.00000 
 43692.65567		 931.09353			42761.56215		229.54400		875.00000 
 43692.65567		 305.27265			43387.38302		66.22000		324.00000 
 43692.65567		 931.09353			42761.56215		229.54400		875.00000 
 43692.65567		 305.27265			43387.38302		66.22000		324.00000 
 43692.65567		 931.09353			42761.56215		229.54400		875.00000 
 43692.65567		 305.27265			43387.38302		66.22000		324.00000 
 43692.65567		 931.09353			42761.56215		229.54400		875.00000 
 43692.65567		 305.27265			43387.38302		66.22000		324.00000 
 43692.65567		 931.09353			42761.56215		229.54400		875.00000 
 43692.65567		 305.27265			43387.38302		66.22000		324.00000 
 43692.65567		 931.09353			42761.56215		229.54400		875.00000 
 43692.65567		 305.27265			43387.38302		66.22000		324.00000 
 43692.65567		 931.09353			42761.56215		229.54400		875.00000 
 43692.65567		 305.27265			43387.38302		66.22000		324.00000 
 43692.65567		 931.09353			42761.56215		229.54400		875.00000 
 43692.65567		 305.27265			43387.38302		66.22000		324.00000 
 43692.65567		 931.09353			42761.56215		229.54400		875.00000 
 43692.65567		 305.27265			43387.38302		66.22000		324.00000 
 43692.65567		 931.09353			42761.56215		229.54400		875.00000 
 43692.65567		 305.27265			43387.38302		66.22000		324.00000 
 43692.65567		 931.09353			42761.56215		229.54400		875.00000 
 43692.65567		 305.27265			43387.38302		66.22000		324.00000 
 43692.65567		 931.09353			42761.56215		229.54400		875.00000 
 43692.65567		 305.27265			43387.38302		66.22000		324.00000 
 43692.65567		 931.09353			42761.56215		229.54400		875.00000 
 43692.65567		 305.27265			43387.38302		66.22000		324.00000 
 43692.65567		 931.09353			42761.56215		229.54400		875.00000 
 43692.65567		 305.27265			43387.38302		66.22000		324.00000 
 43692.65567		 931.09353			42761.56215		229.54400		875.00000 
 43692.65567		 305.27265			43387.38302		66.22000		324.00000 
 43692.65567		 931.09353			42761.56215		229.54400		875.00000 
 43692.65567		 305.27265			43387.38302		66.22000		324.00000 
 43692.65567		 931.09353			42761.56215		229.54400		875.00000 
 43692.65567		 305.27265			43387.38302		66.22000		324.00000 
 43692.65567		 931.09353			42761.56215		229.54400		875.00000 
 43692.65567		 305.27265			43387.38302		66.22000		324.00000 
 43692.65567		 931.09353			42761.56215		229.54400		875.00000 
 43692.65567		 305.27265			43387.38302		66.22000		324.00000 
 43692.65567		 931.09353			42761.56215		229.54400		875.00000 
 43692.65567		 305.27265			43387.38302		66.22000		324.00000 
 43692.65567		 931.09353			42761.56215		229.54400		875.00000 
 43692.65567		 305.27265			43387.38302		66.22000		324.00000 
 43692.65567		 931.09353			42761.56215		229.54400		875.00000 
 43692.65567		 305.27265			43387.38302		66.22000		324.00000 
 43692.65567		 931.09353			42761.56215		229.54400		875.00000 
 43692.65567		 305.27265			43387.38302		66.22000		324.00000 
 43692.65567		 931.09353			42761.56215		229.54400		875.00000 
 43692.65567		 305.27265			43387.38302		66.22000		324.00000 
 43692.65567		 931.09353			42761.56215		229.54400		875.00000 
 43692.65567		 305.27265			43387.38302		66.22000		324.00000 
 43692.65567		 931.09353			42761.56215		229.54400		875.00000 
 43692.65567		 305.27265			43387.38302		66.22000		324.00000 
 43692.65567		 931.09353			42761.56215		229.54400		875.00000 
 43692.65567		 305.27265			43387.38302		66.22000		324.00000 
 43692.65567		 931.09353			42761.56215		229.54400		875.00000 
 43692.65567		 305.27265			43387.38302		66.22000		324.00000 
 43692.65567		 931.09353			42761.56215		229.54400		875.00000 
 43692.65567		 305.27265			43387.38302		66.22000		324.00000 
 43692.65567		 931.09353			42761.56215		229.54400		875.00000 
 43692.65567		 305.27265			43387.38302		66.22000		324.00000 
 43692.65567		 931.09353			42761.56215		229.54400		875.00000 
 43692.65567		 305.27265			43387.38302		66.22000		324.00000 
 43692.65567		 931.09353			42761.56215		229.54400		875.00000 
 43692.65567		 305.27265			43387.38302		66.22000		324.00000 
 43692.65567		 931.09353			42761.56215		229.54400		875.00000 
 43692.65567		 305.27265			43387.38302		66.22000		324.00000 
 43692.65567		 931.09353			42761.56215		229.54400		875.00000 
 43692.65567		 305.27265			43387.38302		66.22000		324.00000 
 43692.65567		 931.09353			42761.56215		229.54400		875.00000 
 43692.65567		 305.27265			43387.38302		66.22000		324.00000 
 43692.65567		 931.09353			42761.56215		229.54400		875.00000 
 43692.65567		 305.27265			43387.38302		66.22000		324.00000 
 43692.65567		 931.09353			42761.56215		229.54400		875.00000 
 43692.65567		 305.27265			43387.38302		66.22000		324.00000 
 43692.65567		 931.09353			42761.56215		229.54400		875.00000 
 43692.65567		 305.27265			43387.38302		66.22000		324.00000 
 43692.65567		 931.09353			42761.56215		229.54400		875.00000 
 43692.65567		 305.27265			43387.38302		66.22000		324.00000 
 43692.65567		 931.09353			42761.56215		229.54400		875.00000 
 43692.65567		 305.27265			43387.38302		66.22000		324.00000 
 43692.65567		 931.09353			42761.56215		229.54400		875.00000 
 43692.65567		 305.27265			43387.38302		66.22000		324.00000 
 43692.65567		 931.09353			42761.56215		229.54400		875.00000 
 43692.65567		 305.27265			43387.38302		66.22000		324.00000 
 43692.65567		 931.09353			42761.56215		229.54400		875.00000 
 43692.65567		 305.27265			43387.38302		66.22000		324.00000 
 43692.65567		 931.09353			42761.56215		229.54400		875.00000 
 43692.65567		 305.27265			43387.38302		66.22000		324.00000 
 43692.65567		 931.09353			42761.56215		229.54400		875.00000 
 43692.65567		 305.27265			43387.38302		66.22000		324.00000 
 43692.65567		 931.09353			42761.56215		229.54400		875.00000 
 43692.65567		 305.27265			43387.38302		66.22000		324.00000 
 43692.65567		 931.09353			42761.56215		229.54400		875.00000 
 43692.65567		 305.27265			43387.38302		66.22000		324.00000 
 43692.65567		 931.09353			42761.56215		229.54400		875.00000 
 43692.65567		 305.27265			43387.38302		66.22000		324.00000 
 43692.65567		 931.09353			42761.56215		229.54400		875.00000 
 43692.65567		 305.27265			43387.38302		66.22000		324.00000 
 43692.65567		 931.09353			42761.56215		229.54400		875.00000 
 43692.65567		 305.27265			43387.38302		66.22000		324.00000 
 43692.65567		 931.09353			42761.56215		229.54400		875.00000 
 43692.65567		 305.27265			43387.38302		66.22000		324.00000 
 43692.65567		 931.09353			42761.56215		229.54400		875.00000 
 43692.65567		 305.27265			43387.38302		66.22000		324.00000 
 43692.65567		 931.09353			42761.56215		229.54400		875.00000 
 43692.65567		 305.27265			43387.38302		66.22000		324.00000 
 43692.65567		 931.09353			42761.56215		229.54400		875.00000 
 43692.65567		 305.27265			43387.38302		66.22000		324.00000 
 43692.65567		 931.09353			42761.56215		229.54400		875.00000 
 43692.65567		 305.27265			43387.38302		66.22000		324.00000 
 43692.65567		 931.09353			42761.56215		229.54400		875.00000 
 43692.65567		 305.27265			43387.38302		66.22000		324.00000 
 43692.65567		 931.09353			42761.56215		229.54400		875.00000 
 43692.65567		 305.27265			43387.38302		66.22000		324.00000 
 43692.65567		 931.09353			42761.56215		229.54400		875.00000 
 43692.65567		 305.27265			43387.38302		66.22000		324.00000 
 43692.65567		 931.09353			42761.56215		229.54400		875.00000 
 43692.65567		 305.27265			43387.38302		66.22000		324.00000 
 43692.65567		 931.09353			42761.56215		229.54400		875.00000 
 43692.65567		 305.27265			43387.38302		66.22000		324.00000 
 43692.65567		 931.09353			42761.56215		229.54400		875.00000 
 43692.65567		 305.27265			43387.38302		66.22000		324.00000 
 43692.65567		 931.09353			42761.56215		229.54400		875.00000 
 43692.65567		 305.27265			43387.38302		66.22000		324.00000 
 43692.65567		 931.09353			42761.56215		229.54400		875.00000 
 43692.65567		 305.27265			43387.38302		66.22000		324.00000 
 43692.65567		 931.09353			42761.56215		229.54400		875.00000 
 43692.65567		 305.27265			43387.38302		66.22000		324.00000 
 43692.65567		 931.09353			42761.56215		229.54400		875.00000 
 43692.65567		 305.27265			43387.38302		66.22000		324.00000 
 43692.65567		 931.09353			42761.56215		229.54400		875.00000 
 43692.65567		 305.27265			43387.38302		66.22000		324.00000 
 43692.65567		 931.09353			42761.56215		229.54400		875.00000 
 43692.65567		 305.27265			43387.38302		66.22000		324.00000 
 43692.65567		 931.09353			42761.56215		229.54400		875.00000 
 43692.65567		 305.27265			43387.38302		66.22000		324.00000 
 43692.65567		 931.09353			42761.56215		229.54400		875.00000 
 43692.65567		 305.27265			43387.38302		66.22000		324.00000 
 43692.65567		 931.09353			42761.56215		229.54400		875.00000 
 43692.65567		 305.27265			43387.38302		66.22000		324.00000 
 43692.65567		 931.09353			42761.56215		229.54400		875.00000 
 43692.65567		 305.27265			43387.38302		66.22000		324.00000 
 43692.65567		 931.09353			42761.56215		229.54400		875.00000 
 43692.65567		 305.27265			43387.38302		66.22000		324.00000 
 43692.65567		 931.09353			42761.56215		229.54400		875.00000 
 43692.65567		 305.27265			43387.38302		66.22000		324.00000 
 43692.65567		 931.09353			42761.56215		229.54400		875.00000 
 43692.65567		 305.27265			43387.38302		66.22000		324.00000 
 43692.65567		 931.09353			42761.56215		229.54400		875.00000 
 43692.65567		 305.27265			43387.38302		66.22000		324.00000 
 43692.65567		 931.09353			42761.56215		229.54400		875.00000 
 43692.65567		 305.27265			43387.38302		66.22000		324.00000 
 43692.65567		 931.09353			42761.56215		229.54400		875.00000 
 43692.65567		 305.27265			43387.38302		66.22000		324.00000 
 43692.65567		 931.09353			42761.56215		229.54400		875.00000 
 43692.65567		 305.27265			43387.38302		66.22000		324.00000 
 43692.65567		 931.09353			42761.56215		229.54400		875.00000 
 43692.65567		 305.27265			43387.38302		66.22000		324.00000 
 43692.65567		 931.09353			42761.56215		229.54400		875.00000 
 43692.65567		 305.27265			43387.38302		66.22000		324.00000 
 43692.65567		 931.09353			42761.56215		229.54400		875.00000 
 43692.65567		 305.27265			43387.38302		66.22000		324.00000 
 43692.65567		 931.09353			42761.56215		229.54400		875.00000 
 43692.65567		 305.27265			43387.38302		66.22000		324.00000 
 43692.65567		 931.09353			42761.56215		229.54400		875.00000 
 43692.65567		 305.27265			43387.38302		66.22000		324.00000 
 43692.65567		 931.09353			42761.56215		229.54400		875.00000 
 43692.65567		 305.27265			43387.38302		66.22000		324.00000 
 43692.65567		 931.09353			42761.56215		229.54400		875.00000 
 43692.65567		 305.27265			43387.38302		66.22000		324.00000 
 43692.65567		 931.09353			42761.56215		229.54400		875.00000 
 43692.65567		 305.27265			43387.38302		66.22000		324.00000 
 43692.65567		 931.09353			42761.56215		229.54400		875.00000 
 43692.65567		 305.27265			43387.38302		66.22000		324.00000 
 43692.65567		 931.09353			42761.56215		229.54400		875.00000 
 43692.65567		 305.27265			43387.38302		66.22000		324.00000 
 43692.65567		 931.09353			42761.56215		229.54400		875.00000 
 43692.65567		 305.27265			43387.38302		66.22000		324.00000 
 43692.65567		 931.09353			42761.56215		229.54400		875.00000 
 43692.65567		 305.27265			43387.38302		66.22000		324.00000 
 43692.65567		 931.09353			42761.56215		229.54400		875.00000 
 43692.65567		 305.27265			43387.38302		66.22000		324.00000 
 43692.65567		 931.09353			42761.56215		228.94600		875.00000 
 43692.65567		 305.27265			43387.38302		66.22000		324.00000 
 43692.65567		 931.09353			42761.56215		228.94600		875.00000 
 43692.65567		 305.27265			43387.38302		66.22000		324.00000 
 43692.65567		 931.09353			42761.56215		228.94600		875.00000 
 43692.65567		 305.27265			43387.38302		66.22000		324.00000 
 43692.65567		 931.09353			42761.56215		228.94600		875.00000 
 43692.65567		 305.27265			43387.38302		66.22000		324.00000 
 43692.65567		 931.09353			42761.56215		228.94600		875.00000 
 43692.65567		 305.27265			43387.38302		66.22000		324.00000 
 43692.65567		 931.09353			42761.56215		228.94600		875.00000 
 43692.65567		 305.27265			43387.38302		66.22000		324.00000 
 43692.65567		 931.09353			42761.56215		228.94600		875.00000 
 43692.65567		 305.27265			43387.38302		66.22000		324.00000 
 43692.65567		 931.09353			42761.56215		228.94600		875.00000 
 43692.65567		 305.27265			43387.38302		66.22000		324.00000 
 43692.65567		 931.09353			42761.56215		228.94600		875.00000 
 43692.65567		 305.27265			43387.38302		66.22000		324.00000 
 43692.65567		 931.09353			42761.56215		228.94600		875.00000 
 43692.65567		 305.27265			43387.38302		66.22000		324.00000 
 43692.65567		 931.09353			42761.56215		228.94600		875.00000 
 43692.65567		 305.27265			43387.38302		66.22000		324.00000 
 43692.65567		 931.09353			42761.56215		228.94600		875.00000 
 43692.65567		 305.27265			43387.38302		66.22000		324.00000 
 43692.65567		 931.09353			42761.56215		228.94600		875.00000 
 43692.65567		 305.27265			43387.38302		66.22000		324.00000 
 43692.65567		 931.09353			42761.56215		228.94600		875.00000 
 43692.65567		 305.27265			43387.38302		66.22000		324.00000 
 43692.65567		 931.09353			42761.56215		228.94600		875.00000 
 43692.65567		 305.27265			43387.38302		66.22000		324.00000 
 43692.65567		 931.09353			42761.56215		228.94600		875.00000 
 43692.65567		 305.27265			43387.38302		66.22000		324.00000 
 43692.65567		 931.09353			42761.56215		228.94600		875.00000 
 43692.65567		 305.27265			43387.38302		66.22000		324.00000 
 43692.65567		 931.09353			42761.56215		228.94600		875.00000 
 43692.65567		 305.27265			43387.38302		66.22000		324.00000 
 43692.65567		 931.09353			42761.56215		228.94600		875.00000 
 43692.65567		 305.27265			43387.38302		66.22000		324.00000 
 43692.65567		 931.09353			42761.56215		228.94600		875.00000 
 43692.65567		 305.27265			43387.38302		66.22000		324.00000 
 43692.65567		 931.09353			42761.56215		228.94600		875.00000 
 43692.65567		 305.27265			43387.38302		66.22000		324.00000 
 43692.65567		 931.09353			42761.56215		228.94600		875.00000 
 43692.65567		 305.27265			43387.38302		66.22000		324.00000 
 43692.65567		 931.09353			42761.56215		228.94600		875.00000 
 43692.65567		 305.27265			43387.38302		66.22000		324.00000 
 43692.65567		 931.09353			42761.56215		228.94600		875.00000 
 43692.65567		 305.27265			43387.38302		66.22000		324.00000 
 43692.65567		 931.09353			42761.56215		228.94600		875.00000 
 43692.65567		 305.27265			43387.38302		66.22000		324.00000 
 43692.65567		 931.09353			42761.56215		228.94600		875.00000 
 43692.65567		 305.27265			43387.38302		66.22000		324.00000 
 43692.65567		 931.09353			42761.56215		228.94600		875.00000 
 43692.65567		 305.27265			43387.38302		66.22000		324.00000 
 43692.65567		 931.09353			42761.56215		228.94600		875.00000 
 43692.65567		 305.27265			43387.38302		66.22000		324.00000 
 43692.65567		 931.09353			42761.56215		228.94600		875.00000 
 43692.65567		 305.27265			43387.38302		66.22000		324.00000 
 43692.65567		 931.09353			42761.56215		228.94600		875.00000 
 43692.65567		 305.27265			43387.38302		66.22000		324.00000 
 43692.65567		 931.09353			42761.56215		228.94600		875.00000 
 43692.65567		 305.27265			43387.38302		66.22000		324.00000 
 43692.65567		 931.09353			42761.56215		228.94600		875.00000 
 43692.65567		 305.27265			43387.38302		66.22000		324.00000 
 43692.65567		 931.09353			42761.56215		228.94600		875.00000 
 43692.65567		 305.27265			43387.38302		66.22000		324.00000 
 43692.65567		 931.09353			42761.56215		228.94600		875.00000 
 43692.65567		 305.27265			43387.38302		66.22000		324.00000 
 43692.65567		 931.09353			42761.56215		228.94600		875.00000 
 43692.65567		 305.27265			43387.38302		66.22000		324.00000 
 43692.65567		 931.09353			42761.56215		228.94600		875.00000 
 43692.65567		 305.27265			43387.38302		66.22000		324.00000 
 43692.65567		 931.09353			42761.56215		228.94600		875.00000 
 43692.65567		 305.27265			43387.38302		66.22000		324.00000 
 43692.65567		 931.09353			42761.56215		228.94600		875.00000 
 43692.65567		 305.27265			43387.38302		66.22000		324.00000 
 43692.65567		 931.09353			42761.56215		228.94600		875.00000 
 43692.65567		 305.27265			43387.38302		66.22000		324.00000 
 43692.65567		 931.09353			42761.56215		228.94600		875.00000 
 43692.65567		 305.27265			43387.38302		66.22000		324.00000 
 43692.65567		 931.09353			42761.56215		228.94600		875.00000 
 43692.65567		 305.27265			43387.38302		66.22000		324.00000 
 43692.65567		 931.09353			42761.56215		228.94600		875.00000 
 43692.65567		 305.27265			43387.38302		66.22000		324.00000 
 43692.65567		 931.09353			42761.56215		228.94600		875.00000 
 43692.65567		 305.27265			43387.38302		66.22000		324.00000 
 43692.65567		 931.09353			42761.56215		228.94600		875.00000 
 43692.65567		 305.27265			43387.38302		66.22000		324.00000 
 43692.65567		 931.09353			42761.56215		228.94600		875.00000 
 43692.65567		 305.27265			43387.38302		66.22000		324.00000 
 43692.65567		 931.09353			42761.56215		228.94600		875.00000 
 43692.65567		 305.27265			43387.38302		66.22000		324.00000 
 43692.65567		 931.09353			42761.56215		228.94600		875.00000 
 43692.65567		 305.27265			43387.38302		66.22000		324.00000 
 43692.65567		 931.09353			42761.56215		228.94600		875.00000 
 43692.65567		 305.27265			43387.38302		66.22000		324.00000 
 43692.65567		 931.09353			42761.56215		228.94600		875.00000 
 43692.65567		 305.27265			43387.38302		66.22000		324.00000 
 43692.65567		 931.09353			42761.56215		228.94600		875.00000 
 43692.65567		 305.27265			43387.38302		66.22000		324.00000 
 43692.65567		 931.09353			42761.56215		228.94600		875.00000 
 43692.65567		 305.27265			43387.38302		66.22000		324.00000 
 43692.65567		 931.09353			42761.56215		228.94600		875.00000 
 43692.65567		 305.27265			43387.38302		66.22000		324.00000 
 43692.65567		 931.09353			42761.56215		228.94600		875.00000 
 43692.65567		 305.27265			43387.38302		66.22000		324.00000 
 43692.65567		 931.09353			42761.56215		228.94600		875.00000 
 43692.65567		 305.27265			43387.38302		66.22000		324.00000 
 43692.65567		 931.09353			42761.56215		228.94600		875.00000 
 43692.65567		 305.27265			43387.38302		66.22000		324.00000 
 43692.65567		 931.09353			42761.56215		228.94600		875.00000 
 43692.65567		 305.27265			43387.38302		66.22000		324.00000 
 43692.65567		 931.09353			42761.56215		228.94600		875.00000 
 43692.65567		 305.27265			43387.38302		66.22000		324.00000 
 43692.65567		 931.09353			42761.56215		228.94600		875.00000 
 43692.65567		 305.27265			43387.38302		66.22000		324.00000 
 43692.65567		 931.09353			42761.56215		228.94600		875.00000 
 43692.65567		 305.27265			43387.38302		66.22000		324.00000 
 43692.65567		 931.09353			42761.56215		228.94600		875.00000 
 43692.65567		 305.27265			43387.38302		66.22000		324.00000 
 43692.65567		 931.09353			42761.56215		228.94600		875.00000 
 43692.65567		 305.27265			43387.38302		66.22000		324.00000 
 43692.65567		 931.09353			42761.56215		228.94600		875.00000 
 43692.65567		 305.27265			43387.38302		66.22000		324.00000 
 43692.65567		 931.09353			42761.56215		228.94600		875.00000 
 43692.65567		 305.27265			43387.38302		66.22000		324.00000 
 43692.65567		 931.09353			42761.56215		228.94600		875.00000 
 43692.65567		 305.27265			43387.38302		66.22000		324.00000 
 43692.65567		 931.09353			42761.56215		229.54400		875.00000 
 43692.65567		 305.27265			43387.38302		70.72000		324.00000 
 43692.65567		 931.09353			42761.56215		229.54400		875.00000 
 43692.65567		 305.27265			43387.38302		70.72000		324.00000 
 43692.65567		 931.09353			42761.56215		229.54400		875.00000 
 43692.65567		 305.27265			43387.38302		70.72000		324.00000 
 43692.65567		 931.09353			42761.56215		229.54400		875.00000 
 43692.65567		 305.27265			43387.38302		70.72000		324.00000 
 43692.65567		 931.09353			42761.56215		229.54400		875.00000 
 43692.65567		 305.27265			43387.38302		70.72000		324.00000 
 43692.65567		 931.09353			42761.56215		229.54400		875.00000 
 43692.65567		 305.27265			43387.38302		70.72000		324.00000 
 43692.65567		 931.09353			42761.56215		229.54400		875.00000 
 43692.65567		 305.27265			43387.38302		70.72000		324.00000 
 43692.65567		 931.09353			42761.56215		229.54400		875.00000 
 43692.65567		 305.27265			43387.38302		70.72000		324.00000 
 43692.65567		 931.09353			42761.56215		229.54400		875.00000 
 43692.65567		 305.27265			43387.38302		70.72000		324.00000 
 43692.65567		 931.09353			42761.56215		229.54400		875.00000 
 43692.65567		 305.27265			43387.38302		70.72000		324.00000 
 43692.65567		 931.09353			42761.56215		229.54400		875.00000 
 43692.65567		 305.27265			43387.38302		70.72000		324.00000 
 43692.65567		 931.09353			42761.56215		229.54400		875.00000 
 43692.65567		 305.27265			43387.38302		70.72000		324.00000 
 43692.65567		 931.09353			42761.56215		229.54400		875.00000 
 43692.65567		 305.27265			43387.38302		70.72000		324.00000 
 43692.65567		 931.09353			42761.56215		229.54400		875.00000 
 43692.65567		 305.27265			43387.38302		70.72000		324.00000 
 43692.65567		 931.09353			42761.56215		229.54400		875.00000 
 43692.65567		 305.27265			43387.38302		70.72000		324.00000 
 43692.65567		 931.09353			42761.56215		229.54400		875.00000 
 43692.65567		 305.27265			43387.38302		70.72000		324.00000 
 43692.65567		 931.09353			42761.56215		229.54400		875.00000 
 43692.65567		 305.27265			43387.38302		70.72000		324.00000 
 43692.65567		 931.09353			42761.56215		229.54400		875.00000 
 43692.65567		 305.27265			43387.38302		70.72000		324.00000 
 43692.65567		 931.09353			42761.56215		229.54400		875.00000 
 43692.65567		 305.27265			43387.38302		70.72000		324.00000 
 43692.65567		 931.09353			42761.56215		229.54400		875.00000 
 43692.65567		 305.27265			43387.38302		70.72000		324.00000 
 43692.65567		 931.09353			42761.56215		229.54400		875.00000 
 43692.65567		 305.27265			43387.38302		70.72000		324.00000 
 43692.65567		 931.09353			42761.56215		229.54400		875.00000 
 43692.65567		 305.27265			43387.38302		70.72000		324.00000 
 43692.65567		 931.09353			42761.56215		229.54400		875.00000 
 43692.65567		 305.27265			43387.38302		70.72000		324.00000 
 43692.65567		 931.09353			42761.56215		229.54400		875.00000 
 43692.65567		 305.27265			43387.38302		70.72000		324.00000 
 43692.65567		 931.09353			42761.56215		229.54400		875.00000 
 43692.65567		 305.27265			43387.38302		70.72000		324.00000 
 43692.65567		 931.09353			42761.56215		229.54400		875.00000 
 43692.65567		 305.27265			43387.38302		70.72000		324.00000 
 43692.65567		 931.09353			42761.56215		229.54400		875.00000 
 43692.65567		 305.27265			43387.38302		70.72000		324.00000 
 43692.65567		 931.09353			42761.56215		229.54400		875.00000 
 43692.65567		 305.27265			43387.38302		70.72000		324.00000 
 43692.65567		 931.09353			42761.56215		229.54400		875.00000 
 43692.65567		 305.27265			43387.38302		70.72000		324.00000 
 43692.65567		 931.09353			42761.56215		229.54400		875.00000 
 43692.65567		 305.27265			43387.38302		70.72000		324.00000 
 43692.65567		 931.09353			42761.56215		229.54400		875.00000 
 43692.65567		 305.27265			43387.38302		70.72000		324.00000 
 43692.65567		 931.09353			42761.56215		229.54400		875.00000 
 43692.65567		 305.27265			43387.38302		70.72000		324.00000 
 43692.65567		 931.09353			42761.56215		229.54400		875.00000 
 43692.65567		 305.27265			43387.38302		70.72000		324.00000 
 43692.65567		 931.09353			42761.56215		229.54400		875.00000 
 43692.65567		 305.27265			43387.38302		70.72000		324.00000 
 43692.65567		 931.09353			42761.56215		229.54400		875.00000 
 43692.65567		 305.27265			43387.38302		70.72000		324.00000 
 43692.65567		 931.09353			42761.56215		229.54400		875.00000 
 43692.65567		 305.27265			43387.38302		70.72000		324.00000 
 43692.65567		 931.09353			42761.56215		229.54400		875.00000 
 43692.65567		 305.27265			43387.38302		70.72000		324.00000 
 43692.65567		 931.09353			42761.56215		229.54400		875.00000 
 43692.65567		 305.27265			43387.38302		70.72000		324.00000 
 43692.65567		 931.09353			42761.56215		229.54400		875.00000 
 43692.65567		 305.27265			43387.38302		70.72000		324.00000 
 43692.65567		 931.09353			42761.56215		229.54400		875.00000 
 43692.65567		 305.27265			43387.38302		70.72000		324.00000 
 43692.65567		 931.09353			42761.56215		229.54400		875.00000 
 43692.65567		 305.27265			43387.38302		70.72000		324.00000 
 43692.65567		 931.09353			42761.56215		229.54400		875.00000 
 43692.65567		 305.27265			43387.38302		70.72000		324.00000 
 43692.65567		 931.09353			42761.56215		229.54400		875.00000 
 43692.65567		 305.27265			43387.38302		70.72000		324.00000 
 43692.65567		 931.09353			42761.56215		229.54400		875.00000 
 43692.65567		 305.27265			43387.38302		70.72000		324.00000 
 43692.65567		 931.09353			42761.56215		229.54400		875.00000 
 43692.65567		 305.27265			43387.38302		70.72000		324.00000 
 43692.65567		 931.09353			42761.56215		229.54400		875.00000 
 43692.65567		 305.27265			43387.38302		70.72000		324.00000 
 43692.65567		 931.09353			42761.56215		229.54400		875.00000 
 43692.65567		 305.27265			43387.38302		70.72000		324.00000 
 43692.65567		 931.09353			42761.56215		229.54400		875.00000 
 43692.65567		 305.27265			43387.38302		70.72000		324.00000 
 43692.65567		 931.09353			42761.56215		229.54400		875.00000 
 43692.65567		 305.27265			43387.38302		70.72000		324.00000 
 43692.65567		 931.09353			42761.56215		229.54400		875.00000 
 43692.65567		 305.27265			43387.38302		70.72000		324.00000 
 43692.65567		 931.09353			42761.56215		229.54400		875.00000 
 43692.65567		 305.27265			43387.38302		70.72000		324.00000 
 43692.65567		 931.09353			42761.56215		229.54400		875.00000 
 43692.65567		 305.27265			43387.38302		70.72000		324.00000 
 43692.65567		 931.09353			42761.56215		229.54400		875.00000 
 43692.65567		 305.27265			43387.38302		70.72000		324.00000 
 43692.65567		 931.09353			42761.56215		229.54400		875.00000 
 43692.65567		 305.27265			43387.38302		70.72000		324.00000 
 43692.65567		 931.09353			42761.56215		229.54400		875.00000 
 43692.65567		 305.27265			43387.38302		70.72000		324.00000 
 43692.65567		 931.09353			42761.56215		229.54400		875.00000 
 43692.65567		 305.27265			43387.38302		70.72000		324.00000 
 43692.65567		 931.09353			42761.56215		229.54400		875.00000 
 43692.65567		 305.27265			43387.38302		70.72000		324.00000 
 43692.65567		 931.09353			42761.56215		229.54400		875.00000 
 43692.65567		 305.27265			43387.38302		70.72000		324.00000 
 43692.65567		 931.09353			42761.56215		229.54400		875.00000 
 43692.65567		 305.27265			43387.38302		70.72000		324.00000 
 43692.65567		 931.09353			42761.56215		229.54400		875.00000 
 43692.65567		 305.27265			43387.38302		70.72000		324.00000 
 43692.65567		 931.09353			42761.56215		229.54400		875.00000 
 43692.65567		 305.27265			43387.38302		70.72000		324.00000 
 43692.65567		 931.09353			42761.56215		229.54400		875.00000 
 43692.65567		 305.27265			43387.38302		70.72000		324.00000 
 43692.65567		 931.09353			42761.56215		229.54400		875.00000 
 43692.65567		 305.27265			43387.38302		70.72000		324.00000 
 43692.65567		 931.09353			42761.56215		229.54400		875.00000 
 43692.65567		 305.27265			43387.38302		70.72000		324.00000 
 43692.65567		 931.09353			42761.56215		229.54400		875.00000 
 43692.65567		 305.27265			43387.38302		70.72000		324.00000 
 43692.65567		 931.09353			42761.56215		229.54400		875.00000 
 43692.65567		 305.27265			43387.38302		70.72000		324.00000 
 43692.65567		 931.09353			42761.56215		229.54400		875.00000 
 43692.65567		 305.27265			43387.38302		70.72000		324.00000 
 43692.65567		 931.09353			42761.56215		229.54400		875.00000 
 43692.65567		 305.27265			43387.38302		70.72000		324.00000 
 43692.65567		 931.09353			42761.56215		229.54400		875.00000 
 43692.65567		 305.27265			43387.38302		70.72000		324.00000 
 43692.65567		 931.09353			42761.56215		229.54400		875.00000 
 43692.65567		 305.27265			43387.38302		70.72000		324.00000 
 43692.65567		 931.09353			42761.56215		229.54400		875.00000 
 43692.65567		 305.27265			43387.38302		70.72000		324.00000 
 43692.65567		 931.09353			42761.56215		229.54400		875.00000 
 43692.65567		 305.27265			43387.38302		70.72000		324.00000 
 43692.65567		 931.09353			42761.56215		229.54400		875.00000 
 43692.65567		 305.27265			43387.38302		70.72000		324.00000 
 43692.65567		 931.09353			42761.56215		229.54400		875.00000 
 43692.65567		 305.27265			43387.38302		70.72000		324.00000 
 43692.65567		 931.09353			42761.56215		229.54400		875.00000 
 43692.65567		 305.27265			43387.38302		70.72000		324.00000 
 43692.65567		 931.09353			42761.56215		229.54400		875.00000 
 43692.65567		 305.27265			43387.38302		70.72000		324.00000 
 43692.65567		 931.09353			42761.56215		229.54400		875.00000 
 43692.65567		 305.27265			43387.38302		70.72000		324.00000 
 43692.65567		 931.09353			42761.56215		229.54400		875.00000 
 43692.65567		 305.27265			43387.38302		70.72000		324.00000 
 43692.65567		 931.09353			42761.56215		229.54400		875.00000 
 43692.65567		 305.27265			43387.38302		70.72000		324.00000 
 43692.65567		 931.09353			42761.56215		229.54400		875.00000 
 43692.65567		 305.27265			43387.38302		70.72000		324.00000 
 43692.65567		 931.09353			42761.56215		229.54400		875.00000 
 43692.65567		 305.27265			43387.38302		70.72000		324.00000 
 43692.65567		 931.09353			42761.56215		229.54400		875.00000 
 43692.65567		 305.27265			43387.38302		70.72000		324.00000 
 43692.65567		 931.09353			42761.56215		229.54400		875.00000 
 43692.65567		 305.27265			43387.38302		70.72000		324.00000 
 43692.65567		 931.09353			42761.56215		229.54400		875.00000 
 43692.65567		 305.27265			43387.38302		70.72000		324.00000 
 43692.65567		 931.09353			42761.56215		229.54400		875.00000 
 43692.65567		 305.27265			43387.38302		70.72000		324.00000 
 43692.65567		 931.09353			42761.56215		229.54400		875.00000 
 43692.65567		 305.27265			43387.38302		70.72000		324.00000 
 43692.65567		 931.09353			42761.56215		229.54400		875.00000 
 43692.65567		 305.27265			43387.38302		70.72000		324.00000 
 43692.65567		 931.09353			42761.56215		229.54400		875.00000 
 43692.65567		 305.27265			43387.38302		70.72000		324.00000 
 43692.65567		 931.09353			42761.56215		229.54400		875.00000 
 43692.65567		 305.27265			43387.38302		70.72000		324.00000 
 43692.65567		 931.09353			42761.56215		229.54400		875.00000 
 43692.65567		 305.27265			43387.38302		70.72000		324.00000 
 43692.65567		 931.09353			42761.56215		229.54400		875.00000 
 43692.65567		 305.27265			43387.38302		70.72000		324.00000 
 43692.65567		 931.09353			42761.56215		229.54400		875.00000 
 43692.65567		 305.27265			43387.38302		70.72000		324.00000 
 43692.65567		 931.09353			42761.56215		229.54400		875.00000 
 43692.65567		 305.27265			43387.38302		70.72000		324.00000 
 43692.65567		 931.09353			42761.56215		229.54400		875.00000 
 43692.65567		 305.27265			43387.38302		70.72000		324.00000 
 43692.65567		 931.09353			42761.56215		229.54400		875.00000 
 43692.65567		 305.27265			43387.38302		70.72000		324.00000 
 43692.65567		 931.09353			42761.56215		229.54400		875.00000 
 43692.65567		 305.27265			43387.38302		70.72000		324.00000 
 43692.65567		 931.09353			42761.56215		229.54400		875.00000 
 43692.65567		 305.27265			43387.38302		70.72000		324.00000 
 43692.65567		 931.09353			42761.56215		229.54400		875.00000 
 43692.65567		 305.27265			43387.38302		70.72000		324.00000 
 43692.65567		 931.09353			42761.56215		229.54400		875.00000 
 43692.65567		 305.27265			43387.38302		70.72000		324.00000 
 43692.65567		 931.09353			42761.56215		229.54400		875.00000 
 43692.65567		 305.27265			43387.38302		70.72000		324.00000 
 43692.65567		 931.09353			42761.56215		229.54400		875.00000 
 43692.65567		 305.27265			43387.38302		70.72000		324.00000 
 43692.65567		 931.09353			42761.56215		229.54400		875.00000 
 43692.65567		 305.27265			43387.38302		70.72000		324.00000 
 43692.65567		 931.09353			42761.56215		229.54400		875.00000 
 43692.65567		 305.27265			43387.38302		70.72000		324.00000 
 43692.65567		 931.09353			42761.56215		229.54400		875.00000 
 43692.65567		 305.27265			43387.38302		70.72000		324.00000 
 43692.65567		 931.09353			42761.56215		229.54400		875.00000 
 43692.65567		 305.27265			43387.38302		70.72000		324.00000 
 43692.65567		 931.09353			42761.56215		229.54400		875.00000 
 43692.65567		 305.27265			43387.38302		70.72000		324.00000 
 43692.65567		 931.09353			42761.56215		229.54400		875.00000 
 43692.65567		 305.27265			43387.38302		70.72000		324.00000 
 43692.65567		 931.09353			42761.56215		229.54400		875.00000 
 43692.65567		 305.27265			43387.38302		70.72000		324.00000 
 43692.65567		 931.09353			42761.56215		229.54400		875.00000 
 43692.65567		 305.27265			43387.38302		70.72000		324.00000 
 43692.65567		 931.09353			42761.56215		229.54400		875.00000 
 43692.65567		 305.27265			43387.38302		70.72000		324.00000 
 43692.65567		 931.09353			42761.56215		229.54400		875.00000 
 43692.65567		 305.27265			43387.38302		70.72000		324.00000 
 43692.65567		 931.09353			42761.56215		229.54400		875.00000 
 43692.65567		 305.27265			43387.38302		70.72000		324.00000 
 43692.65567		 931.09353			42761.56215		229.54400		875.00000 
 43692.65567		 305.27265			43387.38302		70.72000		324.00000 
 43692.65567		 931.09353			42761.56215		229.54400		875.00000 
 43692.65567		 305.27265			43387.38302		70.72000		324.00000 
 43692.65567		 931.09353			42761.56215		229.54400		875.00000 
 43692.65567		 305.27265			43387.38302		70.72000		324.00000 
 43692.65567		 931.09353			42761.56215		229.54400		875.00000 
 43692.65567		 305.27265			43387.38302		70.72000		324.00000 
 43692.65567		 931.09353			42761.56215		229.54400		875.00000 
 43692.65567		 305.27265			43387.38302		70.72000		324.00000 
 43692.65567		 931.09353			42761.56215		229.54400		875.00000 
 43692.65567		 305.27265			43387.38302		70.72000		324.00000 
 43692.65567		 931.09353			42761.56215		229.54400		875.00000 
 43692.65567		 305.27265			43387.38302		70.72000		324.00000 
 43692.65567		 931.09353			42761.56215		229.54400		875.00000 
 43692.65567		 305.27265			43387.38302		70.72000		324.00000 
 43692.65567		 931.09353			42761.56215		229.54400		875.00000 
 43692.65567		 305.27265			43387.38302		70.72000		324.00000 
 43692.65567		 931.09353			42761.56215		229.54400		875.00000 
 43692.65567		 305.27265			43387.38302		70.72000		324.00000 
 43692.65567		 931.09353			42761.56215		229.54400		875.00000 
 43692.65567		 305.27265			43387.38302		70.72000		324.00000 
 43692.65567		 931.09353			42761.56215		229.54400		875.00000 
 43692.65567		 305.27265			43387.38302		70.72000		324.00000 
 43692.65567		 931.09353			42761.56215		229.54400		875.00000 
 43692.65567		 305.27265			43387.38302		70.72000		324.00000 
 43692.65567		 931.09353			42761.56215		229.54400		875.00000 
 43692.65567		 305.27265			43387.38302		70.72000		324.00000 
 43692.65567		 931.09353			42761.56215		229.54400		875.00000 
 43692.65567		 305.27265			43387.38302		70.72000		324.00000 
 43692.65567		 931.09353			42761.56215		228.94600		875.00000 
 43692.65567		 305.27265			43387.38302		70.72000		324.00000 
 43692.65567		 931.09353			42761.56215		228.94600		875.00000 
 43692.65567		 305.27265			43387.38302		70.72000		324.00000 
 43692.65567		 931.09353			42761.56215		228.94600		875.00000 
 43692.65567		 305.27265			43387.38302		70.72000		324.00000 
 43692.65567		 931.09353			42761.56215		228.94600		875.00000 
 43692.65567		 305.27265			43387.38302		70.72000		324.00000 
 43692.65567		 931.09353			42761.56215		228.94600		875.00000 
 43692.65567		 305.27265			43387.38302		70.72000		324.00000 
 43692.65567		 931.09353			42761.56215		228.94600		875.00000 
 43692.65567		 305.27265			43387.38302		70.72000		324.00000 
 43692.65567		 931.09353			42761.56215		228.94600		875.00000 
 43692.65567		 305.27265			43387.38302		70.72000		324.00000 
 43692.65567		 931.09353			42761.56215		228.94600		875.00000 
 43692.65567		 305.27265			43387.38302		70.72000		324.00000 
 43692.65567		 931.09353			42761.56215		228.94600		875.00000 
 43692.65567		 305.27265			43387.38302		70.72000		324.00000 
 43692.65567		 931.09353			42761.56215		228.94600		875.00000 
 43692.65567		 305.27265			43387.38302		70.72000		324.00000 
 43692.65567		 931.09353			42761.56215		228.94600		875.00000 
 43692.65567		 305.27265			43387.38302		70.72000		324.00000 
 43692.65567		 931.09353			42761.56215		228.94600		875.00000 
 43692.65567		 305.27265			43387.38302		70.72000		324.00000 
 43692.65567		 931.09353			42761.56215		228.94600		875.00000 
 43692.65567		 305.27265			43387.38302		70.72000		324.00000 
 43692.65567		 931.09353			42761.56215		228.94600		875.00000 
 43692.65567		 305.27265			43387.38302		70.72000		324.00000 
 43692.65567		 931.09353			42761.56215		228.94600		875.00000 
 43692.65567		 305.27265			43387.38302		70.72000		324.00000 
 43692.65567		 931.09353			42761.56215		228.94600		875.00000 
 43692.65567		 305.27265			43387.38302		70.72000		324.00000 
 43692.65567		 931.09353			42761.56215		228.94600		875.00000 
 43692.65567		 305.27265			43387.38302		70.72000		324.00000 
 43692.65567		 931.09353			42761.56215		228.94600		875.00000 
 43692.65567		 305.27265			43387.38302		70.72000		324.00000 
 43692.65567		 931.09353			42761.56215		228.94600		875.00000 
 43692.65567		 305.27265			43387.38302		70.72000		324.00000 
 43692.65567		 931.09353			42761.56215		228.94600		875.00000 
 43692.65567		 305.27265			43387.38302		70.72000		324.00000 
 43692.65567		 931.09353			42761.56215		228.94600		875.00000 
 43692.65567		 305.27265			43387.38302		70.72000		324.00000 
 43692.65567		 931.09353			42761.56215		228.94600		875.00000 
 43692.65567		 305.27265			43387.38302		70.72000		324.00000 
 43692.65567		 931.09353			42761.56215		228.94600		875.00000 
 43692.65567		 305.27265			43387.38302		70.72000		324.00000 
 43692.65567		 931.09353			42761.56215		228.94600		875.00000 
 43692.65567		 305.27265			43387.38302		70.72000		324.00000 
 43692.65567		 931.09353			42761.56215		228.94600		875.00000 
 43692.65567		 305.27265			43387.38302		70.72000		324.00000 
 43692.65567		 931.09353			42761.56215		228.94600		875.00000 
 43692.65567		 305.27265			43387.38302		70.72000		324.00000 
 43692.65567		 931.09353			42761.56215		228.94600		875.00000 
 43692.65567		 305.27265			43387.38302		70.72000		324.00000 
 43692.65567		 931.09353			42761.56215		228.94600		875.00000 
 43692.65567		 305.27265			43387.38302		70.72000		324.00000 
 43692.65567		 931.09353			42761.56215		228.94600		875.00000 
 43692.65567		 305.27265			43387.38302		70.72000		324.00000 
 43692.65567		 931.09353			42761.56215		228.94600		875.00000 
 43692.65567		 305.27265			43387.38302		70.72000		324.00000 
 43692.65567		 931.09353			42761.56215		228.94600		875.00000 
 43692.65567		 305.27265			43387.38302		70.72000		324.00000 
 43692.65567		 931.09353			42761.56215		228.94600		875.00000 
 43692.65567		 305.27265			43387.38302		70.72000		324.00000 
 43692.65567		 931.09353			42761.56215		228.94600		875.00000 
 43692.65567		 305.27265			43387.38302		70.72000		324.00000 
 43692.65567		 931.09353			42761.56215		228.94600		875.00000 
 43692.65567		 305.27265			43387.38302		70.72000		324.00000 
 43692.65567		 931.09353			42761.56215		228.94600		875.00000 
 43692.65567		 305.27265			43387.38302		70.72000		324.00000 
 43692.65567		 931.09353			42761.56215		228.94600		875.00000 
 43692.65567		 305.27265			43387.38302		70.72000		324.00000 
 43692.65567		 931.09353			42761.56215		228.94600		875.00000 
 43692.65567		 305.27265			43387.38302		70.72000		324.00000 
 43692.65567		 931.09353			42761.56215		228.94600		875.00000 
 43692.65567		 305.27265			43387.38302		70.72000		324.00000 
 43692.65567		 931.09353			42761.56215		228.94600		875.00000 
 43692.65567		 305.27265			43387.38302		70.72000		324.00000 
 43692.65567		 931.09353			42761.56215		228.94600		875.00000 
 43692.65567		 305.27265			43387.38302		70.72000		324.00000 
 43692.65567		 931.09353			42761.56215		228.94600		875.00000 
 43692.65567		 305.27265			43387.38302		70.72000		324.00000 
 43692.65567		 931.09353			42761.56215		228.94600		875.00000 
 43692.65567		 305.27265			43387.38302		70.72000		324.00000 
 43692.65567		 931.09353			42761.56215		228.94600		875.00000 
 43692.65567		 305.27265			43387.38302		70.72000		324.00000 
 43692.65567		 931.09353			42761.56215		228.94600		875.00000 
 43692.65567		 305.27265			43387.38302		70.72000		324.00000 
 43692.65567		 931.09353			42761.56215		228.94600		875.00000 
 43692.65567		 305.27265			43387.38302		70.72000		324.00000 
 43692.65567		 931.09353			42761.56215		228.94600		875.00000 
 43692.65567		 305.27265			43387.38302		70.72000		324.00000 
 43692.65567		 931.09353			42761.56215		228.94600		875.00000 
 43692.65567		 305.27265			43387.38302		70.72000		324.00000 
 43692.65567		 931.09353			42761.56215		228.94600		875.00000 
 43692.65567		 305.27265			43387.38302		70.72000		324.00000 
 43692.65567		 931.09353			42761.56215		228.94600		875.00000 
 43692.65567		 305.27265			43387.38302		70.72000		324.00000 
 43692.65567		 931.09353			42761.56215		228.94600		875.00000 
 43692.65567		 305.27265			43387.38302		70.72000		324.00000 
 43692.65567		 931.09353			42761.56215		228.94600		875.00000 
 43692.65567		 305.27265			43387.38302		70.72000		324.00000 
 43692.65567		 931.09353			42761.56215		228.94600		875.00000 
 43692.65567		 305.27265			43387.38302		70.72000		324.00000 
 43692.65567		 931.09353			42761.56215		228.94600		875.00000 
 43692.65567		 305.27265			43387.38302		70.72000		324.00000 
 43692.65567		 931.09353			42761.56215		228.94600		875.00000 
 43692.65567		 305.27265			43387.38302		70.72000		324.00000 
 43692.65567		 931.09353			42761.56215		228.94600		875.00000 
 43692.65567		 305.27265			43387.38302		70.72000		324.00000 
 43692.65567		 931.09353			42761.56215		228.94600		875.00000 
 43692.65567		 305.27265			43387.38302		70.72000		324.00000 
 43692.65567		 931.09353			42761.56215		228.94600		875.00000 
 43692.65567		 305.27265			43387.38302		70.72000		324.00000 
 43692.65567		 931.09353			42761.56215		228.94600		875.00000 
 43692.65567		 305.27265			43387.38302		70.72000		324.00000 
 43692.65567		 931.09353			42761.56215		228.94600		875.00000 
 43692.65567		 305.27265			43387.38302		70.72000		324.00000 
 43692.65567		 931.09353			42761.56215		228.94600		875.00000 
 43692.65567		 305.27265			43387.38302		70.72000		324.00000 
 43692.65567		 931.09353			42761.56215		228.94600		875.00000 
 43692.65567		 305.27265			43387.38302		70.72000		324.00000 
 43692.65567		 931.09353			42761.56215		228.94600		875.00000 
 43692.65567		 305.27265			43387.38302		70.72000		324.00000 
 43692.65567		 931.09353			42761.56215		228.94600		875.00000 
 43692.65567		 305.27265			43387.38302		70.72000		324.00000 
 43692.65567		 931.09353			42761.56215		228.94600		875.00000 
 43692.65567		 305.27265			43387.38302		70.72000		324.00000 
 43692.65567		 931.09353			42761.56215		229.54400		875.00000 
 43692.65567		 305.27265			43387.38302		70.72000		324.00000 
 43692.65567		 931.09353			42761.56215		229.54400		875.00000 
 43692.65567		 305.27265			43387.38302		70.72000		324.00000 
 43692.65567		 931.09353			42761.56215		229.54400		875.00000 
 43692.65567		 305.27265			43387.38302		70.72000		324.00000 
 43692.65567		 931.09353			42761.56215		229.54400		875.00000 
 43692.65567		 305.27265			43387.38302		70.72000		324.00000 
 43692.65567		 931.09353			42761.56215		229.54400		875.00000 
 43692.65567		 305.27265			43387.38302		70.72000		324.00000 
 43692.65567		 931.09353			42761.56215		229.54400		875.00000 
 43692.65567		 305.27265			43387.38302		70.72000		324.00000 
 43692.65567		 931.09353			42761.56215		229.54400		875.00000 
 43692.65567		 305.27265			43387.38302		70.72000		324.00000 
 43692.65567		 931.09353			42761.56215		229.54400		875.00000 
 43692.65567		 305.27265			43387.38302		70.72000		324.00000 
 43692.65567		 931.09353			42761.56215		229.54400		875.00000 
 43692.65567		 305.27265			43387.38302		70.72000		324.00000 
 43692.65567		 931.09353			42761.56215		229.54400		875.00000 
 43692.65567		 305.27265			43387.38302		70.72000		324.00000 
 43692.65567		 931.09353			42761.56215		229.54400		875.00000 
 43692.65567		 305.27265			43387.38302		70.72000		324.00000 
 43692.65567		 931.09353			42761.56215		229.54400		875.00000 
 43692.65567		 305.27265			43387.38302		70.72000		324.00000 
 43692.65567		 931.09353			42761.56215		229.54400		875.00000 
 43692.65567		 305.27265			43387.38302		70.72000		324.00000 
 43692.65567		 931.09353			42761.56215		229.54400		875.00000 
 43692.65567		 305.27265			43387.38302		70.72000		324.00000 
 43692.65567		 931.09353			42761.56215		229.54400		875.00000 
 43692.65567		 305.27265			43387.38302		70.72000		324.00000 
 43692.65567		 931.09353			42761.56215		229.54400		875.00000 
 43692.65567		 305.27265			43387.38302		70.72000		324.00000 
 43692.65567		 931.09353			42761.56215		229.54400		875.00000 
 43692.65567		 305.27265			43387.38302		70.72000		324.00000 
 43692.65567		 931.09353			42761.56215		229.54400		875.00000 
 43692.65567		 305.27265			43387.38302		70.72000		324.00000 
 43692.65567		 931.09353			42761.56215		229.54400		875.00000 
 43692.65567		 305.27265			43387.38302		70.72000		324.00000 
 43692.65567		 931.09353			42761.56215		229.54400		875.00000 
 43692.65567		 305.27265			43387.38302		70.72000		324.00000 
 43692.65567		 931.09353			42761.56215		229.54400		875.00000 
 43692.65567		 305.27265			43387.38302		70.72000		324.00000 
 43692.65567		 931.09353			42761.56215		229.54400		875.00000 
 43692.65567		 305.27265			43387.38302		70.72000		324.00000 
 43692.65567		 931.09353			42761.56215		229.54400		875.00000 
 43692.65567		 305.27265			43387.38302		70.72000		324.00000 
 43692.65567		 931.09353			42761.56215		229.54400		875.00000 
 43692.65567		 305.27265			43387.38302		70.72000		324.00000 
 43692.65567		 931.09353			42761.56215		229.54400		875.00000 
 43692.65567		 305.27265			43387.38302		70.72000		324.00000 
 43692.65567		 931.09353			42761.56215		229.54400		875.00000 
 43692.65567		 305.27265			43387.38302		70.72000		324.00000 
 43692.65567		 931.09353			42761.56215		229.54400		875.00000 
 43692.65567		 305.27265			43387.38302		70.72000		324.00000 
 43692.65567		 931.09353			42761.56215		229.54400		875.00000 
 43692.65567		 305.27265			43387.38302		70.72000		324.00000 
 43692.65567		 931.09353			42761.56215		229.54400		875.00000 
 43692.65567		 305.27265			43387.38302		70.72000		324.00000 
 43692.65567		 931.09353			42761.56215		229.54400		875.00000 
 43692.65567		 305.27265			43387.38302		70.72000		324.00000 
 43692.65567		 931.09353			42761.56215		229.54400		875.00000 
 43692.65567		 305.27265			43387.38302		70.72000		324.00000 
 43692.65567		 931.09353			42761.56215		229.54400		875.00000 
 43692.65567		 305.27265			43387.38302		70.72000		324.00000 
 43692.65567		 931.09353			42761.56215		229.54400		875.00000 
 43692.65567		 305.27265			43387.38302		70.72000		324.00000 
 43692.65567		 931.09353			42761.56215		229.54400		875.00000 
 43692.65567		 305.27265			43387.38302		70.72000		324.00000 
 43692.65567		 931.09353			42761.56215		229.54400		875.00000 
 43692.65567		 305.27265			43387.38302		70.72000		324.00000 
 43692.65567		 931.09353			42761.56215		229.54400		875.00000 
 43692.65567		 305.27265			43387.38302		70.72000		324.00000 
 43692.65567		 931.09353			42761.56215		229.54400		875.00000 
 43692.65567		 305.27265			43387.38302		70.72000		324.00000 
 43692.65567		 931.09353			42761.56215		229.54400		875.00000 
 43692.65567		 305.27265			43387.38302		70.72000		324.00000 
 43692.65567		 931.09353			42761.56215		229.54400		875.00000 
 43692.65567		 305.27265			43387.38302		70.72000		324.00000 
 43692.65567		 931.09353			42761.56215		229.54400		875.00000 
 43692.65567		 305.27265			43387.38302		70.72000		324.00000 
 43692.65567		 931.09353			42761.56215		229.54400		875.00000 
 43692.65567		 305.27265			43387.38302		70.72000		324.00000 
 43692.65567		 931.09353			42761.56215		229.54400		875.00000 
 43692.65567		 305.27265			43387.38302		70.72000		324.00000 
 43692.65567		 931.09353			42761.56215		229.54400		875.00000 
 43692.65567		 305.27265			43387.38302		70.72000		324.00000 
 43692.65567		 931.09353			42761.56215		229.54400		875.00000 
 43692.65567		 305.27265			43387.38302		70.72000		324.00000 
 43692.65567		 931.09353			42761.56215		229.54400		875.00000 
 43692.65567		 305.27265			43387.38302		70.72000		324.00000 
 43692.65567		 931.09353			42761.56215		229.54400		875.00000 
 43692.65567		 305.27265			43387.38302		70.72000		324.00000 
 43692.65567		 931.09353			42761.56215		229.54400		875.00000 
 43692.65567		 305.27265			43387.38302		70.72000		324.00000 
 43692.65567		 931.09353			42761.56215		229.54400		875.00000 
 43692.65567		 305.27265			43387.38302		70.72000		324.00000 
 43692.65567		 931.09353			42761.56215		229.54400		875.00000 
 43692.65567		 305.27265			43387.38302		70.72000		324.00000 
 43692.65567		 931.09353			42761.56215		229.54400		875.00000 
 43692.65567		 305.27265			43387.38302		70.72000		324.00000 
 43692.65567		 931.09353			42761.56215		229.54400		875.00000 
 43692.65567		 305.27265			43387.38302		70.72000		324.00000 
 43692.65567		 931.09353			42761.56215		229.54400		875.00000 
 43692.65567		 305.27265			43387.38302		70.72000		324.00000 
 43692.65567		 931.09353			42761.56215		229.54400		875.00000 
 43692.65567		 305.27265			43387.38302		70.72000		324.00000 
 43692.65567		 931.09353			42761.56215		229.54400		875.00000 
 43692.65567		 305.27265			43387.38302		70.72000		324.00000 
 43692.65567		 931.09353			42761.56215		229.54400		875.00000 
 43692.65567		 305.27265			43387.38302		70.72000		324.00000 
 43692.65567		 931.09353			42761.56215		229.54400		875.00000 
 43692.65567		 305.27265			43387.38302		70.72000		324.00000 
 43692.65567		 931.09353			42761.56215		229.54400		875.00000 
 43692.65567		 305.27265			43387.38302		70.72000		324.00000 
 43692.65567		 931.09353			42761.56215		229.54400		875.00000 
 43692.65567		 305.27265			43387.38302		70.72000		324.00000 
 43692.65567		 931.09353			42761.56215		229.54400		875.00000 
 43692.65567		 305.27265			43387.38302		70.72000		324.00000 
 43692.65567		 931.09353			42761.56215		229.54400		875.00000 
 43692.65567		 305.27265			43387.38302		70.72000		324.00000 
 43692.65567		 931.09353			42761.56215		229.54400		875.00000 
 43692.65567		 305.27265			43387.38302		70.72000		324.00000 
 43692.65567		 931.09353			42761.56215		229.54400		875.00000 
 43692.65567		 305.27265			43387.38302		70.72000		324.00000 
 43692.65567		 931.09353			42761.56215		229.54400		875.00000 
 43692.65567		 305.27265			43387.38302		70.72000		324.00000 
 43692.65567		 931.09353			42761.56215		229.54400		875.00000 
 43692.65567		 305.27265			43387.38302		70.72000		324.00000 
 43692.65567		 931.09353			42761.56215		229.54400		875.00000 
 43692.65567		 305.27265			43387.38302		70.72000		324.00000 
 43692.65567		 931.09353			42761.56215		228.94600		875.00000 
 43692.65567		 305.27265			43387.38302		70.72000		324.00000 
 43692.65567		 931.09353			42761.56215		228.94600		875.00000 
 43692.65567		 305.27265			43387.38302		70.72000		324.00000 
 43692.65567		 931.09353			42761.56215		228.94600		875.00000 
 43692.65567		 305.27265			43387.38302		70.72000		324.00000 
 43692.65567		 931.09353			42761.56215		228.94600		875.00000 
 43692.65567		 305.27265			43387.38302		70.72000		324.00000 
 43692.65567		 931.09353			42761.56215		228.94600		875.00000 
 43692.65567		 305.27265			43387.38302		70.72000		324.00000 
 43692.65567		 931.09353			42761.56215		228.94600		875.00000 
 43692.65567		 305.27265			43387.38302		70.72000		324.00000 
 43692.65567		 931.09353			42761.56215		228.94600		875.00000 
 43692.65567		 305.27265			43387.38302		70.72000		324.00000 
 43692.65567		 931.09353			42761.56215		228.94600		875.00000 
 43692.65567		 305.27265			43387.38302		70.72000		324.00000 
 43692.65567		 931.09353			42761.56215		228.94600		875.00000 
 43692.65567		 305.27265			43387.38302		70.72000		324.00000 
 43692.65567		 931.09353			42761.56215		228.94600		875.00000 
 43692.65567		 305.27265			43387.38302		70.72000		324.00000 
 43692.65567		 931.09353			42761.56215		228.94600		875.00000 
 43692.65567		 305.27265			43387.38302		70.72000		324.00000 
 43692.65567		 931.09353			42761.56215		228.94600		875.00000 
 43692.65567		 305.27265			43387.38302		70.72000		324.00000 
 43692.65567		 931.09353			42761.56215		228.94600		875.00000 
 43692.65567		 305.27265			43387.38302		70.72000		324.00000 
 43692.65567		 931.09353			42761.56215		228.94600		875.00000 
 43692.65567		 305.27265			43387.38302		70.72000		324.00000 
 43692.65567		 931.09353			42761.56215		228.94600		875.00000 
 43692.65567		 305.27265			43387.38302		70.72000		324.00000 
 43692.65567		 931.09353			42761.56215		228.94600		875.00000 
 43692.65567		 305.27265			43387.38302		70.72000		324.00000 
 43692.65567		 931.09353			42761.56215		228.94600		875.00000 
 43692.65567		 305.27265			43387.38302		70.72000		324.00000 
 43692.65567		 931.09353			42761.56215		228.94600		875.00000 
 43692.65567		 305.27265			43387.38302		70.72000		324.00000 
 43692.65567		 931.09353			42761.56215		228.94600		875.00000 
 43692.65567		 305.27265			43387.38302		70.72000		324.00000 
 43692.65567		 931.09353			42761.56215		228.94600		875.00000 
 43692.65567		 305.27265			43387.38302		70.72000		324.00000 
 43692.65567		 931.09353			42761.56215		228.94600		875.00000 
 43692.65567		 305.27265			43387.38302		70.72000		324.00000 
 43692.65567		 931.09353			42761.56215		228.94600		875.00000 
 43692.65567		 305.27265			43387.38302		70.72000		324.00000 
 43692.65567		 931.09353			42761.56215		228.94600		875.00000 
 43692.65567		 305.27265			43387.38302		70.72000		324.00000 
 43692.65567		 931.09353			42761.56215		228.94600		875.00000 
 43692.65567		 305.27265			43387.38302		70.72000		324.00000 
 43692.65567		 931.09353			42761.56215		228.94600		875.00000 
 43692.65567		 305.27265			43387.38302		70.72000		324.00000 
 43692.65567		 931.09353			42761.56215		228.94600		875.00000 
 43692.65567		 305.27265			43387.38302		70.72000		324.00000 
 43692.65567		 931.09353			42761.56215		228.94600		875.00000 
 43692.65567		 305.27265			43387.38302		70.72000		324.00000 
 43692.65567		 931.09353			42761.56215		228.94600		875.00000 
 43692.65567		 305.27265			43387.38302		70.72000		324.00000 
 43692.65567		 931.09353			42761.56215		228.94600		875.00000 
 43692.65567		 305.27265			43387.38302		70.72000		324.00000 
 43692.65567		 931.09353			42761.56215		228.94600		875.00000 
 43692.65567		 305.27265			43387.38302		70.72000		324.00000 
 43692.65567		 931.09353			42761.56215		228.94600		875.00000 
 43692.65567		 305.27265			43387.38302		70.72000		324.00000 
 43692.65567		 931.09353			42761.56215		228.94600		875.00000 
 43692.65567		 305.27265			43387.38302		70.72000		324.00000 
 43692.65567		 931.09353			42761.56215		228.94600		875.00000 
 43692.65567		 305.27265			43387.38302		70.72000		324.00000 
 43692.65567		 931.09353			42761.56215		228.94600		875.00000 
 43692.65567		 305.27265			43387.38302		70.72000		324.00000 
 43692.65567		 931.09353			42761.56215		228.94600		875.00000 
 43692.65567		 305.27265			43387.38302		70.72000		324.00000 
 43692.65567		 931.09353			42761.56215		228.94600		875.00000 
 43692.65567		 305.27265			43387.38302		70.72000		324.00000 
 43692.65567		 931.09353			42761.56215		228.94600		875.00000 
 43692.65567		 305.27265			43387.38302		70.72000		324.00000 
 43692.65567		 931.09353			42761.56215		228.94600		875.00000 
 43692.65567		 305.27265			43387.38302		70.72000		324.00000 
 43692.65567		 931.09353			42761.56215		228.94600		875.00000 
 43692.65567		 305.27265			43387.38302		70.72000		324.00000 
 43692.65567		 931.09353			42761.56215		228.94600		875.00000 
 43692.65567		 305.27265			43387.38302		70.72000		324.00000 
 43692.65567		 931.09353			42761.56215		228.94600		875.00000 
 43692.65567		 305.27265			43387.38302		70.72000		324.00000 
 43692.65567		 931.09353			42761.56215		228.94600		875.00000 
 43692.65567		 305.27265			43387.38302		70.72000		324.00000 
 43692.65567		 931.09353			42761.56215		228.94600		875.00000 
 43692.65567		 305.27265			43387.38302		70.72000		324.00000 
 43692.65567		 931.09353			42761.56215		228.94600		875.00000 
 43692.65567		 305.27265			43387.38302		70.72000		324.00000 
 43692.65567		 931.09353			42761.56215		228.94600		875.00000 
 43692.65567		 305.27265			43387.38302		70.72000		324.00000 
 43692.65567		 931.09353			42761.56215		228.94600		875.00000 
 43692.65567		 305.27265			43387.38302		70.72000		324.00000 
 43692.65567		 931.09353			42761.56215		228.94600		875.00000 
 43692.65567		 305.27265			43387.38302		70.72000		324.00000 
 43692.65567		 931.09353			42761.56215		228.94600		875.00000 
 43692.65567		 305.27265			43387.38302		70.72000		324.00000 
 43692.65567		 931.09353			42761.56215		228.94600		875.00000 
 43692.65567		 305.27265			43387.38302		70.72000		324.00000 
 43692.65567		 931.09353			42761.56215		228.94600		875.00000 
 43692.65567		 305.27265			43387.38302		70.72000		324.00000 
 43692.65567		 931.09353			42761.56215		228.94600		875.00000 
 43692.65567		 305.27265			43387.38302		70.72000		324.00000 
 43692.65567		 931.09353			42761.56215		228.94600		875.00000 
 43692.65567		 305.27265			43387.38302		70.72000		324.00000 
 43692.65567		 931.09353			42761.56215		228.94600		875.00000 
 43692.65567		 305.27265			43387.38302		70.72000		324.00000 
 43692.65567		 931.09353			42761.56215		228.94600		875.00000 
 43692.65567		 305.27265			43387.38302		70.72000		324.00000 
 43692.65567		 931.09353			42761.56215		228.94600		875.00000 
 43692.65567		 305.27265			43387.38302		70.72000		324.00000 
 43692.65567		 931.09353			42761.56215		228.94600		875.00000 
 43692.65567		 305.27265			43387.38302		70.72000		324.00000 
 43692.65567		 931.09353			42761.56215		228.94600		875.00000 
 43692.65567		 305.27265			43387.38302		70.72000		324.00000 
 43692.65567		 931.09353			42761.56215		228.94600		875.00000 
 43692.65567		 305.27265			43387.38302		70.72000		324.00000 
 43692.65567		 931.09353			42761.56215		228.94600		875.00000 
 43692.65567		 305.27265			43387.38302		70.72000		324.00000 
 43692.65567		 931.09353			42761.56215		228.94600		875.00000 
 43692.65567		 305.27265			43387.38302		70.72000		324.00000 
 43692.65567		 931.09353			42761.56215		228.94600		875.00000 
 43692.65567		 305.27265			43387.38302		70.72000		324.00000 
 43692.65567		 931.09353			42761.56215		228.94600		875.00000 
 43692.65567		 305.27265			43387.38302		70.72000		324.00000 
 43692.65567		 931.09353			42761.56215		228.94600		875.00000 
 43692.65567		 305.27265			43387.38302		70.72000		324.00000 
 43692.65567		 931.09353			42761.56215		228.94600		875.00000 
 43692.65567		 305.27265			43387.38302		70.72000		324.00000 
 43692.65567		 931.09353			42761.56215		228.94600		875.00000 
 43692.65567		 305.27265			43387.38302		70.72000		324.00000 
 43692.65567		 931.09353			42761.56215		228.94600		875.00000 
 43692.65567		 305.27265			43387.38302		70.72000		324.00000 
 43692.65567		 931.09353			42761.56215		228.94600		875.00000 
 43692.65567		 305.27265			43387.38302		70.72000		324.00000 
 43692.65567		 931.09353			42761.56215		228.94600		875.00000 
 43692.65567		 305.27265			43387.38302		70.72000		324.00000 
 43692.65567		 931.09353			42761.56215		228.94600		875.00000 
 43692.65567		 305.27265			43387.38302		70.72000		324.00000 
 43692.65567		 931.09353			42761.56215		228.94600		875.00000 
 43692.65567		 305.27265			43387.38302		70.72000		324.00000 
 43692.65567		 931.09353			42761.56215		228.94600		875.00000 
 43692.65567		 305.27265			43387.38302		70.72000		324.00000 
 43692.65567		 931.09353			42761.56215		228.94600		875.00000 
 43692.65567		 305.27265			43387.38302		70.72000		324.00000 
 43692.65567		 931.09353			42761.56215		228.94600		875.00000 
 43692.65567		 305.27265			43387.38302		70.72000		324.00000 
 43692.65567		 931.09353			42761.56215		228.94600		875.00000 
 43692.65567		 305.27265			43387.38302		70.72000		324.00000 
 43692.65567		 931.09353			42761.56215		228.94600		875.00000 
 43692.65567		 305.27265			43387.38302		70.72000		324.00000 
 43692.65567		 931.09353			42761.56215		228.94600		875.00000 
 43692.65567		 305.27265			43387.38302		70.72000		324.00000 
 43692.65567		 931.09353			42761.56215		228.94600		875.00000 
 43692.65567		 305.27265			43387.38302		70.72000		324.00000 
 43692.65567		 931.09353			42761.56215		228.94600		875.00000 
 43692.65567		 305.27265			43387.38302		70.72000		324.00000 
 43692.65567		 931.09353			42761.56215		228.94600		875.00000 
 43692.65567		 305.27265			43387.38302		70.72000		324.00000 
 43692.65567		 931.09353			42761.56215		228.94600		875.00000 
 43692.65567		 305.27265			43387.38302		70.72000		324.00000 
 43692.65567		 931.09353			42761.56215		228.94600		875.00000 
 43692.65567		 305.27265			43387.38302		70.72000		324.00000 
 43692.65567		 931.09353			42761.56215		228.94600		875.00000 
 43692.65567		 305.27265			43387.38302		70.72000		324.00000 
 43692.65567		 931.09353			42761.56215		228.94600		875.00000 
 43692.65567		 305.27265			43387.38302		70.72000		324.00000 
 43692.65567		 931.09353			42761.56215		228.94600		875.00000 
 43692.65567		 305.27265			43387.38302		70.72000		324.00000 
 43692.65567		 931.09353			42761.56215		228.94600		875.00000 
 43692.65567		 305.27265			43387.38302		70.72000		324.00000 
 43692.65567		 931.09353			42761.56215		228.94600		875.00000 
 43692.65567		 305.27265			43387.38302		70.72000		324.00000 
 43692.65567		 931.09353			42761.56215		228.94600		875.00000 
 43692.65567		 305.27265			43387.38302		70.72000		324.00000 
 43692.65567		 931.09353			42761.56215		228.94600		875.00000 
 43692.65567		 305.27265			43387.38302		70.72000		324.00000 
 43692.65567		 931.09353			42761.56215		228.94600		875.00000 
 43692.65567		 305.27265			43387.38302		70.72000		324.00000 
 43692.65567		 931.09353			42761.56215		228.94600		875.00000 
 43692.65567		 305.27265			43387.38302		70.72000		324.00000 
 43692.65567		 931.09353			42761.56215		228.94600		875.00000 
 43692.65567		 305.27265			43387.38302		70.72000		324.00000 
 43692.65567		 931.09353			42761.56215		228.94600		875.00000 
 43692.65567		 305.27265			43387.38302		70.72000		324.00000 
 43692.65567		 931.09353			42761.56215		228.94600		875.00000 
 43692.65567		 305.27265			43387.38302		70.72000		324.00000 
 43692.65567		 931.09353			42761.56215		228.94600		875.00000 
 43692.65567		 305.27265			43387.38302		70.72000		324.00000 
 43692.65567		 931.09353			42761.56215		228.94600		875.00000 
 43692.65567		 305.27265			43387.38302		70.72000		324.00000 
 43692.65567		 931.09353			42761.56215		228.94600		875.00000 
 43692.65567		 305.27265			43387.38302		70.72000		324.00000 
 43692.65567		 931.09353			42761.56215		228.94600		875.00000 
 43692.65567		 305.27265			43387.38302		70.72000		324.00000 
 43692.65567		 931.09353			42761.56215		228.94600		875.00000 
 43692.65567		 305.27265			43387.38302		70.72000		324.00000 
 43692.65567		 931.09353			42761.56215		228.94600		875.00000 
 43692.65567		 305.27265			43387.38302		70.72000		324.00000 
 43692.65567		 931.09353			42761.56215		228.94600		875.00000 
 43692.65567		 305.27265			43387.38302		70.72000		324.00000 
 43692.65567		 931.09353			42761.56215		228.94600		875.00000 
 43692.65567		 305.27265			43387.38302		70.72000		324.00000 
 43692.65567		 931.09353			42761.56215		228.94600		875.00000 
 43692.65567		 305.27265			43387.38302		70.72000		324.00000 
 43692.65567		 931.09353			42761.56215		228.94600		875.00000 
 43692.65567		 305.27265			43387.38302		70.72000		324.00000 
 43692.65567		 931.09353			42761.56215		228.94600		875.00000 
 43692.65567		 305.27265			43387.38302		70.72000		324.00000 
 43692.65567		 931.09353			42761.56215		228.94600		875.00000 
 43692.65567		 305.27265			43387.38302		70.72000		324.00000 
 43692.65567		 931.09353			42761.56215		228.94600		875.00000 
 43692.65567		 305.27265			43387.38302		70.72000		324.00000 
 43692.65567		 931.09353			42761.56215		228.94600		875.00000 
 43692.65567		 305.27265			43387.38302		70.72000		324.00000 
 43692.65567		 931.09353			42761.56215		228.94600		875.00000 
 43692.65567		 305.27265			43387.38302		70.72000		324.00000 
 43692.65567		 931.09353			42761.56215		228.94600		875.00000 
 43692.65567		 305.27265			43387.38302		70.72000		324.00000 
 43692.65567		 931.09353			42761.56215		228.94600		875.00000 
 43692.65567		 305.27265			43387.38302		70.72000		324.00000 
 43692.65567		 931.09353			42761.56215		228.94600		875.00000 
 43692.65567		 305.27265			43387.38302		70.72000		324.00000 
 43692.65567		 931.09353			42761.56215		228.94600		875.00000 
 43692.65567		 305.27265			43387.38302		70.72000		324.00000 
 43692.65567		 931.09353			42761.56215		228.94600		875.00000 
 43692.65567		 305.27265			43387.38302		70.72000		324.00000 
 43692.65567		 931.09353			42761.56215		228.94600		875.00000 
 43692.65567		 305.27265			43387.38302		70.72000		324.00000 
 43692.65567		 931.09353			42761.56215		228.94600		875.00000 
 43692.65567		 305.27265			43387.38302		70.72000		324.00000 
 43692.65567		 931.09353			42761.56215		228.94600		875.00000 
 43692.65567		 305.27265			43387.38302		70.72000		324.00000 
 43692.65567		 931.09353			42761.56215		228.94600		875.00000 
 43692.65567		 305.27265			43387.38302		70.72000		324.00000 
 43692.65567		 931.09353			42761.56215		228.94600		875.00000 
 43692.65567		 305.27265			43387.38302		70.72000		324.00000 
 43692.65567		 931.09353			42761.56215		228.94600		875.00000 
 43692.65567		 305.27265			43387.38302		70.72000		324.00000 
 43692.65567		 931.09353			42761.56215		228.94600		875.00000 
 43692.65567		 305.27265			43387.38302		70.72000		324.00000 
 43692.65567		 931.09353			42761.56215		228.94600		875.00000 
 43692.65567		 305.27265			43387.38302		70.72000		324.00000 
 43692.65567		 931.09353			42761.56215		228.94600		875.00000 
 43692.65567		 305.27265			43387.38302		70.72000		324.00000 
 43692.65567		 931.09353			42761.56215		228.94600		875.00000 
 43692.65567		 305.27265			43387.38302		70.72000		324.00000 
 43692.65567		 931.09353			42761.56215		228.94600		875.00000 
 43692.65567		 305.27265			43387.38302		70.72000		324.00000 
 43692.65567		 931.09353			42761.56215		228.94600		875.00000 
 43692.65567		 305.27265			43387.38302		70.72000		324.00000 
 43692.65567		 931.09353			42761.56215		228.94600		875.00000 
 43692.65567		 305.27265			43387.38302		70.72000		324.00000 
 43692.65567		 931.09353			42761.56215		228.94600		875.00000 
 43692.65567		 305.27265			43387.38302		70.72000		324.00000 
 43692.65567		 931.09353			42761.56215		228.94600		875.00000 
 43692.65567		 305.27265			43387.38302		70.72000		324.00000 
 43692.65567		 931.09353			42761.56215		228.94600		875.00000 
 43692.65567		 305.27265			43387.38302		70.72000		324.00000 
 43692.65567		 931.09353			42761.56215		228.94600		875.00000 
 43692.65567		 305.27265			43387.38302		70.72000		324.00000 
 43692.65567		 931.09353			42761.56215		228.94600		875.00000 
 43692.65567		 305.27265			43387.38302		70.72000		324.00000 
 43692.65567		 931.09353			42761.56215		228.94600		875.00000 
 43692.65567		 305.27265			43387.38302		70.72000		324.00000 
 43692.65567		 931.09353			42761.56215		228.94600		875.00000 
 43692.65567		 305.27265			43387.38302		70.72000		324.00000 
 43692.65567		 931.09353			42761.56215		228.94600		875.00000 
 43692.65567		 305.27265			43387.38302		70.72000		324.00000 
 43692.65567		 931.09353			42761.56215		228.94600		875.00000 
 43692.65567		 305.27265			43387.38302		70.72000		324.00000 
 43692.65567		 931.09353			42761.56215		228.94600		875.00000 
 43692.65567		 305.27265			43387.38302		70.72000		324.00000 
 43692.65567		 931.09353			42761.56215		228.94600		875.00000 
 43692.65567		 305.27265			43387.38302		70.72000		324.00000 
 43692.65567		 931.09353			42761.56215		228.94600		875.00000 
 43692.65567		 305.27265			43387.38302		70.72000		324.00000 
 43692.65567		 931.09353			42761.56215		228.94600		875.00000 
 43692.65567		 305.27265			43387.38302		70.72000		324.00000 
 43692.65567		 931.09353			42761.56215		228.94600		875.00000 
 43692.65567		 305.27265			43387.38302		70.72000		324.00000 
 43692.65567		 931.09353			42761.56215		228.94600		875.00000 
 43692.65567		 305.27265			43387.38302		70.72000		324.00000 
 43692.65567		 931.09353			42761.56215		228.94600		875.00000 
 43692.65567		 305.27265			43387.38302		70.72000		324.00000 
 43692.65567		 931.09353			42761.56215		228.94600		875.00000 
 43692.65567		 305.27265			43387.38302		70.72000		324.00000 
 43692.65567		 931.09353			42761.56215		228.94600		875.00000 
 43692.65567		 305.27265			43387.38302		70.72000		324.00000 
 43692.65567		 931.09353			42761.56215		228.94600		875.00000 
 43692.65567		 305.27265			43387.38302		70.72000		324.00000 
 43692.65567		 931.09353			42761.56215		228.94600		875.00000 
 43692.65567		 305.27265			43387.38302		70.72000		324.00000 
 43692.65567		 931.09353			42761.56215		228.94600		875.00000 
 43692.65567		 305.27265			43387.38302		70.72000		324.00000 
 43692.65567		 931.09353			42761.56215		228.94600		875.00000 
 43692.65567		 305.27265			43387.38302		70.72000		324.00000 
 43692.65567		 931.09353			42761.56215		228.94600		875.00000 
 43692.65567		 305.27265			43387.38302		70.72000		324.00000 
 43692.65567		 931.09353			42761.56215		228.94600		875.00000 
 43692.65567		 305.27265			43387.38302		70.72000		324.00000 
 43692.65567		 931.09353			42761.56215		228.94600		875.00000 
 43692.65567		 305.27265			43387.38302		70.72000		324.00000 
 43692.65567		 931.09353			42761.56215		228.94600		875.00000 
 43692.65567		 305.27265			43387.38302		70.72000		324.00000 
 43692.65567		 931.09353			42761.56215		228.94600		875.00000 
 43692.65567		 305.27265			43387.38302		70.72000		324.00000 
 43692.65567		 931.09353			42761.56215		228.94600		875.00000 
 43692.65567		 305.27265			43387.38302		70.72000		324.00000 
 43692.65567		 931.09353			42761.56215		228.94600		875.00000 
 43692.65567		 305.27265			43387.38302		70.72000		324.00000 
 43692.65567		 931.09353			42761.56215		228.94600		875.00000 
 43692.65567		 305.27265			43387.38302		70.72000		324.00000 
 43692.65567		 931.09353			42761.56215		228.94600		875.00000 
 43692.65567		 305.27265			43387.38302		70.72000		324.00000 
 43692.65567		 931.09353			42761.56215		228.94600		875.00000 
 43692.65567		 305.27265			43387.38302		70.72000		324.00000 
 43692.65567		 931.09353			42761.56215		228.94600		875.00000 
 43692.65567		 305.27265			43387.38302		70.72000		324.00000 
 43692.65567		 931.09353			42761.56215		228.94600		875.00000 
 43692.65567		 305.27265			43387.38302		70.72000		324.00000 
 43692.65567		 931.09353			42761.56215		228.94600		875.00000 
 43692.65567		 305.27265			43387.38302		70.72000		324.00000 
 43692.65567		 931.09353			42761.56215		228.94600		875.00000 
 43692.65567		 305.27265			43387.38302		70.72000		324.00000 
 43692.65567		 931.09353			42761.56215		228.94600		875.00000 
 43692.65567		 305.27265			43387.38302		70.72000		324.00000 
 43692.65567		 931.09353			42761.56215		228.94600		875.00000 
 43692.65567		 305.27265			43387.38302		70.72000		324.00000 
 43692.65567		 931.09353			42761.56215		228.94600		875.00000 
 43692.65567		 305.27265			43387.38302		70.72000		324.00000 
 43692.65567		 931.09353			42761.56215		228.94600		875.00000 
 43692.65567		 305.27265			43387.38302		70.72000		324.00000 
 43692.65567		 931.09353			42761.56215		228.94600		875.00000 
 43692.65567		 305.27265			43387.38302		70.72000		324.00000 
 43692.65567		 931.09353			42761.56215		228.94600		875.00000 
 43692.65567		 305.27265			43387.38302		70.72000		324.00000 
 43692.65567		 931.09353			42761.56215		228.94600		875.00000 
 43692.65567		 305.27265			43387.38302		70.72000		324.00000 
 43692.65567		 931.09353			42761.56215		228.94600		875.00000 
 43692.65567		 305.27265			43387.38302		70.72000		324.00000 
 43692.65567		 931.09353			42761.56215		228.94600		875.00000 
 43692.65567		 305.27265			43387.38302		70.72000		324.00000 
 43692.65567		 931.09353			42761.56215		228.94600		875.00000 
 43692.65567		 305.27265			43387.38302		70.72000		324.00000 
 43692.65567		 931.09353			42761.56215		228.94600		875.00000 
 43692.65567		 305.27265			43387.38302		70.72000		324.00000 
 43692.65567		 931.09353			42761.56215		228.94600		875.00000 
 43692.65567		 305.27265			43387.38302		70.72000		324.00000 
 43692.65567		 931.09353			42761.56215		228.94600		875.00000 
 43692.65567		 305.27265			43387.38302		70.72000		324.00000 
 43692.65567		 931.09353			42761.56215		228.94600		875.00000 
 43692.65567		 305.27265			43387.38302		70.72000		324.00000 
 43692.65567		 931.09353			42761.56215		228.94600		875.00000 
 43692.65567		 305.27265			43387.38302		70.72000		324.00000 
 43692.65567		 931.09353			42761.56215		228.94600		875.00000 
 43692.65567		 305.27265			43387.38302		70.72000		324.00000 
 43692.65567		 931.09353			42761.56215		228.94600		875.00000 
 43692.65567		 305.27265			43387.38302		70.72000		324.00000 
 43692.65567		 931.09353			42761.56215		228.94600		875.00000 
 43692.65567		 305.27265			43387.38302		70.72000		324.00000 
 43692.65567		 931.09353			42761.56215		228.94600		875.00000 
 43692.65567		 305.27265			43387.38302		70.72000		324.00000 
 43692.65567		 931.09353			42761.56215		228.94600		875.00000 
 43692.65567		 305.27265			43387.38302		70.72000		324.00000 
 43692.65567		 931.09353			42761.56215		228.94600		875.00000 
 43692.65567		 305.27265			43387.38302		70.72000		324.00000 
 43692.65567		 931.09353			42761.56215		228.94600		875.00000 
 43692.65567		 305.27265			43387.38302		70.72000		324.00000 
 43692.65567		 931.09353			42761.56215		228.94600		875.00000 
 43692.65567		 305.27265			43387.38302		70.72000		324.00000 
 43692.65567		 931.09353			42761.56215		228.94600		875.00000 
 43692.65567		 305.27265			43387.38302		70.72000		324.00000 
 43692.65567		 931.09353			42761.56215		228.94600		875.00000 
 43692.65567		 305.27265			43387.38302		70.72000		324.00000 
 43692.65567		 931.09353			42761.56215		228.94600		875.00000 
 43692.65567		 305.27265			43387.38302		70.72000		324.00000 
 43692.65567		 931.09353			42761.56215		228.94600		875.00000 
 43692.65567		 305.27265			43387.38302		70.72000		324.00000 
 43692.65567		 931.09353			42761.56215		228.94600		875.00000 
 43692.65567		 305.27265			43387.38302		70.72000		324.00000 
 43692.65567		 931.09353			42761.56215		228.94600		875.00000 
 43692.65567		 305.27265			43387.38302		70.72000		324.00000 
 43692.65567		 931.09353			42761.56215		228.94600		875.00000 
 43692.65567		 305.27265			43387.38302		70.72000		324.00000 
 43692.65567		 931.09353			42761.56215		228.94600		875.00000 
 43692.65567		 305.27265			43387.38302		70.72000		324.00000 
 43692.65567		 931.09353			42761.56215		228.94600		875.00000 
 43692.65567		 305.27265			43387.38302		70.72000		324.00000 
 43692.65567		 931.09353			42761.56215		228.94600		875.00000 
 43692.65567		 305.27265			43387.38302		70.72000		324.00000 
 43692.65567		 931.09353			42761.56215		228.94600		875.00000 
 43692.65567		 305.27265			43387.38302		70.72000		324.00000 
 43692.65567		 931.09353			42761.56215		228.94600		875.00000 
 43692.65567		 305.27265			43387.38302		70.72000		324.00000 
 43692.65567		 931.09353			42761.56215		228.94600		875.00000 
 43692.65567		 305.27265			43387.38302		70.72000		324.00000 
 43692.65567		 931.09353			42761.56215		228.94600		875.00000 
 43692.65567		 305.27265			43387.38302		70.72000		324.00000 
 43692.65567		 931.09353			42761.56215		228.94600		875.00000 
 43692.65567		 305.27265			43387.38302		70.72000		324.00000 
 43692.65567		 931.09353			42761.56215		228.94600		875.00000 
 43692.65567		 305.27265			43387.38302		70.72000		324.00000 
 43692.65567		 931.09353			42761.56215		228.94600		875.00000 
 43692.65567		 305.27265			43387.38302		70.72000		324.00000 
 43692.65567		 931.09353			42761.56215		228.94600		875.00000 
 43692.65567		 305.27265			43387.38302		70.72000		324.00000 
 43692.65567		 931.09353			42761.56215		228.94600		875.00000 
 43692.65567		 305.27265			43387.38302		70.72000		324.00000 
 43692.65567		 931.09353			42761.56215		228.94600		875.00000 
 43692.65567		 305.27265			43387.38302		70.72000		324.00000 
 43692.65567		 931.09353			42761.56215		228.94600		875.00000 
 43692.65567		 305.27265			43387.38302		70.72000		324.00000 
 43692.65567		 931.09353			42761.56215		228.94600		875.00000 
 43692.65567		 305.27265			43387.38302		70.72000		324.00000 
 43692.65567		 931.09353			42761.56215		228.94600		875.00000 
 43692.65567		 305.27265			43387.38302		70.72000		324.00000 
 43692.65567		 931.09353			42761.56215		228.94600		875.00000 
 43692.65567		 305.27265			43387.38302		70.72000		324.00000 
 43692.65567		 931.09353			42761.56215		228.94600		875.00000 
 43692.65567		 305.27265			43387.38302		70.72000		324.00000 
 43692.65567		 931.09353			42761.56215		228.94600		875.00000 
 43692.65567		 305.27265			43387.38302		70.72000		324.00000 
 43692.65567		 931.09353			42761.56215		228.94600		875.00000 
 43692.65567		 305.27265			43387.38302		70.72000		324.00000 
 43692.65567		 931.09353			42761.56215		228.94600		875.00000 
 43692.65567		 305.27265			43387.38302		70.72000		324.00000 
 43692.65567		 931.09353			42761.56215		228.94600		875.00000 
 43692.65567		 305.27265			43387.38302		70.72000		324.00000 
 43692.65567		 931.09353			42761.56215		228.94600		875.00000 
 43692.65567		 305.27265			43387.38302		70.72000		324.00000 
 43692.65567		 931.09353			42761.56215		228.94600		875.00000 
 43692.65567		 305.27265			43387.38302		70.72000		324.00000 
 43692.65567		 931.09353			42761.56215		228.94600		875.00000 
 43692.65567		 305.27265			43387.38302		70.72000		324.00000 
 43692.65567		 931.09353			42761.56215		228.94600		875.00000 
 43692.65567		 305.27265			43387.38302		70.72000		324.00000 
 43692.65567		 931.09353			42761.56215		228.94600		875.00000 
 43692.65567		 305.27265			43387.38302		70.72000		324.00000 
 43692.65567		 931.09353			42761.56215		228.94600		875.00000 
 43692.65567		 305.27265			43387.38302		70.72000		324.00000 
 43692.65567		 931.09353			42761.56215		228.94600		875.00000 
 43692.65567		 305.27265			43387.38302		70.72000		324.00000 
 43692.65567		 931.09353			42761.56215		228.94600		875.00000 
 43692.65567		 305.27265			43387.38302		70.72000		324.00000 
 43692.65567		 931.09353			42761.56215		228.94600		875.00000 
 43692.65567		 305.27265			43387.38302		70.72000		324.00000 
 43692.65567		 931.09353			42761.56215		228.94600		875.00000 
 43692.65567		 305.27265			43387.38302		70.72000		324.00000 
 43692.65567		 931.09353			42761.56215		228.94600		875.00000 
 43692.65567		 305.27265			43387.38302		70.72000		324.00000 
 43692.65567		 931.09353			42761.56215		228.94600		875.00000 
 43692.65567		 305.27265			43387.38302		70.72000		324.00000 
 43692.65567		 931.09353			42761.56215		228.94600		875.00000 
 43692.65567		 305.27265			43387.38302		70.72000		324.00000 
 43692.65567		 931.09353			42761.56215		228.94600		875.00000 
 43692.65567		 305.27265			43387.38302		70.72000		324.00000 
 43692.65567		 931.09353			42761.56215		228.94600		875.00000 
 43692.65567		 305.27265			43387.38302		70.72000		324.00000 
 43692.65567		 931.09353			42761.56215		228.94600		875.00000 
 43692.65567		 305.27265			43387.38302		70.72000		324.00000 
 43692.65567		 931.09353			42761.56215		228.94600		875.00000 
 43692.65567		 305.27265			43387.38302		70.72000		324.00000 
 43692.65567		 931.09353			42761.56215		228.94600		875.00000 
 43692.65567		 305.27265			43387.38302		70.72000		324.00000 
 43692.65567		 931.09353			42761.56215		228.94600		875.00000 
 43692.65567		 305.27265			43387.38302		70.72000		324.00000 
 43692.65567		 931.09353			42761.56215		228.94600		875.00000 
 43692.65567		 305.27265			43387.38302		70.72000		324.00000 
 43692.65567		 931.09353			42761.56215		228.94600		875.00000 
 43692.65567		 305.27265			43387.38302		70.72000		324.00000 
 43692.65567		 931.09353			42761.56215		228.94600		875.00000 
 43692.65567		 305.27265			43387.38302		70.72000		324.00000 
 43692.65567		 931.09353			42761.56215		228.94600		875.00000 
 43692.65567		 305.27265			43387.38302		70.72000		324.00000 
 43692.65567		 931.09353			42761.56215		228.94600		875.00000 
 43692.65567		 305.27265			43387.38302		70.72000		324.00000 
 43692.65567		 931.09353			42761.56215		228.94600		875.00000 
 43692.65567		 305.27265			43387.38302		70.72000		324.00000 
 43692.65567		 931.09353			42761.56215		228.94600		875.00000 
 43692.65567		 305.27265			43387.38302		70.72000		324.00000 
 43692.65567		 931.09353			42761.56215		228.94600		875.00000 
 43692.65567		 305.27265			43387.38302		70.72000		324.00000 
 43692.65567		 931.09353			42761.56215		228.94600		875.00000 
 43692.65567		 305.27265			43387.38302		70.72000		324.00000 
 43692.65567		 931.09353			42761.56215		228.94600		875.00000 
 43692.65567		 305.27265			43387.38302		70.72000		324.00000 
 43692.65567		 931.09353			42761.56215		228.94600		875.00000 
 43692.65567		 305.27265			43387.38302		70.72000		324.00000 
 43692.65567		 931.09353			42761.56215		228.94600		875.00000 
 43692.65567		 305.27265			43387.38302		70.72000		324.00000 
 43692.65567		 931.09353			42761.56215		228.94600		875.00000 
 43692.65567		 305.27265			43387.38302		70.72000		324.00000 
 43692.65567		 931.09353			42761.56215		228.94600		875.00000 
 43692.65567		 305.27265			43387.38302		70.72000		324.00000 
 43692.65567		 931.09353			42761.56215		228.94600		875.00000 
 43692.65567		 305.27265			43387.38302		70.72000		324.00000 
 43692.65567		 931.09353			42761.56215		228.94600		875.00000 
 43692.65567		 305.27265			43387.38302		70.72000		324.00000 
 43692.65567		 931.09353			42761.56215		228.94600		875.00000 
 43692.65567		 305.27265			43387.38302		70.72000		324.00000 
 43692.65567		 931.09353			42761.56215		228.94600		875.00000 
 43692.65567		 305.27265			43387.38302		70.72000		324.00000 
 43692.65567		 931.09353			42761.56215		228.94600		875.00000 
 43692.65567		 305.27265			43387.38302		70.72000		324.00000 
 43692.65567		 931.09353			42761.56215		228.94600		875.00000 
 43692.65567		 305.27265			43387.38302		70.72000		324.00000 
 43692.65567		 931.09353			42761.56215		228.94600		875.00000 
 43692.65567		 305.27265			43387.38302		70.72000		324.00000 
 43692.65567		 931.09353			42761.56215		228.94600		875.00000 
 43692.65567		 305.27265			43387.38302		70.72000		324.00000 
 43692.65567		 931.09353			42761.56215		228.94600		875.00000 
 43692.65567		 305.27265			43387.38302		70.72000		324.00000 
 43692.65567		 931.09353			42761.56215		228.94600		875.00000 
 43692.65567		 305.27265			43387.38302		70.72000		324.00000 
 43692.65567		 931.09353			42761.56215		228.94600		875.00000 
 43692.65567		 305.27265			43387.38302		70.72000		324.00000 
 43692.65567		 931.09353			42761.56215		228.94600		875.00000 
 43692.65567		 305.27265			43387.38302		70.72000		324.00000 
 43692.65567		 931.09353			42761.56215		228.94600		875.00000 
 43692.65567		 305.27265			43387.38302		70.72000		324.00000 
 43692.65567		 931.09353			42761.56215		228.94600		875.00000 
 43692.65567		 305.27265			43387.38302		70.72000		324.00000 
 43692.65567		 931.09353			42761.56215		228.94600		875.00000 
 43692.65567		 305.27265			43387.38302		70.72000		324.00000 
 43692.65567		 931.09353			42761.56215		228.94600		875.00000 
 43692.65567		 305.27265			43387.38302		70.72000		324.00000 
 43692.65567		 931.09353			42761.56215		228.94600		875.00000 
 43692.65567		 305.27265			43387.38302		70.72000		324.00000 
 43692.65567		 931.09353			42761.56215		228.94600		875.00000 
 43692.65567		 305.27265			43387.38302		70.72000		324.00000 
 43692.65567		 931.09353			42761.56215		228.94600		875.00000 
 43692.65567		 305.27265			43387.38302		70.72000		324.00000 
 43692.65567		 931.09353			42761.56215		228.94600		875.00000 
 43692.65567		 305.27265			43387.38302		70.72000		324.00000 
 43692.65567		 931.09353			42761.56215		228.94600		875.00000 
 43692.65567		 305.27265			43387.38302		70.72000		324.00000 
 43692.65567		 931.09353			42761.56215		228.94600		875.00000 
 43692.65567		 305.27265			43387.38302		70.72000		324.00000 
 43692.65567		 931.09353			42761.56215		228.94600		875.00000 
 43692.65567		 305.27265			43387.38302		70.72000		324.00000 
 43692.65567		 931.09353			42761.56215		228.94600		875.00000 
 43692.65567		 305.27265			43387.38302		70.72000		324.00000 
 43692.65567		 931.09353			42761.56215		228.94600		875.00000 
 43692.65567		 305.27265			43387.38302		70.72000		324.00000 
 43692.65567		 931.09353			42761.56215		228.94600		875.00000 
 43692.65567		 305.27265			43387.38302		70.72000		324.00000 
 43692.65567		 931.09353			42761.56215		228.94600		875.00000 
 43692.65567		 305.27265			43387.38302		70.72000		324.00000 
 43692.65567		 931.09353			42761.56215		228.94600		875.00000 
 43692.65567		 305.27265			43387.38302		70.72000		324.00000 
 43692.65567		 931.09353			42761.56215		228.94600		875.00000 
 43692.65567		 305.27265			43387.38302		70.72000		324.00000 
 43692.65567		 931.09353			42761.56215		228.94600		875.00000 
 43692.65567		 305.27265			43387.38302		70.72000		324.00000 
 43692.65567		 931.09353			42761.56215		228.94600		875.00000 
 43692.65567		 305.27265			43387.38302		70.72000		324.00000 
 43692.65567		 931.09353			42761.56215		228.94600		875.00000 
 43692.65567		 305.27265			43387.38302		70.72000		324.00000 
 43692.65567		 931.09353			42761.56215		228.94600		875.00000 
 43692.65567		 305.27265			43387.38302		70.72000		324.00000 
 43692.65567		 931.09353			42761.56215		228.94600		875.00000 
 43692.65567		 305.27265			43387.38302		70.72000		324.00000 
 43692.65567		 931.09353			42761.56215		228.94600		875.00000 
 43692.65567		 305.27265			43387.38302		70.72000		324.00000 
 43692.65567		 931.09353			42761.56215		228.94600		875.00000 
 43692.65567		 305.27265			43387.38302		70.72000		324.00000 
 43692.65567		 931.09353			42761.56215		228.94600		875.00000 
 43692.65567		 305.27265			43387.38302		70.72000		324.00000 
 43692.65567		 931.09353			42761.56215		228.94600		875.00000 
 43692.65567		 305.27265			43387.38302		70.72000		324.00000 
 43692.65567		 931.09353			42761.56215		228.94600		875.00000 
 43692.65567		 305.27265			43387.38302		70.72000		324.00000 
 43692.65567		 931.09353			42761.56215		228.94600		875.00000 
 43692.65567		 305.27265			43387.38302		70.72000		324.00000 
 43692.65567		 931.09353			42761.56215		228.94600		875.00000 
 43692.65567		 305.27265			43387.38302		70.72000		324.00000 
 43692.65567		 931.09353			42761.56215		228.94600		875.00000 
 43692.65567		 305.27265			43387.38302		70.72000		324.00000 
 43692.65567		 931.09353			42761.56215		228.94600		875.00000 
 43692.65567		 305.27265			43387.38302		70.72000		324.00000 
 43692.65567		 931.09353			42761.56215		228.94600		875.00000 
 43692.65567		 305.27265			43387.38302		70.72000		324.00000 
 43692.65567		 931.09353			42761.56215		228.94600		875.00000 
 43692.65567		 305.27265			43387.38302		70.72000		324.00000 
 43692.65567		 931.09353			42761.56215		228.94600		875.00000 
 43692.65567		 305.27265			43387.38302		70.72000		324.00000 
 43692.65567		 931.09353			42761.56215		228.94600		875.00000 
 43692.65567		 305.27265			43387.38302		70.72000		324.00000 
 43692.65567		 931.09353			42761.56215		228.94600		875.00000 
 43692.65567		 305.27265			43387.38302		70.72000		324.00000 
 43692.65567		 931.09353			42761.56215		228.94600		875.00000 
 43692.65567		 305.27265			43387.38302		70.72000		324.00000 
 43692.65567		 931.09353			42761.56215		228.94600		875.00000 
 43692.65567		 305.27265			43387.38302		70.72000		324.00000 
 43692.65567		 931.09353			42761.56215		228.94600		875.00000 
 43692.65567		 305.27265			43387.38302		70.72000		324.00000 
 43692.65567		 931.09353			42761.56215		228.94600		875.00000 
 43692.65567		 305.27265			43387.38302		70.72000		324.00000 
 43692.65567		 931.09353			42761.56215		228.94600		875.00000 
 43692.65567		 305.27265			43387.38302		70.72000		324.00000 
 43692.65567		 931.09353			42761.56215		228.94600		875.00000 
 43692.65567		 305.27265			43387.38302		70.72000		324.00000 
 43692.65567		 931.09353			42761.56215		228.94600		875.00000 
 43692.65567		 305.27265			43387.38302		70.72000		324.00000 
 43692.65567		 931.09353			42761.56215		228.94600		875.00000 
 43692.65567		 305.27265			43387.38302		70.72000		324.00000 
 43692.65567		 931.09353			42761.56215		228.94600		875.00000 
 43692.65567		 305.27265			43387.38302		70.72000		324.00000 
 43692.65567		 931.09353			42761.56215		228.94600		875.00000 
 43692.65567		 305.27265			43387.38302		70.72000		324.00000 
 43692.65567		 931.09353			42761.56215		228.94600		875.00000 
 43692.65567		 305.27265			43387.38302		70.72000		324.00000 
 43692.65567		 931.09353			42761.56215		228.94600		875.00000 
 43692.65567		 305.27265			43387.38302		70.72000		324.00000 
 43692.65567		 931.09353			42761.56215		228.94600		875.00000 
 43692.65567		 305.27265			43387.38302		70.72000		324.00000 
 43692.65567		 931.09353			42761.56215		228.94600		875.00000 
 43692.65567		 305.27265			43387.38302		70.72000		324.00000 
 43692.65567		 931.09353			42761.56215		228.94600		875.00000 
 43692.65567		 305.27265			43387.38302		70.72000		324.00000 
 43692.65567		 931.09353			42761.56215		228.94600		875.00000 
 43692.65567		 305.27265			43387.38302		70.72000		324.00000 
 43692.65567		 931.09353			42761.56215		228.94600		875.00000 
 43692.65567		 305.27265			43387.38302		70.72000		324.00000 
 43692.65567		 931.09353			42761.56215		228.94600		875.00000 
 43692.65567		 305.27265			43387.38302		70.72000		324.00000 
 43692.65567		 931.09353			42761.56215		228.94600		875.00000 
 43692.65567		 305.27265			43387.38302		70.72000		324.00000 
 43692.65567		 931.09353			42761.56215		228.94600		875.00000 
 43692.65567		 305.27265			43387.38302		70.72000		324.00000 
 43692.65567		 931.09353			42761.56215		228.94600		875.00000 
 43692.65567		 305.27265			43387.38302		70.72000		324.00000 
 43692.65567		 931.09353			42761.56215		228.94600		875.00000 
 43692.65567		 305.27265			43387.38302		70.72000		324.00000 
 43692.65567		 931.09353			42761.56215		228.94600		875.00000 
 43692.65567		 305.27265			43387.38302		70.72000		324.00000 
 43692.65567		 931.09353			42761.56215		228.94600		875.00000 
 43692.65567		 305.27265			43387.38302		70.72000		324.00000 
 43692.65567		 931.09353			42761.56215		228.94600		875.00000 
 43692.65567		 305.27265			43387.38302		70.72000		324.00000 
 43692.65567		 931.09353			42761.56215		228.94600		875.00000 
 43692.65567		 305.27265			43387.38302		70.72000		324.00000 
 43692.65567		 931.09353			42761.56215		228.94600		875.00000 
 43692.65567		 305.27265			43387.38302		70.72000		324.00000 
 43692.65567		 931.09353			42761.56215		228.94600		875.00000 
 43692.65567		 305.27265			43387.38302		70.72000		324.00000 
 43692.65567		 931.09353			42761.56215		228.94600		875.00000 
 43692.65567		 305.27265			43387.38302		70.72000		324.00000 
 43692.65567		 931.09353			42761.56215		228.94600		875.00000 
 43692.65567		 305.27265			43387.38302		70.72000		324.00000 
 43692.65567		 931.09353			42761.56215		228.94600		875.00000 
 43692.65567		 305.27265			43387.38302		70.72000		324.00000 
 43692.65567		 931.09353			42761.56215		228.94600		875.00000 
 43692.65567		 305.27265			43387.38302		70.72000		324.00000 
 43692.65567		 931.09353			42761.56215		228.94600		875.00000 
 43692.65567		 305.27265			43387.38302		70.72000		324.00000 
 43692.65567		 931.09353			42761.56215		228.94600		875.00000 
 43692.65567		 305.27265			43387.38302		70.72000		324.00000 
 43692.65567		 931.09353			42761.56215		228.94600		875.00000 
 43692.65567		 305.27265			43387.38302		70.72000		324.00000 
 43692.65567		 931.09353			42761.56215		228.94600		875.00000 
 43692.65567		 305.27265			43387.38302		70.72000		324.00000 
 43692.65567		 931.09353			42761.56215		228.94600		875.00000 
 43692.65567		 305.27265			43387.38302		70.72000		324.00000 
 43692.65567		 931.09353			42761.56215		228.94600		875.00000 
 43692.65567		 305.27265			43387.38302		70.72000		324.00000 
 43692.65567		 931.09353			42761.56215		228.94600		875.00000 
 43692.65567		 305.27265			43387.38302		70.72000		324.00000 
 43692.65567		 931.09353			42761.56215		228.94600		875.00000 
 43692.65567		 305.27265			43387.38302		70.72000		324.00000 
 43692.65567		 931.09353			42761.56215		228.94600		875.00000 
 43692.65567		 305.27265			43387.38302		70.72000		324.00000 
 43692.65567		 931.09353			42761.56215		228.94600		875.00000 
 43692.65567		 305.27265			43387.38302		70.72000		324.00000 
 43692.65567		 931.09353			42761.56215		228.94600		875.00000 
 43692.65567		 305.27265			43387.38302		70.72000		324.00000 
 43692.65567		 931.09353			42761.56215		228.94600		875.00000 
 43692.65567		 305.27265			43387.38302		70.72000		324.00000 
 43692.65567		 931.09353			42761.56215		228.94600		875.00000 
 43692.65567		 305.27265			43387.38302		70.72000		324.00000 
 43692.65567		 931.09353			42761.56215		228.94600		875.00000 
 43692.65567		 305.27265			43387.38302		70.72000		324.00000 
 43692.65567		 931.09353			42761.56215		228.94600		875.00000 
 43692.65567		 305.27265			43387.38302		70.72000		324.00000 
 43692.65567		 931.09353			42761.56215		228.94600		875.00000 
 43692.65567		 305.27265			43387.38302		70.72000		324.00000 
 43692.65567		 931.09353			42761.56215		228.94600		875.00000 
 43692.65567		 305.27265			43387.38302		70.72000		324.00000 
 43692.65567		 931.09353			42761.56215		228.94600		875.00000 
 43692.65567		 305.27265			43387.38302		70.72000		324.00000 
 43692.65567		 931.09353			42761.56215		228.94600		875.00000 
 43692.65567		 305.27265			43387.38302		70.72000		324.00000 
 43692.65567		 931.09353			42761.56215		228.94600		875.00000 
 43692.65567		 305.27265			43387.38302		70.72000		324.00000 
 43692.65567		 931.09353			42761.56215		228.94600		875.00000 
 43692.65567		 305.27265			43387.38302		70.72000		324.00000 
 43692.65567		 931.09353			42761.56215		228.94600		875.00000 
 43692.65567		 305.27265			43387.38302		70.72000		324.00000 
 43692.65567		 931.09353			42761.56215		228.94600		875.00000 
 43692.65567		 305.27265			43387.38302		70.72000		324.00000 
 43692.65567		 931.09353			42761.56215		228.94600		875.00000 
 43692.65567		 305.27265			43387.38302		70.72000		324.00000 
 43692.65567		 931.09353			42761.56215		228.94600		875.00000 
 43692.65567		 305.27265			43387.38302		70.72000		324.00000 
 43692.65567		 931.09353			42761.56215		228.94600		875.00000 
 43692.65567		 305.27265			43387.38302		70.72000		324.00000 
 43692.65567		 931.09353			42761.56215		228.94600		875.00000 
 43692.65567		 305.27265			43387.38302		70.72000		324.00000 
 43692.65567		 931.09353			42761.56215		228.94600		875.00000 
 43692.65567		 305.27265			43387.38302		70.72000		324.00000 
 43692.65567		 931.09353			42761.56215		228.94600		875.00000 
 43692.65567		 305.27265			43387.38302		70.72000		324.00000 
 43692.65567		 931.09353			42761.56215		228.94600		875.00000 
 43692.65567		 305.27265			43387.38302		70.72000		324.00000 
 43692.65567		 931.09353			42761.56215		228.94600		875.00000 
 43692.65567		 305.27265			43387.38302		70.72000		324.00000 
 43692.65567		 931.09353			42761.56215		228.94600		875.00000 
 43692.65567		 305.27265			43387.38302		70.72000		324.00000 
 43692.65567		 931.09353			42761.56215		228.94600		875.00000 
 43692.65567		 305.27265			43387.38302		70.72000		324.00000 
 43692.65567		 931.09353			42761.56215		228.94600		875.00000 
 43692.65567		 305.27265			43387.38302		70.72000		324.00000 
 43692.65567		 931.09353			42761.56215		228.94600		875.00000 
 43692.65567		 305.27265			43387.38302		70.72000		324.00000 
 43692.65567		 931.09353			42761.56215		228.94600		875.00000 
 43692.65567		 305.27265			43387.38302		70.72000		324.00000 
 43692.65567		 931.09353			42761.56215		228.94600		875.00000 
 43692.65567		 305.27265			43387.38302		70.72000		324.00000 
 43692.65567		 931.09353			42761.56215		228.94600		875.00000 
 43692.65567		 305.27265			43387.38302		70.72000		324.00000 
 43692.65567		 931.09353			42761.56215		228.94600		875.00000 
 43692.65567		 305.27265			43387.38302		70.72000		324.00000 
 43692.65567		 931.09353			42761.56215		228.94600		875.00000 
 43692.65567		 305.27265			43387.38302		70.72000		324.00000 
 43692.65567		 931.09353			42761.56215		228.94600		875.00000 
 43692.65567		 305.27265			43387.38302		70.72000		324.00000 
 43692.65567		 931.09353			42761.56215		228.94600		875.00000 
 43692.65567		 305.27265			43387.38302		70.72000		324.00000 
 43692.65567		 931.09353			42761.56215		228.94600		875.00000 
 43692.65567		 305.27265			43387.38302		70.72000		324.00000 
 43692.65567		 931.09353			42761.56215		228.94600		875.00000 
 43692.65567		 305.27265			43387.38302		70.72000		324.00000 
 43692.65567		 931.09353			42761.56215		228.94600		875.00000 
 43692.65567		 305.27265			43387.38302		70.72000		324.00000 
 43692.65567		 931.09353			42761.56215		228.94600		875.00000 
 43692.65567		 305.27265			43387.38302		70.72000		324.00000 
 43692.65567		 931.09353			42761.56215		228.94600		875.00000 
 43692.65567		 305.27265			43387.38302		70.72000		324.00000 
 43692.65567		 931.09353			42761.56215		228.94600		875.00000 
 43692.65567		 305.27265			43387.38302		70.72000		324.00000 
 43692.65567		 931.09353			42761.56215		228.94600		875.00000 
 43692.65567		 305.27265			43387.38302		70.72000		324.00000 
 43692.65567		 931.09353			42761.56215		228.94600		875.00000 
 43692.65567		 305.27265			43387.38302		70.72000		324.00000 
 43692.65567		 931.09353			42761.56215		228.94600		875.00000 
 43692.65567		 305.27265			43387.38302		70.72000		324.00000 
 43692.65567		 931.09353			42761.56215		228.94600		875.00000 
 43692.65567		 305.27265			43387.38302		70.72000		324.00000 
 43692.65567		 931.09353			42761.56215		228.94600		875.00000 
 43692.65567		 305.27265			43387.38302		70.72000		324.00000 
 43692.65567		 931.09353			42761.56215		228.94600		875.00000 
 43692.65567		 305.27265			43387.38302		70.72000		324.00000 
 43692.65567		 931.09353			42761.56215		228.94600		875.00000 
 43692.65567		 305.27265			43387.38302		70.72000		324.00000 
 43692.65567		 931.09353			42761.56215		228.94600		875.00000 
 43692.65567		 305.27265			43387.38302		70.72000		324.00000 
 43692.65567		 931.09353			42761.56215		228.94600		875.00000 
 43692.65567		 305.27265			43387.38302		70.72000		324.00000 
 43692.65567		 931.09353			42761.56215		228.94600		875.00000 
 43692.65567		 305.27265			43387.38302		70.72000		324.00000 
 43692.65567		 931.09353			42761.56215		228.94600		875.00000 
 43692.65567		 305.27265			43387.38302		70.72000		324.00000 
 43692.65567		 931.09353			42761.56215		228.94600		875.00000 
 43692.65567		 305.27265			43387.38302		70.72000		324.00000 
 43692.65567		 931.09353			42761.56215		228.94600		875.00000 
 43692.65567		 305.27265			43387.38302		70.72000		324.00000 
 43692.65567		 931.09353			42761.56215		228.94600		875.00000 
 43692.65567		 305.27265			43387.38302		70.72000		324.00000 
 43692.65567		 931.09353			42761.56215		228.94600		875.00000 
 43692.65567		 305.27265			43387.38302		70.72000		324.00000 
 43692.65567		 931.09353			42761.56215		228.94600		875.00000 
 43692.65567		 305.27265			43387.38302		70.72000		324.00000 
 43692.65567		 931.09353			42761.56215		228.94600		875.00000 
 43692.65567		 305.27265			43387.38302		70.72000		324.00000 
 43692.65567		 931.09353			42761.56215		228.94600		875.00000 
 43692.65567		 305.27265			43387.38302		70.72000		324.00000 
 43692.65567		 931.09353			42761.56215		228.94600		875.00000 
 43692.65567		 305.27265			43387.38302		70.72000		324.00000 
 43692.65567		 931.09353			42761.56215		228.94600		875.00000 
 43692.65567		 305.27265			43387.38302		70.72000		324.00000 
 43692.65567		 931.09353			42761.56215		228.94600		875.00000 
 43692.65567		 305.27265			43387.38302		70.72000		324.00000 
 43692.65567		 931.09353			42761.56215		228.94600		875.00000 
 43692.65567		 305.27265			43387.38302		70.72000		324.00000 
 43692.65567		 931.09353			42761.56215		228.94600		875.00000 
 43692.65567		 305.27265			43387.38302		70.72000		324.00000 
 43692.65567		 931.09353			42761.56215		228.94600		875.00000 
 43692.65567		 305.27265			43387.38302		70.72000		324.00000 
 43692.65567		 931.09353			42761.56215		228.94600		875.00000 
 43692.65567		 305.27265			43387.38302		70.72000		324.00000 
 43692.65567		 931.09353			42761.56215		228.94600		875.00000 
 43692.65567		 305.27265			43387.38302		70.72000		324.00000 
 43692.65567		 931.09353			42761.56215		228.94600		875.00000 
 43692.65567		 305.27265			43387.38302		70.72000		324.00000 
 43692.65567		 931.09353			42761.56215		228.94600		875.00000 
 43692.65567		 305.27265			43387.38302		70.72000		324.00000 
 43692.65567		 931.09353			42761.56215		228.94600		875.00000 
 43692.65567		 305.27265			43387.38302		70.72000		324.00000 
 43692.65567		 931.09353			42761.56215		228.94600		875.00000 
 43692.65567		 305.27265			43387.38302		69.64400		324.00000 
 43692.65567		 931.09353			42761.56215		228.94600		875.00000 
 43692.65567		 305.27265			43387.38302		69.64400		324.00000 
 43692.65567		 931.09353			42761.56215		228.94600		875.00000 
 43692.65567		 305.27265			43387.38302		69.64400		324.00000 
 43692.65567		 931.09353			42761.56215		228.94600		875.00000 
 43692.65567		 305.27265			43387.38302		69.64400		324.00000 
 43692.65567		 931.09353			42761.56215		228.94600		875.00000 
 43692.65567		 305.27265			43387.38302		69.64400		324.00000 
 43692.65567		 931.09353			42761.56215		228.94600		875.00000 
 43692.65567		 305.27265			43387.38302		69.64400		324.00000 
 43692.65567		 931.09353			42761.56215		228.94600		875.00000 
 43692.65567		 305.27265			43387.38302		69.64400		324.00000 
 43692.65567		 931.09353			42761.56215		228.94600		875.00000 
 43692.65567		 305.27265			43387.38302		69.64400		324.00000 
 43692.65567		 931.09353			42761.56215		228.94600		875.00000 
 43692.65567		 305.27265			43387.38302		69.64400		324.00000 
 43692.65567		 931.09353			42761.56215		228.94600		875.00000 
 43692.65567		 305.27265			43387.38302		69.64400		324.00000 
 43692.65567		 931.09353			42761.56215		228.94600		875.00000 
 43692.65567		 305.27265			43387.38302		69.64400		324.00000 
 43692.65567		 931.09353			42761.56215		228.94600		875.00000 
 43692.65567		 305.27265			43387.38302		69.64400		324.00000 
 43692.65567		 931.09353			42761.56215		228.94600		875.00000 
 43692.65567		 305.27265			43387.38302		69.64400		324.00000 
 43692.65567		 931.09353			42761.56215		228.94600		875.00000 
 43692.65567		 305.27265			43387.38302		69.64400		324.00000 
 43692.65567		 931.09353			42761.56215		228.94600		875.00000 
 43692.65567		 305.27265			43387.38302		69.64400		324.00000 
 43692.65567		 931.09353			42761.56215		228.94600		875.00000 
 43692.65567		 305.27265			43387.38302		69.64400		324.00000 
 43692.65567		 931.09353			42761.56215		228.94600		875.00000 
 43692.65567		 305.27265			43387.38302		69.64400		324.00000 
 43692.65567		 931.09353			42761.56215		228.94600		875.00000 
 43692.65567		 305.27265			43387.38302		69.64400		324.00000 
 43692.65567		 931.09353			42761.56215		228.94600		875.00000 
 43692.65567		 305.27265			43387.38302		69.64400		324.00000 
 43692.65567		 931.09353			42761.56215		228.94600		875.00000 
 43692.65567		 305.27265			43387.38302		69.64400		324.00000 
 43692.65567		 931.09353			42761.56215		228.94600		875.00000 
 43692.65567		 305.27265			43387.38302		69.64400		324.00000 
 43692.65567		 931.09353			42761.56215		228.94600		875.00000 
 43692.65567		 305.27265			43387.38302		69.64400		324.00000 
 43692.65567		 931.09353			42761.56215		228.94600		875.00000 
 43692.65567		 305.27265			43387.38302		69.64400		324.00000 
 43692.65567		 931.09353			42761.56215		228.94600		875.00000 
 43692.65567		 305.27265			43387.38302		69.64400		324.00000 
 43692.65567		 931.09353			42761.56215		228.94600		875.00000 
 43692.65567		 305.27265			43387.38302		69.64400		324.00000 
 43692.65567		 931.09353			42761.56215		228.94600		875.00000 
 43692.65567		 305.27265			43387.38302		69.64400		324.00000 
 43692.65567		 931.09353			42761.56215		228.94600		875.00000 
 43692.65567		 305.27265			43387.38302		69.64400		324.00000 
 43692.65567		 931.09353			42761.56215		228.94600		875.00000 
 43692.65567		 305.27265			43387.38302		69.64400		324.00000 
 43692.65567		 931.09353			42761.56215		228.94600		875.00000 
 43692.65567		 305.27265			43387.38302		69.64400		324.00000 
 43692.65567		 931.09353			42761.56215		228.94600		875.00000 
 43692.65567		 305.27265			43387.38302		69.64400		324.00000 
 43692.65567		 931.09353			42761.56215		228.94600		875.00000 
 43692.65567		 305.27265			43387.38302		69.64400		324.00000 
 43692.65567		 931.09353			42761.56215		228.94600		875.00000 
 43692.65567		 305.27265			43387.38302		69.64400		324.00000 
 43692.65567		 931.09353			42761.56215		228.94600		875.00000 
 43692.65567		 305.27265			43387.38302		69.64400		324.00000 
 43692.65567		 931.09353			42761.56215		228.94600		875.00000 
 43692.65567		 305.27265			43387.38302		69.64400		324.00000 
 43692.65567		 931.09353			42761.56215		228.94600		875.00000 
 43692.65567		 305.27265			43387.38302		69.64400		324.00000 
 43692.65567		 931.09353			42761.56215		228.94600		875.00000 
 43692.65567		 305.27265			43387.38302		69.64400		324.00000 
 43692.65567		 931.09353			42761.56215		228.94600		875.00000 
 43692.65567		 305.27265			43387.38302		69.64400		324.00000 
 43692.65567		 931.09353			42761.56215		228.94600		875.00000 
 43692.65567		 305.27265			43387.38302		69.64400		324.00000 
 43692.65567		 931.09353			42761.56215		228.94600		875.00000 
 43692.65567		 305.27265			43387.38302		69.64400		324.00000 
 43692.65567		 931.09353			42761.56215		228.94600		875.00000 
 43692.65567		 305.27265			43387.38302		69.64400		324.00000 
 43692.65567		 931.09353			42761.56215		228.94600		875.00000 
 43692.65567		 305.27265			43387.38302		69.64400		324.00000 
 43692.65567		 931.09353			42761.56215		228.94600		875.00000 
 43692.65567		 305.27265			43387.38302		69.64400		324.00000 
 43692.65567		 931.09353			42761.56215		228.94600		875.00000 
 43692.65567		 305.27265			43387.38302		69.64400		324.00000 
 43692.65567		 931.09353			42761.56215		228.94600		875.00000 
 43692.65567		 305.27265			43387.38302		69.64400		324.00000 
 43692.65567		 931.09353			42761.56215		228.94600		875.00000 
 43692.65567		 305.27265			43387.38302		69.64400		324.00000 
 43692.65567		 931.09353			42761.56215		228.94600		875.00000 
 43692.65567		 305.27265			43387.38302		69.64400		324.00000 
 43692.65567		 931.09353			42761.56215		228.94600		875.00000 
 43692.65567		 305.27265			43387.38302		69.64400		324.00000 
 43692.65567		 931.09353			42761.56215		228.94600		875.00000 
 43692.65567		 305.27265			43387.38302		69.64400		324.00000 
 43692.65567		 931.09353			42761.56215		228.94600		875.00000 
 43692.65567		 305.27265			43387.38302		69.64400		324.00000 
 43692.65567		 931.09353			42761.56215		228.94600		875.00000 
 43692.65567		 305.27265			43387.38302		69.64400		324.00000 
 43692.65567		 931.09353			42761.56215		228.94600		875.00000 
 43692.65567		 305.27265			43387.38302		69.64400		324.00000 
 43692.65567		 931.09353			42761.56215		228.94600		875.00000 
 43692.65567		 305.27265			43387.38302		69.64400		324.00000 
 43692.65567		 931.09353			42761.56215		228.94600		875.00000 
 43692.65567		 305.27265			43387.38302		69.64400		324.00000 
 43692.65567		 931.09353			42761.56215		228.94600		875.00000 
 43692.65567		 305.27265			43387.38302		69.64400		324.00000 
 43692.65567		 931.09353			42761.56215		228.94600		875.00000 
 43692.65567		 305.27265			43387.38302		69.64400		324.00000 
 43692.65567		 931.09353			42761.56215		228.94600		875.00000 
 43692.65567		 305.27265			43387.38302		69.64400		324.00000 
 43692.65567		 931.09353			42761.56215		228.94600		875.00000 
 43692.65567		 305.27265			43387.38302		69.64400		324.00000 
 43692.65567		 931.09353			42761.56215		228.94600		875.00000 
 43692.65567		 305.27265			43387.38302		69.64400		324.00000 
 43692.65567		 931.09353			42761.56215		228.94600		875.00000 
 43692.65567		 305.27265			43387.38302		69.64400		324.00000 
 43692.65567		 931.09353			42761.56215		228.94600		875.00000 
 43692.65567		 305.27265			43387.38302		69.64400		324.00000 
 43692.65567		 931.09353			42761.56215		228.94600		875.00000 
 43692.65567		 305.27265			43387.38302		69.64400		324.00000 
 43692.65567		 931.09353			42761.56215		228.94600		875.00000 
 43692.65567		 305.27265			43387.38302		69.64400		324.00000 
 43692.65567		 931.09353			42761.56215		228.94600		875.00000 
 43692.65567		 305.27265			43387.38302		69.64400		324.00000 
 43692.65567		 931.09353			42761.56215		228.94600		875.00000 
 43692.65567		 305.27265			43387.38302		69.64400		324.00000 
 43692.65567		 931.09353			42761.56215		228.94600		875.00000 
 43692.65567		 305.27265			43387.38302		69.64400		324.00000 
 43692.65567		 931.09353			42761.56215		228.94600		875.00000 
 43692.65567		 305.27265			43387.38302		69.64400		324.00000 
 43692.65567		 931.09353			42761.56215		228.94600		875.00000 
 43692.65567		 305.27265			43387.38302		69.64400		324.00000 
 43692.65567		 931.09353			42761.56215		228.94600		875.00000 
 43692.65567		 305.27265			43387.38302		69.64400		324.00000 
 43692.65567		 931.09353			42761.56215		228.94600		875.00000 
 43692.65567		 305.27265			43387.38302		69.64400		324.00000 
 43692.65567		 931.09353			42761.56215		228.94600		875.00000 
 43692.65567		 305.27265			43387.38302		69.64400		324.00000 
 43692.65567		 931.09353			42761.56215		228.94600		875.00000 
 43692.65567		 305.27265			43387.38302		69.64400		324.00000 
 43692.65567		 931.09353			42761.56215		228.94600		875.00000 
 43692.65567		 305.27265			43387.38302		69.64400		324.00000 
 43692.65567		 931.09353			42761.56215		228.94600		875.00000 
 43692.65567		 305.27265			43387.38302		69.64400		324.00000 
 43692.65567		 931.09353			42761.56215		228.94600		875.00000 
 43692.65567		 305.27265			43387.38302		69.64400		324.00000 
 43692.65567		 931.09353			42761.56215		228.94600		875.00000 
 43692.65567		 305.27265			43387.38302		69.64400		324.00000 
 43692.65567		 931.09353			42761.56215		228.94600		875.00000 
 43692.65567		 305.27265			43387.38302		69.64400		324.00000 
 43692.65567		 931.09353			42761.56215		228.94600		875.00000 
 43692.65567		 305.27265			43387.38302		69.64400		324.00000 
 43692.65567		 931.09353			42761.56215		228.94600		875.00000 
 43692.65567		 305.27265			43387.38302		69.64400		324.00000 
 43692.65567		 931.09353			42761.56215		228.94600		875.00000 
 43692.65567		 305.27265			43387.38302		69.64400		324.00000 
 43692.65567		 931.09353			42761.56215		228.94600		875.00000 
 43692.65567		 305.27265			43387.38302		69.64400		324.00000 
 43692.65567		 931.09353			42761.56215		228.94600		875.00000 
 43692.65567		 305.27265			43387.38302		69.64400		324.00000 
 43692.65567		 931.09353			42761.56215		228.94600		875.00000 
 43692.65567		 305.27265			43387.38302		69.64400		324.00000 
 43692.65567		 931.09353			42761.56215		228.94600		875.00000 
 43692.65567		 305.27265			43387.38302		69.64400		324.00000 
 43692.65567		 931.09353			42761.56215		228.94600		875.00000 
 43692.65567		 305.27265			43387.38302		69.64400		324.00000 
 43692.65567		 931.09353			42761.56215		228.94600		875.00000 
 43692.65567		 305.27265			43387.38302		69.64400		324.00000 
 43692.65567		 931.09353			42761.56215		228.94600		875.00000 
 43692.65567		 305.27265			43387.38302		69.64400		324.00000 
 43692.65567		 931.09353			42761.56215		228.94600		875.00000 
 43692.65567		 305.27265			43387.38302		69.64400		324.00000 
 43692.65567		 931.09353			42761.56215		228.94600		875.00000 
 43692.65567		 305.27265			43387.38302		69.64400		324.00000 
 43692.65567		 931.09353			42761.56215		228.94600		875.00000 
 43692.65567		 305.27265			43387.38302		69.64400		324.00000 
 43692.65567		 931.09353			42761.56215		228.94600		875.00000 
 43692.65567		 305.27265			43387.38302		69.64400		324.00000 
 43692.65567		 931.09353			42761.56215		228.94600		875.00000 
 43692.65567		 305.27265			43387.38302		69.64400		324.00000 
 43692.65567		 931.09353			42761.56215		228.94600		875.00000 
 43692.65567		 305.27265			43387.38302		69.64400		324.00000 
 43692.65567		 931.09353			42761.56215		228.94600		875.00000 
 43692.65567		 305.27265			43387.38302		69.64400		324.00000 
 43692.65567		 931.09353			42761.56215		228.94600		875.00000 
 43692.65567		 305.27265			43387.38302		69.64400		324.00000 
 43692.65567		 931.09353			42761.56215		228.94600		875.00000 
 43692.65567		 305.27265			43387.38302		69.64400		324.00000 
 43692.65567		 931.09353			42761.56215		228.94600		875.00000 
 43692.65567		 305.27265			43387.38302		69.64400		324.00000 
 43692.65567		 931.09353			42761.56215		228.94600		875.00000 
 43692.65567		 305.27265			43387.38302		69.64400		324.00000 
 43692.65567		 931.09353			42761.56215		228.94600		875.00000 
 43692.65567		 305.27265			43387.38302		69.64400		324.00000 
 43692.65567		 931.09353			42761.56215		228.94600		875.00000 
 43692.65567		 305.27265			43387.38302		69.64400		324.00000 
 43692.65567		 931.09353			42761.56215		228.94600		875.00000 
 43692.65567		 305.27265			43387.38302		69.64400		324.00000 
 43692.65567		 931.09353			42761.56215		228.94600		875.00000 
 43692.65567		 305.27265			43387.38302		69.64400		324.00000 
 43692.65567		 931.09353			42761.56215		228.94600		875.00000 
 43692.65567		 305.27265			43387.38302		69.64400		324.00000 
 43692.65567		 931.09353			42761.56215		228.94600		875.00000 
 43692.65567		 305.27265			43387.38302		69.64400		324.00000 
 43692.65567		 931.09353			42761.56215		228.94600		875.00000 
 43692.65567		 305.27265			43387.38302		69.64400		324.00000 
 43692.65567		 931.09353			42761.56215		228.94600		875.00000 
 43692.65567		 305.27265			43387.38302		69.64400		324.00000 
 43692.65567		 931.09353			42761.56215		228.94600		875.00000 
 43692.65567		 305.27265			43387.38302		69.64400		324.00000 
 43692.65567		 931.09353			42761.56215		228.94600		875.00000 
 43692.65567		 305.27265			43387.38302		69.64400		324.00000 
 43692.65567		 931.09353			42761.56215		228.94600		875.00000 
 43692.65567		 305.27265			43387.38302		69.64400		324.00000 
 43692.65567		 931.09353			42761.56215		228.94600		875.00000 
 43692.65567		 305.27265			43387.38302		69.64400		324.00000 
 43692.65567		 931.09353			42761.56215		228.94600		875.00000 
 43692.65567		 305.27265			43387.38302		69.64400		324.00000 
 43692.65567		 931.09353			42761.56215		228.94600		875.00000 
 43692.65567		 305.27265			43387.38302		69.64400		324.00000 
 43692.65567		 931.09353			42761.56215		228.94600		875.00000 
 43692.65567		 305.27265			43387.38302		69.64400		324.00000 
 43692.65567		 931.09353			42761.56215		228.94600		875.00000 
 43692.65567		 305.27265			43387.38302		69.64400		324.00000 
 43692.65567		 931.09353			42761.56215		228.94600		875.00000 
 43692.65567		 305.27265			43387.38302		69.64400		324.00000 
 43692.65567		 931.09353			42761.56215		228.94600		875.00000 
 43692.65567		 305.27265			43387.38302		69.64400		324.00000 
 43692.65567		 931.09353			42761.56215		228.94600		875.00000 
 43692.65567		 305.27265			43387.38302		69.64400		324.00000 
 43692.65567		 931.09353			42761.56215		228.94600		875.00000 
 43692.65567		 305.27265			43387.38302		69.64400		324.00000 
 43692.65567		 931.09353			42761.56215		228.94600		875.00000 
 43692.65567		 305.27265			43387.38302		69.64400		324.00000 
 43692.65567		 931.09353			42761.56215		228.94600		875.00000 
 43692.65567		 305.27265			43387.38302		69.64400		324.00000 
 43692.65567		 931.09353			42761.56215		228.94600		875.00000 
 43692.65567		 305.27265			43387.38302		69.64400		324.00000 
 43692.65567		 931.09353			42761.56215		228.94600		875.00000 
 43692.65567		 305.27265			43387.38302		69.64400		324.00000 
 43692.65567		 931.09353			42761.56215		228.94600		875.00000 
 43692.65567		 305.27265			43387.38302		69.64400		324.00000 
 43692.65567		 931.09353			42761.56215		228.94600		875.00000 
 43692.65567		 305.27265			43387.38302		69.64400		324.00000 
 43692.65567		 931.09353			42761.56215		228.94600		875.00000 
 43692.65567		 305.27265			43387.38302		69.64400		324.00000 
 43692.65567		 931.09353			42761.56215		228.94600		875.00000 
 43692.65567		 305.27265			43387.38302		69.64400		324.00000 
 43692.65567		 931.09353			42761.56215		228.94600		875.00000 
 43692.65567		 305.27265			43387.38302		69.64400		324.00000 
 43692.65567		 931.09353			42761.56215		228.94600		875.00000 
 43692.65567		 305.27265			43387.38302		69.64400		324.00000 
 43692.65567		 931.09353			42761.56215		228.94600		875.00000 
 43692.65567		 305.27265			43387.38302		69.64400		324.00000 
 43692.65567		 931.09353			42761.56215		228.94600		875.00000 
 43692.65567		 305.27265			43387.38302		69.64400		324.00000 
 43692.65567		 799.81912			42892.83655		228.94600		875.00000 
 43692.65567		 305.27265			43387.38302		69.64400		324.00000 
 43692.65567		 799.81912			42892.83655		228.94600		875.00000 
 43692.65567		 305.27265			43387.38302		69.64400		324.00000 
 43692.65567		 668.54472			43024.11095		228.94600		875.00000 
 43692.65567		 305.27265			43387.38302		69.64400		324.00000 
 43692.65567		 668.54472			43024.11095		228.94600		875.00000 
 43692.65567		 305.27265			43387.38302		69.64400		324.00000 
 43692.65567		 537.27032			43155.38535		228.94600		875.00000 
 43692.65567		 305.27265			43387.38302		69.64400		324.00000 
 43692.65567		 537.27032			43155.38535		228.94600		875.00000 
 43692.65567		 305.27265			43387.38302		69.64400		324.00000 
 43692.65567		 537.27032			43155.38535		228.94600		875.00000 
 43692.65567		 305.27265			43387.38302		69.64400		324.00000 
 43692.65567		 537.27032			43155.38535		228.94600		875.00000 
 43692.65567		 305.27265			43387.38302		69.64400		324.00000 
 43692.65567		 537.27032			43155.38535		228.94600		875.00000 
 43692.65567		 305.27265			43387.38302		69.64400		324.00000 
 43692.65567		 537.27032			43155.38535		228.94600		875.00000 
 43692.65567		 305.27265			43387.38302		69.64400		324.00000 
 43692.65567		 537.27032			43155.38535		228.94600		875.00000 
 43692.65567		 305.27265			43387.38302		69.64400		324.00000 
 43692.65567		 537.27032			43155.38535		228.94600		875.00000 
 43692.65567		 305.27265			43387.38302		69.64400		324.00000 
 43692.65567		 537.27032			43155.38535		228.94600		875.00000 
 43692.65567		 305.27265			43387.38302		69.64400		324.00000 
 43692.65567		 537.27032			43155.38535		228.94600		875.00000 
 43692.65567		 305.27265			43387.38302		69.64400		324.00000 
 43692.65567		 537.27032			43155.38535		228.94600		875.00000 
 43692.65567		 305.27265			43387.38302		69.64400		324.00000 
 43692.65567		 537.27032			43155.38535		228.94600		875.00000 
 43692.65567		 305.27265			43387.38302		69.64400		324.00000 
 43692.65567		 537.27032			43155.38535		228.94600		875.00000 
 43692.65567		 305.27265			43387.38302		69.64400		324.00000 
 43692.65567		 537.27032			43155.38535		228.94600		875.00000 
 43692.65567		 305.27265			43387.38302		69.64400		324.00000 
 43692.65567		 537.27032			43155.38535		228.94600		875.00000 
 43692.65567		 305.27265			43387.38302		69.64400		324.00000 
 43692.65567		 537.27032			43155.38535		228.94600		875.00000 
 43692.65567		 305.27265			43387.38302		69.64400		324.00000 
 43692.65567		 537.27032			43155.38535		228.94600		875.00000 
 43692.65567		 305.27265			43387.38302		69.64400		324.00000 
 43692.65567		 537.27032			43155.38535		228.94600		875.00000 
 43692.65567		 305.27265			43387.38302		69.64400		324.00000 
 43692.65567		 537.27032			43155.38535		228.94600		875.00000 
 43692.65567		 305.27265			43387.38302		69.64400		324.00000 
 43692.65567		 537.27032			43155.38535		228.94600		875.00000 
 43692.65567		 305.27265			43387.38302		69.64400		324.00000 
 43692.65567		 537.27032			43155.38535		228.94600		875.00000 
 43692.65567		 305.27265			43387.38302		69.64400		324.00000 
 43692.65567		 525.81365			43166.84203		228.94600		875.00000 
 43692.65567		 305.27265			43387.38302		69.64400		324.00000 
 43692.65567		 525.81365			43166.84203		228.94600		875.00000 
 43692.65567		 261.35540			43431.30027		69.64400		324.00000 
 43692.65567		 261.35540			43431.30027		184.84200		875.00000 
 43692.65567		 261.35540			43431.30027		69.64400		324.00000 
