Memory Total (MiB) 	 Memory Used (MiB) 	    Memory Free (MiB) 	 Power Drawed (W) 	 Clocks (Mhz) 	 
 43692.65567		 261.35540			43431.30027		187.39400		875.00000 
 43692.65567		 261.35540			43431.30027		67.17200		324.00000 
 43692.65567		 261.35540			43431.30027		187.39400		875.00000 
 43692.65567		 261.35540			43431.30027		67.17200		324.00000 
 43692.65567		 261.35540			43431.30027		187.39400		875.00000 
 43692.65567		 261.35540			43431.30027		67.17200		324.00000 
 43692.65567		 261.35540			43431.30027		187.39400		875.00000 
 43692.65567		 261.35540			43431.30027		67.17200		324.00000 
 43692.65567		 261.35540			43431.30027		187.39400		875.00000 
 43692.65567		 261.35540			43431.30027		67.17200		324.00000 
 43692.65567		 261.35540			43431.30027		187.39400		875.00000 
 43692.65567		 261.35540			43431.30027		67.17200		324.00000 
 43692.65567		 261.35540			43431.30027		187.39400		875.00000 
 43692.65567		 261.35540			43431.30027		67.17200		324.00000 
 43692.65567		 261.35540			43431.30027		187.39400		875.00000 
 43692.65567		 261.35540			43431.30027		67.17200		324.00000 
 43692.65567		 261.35540			43431.30027		187.39400		875.00000 
 43692.65567		 261.35540			43431.30027		67.17200		324.00000 
 43692.65567		 261.35540			43431.30027		187.39400		875.00000 
 43692.65567		 261.35540			43431.30027		67.17200		324.00000 
 43692.65567		 261.35540			43431.30027		187.39400		875.00000 
 43692.65567		 261.35540			43431.30027		67.17200		324.00000 
 43692.65567		 261.35540			43431.30027		187.39400		875.00000 
 43692.65567		 261.35540			43431.30027		67.17200		324.00000 
 43692.65567		 261.35540			43431.30027		187.39400		875.00000 
 43692.65567		 261.35540			43431.30027		67.17200		324.00000 
 43692.65567		 261.35540			43431.30027		187.39400		875.00000 
 43692.65567		 261.35540			43431.30027		67.17200		324.00000 
 43692.65567		 261.35540			43431.30027		187.39400		875.00000 
 43692.65567		 261.35540			43431.30027		67.17200		324.00000 
 43692.65567		 261.35540			43431.30027		187.39400		875.00000 
 43692.65567		 261.35540			43431.30027		67.17200		324.00000 
 43692.65567		 261.35540			43431.30027		187.39400		875.00000 
 43692.65567		 261.35540			43431.30027		67.17200		324.00000 
 43692.65567		 261.35540			43431.30027		187.39400		875.00000 
 43692.65567		 261.35540			43431.30027		67.17200		324.00000 
 43692.65567		 265.17429			43427.48138		187.39400		875.00000 
 43692.65567		 261.35540			43431.30027		67.17200		324.00000 
 43692.65567		 265.17429			43427.48138		187.39400		875.00000 
 43692.65567		 261.35540			43431.30027		67.17200		324.00000 
 43692.65567		 272.81207			43419.84360		187.39400		875.00000 
 43692.65567		 261.35540			43431.30027		67.17200		324.00000 
 43692.65567		 272.81207			43419.84360		187.39400		875.00000 
 43692.65567		 261.35540			43431.30027		67.17200		324.00000 
 43692.65567		 272.81207			43419.84360		187.39400		875.00000 
 43692.65567		 265.17429			43427.48138		67.17200		324.00000 
 43692.65567		 272.81207			43419.84360		151.97800		875.00000 
 43692.65567		 265.17429			43427.48138		67.17200		324.00000 
 43692.65567		 272.81207			43419.84360		151.97800		875.00000 
 43692.65567		 272.81207			43419.84360		67.17200		324.00000 
 43692.65567		 272.81207			43419.84360		151.97800		875.00000 
 43692.65567		 272.81207			43419.84360		67.17200		324.00000 
 43692.65567		 272.81207			43419.84360		151.97800		875.00000 
 43692.65567		 272.81207			43419.84360		67.17200		324.00000 
 43692.65567		 305.27265			43387.38302		151.97800		875.00000 
 43692.65567		 305.27265			43387.38302		67.17200		324.00000 
 43692.65567		 305.27265			43387.38302		151.97800		875.00000 
 43692.65567		 305.27265			43387.38302		67.17200		324.00000 
 43692.65567		 305.27265			43387.38302		151.97800		875.00000 
 43692.65567		 305.27265			43387.38302		67.17200		324.00000 
 43692.65567		 305.27265			43387.38302		151.97800		875.00000 
 43692.65567		 305.27265			43387.38302		67.17200		324.00000 
 43692.65567		 305.27265			43387.38302		151.97800		875.00000 
 43692.65567		 305.27265			43387.38302		67.17200		324.00000 
 43692.65567		 309.09154			43383.56413		151.97800		875.00000 
 43692.65567		 305.27265			43387.38302		67.17200		324.00000 
 43692.65567		 310.52363			43382.13204		151.97800		875.00000 
 43692.65567		 305.27265			43387.38302		67.17200		324.00000 
 43692.65567		 311.00099			43381.65468		151.97800		875.00000 
 43692.65567		 305.27265			43387.38302		67.17200		324.00000 
 43692.65567		 311.00099			43381.65468		151.97800		875.00000 
 43692.65567		 305.27265			43387.38302		67.17200		324.00000 
 43692.65567		 311.00099			43381.65468		151.97800		875.00000 
 43692.65567		 305.27265			43387.38302		67.17200		324.00000 
 43692.65567		 311.00099			43381.65468		151.97800		875.00000 
 43692.65567		 305.27265			43387.38302		67.17200		324.00000 
 43692.65567		 311.00099			43381.65468		151.97800		875.00000 
 43692.65567		 305.27265			43387.38302		67.17200		324.00000 
 43692.65567		 311.00099			43381.65468		151.97800		875.00000 
 43692.65567		 305.27265			43387.38302		67.17200		324.00000 
 43692.65567		 311.00099			43381.65468		151.97800		875.00000 
 43692.65567		 305.27265			43387.38302		67.17200		324.00000 
 43692.65567		 311.00099			43381.65468		151.97800		875.00000 
 43692.65567		 305.27265			43387.38302		67.17200		324.00000 
 43692.65567		 311.00099			43381.65468		151.97800		875.00000 
 43692.65567		 305.27265			43387.38302		67.17200		324.00000 
 43692.65567		 311.00099			43381.65468		151.97800		875.00000 
 43692.65567		 305.27265			43387.38302		67.17200		324.00000 
 43692.65567		 311.00099			43381.65468		151.97800		875.00000 
 43692.65567		 305.27265			43387.38302		67.17200		324.00000 
 43692.65567		 311.00099			43381.65468		151.97800		875.00000 
 43692.65567		 305.27265			43387.38302		67.17200		324.00000 
 43692.65567		 311.00099			43381.65468		151.97800		875.00000 
 43692.65567		 305.27265			43387.38302		67.17200		324.00000 
 43692.65567		 311.00099			43381.65468		151.97800		875.00000 
 43692.65567		 305.27265			43387.38302		67.17200		324.00000 
 43692.65567		 311.00099			43381.65468		151.97800		875.00000 
 43692.65567		 305.27265			43387.38302		67.17200		324.00000 
 43692.65567		 311.00099			43381.65468		151.97800		875.00000 
 43692.65567		 305.27265			43387.38302		67.17200		324.00000 
 43692.65567		 311.00099			43381.65468		151.97800		875.00000 
 43692.65567		 305.27265			43387.38302		67.17200		324.00000 
 43692.65567		 311.00099			43381.65468		151.97800		875.00000 
 43692.65567		 305.27265			43387.38302		67.17200		324.00000 
 43692.65567		 311.00099			43381.65468		151.97800		875.00000 
 43692.65567		 305.27265			43387.38302		67.17200		324.00000 
 43692.65567		 311.00099			43381.65468		151.97800		875.00000 
 43692.65567		 305.27265			43387.38302		67.17200		324.00000 
 43692.65567		 311.00099			43381.65468		151.97800		875.00000 
 43692.65567		 305.27265			43387.38302		67.17200		324.00000 
 43692.65567		 311.00099			43381.65468		151.97800		875.00000 
 43692.65567		 305.27265			43387.38302		67.17200		324.00000 
 43692.65567		 311.00099			43381.65468		151.97800		875.00000 
 43692.65567		 305.27265			43387.38302		67.17200		324.00000 
 43692.65567		 311.00099			43381.65468		139.39800		875.00000 
 43692.65567		 305.27265			43387.38302		67.17200		324.00000 
 43692.65567		 311.00099			43381.65468		139.39800		875.00000 
 43692.65567		 305.27265			43387.38302		67.17200		324.00000 
 43692.65567		 311.00099			43381.65468		139.39800		875.00000 
 43692.65567		 305.27265			43387.38302		67.17200		324.00000 
 43692.65567		 311.00099			43381.65468		139.39800		875.00000 
 43692.65567		 305.27265			43387.38302		67.17200		324.00000 
 43692.65567		 311.00099			43381.65468		139.39800		875.00000 
 43692.65567		 305.27265			43387.38302		67.17200		324.00000 
 43692.65567		 311.00099			43381.65468		139.39800		875.00000 
 43692.65567		 305.27265			43387.38302		67.17200		324.00000 
 43692.65567		 311.00099			43381.65468		139.39800		875.00000 
 43692.65567		 305.27265			43387.38302		67.17200		324.00000 
 43692.65567		 311.00099			43381.65468		139.39800		875.00000 
 43692.65567		 305.27265			43387.38302		67.17200		324.00000 
 43692.65567		 311.00099			43381.65468		139.39800		875.00000 
 43692.65567		 305.27265			43387.38302		67.17200		324.00000 
 43692.65567		 311.00099			43381.65468		139.39800		875.00000 
 43692.65567		 305.27265			43387.38302		67.17200		324.00000 
 43692.65567		 311.00099			43381.65468		139.39800		875.00000 
 43692.65567		 305.27265			43387.38302		67.17200		324.00000 
 43692.65567		 311.00099			43381.65468		139.39800		875.00000 
 43692.65567		 305.27265			43387.38302		67.17200		324.00000 
 43692.65567		 311.00099			43381.65468		139.39800		875.00000 
 43692.65567		 305.27265			43387.38302		67.17200		324.00000 
 43692.65567		 311.00099			43381.65468		139.39800		875.00000 
 43692.65567		 305.27265			43387.38302		67.17200		324.00000 
 43692.65567		 311.00099			43381.65468		139.39800		875.00000 
 43692.65567		 305.27265			43387.38302		67.17200		324.00000 
 43692.65567		 311.00099			43381.65468		139.39800		875.00000 
 43692.65567		 305.27265			43387.38302		67.17200		324.00000 
 43692.65567		 311.00099			43381.65468		139.39800		875.00000 
 43692.65567		 305.27265			43387.38302		67.17200		324.00000 
 43692.65567		 311.00099			43381.65468		139.39800		875.00000 
 43692.65567		 305.27265			43387.38302		67.17200		324.00000 
 43692.65567		 311.00099			43381.65468		139.39800		875.00000 
 43692.65567		 305.27265			43387.38302		67.17200		324.00000 
 43692.65567		 311.00099			43381.65468		139.39800		875.00000 
 43692.65567		 305.27265			43387.38302		67.17200		324.00000 
 43692.65567		 311.00099			43381.65468		139.39800		875.00000 
 43692.65567		 305.27265			43387.38302		67.17200		324.00000 
 43692.65567		 311.00099			43381.65468		139.39800		875.00000 
 43692.65567		 305.27265			43387.38302		67.17200		324.00000 
 43692.65567		 311.00099			43381.65468		139.39800		875.00000 
 43692.65567		 305.27265			43387.38302		67.17200		324.00000 
 43692.65567		 311.00099			43381.65468		139.39800		875.00000 
 43692.65567		 305.27265			43387.38302		67.17200		324.00000 
 43692.65567		 311.00099			43381.65468		139.39800		875.00000 
 43692.65567		 305.27265			43387.38302		67.17200		324.00000 
 43692.65567		 311.00099			43381.65468		139.39800		875.00000 
 43692.65567		 305.27265			43387.38302		67.17200		324.00000 
 43692.65567		 314.81988			43377.83579		139.39800		875.00000 
 43692.65567		 305.27265			43387.38302		67.17200		324.00000 
 43692.65567		 314.81988			43377.83579		139.39800		875.00000 
 43692.65567		 305.27265			43387.38302		67.17200		324.00000 
 43692.65567		 314.81988			43377.83579		139.39800		875.00000 
 43692.65567		 305.27265			43387.38302		67.17200		324.00000 
 43692.65567		 318.63877			43374.01690		139.39800		875.00000 
 43692.65567		 305.27265			43387.38302		67.17200		324.00000 
 43692.65567		 322.45767			43370.19801		139.39800		875.00000 
 43692.65567		 305.27265			43387.38302		67.17200		324.00000 
 43692.65567		 326.27656			43366.37912		139.39800		875.00000 
 43692.65567		 305.27265			43387.38302		67.17200		324.00000 
 43692.65567		 326.27656			43366.37912		139.39800		875.00000 
 43692.65567		 305.27265			43387.38302		67.17200		324.00000 
 43692.65567		 537.27032			43155.38535		133.67200		875.00000 
 43692.65567		 305.27265			43387.38302		64.65000		324.00000 
 43692.65567		 563.04784			43129.60783		133.67200		875.00000 
 43692.65567		 305.27265			43387.38302		64.65000		324.00000 
 43692.65567		 614.60288			43078.05279		133.67200		875.00000 
 43692.65567		 305.27265			43387.38302		64.65000		324.00000 
 43692.65567		 614.60288			43078.05279		133.67200		875.00000 
 43692.65567		 305.27265			43387.38302		64.65000		324.00000 
 43692.65567		 614.60288			43078.05279		133.67200		875.00000 
 43692.65567		 305.27265			43387.38302		64.65000		324.00000 
 43692.65567		 614.60288			43078.05279		133.67200		875.00000 
 43692.65567		 305.27265			43387.38302		64.65000		324.00000 
 43692.65567		 614.60288			43078.05279		133.67200		875.00000 
 43692.65567		 305.27265			43387.38302		64.65000		324.00000 
 43692.65567		 614.60288			43078.05279		133.67200		875.00000 
 43692.65567		 305.27265			43387.38302		64.65000		324.00000 
 43692.65567		 614.60288			43078.05279		133.67200		875.00000 
 43692.65567		 305.27265			43387.38302		64.65000		324.00000 
 43692.65567		 614.60288			43078.05279		133.67200		875.00000 
 43692.65567		 305.27265			43387.38302		64.65000		324.00000 
 43692.65567		 614.60288			43078.05279		133.67200		875.00000 
 43692.65567		 305.27265			43387.38302		64.65000		324.00000 
 43692.65567		 614.60288			43078.05279		133.67200		875.00000 
 43692.65567		 305.27265			43387.38302		64.65000		324.00000 
 43692.65567		 614.60288			43078.05279		133.67200		875.00000 
 43692.65567		 305.27265			43387.38302		64.65000		324.00000 
 43692.65567		 614.60288			43078.05279		133.67200		875.00000 
 43692.65567		 305.27265			43387.38302		64.65000		324.00000 
 43692.65567		 614.60288			43078.05279		133.67200		875.00000 
 43692.65567		 305.27265			43387.38302		64.65000		324.00000 
 43692.65567		 614.60288			43078.05279		133.67200		875.00000 
 43692.65567		 305.27265			43387.38302		64.65000		324.00000 
 43692.65567		 614.60288			43078.05279		133.67200		875.00000 
 43692.65567		 305.27265			43387.38302		64.65000		324.00000 
 43692.65567		 614.60288			43078.05279		133.67200		875.00000 
 43692.65567		 305.27265			43387.38302		64.65000		324.00000 
 43692.65567		 614.60288			43078.05279		133.67200		875.00000 
 43692.65567		 305.27265			43387.38302		64.65000		324.00000 
 43692.65567		 614.60288			43078.05279		133.67200		875.00000 
 43692.65567		 305.27265			43387.38302		64.65000		324.00000 
 43692.65567		 614.60288			43078.05279		133.67200		875.00000 
 43692.65567		 305.27265			43387.38302		64.65000		324.00000 
 43692.65567		 614.60288			43078.05279		133.67200		875.00000 
 43692.65567		 305.27265			43387.38302		64.65000		324.00000 
 43692.65567		 614.60288			43078.05279		133.67200		875.00000 
 43692.65567		 305.27265			43387.38302		64.65000		324.00000 
 43692.65567		 614.60288			43078.05279		133.67200		875.00000 
 43692.65567		 305.27265			43387.38302		64.65000		324.00000 
 43692.65567		 614.60288			43078.05279		133.67200		875.00000 
 43692.65567		 305.27265			43387.38302		64.65000		324.00000 
 43692.65567		 614.60288			43078.05279		133.67200		875.00000 
 43692.65567		 305.27265			43387.38302		64.65000		324.00000 
 43692.65567		 614.60288			43078.05279		133.67200		875.00000 
 43692.65567		 305.27265			43387.38302		64.65000		324.00000 
 43692.65567		 614.60288			43078.05279		133.67200		875.00000 
 43692.65567		 305.27265			43387.38302		64.65000		324.00000 
 43692.65567		 614.60288			43078.05279		133.67200		875.00000 
 43692.65567		 305.27265			43387.38302		64.65000		324.00000 
 43692.65567		 614.60288			43078.05279		133.67200		875.00000 
 43692.65567		 305.27265			43387.38302		64.65000		324.00000 
 43692.65567		 614.60288			43078.05279		133.67200		875.00000 
 43692.65567		 305.27265			43387.38302		64.65000		324.00000 
 43692.65567		 614.60288			43078.05279		133.67200		875.00000 
 43692.65567		 305.27265			43387.38302		64.65000		324.00000 
 43692.65567		 614.60288			43078.05279		133.67200		875.00000 
 43692.65567		 305.27265			43387.38302		64.65000		324.00000 
 43692.65567		 614.60288			43078.05279		133.67200		875.00000 
 43692.65567		 305.27265			43387.38302		64.65000		324.00000 
 43692.65567		 614.60288			43078.05279		133.67200		875.00000 
 43692.65567		 305.27265			43387.38302		64.65000		324.00000 
 43692.65567		 614.60288			43078.05279		133.67200		875.00000 
 43692.65567		 305.27265			43387.38302		64.65000		324.00000 
 43692.65567		 614.60288			43078.05279		133.67200		875.00000 
 43692.65567		 305.27265			43387.38302		64.65000		324.00000 
 43692.65567		 614.60288			43078.05279		133.67200		875.00000 
 43692.65567		 305.27265			43387.38302		64.65000		324.00000 
 43692.65567		 614.60288			43078.05279		133.67200		875.00000 
 43692.65567		 305.27265			43387.38302		64.65000		324.00000 
 43692.65567		 614.60288			43078.05279		133.67200		875.00000 
 43692.65567		 305.27265			43387.38302		64.65000		324.00000 
 43692.65567		 614.60288			43078.05279		133.67200		875.00000 
 43692.65567		 305.27265			43387.38302		64.65000		324.00000 
 43692.65567		 614.60288			43078.05279		133.67200		875.00000 
 43692.65567		 305.27265			43387.38302		64.65000		324.00000 
 43692.65567		 614.60288			43078.05279		133.67200		875.00000 
 43692.65567		 305.27265			43387.38302		64.65000		324.00000 
 43692.65567		 614.60288			43078.05279		133.67200		875.00000 
 43692.65567		 305.27265			43387.38302		64.65000		324.00000 
 43692.65567		 614.60288			43078.05279		133.67200		875.00000 
 43692.65567		 305.27265			43387.38302		64.65000		324.00000 
 43692.65567		 614.60288			43078.05279		133.67200		875.00000 
 43692.65567		 305.27265			43387.38302		64.65000		324.00000 
 43692.65567		 614.60288			43078.05279		133.67200		875.00000 
 43692.65567		 305.27265			43387.38302		64.65000		324.00000 
 43692.65567		 614.60288			43078.05279		133.67200		875.00000 
 43692.65567		 305.27265			43387.38302		64.65000		324.00000 
 43692.65567		 614.60288			43078.05279		133.67200		875.00000 
 43692.65567		 305.27265			43387.38302		64.65000		324.00000 
 43692.65567		 614.60288			43078.05279		133.67200		875.00000 
 43692.65567		 305.27265			43387.38302		64.65000		324.00000 
 43692.65567		 614.60288			43078.05279		133.67200		875.00000 
 43692.65567		 305.27265			43387.38302		64.65000		324.00000 
 43692.65567		 614.60288			43078.05279		133.67200		875.00000 
 43692.65567		 305.27265			43387.38302		64.65000		324.00000 
 43692.65567		 614.60288			43078.05279		133.67200		875.00000 
 43692.65567		 305.27265			43387.38302		64.65000		324.00000 
 43692.65567		 614.60288			43078.05279		133.67200		875.00000 
 43692.65567		 305.27265			43387.38302		64.65000		324.00000 
 43692.65567		 614.60288			43078.05279		133.67200		875.00000 
 43692.65567		 305.27265			43387.38302		64.65000		324.00000 
 43692.65567		 614.60288			43078.05279		133.67200		875.00000 
 43692.65567		 305.27265			43387.38302		64.65000		324.00000 
 43692.65567		 614.60288			43078.05279		133.67200		875.00000 
 43692.65567		 305.27265			43387.38302		64.65000		324.00000 
 43692.65567		 614.60288			43078.05279		133.67200		875.00000 
 43692.65567		 305.27265			43387.38302		64.65000		324.00000 
 43692.65567		 614.60288			43078.05279		133.67200		875.00000 
 43692.65567		 305.27265			43387.38302		64.65000		324.00000 
 43692.65567		 614.60288			43078.05279		133.67200		875.00000 
 43692.65567		 305.27265			43387.38302		64.65000		324.00000 
 43692.65567		 614.60288			43078.05279		133.67200		875.00000 
 43692.65567		 305.27265			43387.38302		64.65000		324.00000 
 43692.65567		 614.60288			43078.05279		181.79000		875.00000 
 43692.65567		 305.27265			43387.38302		64.65000		324.00000 
 43692.65567		 614.60288			43078.05279		181.79000		875.00000 
 43692.65567		 305.27265			43387.38302		64.65000		324.00000 
 43692.65567		 614.60288			43078.05279		181.79000		875.00000 
 43692.65567		 305.27265			43387.38302		64.65000		324.00000 
 43692.65567		 614.60288			43078.05279		181.79000		875.00000 
 43692.65567		 305.27265			43387.38302		64.65000		324.00000 
 43692.65567		 614.60288			43078.05279		181.79000		875.00000 
 43692.65567		 305.27265			43387.38302		64.65000		324.00000 
 43692.65567		 614.60288			43078.05279		181.79000		875.00000 
 43692.65567		 305.27265			43387.38302		64.65000		324.00000 
 43692.65567		 614.60288			43078.05279		181.79000		875.00000 
 43692.65567		 305.27265			43387.38302		64.65000		324.00000 
 43692.65567		 614.60288			43078.05279		181.79000		875.00000 
 43692.65567		 305.27265			43387.38302		64.65000		324.00000 
 43692.65567		 614.60288			43078.05279		181.79000		875.00000 
 43692.65567		 305.27265			43387.38302		64.65000		324.00000 
 43692.65567		 614.60288			43078.05279		181.79000		875.00000 
 43692.65567		 305.27265			43387.38302		64.65000		324.00000 
 43692.65567		 614.60288			43078.05279		181.79000		875.00000 
 43692.65567		 305.27265			43387.38302		64.65000		324.00000 
 43692.65567		 614.60288			43078.05279		181.79000		875.00000 
 43692.65567		 305.27265			43387.38302		64.65000		324.00000 
 43692.65567		 614.60288			43078.05279		181.79000		875.00000 
 43692.65567		 305.27265			43387.38302		64.65000		324.00000 
 43692.65567		 614.60288			43078.05279		181.79000		875.00000 
 43692.65567		 305.27265			43387.38302		64.65000		324.00000 
 43692.65567		 614.60288			43078.05279		181.79000		875.00000 
 43692.65567		 305.27265			43387.38302		64.65000		324.00000 
 43692.65567		 614.60288			43078.05279		181.79000		875.00000 
 43692.65567		 305.27265			43387.38302		64.65000		324.00000 
 43692.65567		 614.60288			43078.05279		181.79000		875.00000 
 43692.65567		 305.27265			43387.38302		64.65000		324.00000 
 43692.65567		 614.60288			43078.05279		181.79000		875.00000 
 43692.65567		 305.27265			43387.38302		64.65000		324.00000 
 43692.65567		 614.60288			43078.05279		181.79000		875.00000 
 43692.65567		 305.27265			43387.38302		64.65000		324.00000 
 43692.65567		 614.60288			43078.05279		181.79000		875.00000 
 43692.65567		 305.27265			43387.38302		64.65000		324.00000 
 43692.65567		 614.60288			43078.05279		181.79000		875.00000 
 43692.65567		 305.27265			43387.38302		64.65000		324.00000 
 43692.65567		 614.60288			43078.05279		181.79000		875.00000 
 43692.65567		 305.27265			43387.38302		64.65000		324.00000 
 43692.65567		 614.60288			43078.05279		181.79000		875.00000 
 43692.65567		 305.27265			43387.38302		64.65000		324.00000 
 43692.65567		 614.60288			43078.05279		181.79000		875.00000 
 43692.65567		 305.27265			43387.38302		64.65000		324.00000 
 43692.65567		 614.60288			43078.05279		181.79000		875.00000 
 43692.65567		 305.27265			43387.38302		64.65000		324.00000 
 43692.65567		 614.60288			43078.05279		181.79000		875.00000 
 43692.65567		 305.27265			43387.38302		64.65000		324.00000 
 43692.65567		 614.60288			43078.05279		181.79000		875.00000 
 43692.65567		 305.27265			43387.38302		64.65000		324.00000 
 43692.65567		 614.60288			43078.05279		181.79000		875.00000 
 43692.65567		 305.27265			43387.38302		64.65000		324.00000 
 43692.65567		 614.60288			43078.05279		181.79000		875.00000 
 43692.65567		 305.27265			43387.38302		64.65000		324.00000 
 43692.65567		 614.60288			43078.05279		181.79000		875.00000 
 43692.65567		 305.27265			43387.38302		64.65000		324.00000 
 43692.65567		 614.60288			43078.05279		181.79000		875.00000 
 43692.65567		 305.27265			43387.38302		64.65000		324.00000 
 43692.65567		 614.60288			43078.05279		181.79000		875.00000 
 43692.65567		 305.27265			43387.38302		64.65000		324.00000 
 43692.65567		 614.60288			43078.05279		181.79000		875.00000 
 43692.65567		 305.27265			43387.38302		64.65000		324.00000 
 43692.65567		 614.60288			43078.05279		181.79000		875.00000 
 43692.65567		 305.27265			43387.38302		64.65000		324.00000 
 43692.65567		 614.60288			43078.05279		181.79000		875.00000 
 43692.65567		 305.27265			43387.38302		64.65000		324.00000 
 43692.65567		 614.60288			43078.05279		181.79000		875.00000 
 43692.65567		 305.27265			43387.38302		64.65000		324.00000 
 43692.65567		 614.60288			43078.05279		181.79000		875.00000 
 43692.65567		 305.27265			43387.38302		64.65000		324.00000 
 43692.65567		 614.60288			43078.05279		181.79000		875.00000 
 43692.65567		 305.27265			43387.38302		64.65000		324.00000 
 43692.65567		 614.60288			43078.05279		181.79000		875.00000 
 43692.65567		 305.27265			43387.38302		64.65000		324.00000 
 43692.65567		 614.60288			43078.05279		181.79000		875.00000 
 43692.65567		 305.27265			43387.38302		64.65000		324.00000 
 43692.65567		 614.60288			43078.05279		181.79000		875.00000 
 43692.65567		 305.27265			43387.38302		64.65000		324.00000 
 43692.65567		 614.60288			43078.05279		181.79000		875.00000 
 43692.65567		 305.27265			43387.38302		64.65000		324.00000 
 43692.65567		 614.60288			43078.05279		181.79000		875.00000 
 43692.65567		 305.27265			43387.38302		64.65000		324.00000 
 43692.65567		 614.60288			43078.05279		181.79000		875.00000 
 43692.65567		 305.27265			43387.38302		64.65000		324.00000 
 43692.65567		 614.60288			43078.05279		181.79000		875.00000 
 43692.65567		 305.27265			43387.38302		64.65000		324.00000 
 43692.65567		 614.60288			43078.05279		181.79000		875.00000 
 43692.65567		 305.27265			43387.38302		64.65000		324.00000 
 43692.65567		 614.60288			43078.05279		181.79000		875.00000 
 43692.65567		 305.27265			43387.38302		64.65000		324.00000 
 43692.65567		 614.60288			43078.05279		181.79000		875.00000 
 43692.65567		 305.27265			43387.38302		64.65000		324.00000 
 43692.65567		 614.60288			43078.05279		181.79000		875.00000 
 43692.65567		 305.27265			43387.38302		64.65000		324.00000 
 43692.65567		 614.60288			43078.05279		181.79000		875.00000 
 43692.65567		 305.27265			43387.38302		64.65000		324.00000 
 43692.65567		 614.60288			43078.05279		181.79000		875.00000 
 43692.65567		 305.27265			43387.38302		64.65000		324.00000 
 43692.65567		 614.60288			43078.05279		181.79000		875.00000 
 43692.65567		 305.27265			43387.38302		64.65000		324.00000 
 43692.65567		 614.60288			43078.05279		181.79000		875.00000 
 43692.65567		 305.27265			43387.38302		64.65000		324.00000 
 43692.65567		 614.60288			43078.05279		181.79000		875.00000 
 43692.65567		 305.27265			43387.38302		64.65000		324.00000 
 43692.65567		 614.60288			43078.05279		181.79000		875.00000 
 43692.65567		 305.27265			43387.38302		64.65000		324.00000 
 43692.65567		 614.60288			43078.05279		181.79000		875.00000 
 43692.65567		 305.27265			43387.38302		64.65000		324.00000 
 43692.65567		 614.60288			43078.05279		181.79000		875.00000 
 43692.65567		 305.27265			43387.38302		64.65000		324.00000 
 43692.65567		 614.60288			43078.05279		181.79000		875.00000 
 43692.65567		 305.27265			43387.38302		64.65000		324.00000 
 43692.65567		 614.60288			43078.05279		181.79000		875.00000 
 43692.65567		 305.27265			43387.38302		64.65000		324.00000 
 43692.65567		 614.60288			43078.05279		181.79000		875.00000 
 43692.65567		 305.27265			43387.38302		64.65000		324.00000 
 43692.65567		 614.60288			43078.05279		181.79000		875.00000 
 43692.65567		 305.27265			43387.38302		64.65000		324.00000 
 43692.65567		 614.60288			43078.05279		181.79000		875.00000 
 43692.65567		 305.27265			43387.38302		64.65000		324.00000 
 43692.65567		 614.60288			43078.05279		181.79000		875.00000 
 43692.65567		 305.27265			43387.38302		64.65000		324.00000 
 43692.65567		 614.60288			43078.05279		181.79000		875.00000 
 43692.65567		 305.27265			43387.38302		64.65000		324.00000 
 43692.65567		 614.60288			43078.05279		181.79000		875.00000 
 43692.65567		 305.27265			43387.38302		64.65000		324.00000 
 43692.65567		 614.60288			43078.05279		203.62000		875.00000 
 43692.65567		 305.27265			43387.38302		64.65000		324.00000 
 43692.65567		 614.60288			43078.05279		203.62000		875.00000 
 43692.65567		 305.27265			43387.38302		64.65000		324.00000 
 43692.65567		 614.60288			43078.05279		203.62000		875.00000 
 43692.65567		 305.27265			43387.38302		64.65000		324.00000 
 43692.65567		 614.60288			43078.05279		203.62000		875.00000 
 43692.65567		 305.27265			43387.38302		64.65000		324.00000 
 43692.65567		 614.60288			43078.05279		203.62000		875.00000 
 43692.65567		 305.27265			43387.38302		64.65000		324.00000 
 43692.65567		 614.60288			43078.05279		203.62000		875.00000 
 43692.65567		 305.27265			43387.38302		64.65000		324.00000 
 43692.65567		 614.60288			43078.05279		203.62000		875.00000 
 43692.65567		 305.27265			43387.38302		64.65000		324.00000 
 43692.65567		 614.60288			43078.05279		203.62000		875.00000 
 43692.65567		 305.27265			43387.38302		64.65000		324.00000 
 43692.65567		 614.60288			43078.05279		203.62000		875.00000 
 43692.65567		 305.27265			43387.38302		64.65000		324.00000 
 43692.65567		 614.60288			43078.05279		203.62000		875.00000 
 43692.65567		 305.27265			43387.38302		64.65000		324.00000 
 43692.65567		 614.60288			43078.05279		203.62000		875.00000 
 43692.65567		 305.27265			43387.38302		64.65000		324.00000 
 43692.65567		 614.60288			43078.05279		203.62000		875.00000 
 43692.65567		 305.27265			43387.38302		64.65000		324.00000 
 43692.65567		 614.60288			43078.05279		203.62000		875.00000 
 43692.65567		 305.27265			43387.38302		64.65000		324.00000 
 43692.65567		 614.60288			43078.05279		203.62000		875.00000 
 43692.65567		 305.27265			43387.38302		64.65000		324.00000 
 43692.65567		 614.60288			43078.05279		203.62000		875.00000 
 43692.65567		 305.27265			43387.38302		64.65000		324.00000 
 43692.65567		 614.60288			43078.05279		203.62000		875.00000 
 43692.65567		 305.27265			43387.38302		64.65000		324.00000 
 43692.65567		 614.60288			43078.05279		203.62000		875.00000 
 43692.65567		 305.27265			43387.38302		64.65000		324.00000 
 43692.65567		 614.60288			43078.05279		203.62000		875.00000 
 43692.65567		 305.27265			43387.38302		64.65000		324.00000 
 43692.65567		 614.60288			43078.05279		203.62000		875.00000 
 43692.65567		 305.27265			43387.38302		64.65000		324.00000 
 43692.65567		 614.60288			43078.05279		203.62000		875.00000 
 43692.65567		 305.27265			43387.38302		64.65000		324.00000 
 43692.65567		 614.60288			43078.05279		203.62000		875.00000 
 43692.65567		 305.27265			43387.38302		64.65000		324.00000 
 43692.65567		 614.60288			43078.05279		203.62000		875.00000 
 43692.65567		 305.27265			43387.38302		64.65000		324.00000 
 43692.65567		 614.60288			43078.05279		203.62000		875.00000 
 43692.65567		 305.27265			43387.38302		64.65000		324.00000 
 43692.65567		 614.60288			43078.05279		203.62000		875.00000 
 43692.65567		 305.27265			43387.38302		64.65000		324.00000 
 43692.65567		 614.60288			43078.05279		203.62000		875.00000 
 43692.65567		 305.27265			43387.38302		64.65000		324.00000 
 43692.65567		 614.60288			43078.05279		203.62000		875.00000 
 43692.65567		 305.27265			43387.38302		64.65000		324.00000 
 43692.65567		 614.60288			43078.05279		203.62000		875.00000 
 43692.65567		 305.27265			43387.38302		64.65000		324.00000 
 43692.65567		 614.60288			43078.05279		203.62000		875.00000 
 43692.65567		 305.27265			43387.38302		64.65000		324.00000 
 43692.65567		 614.60288			43078.05279		203.62000		875.00000 
 43692.65567		 305.27265			43387.38302		64.65000		324.00000 
 43692.65567		 614.60288			43078.05279		203.62000		875.00000 
 43692.65567		 305.27265			43387.38302		64.65000		324.00000 
 43692.65567		 614.60288			43078.05279		203.62000		875.00000 
 43692.65567		 305.27265			43387.38302		64.65000		324.00000 
 43692.65567		 614.60288			43078.05279		203.62000		875.00000 
 43692.65567		 305.27265			43387.38302		64.65000		324.00000 
 43692.65567		 614.60288			43078.05279		203.62000		875.00000 
 43692.65567		 305.27265			43387.38302		64.65000		324.00000 
 43692.65567		 614.60288			43078.05279		203.62000		875.00000 
 43692.65567		 305.27265			43387.38302		64.65000		324.00000 
 43692.65567		 614.60288			43078.05279		203.62000		875.00000 
 43692.65567		 305.27265			43387.38302		64.65000		324.00000 
 43692.65567		 614.60288			43078.05279		203.62000		875.00000 
 43692.65567		 305.27265			43387.38302		64.65000		324.00000 
 43692.65567		 614.60288			43078.05279		203.62000		875.00000 
 43692.65567		 305.27265			43387.38302		64.65000		324.00000 
 43692.65567		 614.60288			43078.05279		203.62000		875.00000 
 43692.65567		 305.27265			43387.38302		64.65000		324.00000 
 43692.65567		 614.60288			43078.05279		203.62000		875.00000 
 43692.65567		 305.27265			43387.38302		64.65000		324.00000 
 43692.65567		 614.60288			43078.05279		203.62000		875.00000 
 43692.65567		 305.27265			43387.38302		64.65000		324.00000 
 43692.65567		 614.60288			43078.05279		203.62000		875.00000 
 43692.65567		 305.27265			43387.38302		64.65000		324.00000 
 43692.65567		 614.60288			43078.05279		203.62000		875.00000 
 43692.65567		 305.27265			43387.38302		64.65000		324.00000 
 43692.65567		 614.60288			43078.05279		203.62000		875.00000 
 43692.65567		 305.27265			43387.38302		64.65000		324.00000 
 43692.65567		 614.60288			43078.05279		203.62000		875.00000 
 43692.65567		 305.27265			43387.38302		64.65000		324.00000 
 43692.65567		 614.60288			43078.05279		203.62000		875.00000 
 43692.65567		 305.27265			43387.38302		64.65000		324.00000 
 43692.65567		 614.60288			43078.05279		203.62000		875.00000 
 43692.65567		 305.27265			43387.38302		64.65000		324.00000 
 43692.65567		 614.60288			43078.05279		203.62000		875.00000 
 43692.65567		 305.27265			43387.38302		64.65000		324.00000 
 43692.65567		 614.60288			43078.05279		203.62000		875.00000 
 43692.65567		 305.27265			43387.38302		64.65000		324.00000 
 43692.65567		 614.60288			43078.05279		203.62000		875.00000 
 43692.65567		 305.27265			43387.38302		64.65000		324.00000 
 43692.65567		 614.60288			43078.05279		203.62000		875.00000 
 43692.65567		 305.27265			43387.38302		64.65000		324.00000 
 43692.65567		 614.60288			43078.05279		203.62000		875.00000 
 43692.65567		 305.27265			43387.38302		64.65000		324.00000 
 43692.65567		 614.60288			43078.05279		203.62000		875.00000 
 43692.65567		 305.27265			43387.38302		64.65000		324.00000 
 43692.65567		 614.60288			43078.05279		203.62000		875.00000 
 43692.65567		 305.27265			43387.38302		64.65000		324.00000 
 43692.65567		 614.60288			43078.05279		203.62000		875.00000 
 43692.65567		 305.27265			43387.38302		64.65000		324.00000 
 43692.65567		 614.60288			43078.05279		203.62000		875.00000 
 43692.65567		 305.27265			43387.38302		64.65000		324.00000 
 43692.65567		 614.60288			43078.05279		203.62000		875.00000 
 43692.65567		 305.27265			43387.38302		64.65000		324.00000 
 43692.65567		 614.60288			43078.05279		203.62000		875.00000 
 43692.65567		 305.27265			43387.38302		64.65000		324.00000 
 43692.65567		 614.60288			43078.05279		203.62000		875.00000 
 43692.65567		 305.27265			43387.38302		64.65000		324.00000 
 43692.65567		 614.60288			43078.05279		203.62000		875.00000 
 43692.65567		 305.27265			43387.38302		64.65000		324.00000 
 43692.65567		 614.60288			43078.05279		203.62000		875.00000 
 43692.65567		 305.27265			43387.38302		64.65000		324.00000 
 43692.65567		 614.60288			43078.05279		203.62000		875.00000 
 43692.65567		 305.27265			43387.38302		64.65000		324.00000 
 43692.65567		 614.60288			43078.05279		203.62000		875.00000 
 43692.65567		 305.27265			43387.38302		64.65000		324.00000 
 43692.65567		 614.60288			43078.05279		203.62000		875.00000 
 43692.65567		 305.27265			43387.38302		64.65000		324.00000 
 43692.65567		 614.60288			43078.05279		203.62000		875.00000 
 43692.65567		 305.27265			43387.38302		64.65000		324.00000 
 43692.65567		 614.60288			43078.05279		211.31800		875.00000 
 43692.65567		 305.27265			43387.38302		64.65000		324.00000 
 43692.65567		 614.60288			43078.05279		211.31800		875.00000 
 43692.65567		 305.27265			43387.38302		64.65000		324.00000 
 43692.65567		 614.60288			43078.05279		211.31800		875.00000 
 43692.65567		 305.27265			43387.38302		64.65000		324.00000 
 43692.65567		 614.60288			43078.05279		211.31800		875.00000 
 43692.65567		 305.27265			43387.38302		64.65000		324.00000 
 43692.65567		 614.60288			43078.05279		211.31800		875.00000 
 43692.65567		 305.27265			43387.38302		64.65000		324.00000 
 43692.65567		 614.60288			43078.05279		211.31800		875.00000 
 43692.65567		 305.27265			43387.38302		64.65000		324.00000 
 43692.65567		 614.60288			43078.05279		211.31800		875.00000 
 43692.65567		 305.27265			43387.38302		64.65000		324.00000 
 43692.65567		 614.60288			43078.05279		211.31800		875.00000 
 43692.65567		 305.27265			43387.38302		64.65000		324.00000 
 43692.65567		 614.60288			43078.05279		211.31800		875.00000 
 43692.65567		 305.27265			43387.38302		64.65000		324.00000 
 43692.65567		 614.60288			43078.05279		211.31800		875.00000 
 43692.65567		 305.27265			43387.38302		64.65000		324.00000 
 43692.65567		 614.60288			43078.05279		211.31800		875.00000 
 43692.65567		 305.27265			43387.38302		64.65000		324.00000 
 43692.65567		 614.60288			43078.05279		211.31800		875.00000 
 43692.65567		 305.27265			43387.38302		64.65000		324.00000 
 43692.65567		 614.60288			43078.05279		211.31800		875.00000 
 43692.65567		 305.27265			43387.38302		64.65000		324.00000 
 43692.65567		 614.60288			43078.05279		211.31800		875.00000 
 43692.65567		 305.27265			43387.38302		64.65000		324.00000 
 43692.65567		 614.60288			43078.05279		211.31800		875.00000 
 43692.65567		 305.27265			43387.38302		64.65000		324.00000 
 43692.65567		 614.60288			43078.05279		211.31800		875.00000 
 43692.65567		 305.27265			43387.38302		64.65000		324.00000 
 43692.65567		 614.60288			43078.05279		211.31800		875.00000 
 43692.65567		 305.27265			43387.38302		64.65000		324.00000 
 43692.65567		 614.60288			43078.05279		211.31800		875.00000 
 43692.65567		 305.27265			43387.38302		64.65000		324.00000 
 43692.65567		 614.60288			43078.05279		211.31800		875.00000 
 43692.65567		 305.27265			43387.38302		64.65000		324.00000 
 43692.65567		 614.60288			43078.05279		211.31800		875.00000 
 43692.65567		 305.27265			43387.38302		64.65000		324.00000 
 43692.65567		 614.60288			43078.05279		211.31800		875.00000 
 43692.65567		 305.27265			43387.38302		64.65000		324.00000 
 43692.65567		 614.60288			43078.05279		211.31800		875.00000 
 43692.65567		 305.27265			43387.38302		64.65000		324.00000 
 43692.65567		 614.60288			43078.05279		211.31800		875.00000 
 43692.65567		 305.27265			43387.38302		64.65000		324.00000 
 43692.65567		 614.60288			43078.05279		211.31800		875.00000 
 43692.65567		 305.27265			43387.38302		64.65000		324.00000 
 43692.65567		 614.60288			43078.05279		211.31800		875.00000 
 43692.65567		 305.27265			43387.38302		64.65000		324.00000 
 43692.65567		 614.60288			43078.05279		211.31800		875.00000 
 43692.65567		 305.27265			43387.38302		64.65000		324.00000 
 43692.65567		 614.60288			43078.05279		211.31800		875.00000 
 43692.65567		 305.27265			43387.38302		64.65000		324.00000 
 43692.65567		 614.60288			43078.05279		211.31800		875.00000 
 43692.65567		 305.27265			43387.38302		64.65000		324.00000 
 43692.65567		 614.60288			43078.05279		211.31800		875.00000 
 43692.65567		 305.27265			43387.38302		64.65000		324.00000 
 43692.65567		 614.60288			43078.05279		211.31800		875.00000 
 43692.65567		 305.27265			43387.38302		64.65000		324.00000 
 43692.65567		 614.60288			43078.05279		211.31800		875.00000 
 43692.65567		 305.27265			43387.38302		64.65000		324.00000 
 43692.65567		 614.60288			43078.05279		211.31800		875.00000 
 43692.65567		 305.27265			43387.38302		64.65000		324.00000 
 43692.65567		 614.60288			43078.05279		211.31800		875.00000 
 43692.65567		 305.27265			43387.38302		64.65000		324.00000 
 43692.65567		 614.60288			43078.05279		211.31800		875.00000 
 43692.65567		 305.27265			43387.38302		64.65000		324.00000 
 43692.65567		 614.60288			43078.05279		211.31800		875.00000 
 43692.65567		 305.27265			43387.38302		64.65000		324.00000 
 43692.65567		 614.60288			43078.05279		211.31800		875.00000 
 43692.65567		 305.27265			43387.38302		64.65000		324.00000 
 43692.65567		 614.60288			43078.05279		211.31800		875.00000 
 43692.65567		 305.27265			43387.38302		64.65000		324.00000 
 43692.65567		 614.60288			43078.05279		211.31800		875.00000 
 43692.65567		 305.27265			43387.38302		64.65000		324.00000 
 43692.65567		 614.60288			43078.05279		211.31800		875.00000 
 43692.65567		 305.27265			43387.38302		64.65000		324.00000 
 43692.65567		 614.60288			43078.05279		211.31800		875.00000 
 43692.65567		 305.27265			43387.38302		64.65000		324.00000 
 43692.65567		 614.60288			43078.05279		211.31800		875.00000 
 43692.65567		 305.27265			43387.38302		64.65000		324.00000 
 43692.65567		 614.60288			43078.05279		211.31800		875.00000 
 43692.65567		 305.27265			43387.38302		64.65000		324.00000 
 43692.65567		 614.60288			43078.05279		211.31800		875.00000 
 43692.65567		 305.27265			43387.38302		64.65000		324.00000 
 43692.65567		 614.60288			43078.05279		211.31800		875.00000 
 43692.65567		 305.27265			43387.38302		64.65000		324.00000 
 43692.65567		 614.60288			43078.05279		211.31800		875.00000 
 43692.65567		 305.27265			43387.38302		64.65000		324.00000 
 43692.65567		 614.60288			43078.05279		211.31800		875.00000 
 43692.65567		 305.27265			43387.38302		64.65000		324.00000 
 43692.65567		 614.60288			43078.05279		211.31800		875.00000 
 43692.65567		 305.27265			43387.38302		64.65000		324.00000 
 43692.65567		 614.60288			43078.05279		211.31800		875.00000 
 43692.65567		 305.27265			43387.38302		64.65000		324.00000 
 43692.65567		 614.60288			43078.05279		211.31800		875.00000 
 43692.65567		 305.27265			43387.38302		64.65000		324.00000 
 43692.65567		 614.60288			43078.05279		211.31800		875.00000 
 43692.65567		 305.27265			43387.38302		64.65000		324.00000 
 43692.65567		 614.60288			43078.05279		211.31800		875.00000 
 43692.65567		 305.27265			43387.38302		64.65000		324.00000 
 43692.65567		 614.60288			43078.05279		211.31800		875.00000 
 43692.65567		 305.27265			43387.38302		64.65000		324.00000 
 43692.65567		 614.60288			43078.05279		211.31800		875.00000 
 43692.65567		 305.27265			43387.38302		64.65000		324.00000 
 43692.65567		 614.60288			43078.05279		211.31800		875.00000 
 43692.65567		 305.27265			43387.38302		64.65000		324.00000 
 43692.65567		 614.60288			43078.05279		211.31800		875.00000 
 43692.65567		 305.27265			43387.38302		64.65000		324.00000 
 43692.65567		 614.60288			43078.05279		211.31800		875.00000 
 43692.65567		 305.27265			43387.38302		64.65000		324.00000 
 43692.65567		 614.60288			43078.05279		211.31800		875.00000 
 43692.65567		 305.27265			43387.38302		64.65000		324.00000 
 43692.65567		 614.60288			43078.05279		211.31800		875.00000 
 43692.65567		 305.27265			43387.38302		64.65000		324.00000 
 43692.65567		 614.60288			43078.05279		211.31800		875.00000 
 43692.65567		 305.27265			43387.38302		64.65000		324.00000 
 43692.65567		 614.60288			43078.05279		211.31800		875.00000 
 43692.65567		 305.27265			43387.38302		64.65000		324.00000 
 43692.65567		 614.60288			43078.05279		211.31800		875.00000 
 43692.65567		 305.27265			43387.38302		64.65000		324.00000 
 43692.65567		 614.60288			43078.05279		211.31800		875.00000 
 43692.65567		 305.27265			43387.38302		64.65000		324.00000 
 43692.65567		 614.60288			43078.05279		211.31800		875.00000 
 43692.65567		 305.27265			43387.38302		64.65000		324.00000 
 43692.65567		 614.60288			43078.05279		211.31800		875.00000 
 43692.65567		 305.27265			43387.38302		64.65000		324.00000 
 43692.65567		 614.60288			43078.05279		214.77600		875.00000 
 43692.65567		 305.27265			43387.38302		64.65000		324.00000 
 43692.65567		 614.60288			43078.05279		214.77600		875.00000 
 43692.65567		 305.27265			43387.38302		64.65000		324.00000 
 43692.65567		 614.60288			43078.05279		214.77600		875.00000 
 43692.65567		 305.27265			43387.38302		64.65000		324.00000 
 43692.65567		 614.60288			43078.05279		214.77600		875.00000 
 43692.65567		 305.27265			43387.38302		64.65000		324.00000 
 43692.65567		 614.60288			43078.05279		214.77600		875.00000 
 43692.65567		 305.27265			43387.38302		64.65000		324.00000 
 43692.65567		 614.60288			43078.05279		214.77600		875.00000 
 43692.65567		 305.27265			43387.38302		64.65000		324.00000 
 43692.65567		 614.60288			43078.05279		214.77600		875.00000 
 43692.65567		 305.27265			43387.38302		64.65000		324.00000 
 43692.65567		 614.60288			43078.05279		214.77600		875.00000 
 43692.65567		 305.27265			43387.38302		64.65000		324.00000 
 43692.65567		 614.60288			43078.05279		214.77600		875.00000 
 43692.65567		 305.27265			43387.38302		64.65000		324.00000 
 43692.65567		 614.60288			43078.05279		214.77600		875.00000 
 43692.65567		 305.27265			43387.38302		64.65000		324.00000 
 43692.65567		 614.60288			43078.05279		214.77600		875.00000 
 43692.65567		 305.27265			43387.38302		64.65000		324.00000 
 43692.65567		 614.60288			43078.05279		214.77600		875.00000 
 43692.65567		 305.27265			43387.38302		64.65000		324.00000 
 43692.65567		 614.60288			43078.05279		214.77600		875.00000 
 43692.65567		 305.27265			43387.38302		64.65000		324.00000 
 43692.65567		 614.60288			43078.05279		214.77600		875.00000 
 43692.65567		 305.27265			43387.38302		64.65000		324.00000 
 43692.65567		 614.60288			43078.05279		214.77600		875.00000 
 43692.65567		 305.27265			43387.38302		64.65000		324.00000 
 43692.65567		 614.60288			43078.05279		214.77600		875.00000 
 43692.65567		 305.27265			43387.38302		64.65000		324.00000 
 43692.65567		 614.60288			43078.05279		214.77600		875.00000 
 43692.65567		 305.27265			43387.38302		64.65000		324.00000 
 43692.65567		 614.60288			43078.05279		214.77600		875.00000 
 43692.65567		 305.27265			43387.38302		64.65000		324.00000 
 43692.65567		 614.60288			43078.05279		214.77600		875.00000 
 43692.65567		 305.27265			43387.38302		64.65000		324.00000 
 43692.65567		 614.60288			43078.05279		214.77600		875.00000 
 43692.65567		 305.27265			43387.38302		64.65000		324.00000 
 43692.65567		 614.60288			43078.05279		214.77600		875.00000 
 43692.65567		 305.27265			43387.38302		64.65000		324.00000 
 43692.65567		 614.60288			43078.05279		214.77600		875.00000 
 43692.65567		 305.27265			43387.38302		64.65000		324.00000 
 43692.65567		 614.60288			43078.05279		214.77600		875.00000 
 43692.65567		 305.27265			43387.38302		64.65000		324.00000 
 43692.65567		 614.60288			43078.05279		214.77600		875.00000 
 43692.65567		 305.27265			43387.38302		64.65000		324.00000 
 43692.65567		 614.60288			43078.05279		214.77600		875.00000 
 43692.65567		 305.27265			43387.38302		64.65000		324.00000 
 43692.65567		 614.60288			43078.05279		214.77600		875.00000 
 43692.65567		 305.27265			43387.38302		64.65000		324.00000 
 43692.65567		 614.60288			43078.05279		214.77600		875.00000 
 43692.65567		 305.27265			43387.38302		64.65000		324.00000 
 43692.65567		 614.60288			43078.05279		214.77600		875.00000 
 43692.65567		 305.27265			43387.38302		64.65000		324.00000 
 43692.65567		 614.60288			43078.05279		214.77600		875.00000 
 43692.65567		 305.27265			43387.38302		64.65000		324.00000 
 43692.65567		 614.60288			43078.05279		214.77600		875.00000 
 43692.65567		 305.27265			43387.38302		64.65000		324.00000 
 43692.65567		 614.60288			43078.05279		214.77600		875.00000 
 43692.65567		 305.27265			43387.38302		64.65000		324.00000 
 43692.65567		 614.60288			43078.05279		214.77600		875.00000 
 43692.65567		 305.27265			43387.38302		64.65000		324.00000 
 43692.65567		 614.60288			43078.05279		214.77600		875.00000 
 43692.65567		 305.27265			43387.38302		64.65000		324.00000 
 43692.65567		 614.60288			43078.05279		214.77600		875.00000 
 43692.65567		 305.27265			43387.38302		64.65000		324.00000 
 43692.65567		 614.60288			43078.05279		214.77600		875.00000 
 43692.65567		 305.27265			43387.38302		64.65000		324.00000 
 43692.65567		 614.60288			43078.05279		214.77600		875.00000 
 43692.65567		 305.27265			43387.38302		64.65000		324.00000 
 43692.65567		 614.60288			43078.05279		214.77600		875.00000 
 43692.65567		 305.27265			43387.38302		64.65000		324.00000 
 43692.65567		 614.60288			43078.05279		214.77600		875.00000 
 43692.65567		 305.27265			43387.38302		64.65000		324.00000 
 43692.65567		 614.60288			43078.05279		214.77600		875.00000 
 43692.65567		 305.27265			43387.38302		64.65000		324.00000 
 43692.65567		 614.60288			43078.05279		214.77600		875.00000 
 43692.65567		 305.27265			43387.38302		64.65000		324.00000 
 43692.65567		 614.60288			43078.05279		214.77600		875.00000 
 43692.65567		 305.27265			43387.38302		64.65000		324.00000 
 43692.65567		 614.60288			43078.05279		214.77600		875.00000 
 43692.65567		 305.27265			43387.38302		64.65000		324.00000 
 43692.65567		 614.60288			43078.05279		214.77600		875.00000 
 43692.65567		 305.27265			43387.38302		64.65000		324.00000 
 43692.65567		 614.60288			43078.05279		214.77600		875.00000 
 43692.65567		 305.27265			43387.38302		64.65000		324.00000 
 43692.65567		 614.60288			43078.05279		214.77600		875.00000 
 43692.65567		 305.27265			43387.38302		64.65000		324.00000 
 43692.65567		 614.60288			43078.05279		214.77600		875.00000 
 43692.65567		 305.27265			43387.38302		64.65000		324.00000 
 43692.65567		 614.60288			43078.05279		214.77600		875.00000 
 43692.65567		 305.27265			43387.38302		64.65000		324.00000 
 43692.65567		 614.60288			43078.05279		214.77600		875.00000 
 43692.65567		 305.27265			43387.38302		64.65000		324.00000 
 43692.65567		 614.60288			43078.05279		214.77600		875.00000 
 43692.65567		 305.27265			43387.38302		64.65000		324.00000 
 43692.65567		 614.60288			43078.05279		214.77600		875.00000 
 43692.65567		 305.27265			43387.38302		64.65000		324.00000 
 43692.65567		 588.82536			43103.83031		214.77600		875.00000 
 43692.65567		 305.27265			43387.38302		64.65000		324.00000 
 43692.65567		 537.27032			43155.38535		214.77600		875.00000 
 43692.65567		 305.27265			43387.38302		64.65000		324.00000 
 43692.65567		 537.27032			43155.38535		214.77600		875.00000 
 43692.65567		 305.27265			43387.38302		64.65000		324.00000 
 43692.65567		 537.27032			43155.38535		214.77600		875.00000 
 43692.65567		 305.27265			43387.38302		64.65000		324.00000 
 43692.65567		 537.27032			43155.38535		214.77600		875.00000 
 43692.65567		 305.27265			43387.38302		64.65000		324.00000 
 43692.65567		 537.27032			43155.38535		214.77600		875.00000 
 43692.65567		 305.27265			43387.38302		64.65000		324.00000 
 43692.65567		 537.27032			43155.38535		214.77600		875.00000 
 43692.65567		 305.27265			43387.38302		64.65000		324.00000 
 43692.65567		 537.27032			43155.38535		214.77600		875.00000 
 43692.65567		 305.27265			43387.38302		64.65000		324.00000 
 43692.65567		 537.27032			43155.38535		214.77600		875.00000 
 43692.65567		 305.27265			43387.38302		64.65000		324.00000 
 43692.65567		 537.27032			43155.38535		214.77600		875.00000 
 43692.65567		 305.27265			43387.38302		64.65000		324.00000 
 43692.65567		 537.27032			43155.38535		214.77600		875.00000 
 43692.65567		 305.27265			43387.38302		64.65000		324.00000 
 43692.65567		 537.27032			43155.38535		199.05200		875.00000 
 43692.65567		 305.27265			43387.38302		64.65000		324.00000 
 43692.65567		 537.27032			43155.38535		199.05200		875.00000 
 43692.65567		 305.27265			43387.38302		64.65000		324.00000 
 43692.65567		 537.27032			43155.38535		199.05200		875.00000 
 43692.65567		 305.27265			43387.38302		64.65000		324.00000 
 43692.65567		 537.27032			43155.38535		199.05200		875.00000 
 43692.65567		 305.27265			43387.38302		64.65000		324.00000 
 43692.65567		 537.27032			43155.38535		199.05200		875.00000 
 43692.65567		 305.27265			43387.38302		64.65000		324.00000 
 43692.65567		 537.27032			43155.38535		199.05200		875.00000 
 43692.65567		 305.27265			43387.38302		64.65000		324.00000 
 43692.65567		 537.27032			43155.38535		199.05200		875.00000 
 43692.65567		 305.27265			43387.38302		64.65000		324.00000 
 43692.65567		 537.27032			43155.38535		199.05200		875.00000 
 43692.65567		 305.27265			43387.38302		64.65000		324.00000 
 43692.65567		 537.27032			43155.38535		199.05200		875.00000 
 43692.65567		 305.27265			43387.38302		64.65000		324.00000 
 43692.65567		 537.27032			43155.38535		199.05200		875.00000 
 43692.65567		 305.27265			43387.38302		64.65000		324.00000 
 43692.65567		 525.81365			43166.84203		199.05200		875.00000 
 43692.65567		 305.27265			43387.38302		64.65000		324.00000 
 43692.65567		 525.81365			43166.84203		199.05200		875.00000 
 43692.65567		 261.35540			43431.30027		64.65000		324.00000 
 43692.65567		 261.35540			43431.30027		199.05200		875.00000 
 43692.65567		 261.35540			43431.30027		64.65000		324.00000 
