Memory Total (MiB) 	 Memory Used (MiB) 	    Memory Free (MiB) 	 Power Drawed (W) 	 Clocks (Mhz) 	 
 43692.65567		 261.35540			43431.30027		215.93800		875.00000 
 43692.65567		 261.35540			43431.30027		69.65600		324.00000 
 43692.65567		 261.35540			43431.30027		215.93800		875.00000 
 43692.65567		 261.35540			43431.30027		69.65600		324.00000 
 43692.65567		 261.35540			43431.30027		215.93800		875.00000 
 43692.65567		 261.35540			43431.30027		69.65600		324.00000 
 43692.65567		 261.35540			43431.30027		215.93800		875.00000 
 43692.65567		 261.35540			43431.30027		69.65600		324.00000 
 43692.65567		 261.35540			43431.30027		215.93800		875.00000 
 43692.65567		 261.35540			43431.30027		69.65600		324.00000 
 43692.65567		 261.35540			43431.30027		164.58000		875.00000 
 43692.65567		 261.35540			43431.30027		69.65600		324.00000 
 43692.65567		 261.35540			43431.30027		164.58000		875.00000 
 43692.65567		 261.35540			43431.30027		69.65600		324.00000 
 43692.65567		 261.35540			43431.30027		164.58000		875.00000 
 43692.65567		 261.35540			43431.30027		69.65600		324.00000 
 43692.65567		 261.35540			43431.30027		164.58000		875.00000 
 43692.65567		 261.35540			43431.30027		69.65600		324.00000 
 43692.65567		 261.35540			43431.30027		164.58000		875.00000 
 43692.65567		 261.35540			43431.30027		69.65600		324.00000 
 43692.65567		 261.35540			43431.30027		164.58000		875.00000 
 43692.65567		 261.35540			43431.30027		69.65600		324.00000 
 43692.65567		 261.35540			43431.30027		164.58000		875.00000 
 43692.65567		 261.35540			43431.30027		69.65600		324.00000 
 43692.65567		 261.35540			43431.30027		164.58000		875.00000 
 43692.65567		 261.35540			43431.30027		69.65600		324.00000 
 43692.65567		 261.35540			43431.30027		164.58000		875.00000 
 43692.65567		 261.35540			43431.30027		69.65600		324.00000 
 43692.65567		 261.35540			43431.30027		164.58000		875.00000 
 43692.65567		 261.35540			43431.30027		69.65600		324.00000 
 43692.65567		 261.35540			43431.30027		164.58000		875.00000 
 43692.65567		 261.35540			43431.30027		69.65600		324.00000 
 43692.65567		 261.35540			43431.30027		164.58000		875.00000 
 43692.65567		 261.35540			43431.30027		69.65600		324.00000 
 43692.65567		 261.35540			43431.30027		164.58000		875.00000 
 43692.65567		 261.35540			43431.30027		69.65600		324.00000 
 43692.65567		 265.17429			43427.48138		164.58000		875.00000 
 43692.65567		 261.35540			43431.30027		69.65600		324.00000 
 43692.65567		 265.17429			43427.48138		164.58000		875.00000 
 43692.65567		 261.35540			43431.30027		69.65600		324.00000 
 43692.65567		 272.81207			43419.84360		164.58000		875.00000 
 43692.65567		 261.35540			43431.30027		69.65600		324.00000 
 43692.65567		 272.81207			43419.84360		164.58000		875.00000 
 43692.65567		 261.35540			43431.30027		69.65600		324.00000 
 43692.65567		 272.81207			43419.84360		164.58000		875.00000 
 43692.65567		 265.17429			43427.48138		69.65600		324.00000 
 43692.65567		 272.81207			43419.84360		164.58000		875.00000 
 43692.65567		 265.17429			43427.48138		69.65600		324.00000 
 43692.65567		 272.81207			43419.84360		164.58000		875.00000 
 43692.65567		 265.17429			43427.48138		69.65600		324.00000 
 43692.65567		 272.81207			43419.84360		164.58000		875.00000 
 43692.65567		 272.81207			43419.84360		69.65600		324.00000 
 43692.65567		 272.81207			43419.84360		164.58000		875.00000 
 43692.65567		 272.81207			43419.84360		69.65600		324.00000 
 43692.65567		 272.81207			43419.84360		164.58000		875.00000 
 43692.65567		 272.81207			43419.84360		69.65600		324.00000 
 43692.65567		 305.27265			43387.38302		164.58000		875.00000 
 43692.65567		 305.27265			43387.38302		69.65600		324.00000 
 43692.65567		 305.27265			43387.38302		164.58000		875.00000 
 43692.65567		 305.27265			43387.38302		69.65600		324.00000 
 43692.65567		 305.27265			43387.38302		164.58000		875.00000 
 43692.65567		 305.27265			43387.38302		69.65600		324.00000 
 43692.65567		 305.27265			43387.38302		164.58000		875.00000 
 43692.65567		 305.27265			43387.38302		69.65600		324.00000 
 43692.65567		 305.27265			43387.38302		164.58000		875.00000 
 43692.65567		 305.27265			43387.38302		69.65600		324.00000 
 43692.65567		 309.56891			43383.08677		164.58000		875.00000 
 43692.65567		 305.27265			43387.38302		69.65600		324.00000 
 43692.65567		 311.00099			43381.65468		164.58000		875.00000 
 43692.65567		 305.27265			43387.38302		69.65600		324.00000 
 43692.65567		 311.00099			43381.65468		164.58000		875.00000 
 43692.65567		 305.27265			43387.38302		69.65600		324.00000 
 43692.65567		 311.00099			43381.65468		164.58000		875.00000 
 43692.65567		 305.27265			43387.38302		69.65600		324.00000 
 43692.65567		 311.00099			43381.65468		164.58000		875.00000 
 43692.65567		 305.27265			43387.38302		69.65600		324.00000 
 43692.65567		 311.00099			43381.65468		164.58000		875.00000 
 43692.65567		 305.27265			43387.38302		69.65600		324.00000 
 43692.65567		 311.00099			43381.65468		143.54600		875.00000 
 43692.65567		 305.27265			43387.38302		69.65600		324.00000 
 43692.65567		 311.00099			43381.65468		143.54600		875.00000 
 43692.65567		 305.27265			43387.38302		69.65600		324.00000 
 43692.65567		 311.00099			43381.65468		143.54600		875.00000 
 43692.65567		 305.27265			43387.38302		69.65600		324.00000 
 43692.65567		 311.00099			43381.65468		143.54600		875.00000 
 43692.65567		 305.27265			43387.38302		69.65600		324.00000 
 43692.65567		 311.00099			43381.65468		143.54600		875.00000 
 43692.65567		 305.27265			43387.38302		69.65600		324.00000 
 43692.65567		 311.00099			43381.65468		143.54600		875.00000 
 43692.65567		 305.27265			43387.38302		69.65600		324.00000 
 43692.65567		 311.00099			43381.65468		143.54600		875.00000 
 43692.65567		 305.27265			43387.38302		69.65600		324.00000 
 43692.65567		 311.00099			43381.65468		143.54600		875.00000 
 43692.65567		 305.27265			43387.38302		69.65600		324.00000 
 43692.65567		 311.00099			43381.65468		143.54600		875.00000 
 43692.65567		 305.27265			43387.38302		69.65600		324.00000 
 43692.65567		 311.00099			43381.65468		143.54600		875.00000 
 43692.65567		 305.27265			43387.38302		69.65600		324.00000 
 43692.65567		 311.00099			43381.65468		143.54600		875.00000 
 43692.65567		 305.27265			43387.38302		69.65600		324.00000 
 43692.65567		 311.00099			43381.65468		143.54600		875.00000 
 43692.65567		 305.27265			43387.38302		69.65600		324.00000 
 43692.65567		 311.00099			43381.65468		143.54600		875.00000 
 43692.65567		 305.27265			43387.38302		69.65600		324.00000 
 43692.65567		 311.00099			43381.65468		143.54600		875.00000 
 43692.65567		 305.27265			43387.38302		69.65600		324.00000 
 43692.65567		 311.00099			43381.65468		143.54600		875.00000 
 43692.65567		 305.27265			43387.38302		69.65600		324.00000 
 43692.65567		 311.00099			43381.65468		143.54600		875.00000 
 43692.65567		 305.27265			43387.38302		69.65600		324.00000 
 43692.65567		 311.00099			43381.65468		143.54600		875.00000 
 43692.65567		 305.27265			43387.38302		69.65600		324.00000 
 43692.65567		 311.00099			43381.65468		143.54600		875.00000 
 43692.65567		 305.27265			43387.38302		69.65600		324.00000 
 43692.65567		 311.00099			43381.65468		143.54600		875.00000 
 43692.65567		 305.27265			43387.38302		69.65600		324.00000 
 43692.65567		 311.00099			43381.65468		143.54600		875.00000 
 43692.65567		 305.27265			43387.38302		69.65600		324.00000 
 43692.65567		 311.00099			43381.65468		143.54600		875.00000 
 43692.65567		 305.27265			43387.38302		69.65600		324.00000 
 43692.65567		 311.00099			43381.65468		143.54600		875.00000 
 43692.65567		 305.27265			43387.38302		69.65600		324.00000 
 43692.65567		 311.00099			43381.65468		143.54600		875.00000 
 43692.65567		 305.27265			43387.38302		69.65600		324.00000 
 43692.65567		 311.00099			43381.65468		143.54600		875.00000 
 43692.65567		 305.27265			43387.38302		69.65600		324.00000 
 43692.65567		 311.00099			43381.65468		143.54600		875.00000 
 43692.65567		 305.27265			43387.38302		69.65600		324.00000 
 43692.65567		 311.00099			43381.65468		143.54600		875.00000 
 43692.65567		 305.27265			43387.38302		69.65600		324.00000 
 43692.65567		 311.00099			43381.65468		143.54600		875.00000 
 43692.65567		 305.27265			43387.38302		69.65600		324.00000 
 43692.65567		 311.00099			43381.65468		143.54600		875.00000 
 43692.65567		 305.27265			43387.38302		69.65600		324.00000 
 43692.65567		 311.00099			43381.65468		143.54600		875.00000 
 43692.65567		 305.27265			43387.38302		69.65600		324.00000 
 43692.65567		 311.00099			43381.65468		143.54600		875.00000 
 43692.65567		 305.27265			43387.38302		69.65600		324.00000 
 43692.65567		 311.00099			43381.65468		143.54600		875.00000 
 43692.65567		 305.27265			43387.38302		69.65600		324.00000 
 43692.65567		 311.00099			43381.65468		135.94000		875.00000 
 43692.65567		 305.27265			43387.38302		69.65600		324.00000 
 43692.65567		 311.00099			43381.65468		135.94000		875.00000 
 43692.65567		 305.27265			43387.38302		69.65600		324.00000 
 43692.65567		 311.00099			43381.65468		135.94000		875.00000 
 43692.65567		 305.27265			43387.38302		69.65600		324.00000 
 43692.65567		 311.00099			43381.65468		135.94000		875.00000 
 43692.65567		 305.27265			43387.38302		69.65600		324.00000 
 43692.65567		 311.00099			43381.65468		135.94000		875.00000 
 43692.65567		 305.27265			43387.38302		69.65600		324.00000 
 43692.65567		 311.00099			43381.65468		135.94000		875.00000 
 43692.65567		 305.27265			43387.38302		69.65600		324.00000 
 43692.65567		 311.00099			43381.65468		135.94000		875.00000 
 43692.65567		 305.27265			43387.38302		69.65600		324.00000 
 43692.65567		 311.00099			43381.65468		135.94000		875.00000 
 43692.65567		 305.27265			43387.38302		69.65600		324.00000 
 43692.65567		 311.00099			43381.65468		135.94000		875.00000 
 43692.65567		 305.27265			43387.38302		69.65600		324.00000 
 43692.65567		 311.00099			43381.65468		135.94000		875.00000 
 43692.65567		 305.27265			43387.38302		69.65600		324.00000 
 43692.65567		 311.00099			43381.65468		135.94000		875.00000 
 43692.65567		 305.27265			43387.38302		69.65600		324.00000 
 43692.65567		 311.00099			43381.65468		135.94000		875.00000 
 43692.65567		 305.27265			43387.38302		69.65600		324.00000 
 43692.65567		 311.00099			43381.65468		135.94000		875.00000 
 43692.65567		 305.27265			43387.38302		69.65600		324.00000 
 43692.65567		 311.00099			43381.65468		135.94000		875.00000 
 43692.65567		 305.27265			43387.38302		69.65600		324.00000 
 43692.65567		 311.00099			43381.65468		135.94000		875.00000 
 43692.65567		 305.27265			43387.38302		69.65600		324.00000 
 43692.65567		 314.81988			43377.83579		135.94000		875.00000 
 43692.65567		 305.27265			43387.38302		69.65600		324.00000 
 43692.65567		 314.81988			43377.83579		135.94000		875.00000 
 43692.65567		 305.27265			43387.38302		69.65600		324.00000 
 43692.65567		 314.81988			43377.83579		135.94000		875.00000 
 43692.65567		 305.27265			43387.38302		69.65600		324.00000 
 43692.65567		 318.63877			43374.01690		135.94000		875.00000 
 43692.65567		 305.27265			43387.38302		69.65600		324.00000 
 43692.65567		 322.45767			43370.19801		135.94000		875.00000 
 43692.65567		 305.27265			43387.38302		69.65600		324.00000 
 43692.65567		 326.27656			43366.37912		135.94000		875.00000 
 43692.65567		 305.27265			43387.38302		69.65600		324.00000 
 43692.65567		 326.27656			43366.37912		135.94000		875.00000 
 43692.65567		 305.27265			43387.38302		69.65600		324.00000 
 43692.65567		 326.27656			43366.37912		135.94000		875.00000 
 43692.65567		 305.27265			43387.38302		69.65600		324.00000 
 43692.65567		 537.27032			43155.38535		135.94000		875.00000 
 43692.65567		 305.27265			43387.38302		69.65600		324.00000 
 43692.65567		 657.56541			43035.09026		135.94000		875.00000 
 43692.65567		 305.27265			43387.38302		69.65600		324.00000 
 43692.65567		 717.71295			42974.94272		135.94000		875.00000 
 43692.65567		 305.27265			43387.38302		69.65600		324.00000 
 43692.65567		 717.71295			42974.94272		135.94000		875.00000 
 43692.65567		 305.27265			43387.38302		69.65600		324.00000 
 43692.65567		 717.71295			42974.94272		135.94000		875.00000 
 43692.65567		 305.27265			43387.38302		69.65600		324.00000 
 43692.65567		 717.71295			42974.94272		135.94000		875.00000 
 43692.65567		 305.27265			43387.38302		69.65600		324.00000 
 43692.65567		 717.71295			42974.94272		135.94000		875.00000 
 43692.65567		 305.27265			43387.38302		69.65600		324.00000 
 43692.65567		 717.71295			42974.94272		135.94000		875.00000 
 43692.65567		 305.27265			43387.38302		69.65600		324.00000 
 43692.65567		 717.71295			42974.94272		135.94000		875.00000 
 43692.65567		 305.27265			43387.38302		69.65600		324.00000 
 43692.65567		 717.71295			42974.94272		135.94000		875.00000 
 43692.65567		 305.27265			43387.38302		69.65600		324.00000 
 43692.65567		 717.71295			42974.94272		135.94000		875.00000 
 43692.65567		 305.27265			43387.38302		69.65600		324.00000 
 43692.65567		 717.71295			42974.94272		135.94000		875.00000 
 43692.65567		 305.27265			43387.38302		69.65600		324.00000 
 43692.65567		 717.71295			42974.94272		135.94000		875.00000 
 43692.65567		 305.27265			43387.38302		69.65600		324.00000 
 43692.65567		 717.71295			42974.94272		135.94000		875.00000 
 43692.65567		 305.27265			43387.38302		69.65600		324.00000 
 43692.65567		 717.71295			42974.94272		135.94000		875.00000 
 43692.65567		 305.27265			43387.38302		69.65600		324.00000 
 43692.65567		 717.71295			42974.94272		135.94000		875.00000 
 43692.65567		 305.27265			43387.38302		69.65600		324.00000 
 43692.65567		 717.71295			42974.94272		135.94000		875.00000 
 43692.65567		 305.27265			43387.38302		69.65600		324.00000 
 43692.65567		 717.71295			42974.94272		135.94000		875.00000 
 43692.65567		 305.27265			43387.38302		69.65600		324.00000 
 43692.65567		 717.71295			42974.94272		135.94000		875.00000 
 43692.65567		 305.27265			43387.38302		69.65600		324.00000 
 43692.65567		 717.71295			42974.94272		135.94000		875.00000 
 43692.65567		 305.27265			43387.38302		69.65600		324.00000 
 43692.65567		 717.71295			42974.94272		135.94000		875.00000 
 43692.65567		 305.27265			43387.38302		69.65600		324.00000 
 43692.65567		 717.71295			42974.94272		155.98800		875.00000 
 43692.65567		 305.27265			43387.38302		69.65600		324.00000 
 43692.65567		 717.71295			42974.94272		155.98800		875.00000 
 43692.65567		 305.27265			43387.38302		69.65600		324.00000 
 43692.65567		 717.71295			42974.94272		155.98800		875.00000 
 43692.65567		 305.27265			43387.38302		69.65600		324.00000 
 43692.65567		 717.71295			42974.94272		155.98800		875.00000 
 43692.65567		 305.27265			43387.38302		69.65600		324.00000 
 43692.65567		 717.71295			42974.94272		155.98800		875.00000 
 43692.65567		 305.27265			43387.38302		69.65600		324.00000 
 43692.65567		 717.71295			42974.94272		155.98800		875.00000 
 43692.65567		 305.27265			43387.38302		69.65600		324.00000 
 43692.65567		 717.71295			42974.94272		155.98800		875.00000 
 43692.65567		 305.27265			43387.38302		69.65600		324.00000 
 43692.65567		 717.71295			42974.94272		155.98800		875.00000 
 43692.65567		 305.27265			43387.38302		69.65600		324.00000 
 43692.65567		 717.71295			42974.94272		155.98800		875.00000 
 43692.65567		 305.27265			43387.38302		69.65600		324.00000 
 43692.65567		 717.71295			42974.94272		155.98800		875.00000 
 43692.65567		 305.27265			43387.38302		69.65600		324.00000 
 43692.65567		 717.71295			42974.94272		155.98800		875.00000 
 43692.65567		 305.27265			43387.38302		69.65600		324.00000 
 43692.65567		 717.71295			42974.94272		155.98800		875.00000 
 43692.65567		 305.27265			43387.38302		69.65600		324.00000 
 43692.65567		 717.71295			42974.94272		155.98800		875.00000 
 43692.65567		 305.27265			43387.38302		69.65600		324.00000 
 43692.65567		 717.71295			42974.94272		155.98800		875.00000 
 43692.65567		 305.27265			43387.38302		69.65600		324.00000 
 43692.65567		 717.71295			42974.94272		155.98800		875.00000 
 43692.65567		 305.27265			43387.38302		69.65600		324.00000 
 43692.65567		 717.71295			42974.94272		155.98800		875.00000 
 43692.65567		 305.27265			43387.38302		69.65600		324.00000 
 43692.65567		 717.71295			42974.94272		155.98800		875.00000 
 43692.65567		 305.27265			43387.38302		69.65600		324.00000 
 43692.65567		 717.71295			42974.94272		155.98800		875.00000 
 43692.65567		 305.27265			43387.38302		69.65600		324.00000 
 43692.65567		 717.71295			42974.94272		155.98800		875.00000 
 43692.65567		 305.27265			43387.38302		69.65600		324.00000 
 43692.65567		 717.71295			42974.94272		155.98800		875.00000 
 43692.65567		 305.27265			43387.38302		69.65600		324.00000 
 43692.65567		 717.71295			42974.94272		155.98800		875.00000 
 43692.65567		 305.27265			43387.38302		69.65600		324.00000 
 43692.65567		 717.71295			42974.94272		155.98800		875.00000 
 43692.65567		 305.27265			43387.38302		69.65600		324.00000 
 43692.65567		 717.71295			42974.94272		155.98800		875.00000 
 43692.65567		 305.27265			43387.38302		69.65600		324.00000 
 43692.65567		 717.71295			42974.94272		155.98800		875.00000 
 43692.65567		 305.27265			43387.38302		69.65600		324.00000 
 43692.65567		 717.71295			42974.94272		155.98800		875.00000 
 43692.65567		 305.27265			43387.38302		69.65600		324.00000 
 43692.65567		 717.71295			42974.94272		155.98800		875.00000 
 43692.65567		 305.27265			43387.38302		69.65600		324.00000 
 43692.65567		 717.71295			42974.94272		155.98800		875.00000 
 43692.65567		 305.27265			43387.38302		69.65600		324.00000 
 43692.65567		 717.71295			42974.94272		155.98800		875.00000 
 43692.65567		 305.27265			43387.38302		69.65600		324.00000 
 43692.65567		 717.71295			42974.94272		155.98800		875.00000 
 43692.65567		 305.27265			43387.38302		69.65600		324.00000 
 43692.65567		 717.71295			42974.94272		155.98800		875.00000 
 43692.65567		 305.27265			43387.38302		69.65600		324.00000 
 43692.65567		 717.71295			42974.94272		155.98800		875.00000 
 43692.65567		 305.27265			43387.38302		69.65600		324.00000 
 43692.65567		 717.71295			42974.94272		155.98800		875.00000 
 43692.65567		 305.27265			43387.38302		69.65600		324.00000 
 43692.65567		 717.71295			42974.94272		155.98800		875.00000 
 43692.65567		 305.27265			43387.38302		69.65600		324.00000 
 43692.65567		 717.71295			42974.94272		155.98800		875.00000 
 43692.65567		 305.27265			43387.38302		69.65600		324.00000 
 43692.65567		 717.71295			42974.94272		155.98800		875.00000 
 43692.65567		 305.27265			43387.38302		69.65600		324.00000 
 43692.65567		 717.71295			42974.94272		155.98800		875.00000 
 43692.65567		 305.27265			43387.38302		69.65600		324.00000 
 43692.65567		 717.71295			42974.94272		155.98800		875.00000 
 43692.65567		 305.27265			43387.38302		69.65600		324.00000 
 43692.65567		 717.71295			42974.94272		155.98800		875.00000 
 43692.65567		 305.27265			43387.38302		69.65600		324.00000 
 43692.65567		 717.71295			42974.94272		155.98800		875.00000 
 43692.65567		 305.27265			43387.38302		69.65600		324.00000 
 43692.65567		 717.71295			42974.94272		155.98800		875.00000 
 43692.65567		 305.27265			43387.38302		69.65600		324.00000 
 43692.65567		 717.71295			42974.94272		155.98800		875.00000 
 43692.65567		 305.27265			43387.38302		69.65600		324.00000 
 43692.65567		 717.71295			42974.94272		155.98800		875.00000 
 43692.65567		 305.27265			43387.38302		69.65600		324.00000 
 43692.65567		 717.71295			42974.94272		155.98800		875.00000 
 43692.65567		 305.27265			43387.38302		69.65600		324.00000 
 43692.65567		 717.71295			42974.94272		155.98800		875.00000 
 43692.65567		 305.27265			43387.38302		69.65600		324.00000 
 43692.65567		 717.71295			42974.94272		155.98800		875.00000 
 43692.65567		 305.27265			43387.38302		69.65600		324.00000 
 43692.65567		 717.71295			42974.94272		155.98800		875.00000 
 43692.65567		 305.27265			43387.38302		69.65600		324.00000 
 43692.65567		 717.71295			42974.94272		155.98800		875.00000 
 43692.65567		 305.27265			43387.38302		69.65600		324.00000 
 43692.65567		 717.71295			42974.94272		155.98800		875.00000 
 43692.65567		 305.27265			43387.38302		69.65600		324.00000 
 43692.65567		 717.71295			42974.94272		155.98800		875.00000 
 43692.65567		 305.27265			43387.38302		69.65600		324.00000 
 43692.65567		 717.71295			42974.94272		155.98800		875.00000 
 43692.65567		 305.27265			43387.38302		69.65600		324.00000 
 43692.65567		 717.71295			42974.94272		155.98800		875.00000 
 43692.65567		 305.27265			43387.38302		69.65600		324.00000 
 43692.65567		 717.71295			42974.94272		155.98800		875.00000 
 43692.65567		 305.27265			43387.38302		69.65600		324.00000 
 43692.65567		 717.71295			42974.94272		155.98800		875.00000 
 43692.65567		 305.27265			43387.38302		69.65600		324.00000 
 43692.65567		 717.71295			42974.94272		155.98800		875.00000 
 43692.65567		 305.27265			43387.38302		69.65600		324.00000 
 43692.65567		 717.71295			42974.94272		155.98800		875.00000 
 43692.65567		 305.27265			43387.38302		69.65600		324.00000 
 43692.65567		 717.71295			42974.94272		155.98800		875.00000 
 43692.65567		 305.27265			43387.38302		69.65600		324.00000 
 43692.65567		 717.71295			42974.94272		155.98800		875.00000 
 43692.65567		 305.27265			43387.38302		69.65600		324.00000 
 43692.65567		 717.71295			42974.94272		155.98800		875.00000 
 43692.65567		 305.27265			43387.38302		69.65600		324.00000 
 43692.65567		 717.71295			42974.94272		155.98800		875.00000 
 43692.65567		 305.27265			43387.38302		69.65600		324.00000 
 43692.65567		 717.71295			42974.94272		155.98800		875.00000 
 43692.65567		 305.27265			43387.38302		69.65600		324.00000 
 43692.65567		 717.71295			42974.94272		155.98800		875.00000 
 43692.65567		 305.27265			43387.38302		69.65600		324.00000 
 43692.65567		 717.71295			42974.94272		155.98800		875.00000 
 43692.65567		 305.27265			43387.38302		69.65600		324.00000 
 43692.65567		 717.71295			42974.94272		155.98800		875.00000 
 43692.65567		 305.27265			43387.38302		69.65600		324.00000 
 43692.65567		 717.71295			42974.94272		195.56800		875.00000 
 43692.65567		 305.27265			43387.38302		69.65600		324.00000 
 43692.65567		 717.71295			42974.94272		195.56800		875.00000 
 43692.65567		 305.27265			43387.38302		69.65600		324.00000 
 43692.65567		 717.71295			42974.94272		195.56800		875.00000 
 43692.65567		 305.27265			43387.38302		68.70800		324.00000 
 43692.65567		 717.71295			42974.94272		195.56800		875.00000 
 43692.65567		 305.27265			43387.38302		68.70800		324.00000 
 43692.65567		 717.71295			42974.94272		195.56800		875.00000 
 43692.65567		 305.27265			43387.38302		68.70800		324.00000 
 43692.65567		 717.71295			42974.94272		195.56800		875.00000 
 43692.65567		 305.27265			43387.38302		68.70800		324.00000 
 43692.65567		 717.71295			42974.94272		195.56800		875.00000 
 43692.65567		 305.27265			43387.38302		68.70800		324.00000 
 43692.65567		 717.71295			42974.94272		195.56800		875.00000 
 43692.65567		 305.27265			43387.38302		68.70800		324.00000 
 43692.65567		 717.71295			42974.94272		195.56800		875.00000 
 43692.65567		 305.27265			43387.38302		68.70800		324.00000 
 43692.65567		 717.71295			42974.94272		195.56800		875.00000 
 43692.65567		 305.27265			43387.38302		68.70800		324.00000 
 43692.65567		 717.71295			42974.94272		195.56800		875.00000 
 43692.65567		 305.27265			43387.38302		68.70800		324.00000 
 43692.65567		 717.71295			42974.94272		195.56800		875.00000 
 43692.65567		 305.27265			43387.38302		68.70800		324.00000 
 43692.65567		 717.71295			42974.94272		195.56800		875.00000 
 43692.65567		 305.27265			43387.38302		68.70800		324.00000 
 43692.65567		 717.71295			42974.94272		195.56800		875.00000 
 43692.65567		 305.27265			43387.38302		68.70800		324.00000 
 43692.65567		 717.71295			42974.94272		195.56800		875.00000 
 43692.65567		 305.27265			43387.38302		68.70800		324.00000 
 43692.65567		 717.71295			42974.94272		195.56800		875.00000 
 43692.65567		 305.27265			43387.38302		68.70800		324.00000 
 43692.65567		 717.71295			42974.94272		195.56800		875.00000 
 43692.65567		 305.27265			43387.38302		68.70800		324.00000 
 43692.65567		 717.71295			42974.94272		195.56800		875.00000 
 43692.65567		 305.27265			43387.38302		68.70800		324.00000 
 43692.65567		 717.71295			42974.94272		195.56800		875.00000 
 43692.65567		 305.27265			43387.38302		68.70800		324.00000 
 43692.65567		 717.71295			42974.94272		195.56800		875.00000 
 43692.65567		 305.27265			43387.38302		68.70800		324.00000 
 43692.65567		 717.71295			42974.94272		195.56800		875.00000 
 43692.65567		 305.27265			43387.38302		68.70800		324.00000 
 43692.65567		 717.71295			42974.94272		195.56800		875.00000 
 43692.65567		 305.27265			43387.38302		68.70800		324.00000 
 43692.65567		 717.71295			42974.94272		195.56800		875.00000 
 43692.65567		 305.27265			43387.38302		68.70800		324.00000 
 43692.65567		 717.71295			42974.94272		195.56800		875.00000 
 43692.65567		 305.27265			43387.38302		68.70800		324.00000 
 43692.65567		 717.71295			42974.94272		195.56800		875.00000 
 43692.65567		 305.27265			43387.38302		68.70800		324.00000 
 43692.65567		 717.71295			42974.94272		195.56800		875.00000 
 43692.65567		 305.27265			43387.38302		68.70800		324.00000 
 43692.65567		 717.71295			42974.94272		195.56800		875.00000 
 43692.65567		 305.27265			43387.38302		68.70800		324.00000 
 43692.65567		 717.71295			42974.94272		195.56800		875.00000 
 43692.65567		 305.27265			43387.38302		68.70800		324.00000 
 43692.65567		 717.71295			42974.94272		195.56800		875.00000 
 43692.65567		 305.27265			43387.38302		68.70800		324.00000 
 43692.65567		 717.71295			42974.94272		195.56800		875.00000 
 43692.65567		 305.27265			43387.38302		68.70800		324.00000 
 43692.65567		 717.71295			42974.94272		195.56800		875.00000 
 43692.65567		 305.27265			43387.38302		68.70800		324.00000 
 43692.65567		 717.71295			42974.94272		195.56800		875.00000 
 43692.65567		 305.27265			43387.38302		68.70800		324.00000 
 43692.65567		 717.71295			42974.94272		195.56800		875.00000 
 43692.65567		 305.27265			43387.38302		68.70800		324.00000 
 43692.65567		 717.71295			42974.94272		195.56800		875.00000 
 43692.65567		 305.27265			43387.38302		68.70800		324.00000 
 43692.65567		 717.71295			42974.94272		195.56800		875.00000 
 43692.65567		 305.27265			43387.38302		68.70800		324.00000 
 43692.65567		 717.71295			42974.94272		195.56800		875.00000 
 43692.65567		 305.27265			43387.38302		68.70800		324.00000 
 43692.65567		 717.71295			42974.94272		195.56800		875.00000 
 43692.65567		 305.27265			43387.38302		68.70800		324.00000 
 43692.65567		 717.71295			42974.94272		195.56800		875.00000 
 43692.65567		 305.27265			43387.38302		68.70800		324.00000 
 43692.65567		 717.71295			42974.94272		195.56800		875.00000 
 43692.65567		 305.27265			43387.38302		68.70800		324.00000 
 43692.65567		 717.71295			42974.94272		195.56800		875.00000 
 43692.65567		 305.27265			43387.38302		68.70800		324.00000 
 43692.65567		 717.71295			42974.94272		195.56800		875.00000 
 43692.65567		 305.27265			43387.38302		68.70800		324.00000 
 43692.65567		 717.71295			42974.94272		195.56800		875.00000 
 43692.65567		 305.27265			43387.38302		68.70800		324.00000 
 43692.65567		 717.71295			42974.94272		195.56800		875.00000 
 43692.65567		 305.27265			43387.38302		68.70800		324.00000 
 43692.65567		 717.71295			42974.94272		195.56800		875.00000 
 43692.65567		 305.27265			43387.38302		68.70800		324.00000 
 43692.65567		 717.71295			42974.94272		195.56800		875.00000 
 43692.65567		 305.27265			43387.38302		68.70800		324.00000 
 43692.65567		 717.71295			42974.94272		195.56800		875.00000 
 43692.65567		 305.27265			43387.38302		68.70800		324.00000 
 43692.65567		 717.71295			42974.94272		195.56800		875.00000 
 43692.65567		 305.27265			43387.38302		68.70800		324.00000 
 43692.65567		 717.71295			42974.94272		195.56800		875.00000 
 43692.65567		 305.27265			43387.38302		68.70800		324.00000 
 43692.65567		 717.71295			42974.94272		195.56800		875.00000 
 43692.65567		 305.27265			43387.38302		68.70800		324.00000 
 43692.65567		 717.71295			42974.94272		195.56800		875.00000 
 43692.65567		 305.27265			43387.38302		68.70800		324.00000 
 43692.65567		 717.71295			42974.94272		195.56800		875.00000 
 43692.65567		 305.27265			43387.38302		68.70800		324.00000 
 43692.65567		 717.71295			42974.94272		195.56800		875.00000 
 43692.65567		 305.27265			43387.38302		68.70800		324.00000 
 43692.65567		 717.71295			42974.94272		195.56800		875.00000 
 43692.65567		 305.27265			43387.38302		68.70800		324.00000 
 43692.65567		 717.71295			42974.94272		195.56800		875.00000 
 43692.65567		 305.27265			43387.38302		68.70800		324.00000 
 43692.65567		 717.71295			42974.94272		195.56800		875.00000 
 43692.65567		 305.27265			43387.38302		68.70800		324.00000 
 43692.65567		 717.71295			42974.94272		195.56800		875.00000 
 43692.65567		 305.27265			43387.38302		68.70800		324.00000 
 43692.65567		 717.71295			42974.94272		195.56800		875.00000 
 43692.65567		 305.27265			43387.38302		68.70800		324.00000 
 43692.65567		 717.71295			42974.94272		195.56800		875.00000 
 43692.65567		 305.27265			43387.38302		68.70800		324.00000 
 43692.65567		 717.71295			42974.94272		195.56800		875.00000 
 43692.65567		 305.27265			43387.38302		68.70800		324.00000 
 43692.65567		 717.71295			42974.94272		195.56800		875.00000 
 43692.65567		 305.27265			43387.38302		68.70800		324.00000 
 43692.65567		 717.71295			42974.94272		195.56800		875.00000 
 43692.65567		 305.27265			43387.38302		68.70800		324.00000 
 43692.65567		 717.71295			42974.94272		210.44600		875.00000 
 43692.65567		 305.27265			43387.38302		68.70800		324.00000 
 43692.65567		 717.71295			42974.94272		210.44600		875.00000 
 43692.65567		 305.27265			43387.38302		68.70800		324.00000 
 43692.65567		 717.71295			42974.94272		210.44600		875.00000 
 43692.65567		 305.27265			43387.38302		68.70800		324.00000 
 43692.65567		 717.71295			42974.94272		210.44600		875.00000 
 43692.65567		 305.27265			43387.38302		68.70800		324.00000 
 43692.65567		 717.71295			42974.94272		210.44600		875.00000 
 43692.65567		 305.27265			43387.38302		68.70800		324.00000 
 43692.65567		 717.71295			42974.94272		210.44600		875.00000 
 43692.65567		 305.27265			43387.38302		68.70800		324.00000 
 43692.65567		 717.71295			42974.94272		210.44600		875.00000 
 43692.65567		 305.27265			43387.38302		68.70800		324.00000 
 43692.65567		 717.71295			42974.94272		210.44600		875.00000 
 43692.65567		 305.27265			43387.38302		68.70800		324.00000 
 43692.65567		 717.71295			42974.94272		210.44600		875.00000 
 43692.65567		 305.27265			43387.38302		68.70800		324.00000 
 43692.65567		 717.71295			42974.94272		210.44600		875.00000 
 43692.65567		 305.27265			43387.38302		68.70800		324.00000 
 43692.65567		 717.71295			42974.94272		210.44600		875.00000 
 43692.65567		 305.27265			43387.38302		68.70800		324.00000 
 43692.65567		 717.71295			42974.94272		210.44600		875.00000 
 43692.65567		 305.27265			43387.38302		68.70800		324.00000 
 43692.65567		 717.71295			42974.94272		210.44600		875.00000 
 43692.65567		 305.27265			43387.38302		68.70800		324.00000 
 43692.65567		 717.71295			42974.94272		210.44600		875.00000 
 43692.65567		 305.27265			43387.38302		68.70800		324.00000 
 43692.65567		 717.71295			42974.94272		210.44600		875.00000 
 43692.65567		 305.27265			43387.38302		68.70800		324.00000 
 43692.65567		 717.71295			42974.94272		210.44600		875.00000 
 43692.65567		 305.27265			43387.38302		68.70800		324.00000 
 43692.65567		 717.71295			42974.94272		210.44600		875.00000 
 43692.65567		 305.27265			43387.38302		68.70800		324.00000 
 43692.65567		 717.71295			42974.94272		210.44600		875.00000 
 43692.65567		 305.27265			43387.38302		68.70800		324.00000 
 43692.65567		 717.71295			42974.94272		210.44600		875.00000 
 43692.65567		 305.27265			43387.38302		68.70800		324.00000 
 43692.65567		 717.71295			42974.94272		210.44600		875.00000 
 43692.65567		 305.27265			43387.38302		68.70800		324.00000 
 43692.65567		 717.71295			42974.94272		210.44600		875.00000 
 43692.65567		 305.27265			43387.38302		68.70800		324.00000 
 43692.65567		 717.71295			42974.94272		210.44600		875.00000 
 43692.65567		 305.27265			43387.38302		68.70800		324.00000 
 43692.65567		 717.71295			42974.94272		210.44600		875.00000 
 43692.65567		 305.27265			43387.38302		68.70800		324.00000 
 43692.65567		 717.71295			42974.94272		210.44600		875.00000 
 43692.65567		 305.27265			43387.38302		68.70800		324.00000 
 43692.65567		 717.71295			42974.94272		210.44600		875.00000 
 43692.65567		 305.27265			43387.38302		68.70800		324.00000 
 43692.65567		 717.71295			42974.94272		210.44600		875.00000 
 43692.65567		 305.27265			43387.38302		68.70800		324.00000 
 43692.65567		 717.71295			42974.94272		210.44600		875.00000 
 43692.65567		 305.27265			43387.38302		68.70800		324.00000 
 43692.65567		 717.71295			42974.94272		210.44600		875.00000 
 43692.65567		 305.27265			43387.38302		68.70800		324.00000 
 43692.65567		 717.71295			42974.94272		210.44600		875.00000 
 43692.65567		 305.27265			43387.38302		68.70800		324.00000 
 43692.65567		 717.71295			42974.94272		210.44600		875.00000 
 43692.65567		 305.27265			43387.38302		68.70800		324.00000 
 43692.65567		 717.71295			42974.94272		210.44600		875.00000 
 43692.65567		 305.27265			43387.38302		68.70800		324.00000 
 43692.65567		 717.71295			42974.94272		210.44600		875.00000 
 43692.65567		 305.27265			43387.38302		68.70800		324.00000 
 43692.65567		 717.71295			42974.94272		210.44600		875.00000 
 43692.65567		 305.27265			43387.38302		68.70800		324.00000 
 43692.65567		 717.71295			42974.94272		210.44600		875.00000 
 43692.65567		 305.27265			43387.38302		68.70800		324.00000 
 43692.65567		 717.71295			42974.94272		210.44600		875.00000 
 43692.65567		 305.27265			43387.38302		68.70800		324.00000 
 43692.65567		 717.71295			42974.94272		210.44600		875.00000 
 43692.65567		 305.27265			43387.38302		68.70800		324.00000 
 43692.65567		 717.71295			42974.94272		210.44600		875.00000 
 43692.65567		 305.27265			43387.38302		68.70800		324.00000 
 43692.65567		 717.71295			42974.94272		210.44600		875.00000 
 43692.65567		 305.27265			43387.38302		68.70800		324.00000 
 43692.65567		 717.71295			42974.94272		210.44600		875.00000 
 43692.65567		 305.27265			43387.38302		68.70800		324.00000 
 43692.65567		 717.71295			42974.94272		210.44600		875.00000 
 43692.65567		 305.27265			43387.38302		68.70800		324.00000 
 43692.65567		 717.71295			42974.94272		210.44600		875.00000 
 43692.65567		 305.27265			43387.38302		68.70800		324.00000 
 43692.65567		 717.71295			42974.94272		210.44600		875.00000 
 43692.65567		 305.27265			43387.38302		68.70800		324.00000 
 43692.65567		 717.71295			42974.94272		210.44600		875.00000 
 43692.65567		 305.27265			43387.38302		68.70800		324.00000 
 43692.65567		 717.71295			42974.94272		210.44600		875.00000 
 43692.65567		 305.27265			43387.38302		68.70800		324.00000 
 43692.65567		 717.71295			42974.94272		210.44600		875.00000 
 43692.65567		 305.27265			43387.38302		68.70800		324.00000 
 43692.65567		 717.71295			42974.94272		210.44600		875.00000 
 43692.65567		 305.27265			43387.38302		68.70800		324.00000 
 43692.65567		 717.71295			42974.94272		210.44600		875.00000 
 43692.65567		 305.27265			43387.38302		68.70800		324.00000 
 43692.65567		 717.71295			42974.94272		210.44600		875.00000 
 43692.65567		 305.27265			43387.38302		68.70800		324.00000 
 43692.65567		 717.71295			42974.94272		210.44600		875.00000 
 43692.65567		 305.27265			43387.38302		68.70800		324.00000 
 43692.65567		 717.71295			42974.94272		210.44600		875.00000 
 43692.65567		 305.27265			43387.38302		68.70800		324.00000 
 43692.65567		 717.71295			42974.94272		210.44600		875.00000 
 43692.65567		 305.27265			43387.38302		68.70800		324.00000 
 43692.65567		 717.71295			42974.94272		210.44600		875.00000 
 43692.65567		 305.27265			43387.38302		68.70800		324.00000 
 43692.65567		 717.71295			42974.94272		210.44600		875.00000 
 43692.65567		 305.27265			43387.38302		68.70800		324.00000 
 43692.65567		 717.71295			42974.94272		210.44600		875.00000 
 43692.65567		 305.27265			43387.38302		68.70800		324.00000 
 43692.65567		 717.71295			42974.94272		210.44600		875.00000 
 43692.65567		 305.27265			43387.38302		68.70800		324.00000 
 43692.65567		 717.71295			42974.94272		210.44600		875.00000 
 43692.65567		 305.27265			43387.38302		68.70800		324.00000 
 43692.65567		 717.71295			42974.94272		210.44600		875.00000 
 43692.65567		 305.27265			43387.38302		68.70800		324.00000 
 43692.65567		 717.71295			42974.94272		210.44600		875.00000 
 43692.65567		 305.27265			43387.38302		68.70800		324.00000 
 43692.65567		 717.71295			42974.94272		210.44600		875.00000 
 43692.65567		 305.27265			43387.38302		68.70800		324.00000 
 43692.65567		 717.71295			42974.94272		210.44600		875.00000 
 43692.65567		 305.27265			43387.38302		68.70800		324.00000 
 43692.65567		 717.71295			42974.94272		210.44600		875.00000 
 43692.65567		 305.27265			43387.38302		68.70800		324.00000 
 43692.65567		 717.71295			42974.94272		210.44600		875.00000 
 43692.65567		 305.27265			43387.38302		68.70800		324.00000 
 43692.65567		 717.71295			42974.94272		210.44600		875.00000 
 43692.65567		 305.27265			43387.38302		68.70800		324.00000 
 43692.65567		 717.71295			42974.94272		210.44600		875.00000 
 43692.65567		 305.27265			43387.38302		68.70800		324.00000 
 43692.65567		 717.71295			42974.94272		216.57200		875.00000 
 43692.65567		 305.27265			43387.38302		68.70800		324.00000 
 43692.65567		 717.71295			42974.94272		216.57200		875.00000 
 43692.65567		 305.27265			43387.38302		68.70800		324.00000 
 43692.65567		 717.71295			42974.94272		216.57200		875.00000 
 43692.65567		 305.27265			43387.38302		68.70800		324.00000 
 43692.65567		 717.71295			42974.94272		216.57200		875.00000 
 43692.65567		 305.27265			43387.38302		68.70800		324.00000 
 43692.65567		 717.71295			42974.94272		216.57200		875.00000 
 43692.65567		 305.27265			43387.38302		68.70800		324.00000 
 43692.65567		 717.71295			42974.94272		216.57200		875.00000 
 43692.65567		 305.27265			43387.38302		68.70800		324.00000 
 43692.65567		 717.71295			42974.94272		216.57200		875.00000 
 43692.65567		 305.27265			43387.38302		68.70800		324.00000 
 43692.65567		 717.71295			42974.94272		216.57200		875.00000 
 43692.65567		 305.27265			43387.38302		68.70800		324.00000 
 43692.65567		 717.71295			42974.94272		216.57200		875.00000 
 43692.65567		 305.27265			43387.38302		68.70800		324.00000 
 43692.65567		 717.71295			42974.94272		216.57200		875.00000 
 43692.65567		 305.27265			43387.38302		68.70800		324.00000 
 43692.65567		 717.71295			42974.94272		216.57200		875.00000 
 43692.65567		 305.27265			43387.38302		68.70800		324.00000 
 43692.65567		 717.71295			42974.94272		216.57200		875.00000 
 43692.65567		 305.27265			43387.38302		68.70800		324.00000 
 43692.65567		 717.71295			42974.94272		216.57200		875.00000 
 43692.65567		 305.27265			43387.38302		68.70800		324.00000 
 43692.65567		 717.71295			42974.94272		216.57200		875.00000 
 43692.65567		 305.27265			43387.38302		68.70800		324.00000 
 43692.65567		 717.71295			42974.94272		216.57200		875.00000 
 43692.65567		 305.27265			43387.38302		68.70800		324.00000 
 43692.65567		 717.71295			42974.94272		216.57200		875.00000 
 43692.65567		 305.27265			43387.38302		68.70800		324.00000 
 43692.65567		 717.71295			42974.94272		216.57200		875.00000 
 43692.65567		 305.27265			43387.38302		68.70800		324.00000 
 43692.65567		 717.71295			42974.94272		216.57200		875.00000 
 43692.65567		 305.27265			43387.38302		68.70800		324.00000 
 43692.65567		 717.71295			42974.94272		216.57200		875.00000 
 43692.65567		 305.27265			43387.38302		68.70800		324.00000 
 43692.65567		 717.71295			42974.94272		216.57200		875.00000 
 43692.65567		 305.27265			43387.38302		68.70800		324.00000 
 43692.65567		 717.71295			42974.94272		216.57200		875.00000 
 43692.65567		 305.27265			43387.38302		68.70800		324.00000 
 43692.65567		 717.71295			42974.94272		216.57200		875.00000 
 43692.65567		 305.27265			43387.38302		68.70800		324.00000 
 43692.65567		 717.71295			42974.94272		216.57200		875.00000 
 43692.65567		 305.27265			43387.38302		68.70800		324.00000 
 43692.65567		 717.71295			42974.94272		216.57200		875.00000 
 43692.65567		 305.27265			43387.38302		68.70800		324.00000 
 43692.65567		 717.71295			42974.94272		216.57200		875.00000 
 43692.65567		 305.27265			43387.38302		68.70800		324.00000 
 43692.65567		 717.71295			42974.94272		216.57200		875.00000 
 43692.65567		 305.27265			43387.38302		68.70800		324.00000 
 43692.65567		 717.71295			42974.94272		216.57200		875.00000 
 43692.65567		 305.27265			43387.38302		68.70800		324.00000 
 43692.65567		 717.71295			42974.94272		216.57200		875.00000 
 43692.65567		 305.27265			43387.38302		68.70800		324.00000 
 43692.65567		 717.71295			42974.94272		216.57200		875.00000 
 43692.65567		 305.27265			43387.38302		68.70800		324.00000 
 43692.65567		 717.71295			42974.94272		216.57200		875.00000 
 43692.65567		 305.27265			43387.38302		68.70800		324.00000 
 43692.65567		 717.71295			42974.94272		216.57200		875.00000 
 43692.65567		 305.27265			43387.38302		68.70800		324.00000 
 43692.65567		 717.71295			42974.94272		216.57200		875.00000 
 43692.65567		 305.27265			43387.38302		68.70800		324.00000 
 43692.65567		 717.71295			42974.94272		216.57200		875.00000 
 43692.65567		 305.27265			43387.38302		68.70800		324.00000 
 43692.65567		 717.71295			42974.94272		216.57200		875.00000 
 43692.65567		 305.27265			43387.38302		68.70800		324.00000 
 43692.65567		 717.71295			42974.94272		216.57200		875.00000 
 43692.65567		 305.27265			43387.38302		68.70800		324.00000 
 43692.65567		 717.71295			42974.94272		216.57200		875.00000 
 43692.65567		 305.27265			43387.38302		68.70800		324.00000 
 43692.65567		 717.71295			42974.94272		216.57200		875.00000 
 43692.65567		 305.27265			43387.38302		68.70800		324.00000 
 43692.65567		 717.71295			42974.94272		216.57200		875.00000 
 43692.65567		 305.27265			43387.38302		68.70800		324.00000 
 43692.65567		 717.71295			42974.94272		216.57200		875.00000 
 43692.65567		 305.27265			43387.38302		68.70800		324.00000 
 43692.65567		 717.71295			42974.94272		216.57200		875.00000 
 43692.65567		 305.27265			43387.38302		68.70800		324.00000 
 43692.65567		 717.71295			42974.94272		216.57200		875.00000 
 43692.65567		 305.27265			43387.38302		68.70800		324.00000 
 43692.65567		 717.71295			42974.94272		216.57200		875.00000 
 43692.65567		 305.27265			43387.38302		68.70800		324.00000 
 43692.65567		 717.71295			42974.94272		216.57200		875.00000 
 43692.65567		 305.27265			43387.38302		68.70800		324.00000 
 43692.65567		 717.71295			42974.94272		216.57200		875.00000 
 43692.65567		 305.27265			43387.38302		68.70800		324.00000 
 43692.65567		 717.71295			42974.94272		216.57200		875.00000 
 43692.65567		 305.27265			43387.38302		68.70800		324.00000 
 43692.65567		 717.71295			42974.94272		216.57200		875.00000 
 43692.65567		 305.27265			43387.38302		68.70800		324.00000 
 43692.65567		 717.71295			42974.94272		216.57200		875.00000 
 43692.65567		 305.27265			43387.38302		68.70800		324.00000 
 43692.65567		 717.71295			42974.94272		216.57200		875.00000 
 43692.65567		 305.27265			43387.38302		68.70800		324.00000 
 43692.65567		 717.71295			42974.94272		216.57200		875.00000 
 43692.65567		 305.27265			43387.38302		68.70800		324.00000 
 43692.65567		 717.71295			42974.94272		216.57200		875.00000 
 43692.65567		 305.27265			43387.38302		68.70800		324.00000 
 43692.65567		 717.71295			42974.94272		216.57200		875.00000 
 43692.65567		 305.27265			43387.38302		68.70800		324.00000 
 43692.65567		 717.71295			42974.94272		216.57200		875.00000 
 43692.65567		 305.27265			43387.38302		68.70800		324.00000 
 43692.65567		 717.71295			42974.94272		216.57200		875.00000 
 43692.65567		 305.27265			43387.38302		68.70800		324.00000 
 43692.65567		 717.71295			42974.94272		216.57200		875.00000 
 43692.65567		 305.27265			43387.38302		68.70800		324.00000 
 43692.65567		 717.71295			42974.94272		216.57200		875.00000 
 43692.65567		 305.27265			43387.38302		68.70800		324.00000 
 43692.65567		 717.71295			42974.94272		216.57200		875.00000 
 43692.65567		 305.27265			43387.38302		68.70800		324.00000 
 43692.65567		 717.71295			42974.94272		216.57200		875.00000 
 43692.65567		 305.27265			43387.38302		68.70800		324.00000 
 43692.65567		 717.71295			42974.94272		216.57200		875.00000 
 43692.65567		 305.27265			43387.38302		68.70800		324.00000 
 43692.65567		 717.71295			42974.94272		216.57200		875.00000 
 43692.65567		 305.27265			43387.38302		68.70800		324.00000 
 43692.65567		 717.71295			42974.94272		216.57200		875.00000 
 43692.65567		 305.27265			43387.38302		68.70800		324.00000 
 43692.65567		 717.71295			42974.94272		216.57200		875.00000 
 43692.65567		 305.27265			43387.38302		68.70800		324.00000 
 43692.65567		 717.71295			42974.94272		216.57200		875.00000 
 43692.65567		 305.27265			43387.38302		68.70800		324.00000 
 43692.65567		 717.71295			42974.94272		216.57200		875.00000 
 43692.65567		 305.27265			43387.38302		68.70800		324.00000 
 43692.65567		 717.71295			42974.94272		216.57200		875.00000 
 43692.65567		 305.27265			43387.38302		68.70800		324.00000 
 43692.65567		 717.71295			42974.94272		217.93200		875.00000 
 43692.65567		 305.27265			43387.38302		68.70800		324.00000 
 43692.65567		 717.71295			42974.94272		217.93200		875.00000 
 43692.65567		 305.27265			43387.38302		68.70800		324.00000 
 43692.65567		 717.71295			42974.94272		217.93200		875.00000 
 43692.65567		 305.27265			43387.38302		68.70800		324.00000 
 43692.65567		 717.71295			42974.94272		217.93200		875.00000 
 43692.65567		 305.27265			43387.38302		68.70800		324.00000 
 43692.65567		 717.71295			42974.94272		217.93200		875.00000 
 43692.65567		 305.27265			43387.38302		68.70800		324.00000 
 43692.65567		 717.71295			42974.94272		217.93200		875.00000 
 43692.65567		 305.27265			43387.38302		68.70800		324.00000 
 43692.65567		 717.71295			42974.94272		217.93200		875.00000 
 43692.65567		 305.27265			43387.38302		68.70800		324.00000 
 43692.65567		 717.71295			42974.94272		217.93200		875.00000 
 43692.65567		 305.27265			43387.38302		68.70800		324.00000 
 43692.65567		 717.71295			42974.94272		217.93200		875.00000 
 43692.65567		 305.27265			43387.38302		68.70800		324.00000 
 43692.65567		 717.71295			42974.94272		217.93200		875.00000 
 43692.65567		 305.27265			43387.38302		68.70800		324.00000 
 43692.65567		 717.71295			42974.94272		217.93200		875.00000 
 43692.65567		 305.27265			43387.38302		68.70800		324.00000 
 43692.65567		 717.71295			42974.94272		217.93200		875.00000 
 43692.65567		 305.27265			43387.38302		68.70800		324.00000 
 43692.65567		 717.71295			42974.94272		217.93200		875.00000 
 43692.65567		 305.27265			43387.38302		68.70800		324.00000 
 43692.65567		 717.71295			42974.94272		217.93200		875.00000 
 43692.65567		 305.27265			43387.38302		68.70800		324.00000 
 43692.65567		 717.71295			42974.94272		217.93200		875.00000 
 43692.65567		 305.27265			43387.38302		68.70800		324.00000 
 43692.65567		 717.71295			42974.94272		217.93200		875.00000 
 43692.65567		 305.27265			43387.38302		68.70800		324.00000 
 43692.65567		 717.71295			42974.94272		217.93200		875.00000 
 43692.65567		 305.27265			43387.38302		68.70800		324.00000 
 43692.65567		 717.71295			42974.94272		217.93200		875.00000 
 43692.65567		 305.27265			43387.38302		68.70800		324.00000 
 43692.65567		 717.71295			42974.94272		217.93200		875.00000 
 43692.65567		 305.27265			43387.38302		68.70800		324.00000 
 43692.65567		 717.71295			42974.94272		217.93200		875.00000 
 43692.65567		 305.27265			43387.38302		68.70800		324.00000 
 43692.65567		 717.71295			42974.94272		217.93200		875.00000 
 43692.65567		 305.27265			43387.38302		68.70800		324.00000 
 43692.65567		 717.71295			42974.94272		217.93200		875.00000 
 43692.65567		 305.27265			43387.38302		68.70800		324.00000 
 43692.65567		 717.71295			42974.94272		217.93200		875.00000 
 43692.65567		 305.27265			43387.38302		68.70800		324.00000 
 43692.65567		 717.71295			42974.94272		217.93200		875.00000 
 43692.65567		 305.27265			43387.38302		68.70800		324.00000 
 43692.65567		 717.71295			42974.94272		217.93200		875.00000 
 43692.65567		 305.27265			43387.38302		68.70800		324.00000 
 43692.65567		 717.71295			42974.94272		217.93200		875.00000 
 43692.65567		 305.27265			43387.38302		68.70800		324.00000 
 43692.65567		 717.71295			42974.94272		217.93200		875.00000 
 43692.65567		 305.27265			43387.38302		68.70800		324.00000 
 43692.65567		 717.71295			42974.94272		217.93200		875.00000 
 43692.65567		 305.27265			43387.38302		68.70800		324.00000 
 43692.65567		 717.71295			42974.94272		217.93200		875.00000 
 43692.65567		 305.27265			43387.38302		68.70800		324.00000 
 43692.65567		 717.71295			42974.94272		217.93200		875.00000 
 43692.65567		 305.27265			43387.38302		68.70800		324.00000 
 43692.65567		 717.71295			42974.94272		217.93200		875.00000 
 43692.65567		 305.27265			43387.38302		68.70800		324.00000 
 43692.65567		 717.71295			42974.94272		217.93200		875.00000 
 43692.65567		 305.27265			43387.38302		68.70800		324.00000 
 43692.65567		 717.71295			42974.94272		217.93200		875.00000 
 43692.65567		 305.27265			43387.38302		68.70800		324.00000 
 43692.65567		 717.71295			42974.94272		217.93200		875.00000 
 43692.65567		 305.27265			43387.38302		68.70800		324.00000 
 43692.65567		 717.71295			42974.94272		217.93200		875.00000 
 43692.65567		 305.27265			43387.38302		68.70800		324.00000 
 43692.65567		 717.71295			42974.94272		217.93200		875.00000 
 43692.65567		 305.27265			43387.38302		68.70800		324.00000 
 43692.65567		 717.71295			42974.94272		217.93200		875.00000 
 43692.65567		 305.27265			43387.38302		68.70800		324.00000 
 43692.65567		 717.71295			42974.94272		217.93200		875.00000 
 43692.65567		 305.27265			43387.38302		68.70800		324.00000 
 43692.65567		 717.71295			42974.94272		217.93200		875.00000 
 43692.65567		 305.27265			43387.38302		68.70800		324.00000 
 43692.65567		 717.71295			42974.94272		217.93200		875.00000 
 43692.65567		 305.27265			43387.38302		68.70800		324.00000 
 43692.65567		 717.71295			42974.94272		217.93200		875.00000 
 43692.65567		 305.27265			43387.38302		68.70800		324.00000 
 43692.65567		 717.71295			42974.94272		217.93200		875.00000 
 43692.65567		 305.27265			43387.38302		68.70800		324.00000 
 43692.65567		 717.71295			42974.94272		217.93200		875.00000 
 43692.65567		 305.27265			43387.38302		68.70800		324.00000 
 43692.65567		 717.71295			42974.94272		217.93200		875.00000 
 43692.65567		 305.27265			43387.38302		68.70800		324.00000 
 43692.65567		 717.71295			42974.94272		217.93200		875.00000 
 43692.65567		 305.27265			43387.38302		68.70800		324.00000 
 43692.65567		 717.71295			42974.94272		217.93200		875.00000 
 43692.65567		 305.27265			43387.38302		68.70800		324.00000 
 43692.65567		 717.71295			42974.94272		217.93200		875.00000 
 43692.65567		 305.27265			43387.38302		68.70800		324.00000 
 43692.65567		 717.71295			42974.94272		217.93200		875.00000 
 43692.65567		 305.27265			43387.38302		68.70800		324.00000 
 43692.65567		 717.71295			42974.94272		217.93200		875.00000 
 43692.65567		 305.27265			43387.38302		68.70800		324.00000 
 43692.65567		 717.71295			42974.94272		217.93200		875.00000 
 43692.65567		 305.27265			43387.38302		68.70800		324.00000 
 43692.65567		 717.71295			42974.94272		217.93200		875.00000 
 43692.65567		 305.27265			43387.38302		68.70800		324.00000 
 43692.65567		 717.71295			42974.94272		217.93200		875.00000 
 43692.65567		 305.27265			43387.38302		68.70800		324.00000 
 43692.65567		 717.71295			42974.94272		217.93200		875.00000 
 43692.65567		 305.27265			43387.38302		68.70800		324.00000 
 43692.65567		 717.71295			42974.94272		217.93200		875.00000 
 43692.65567		 305.27265			43387.38302		68.70800		324.00000 
 43692.65567		 717.71295			42974.94272		217.93200		875.00000 
 43692.65567		 305.27265			43387.38302		68.70800		324.00000 
 43692.65567		 717.71295			42974.94272		217.93200		875.00000 
 43692.65567		 305.27265			43387.38302		68.70800		324.00000 
 43692.65567		 717.71295			42974.94272		217.93200		875.00000 
 43692.65567		 305.27265			43387.38302		68.70800		324.00000 
 43692.65567		 717.71295			42974.94272		217.93200		875.00000 
 43692.65567		 305.27265			43387.38302		68.70800		324.00000 
 43692.65567		 717.71295			42974.94272		217.93200		875.00000 
 43692.65567		 305.27265			43387.38302		68.70800		324.00000 
 43692.65567		 717.71295			42974.94272		217.93200		875.00000 
 43692.65567		 305.27265			43387.38302		68.70800		324.00000 
 43692.65567		 717.71295			42974.94272		217.93200		875.00000 
 43692.65567		 305.27265			43387.38302		68.70800		324.00000 
 43692.65567		 717.71295			42974.94272		217.93200		875.00000 
 43692.65567		 305.27265			43387.38302		68.70800		324.00000 
 43692.65567		 717.71295			42974.94272		217.93200		875.00000 
 43692.65567		 305.27265			43387.38302		68.70800		324.00000 
 43692.65567		 717.71295			42974.94272		217.93200		875.00000 
 43692.65567		 305.27265			43387.38302		68.70800		324.00000 
 43692.65567		 717.71295			42974.94272		217.93200		875.00000 
 43692.65567		 305.27265			43387.38302		68.70800		324.00000 
 43692.65567		 717.71295			42974.94272		219.06200		875.00000 
 43692.65567		 305.27265			43387.38302		68.70800		324.00000 
 43692.65567		 717.71295			42974.94272		219.06200		875.00000 
 43692.65567		 305.27265			43387.38302		68.70800		324.00000 
 43692.65567		 717.71295			42974.94272		219.06200		875.00000 
 43692.65567		 305.27265			43387.38302		68.70800		324.00000 
 43692.65567		 717.71295			42974.94272		219.06200		875.00000 
 43692.65567		 305.27265			43387.38302		68.70800		324.00000 
 43692.65567		 717.71295			42974.94272		219.06200		875.00000 
 43692.65567		 305.27265			43387.38302		68.70800		324.00000 
 43692.65567		 717.71295			42974.94272		219.06200		875.00000 
 43692.65567		 305.27265			43387.38302		68.70800		324.00000 
 43692.65567		 717.71295			42974.94272		219.06200		875.00000 
 43692.65567		 305.27265			43387.38302		68.70800		324.00000 
 43692.65567		 717.71295			42974.94272		219.06200		875.00000 
 43692.65567		 305.27265			43387.38302		68.70800		324.00000 
 43692.65567		 717.71295			42974.94272		219.06200		875.00000 
 43692.65567		 305.27265			43387.38302		68.70800		324.00000 
 43692.65567		 717.71295			42974.94272		219.06200		875.00000 
 43692.65567		 305.27265			43387.38302		68.70800		324.00000 
 43692.65567		 717.71295			42974.94272		219.06200		875.00000 
 43692.65567		 305.27265			43387.38302		68.70800		324.00000 
 43692.65567		 717.71295			42974.94272		219.06200		875.00000 
 43692.65567		 305.27265			43387.38302		68.70800		324.00000 
 43692.65567		 717.71295			42974.94272		219.06200		875.00000 
 43692.65567		 305.27265			43387.38302		68.70800		324.00000 
 43692.65567		 717.71295			42974.94272		219.06200		875.00000 
 43692.65567		 305.27265			43387.38302		68.70800		324.00000 
 43692.65567		 717.71295			42974.94272		219.06200		875.00000 
 43692.65567		 305.27265			43387.38302		68.70800		324.00000 
 43692.65567		 717.71295			42974.94272		219.06200		875.00000 
 43692.65567		 305.27265			43387.38302		68.70800		324.00000 
 43692.65567		 717.71295			42974.94272		219.06200		875.00000 
 43692.65567		 305.27265			43387.38302		68.70800		324.00000 
 43692.65567		 717.71295			42974.94272		219.06200		875.00000 
 43692.65567		 305.27265			43387.38302		68.70800		324.00000 
 43692.65567		 717.71295			42974.94272		219.06200		875.00000 
 43692.65567		 305.27265			43387.38302		68.70800		324.00000 
 43692.65567		 717.71295			42974.94272		219.06200		875.00000 
 43692.65567		 305.27265			43387.38302		68.70800		324.00000 
 43692.65567		 717.71295			42974.94272		219.06200		875.00000 
 43692.65567		 305.27265			43387.38302		68.70800		324.00000 
 43692.65567		 717.71295			42974.94272		219.06200		875.00000 
 43692.65567		 305.27265			43387.38302		68.70800		324.00000 
 43692.65567		 717.71295			42974.94272		219.06200		875.00000 
 43692.65567		 305.27265			43387.38302		68.70800		324.00000 
 43692.65567		 717.71295			42974.94272		219.06200		875.00000 
 43692.65567		 305.27265			43387.38302		68.70800		324.00000 
 43692.65567		 717.71295			42974.94272		219.06200		875.00000 
 43692.65567		 305.27265			43387.38302		68.70800		324.00000 
 43692.65567		 717.71295			42974.94272		219.06200		875.00000 
 43692.65567		 305.27265			43387.38302		68.70800		324.00000 
 43692.65567		 717.71295			42974.94272		219.06200		875.00000 
 43692.65567		 305.27265			43387.38302		68.70800		324.00000 
 43692.65567		 717.71295			42974.94272		219.06200		875.00000 
 43692.65567		 305.27265			43387.38302		68.70800		324.00000 
 43692.65567		 717.71295			42974.94272		219.06200		875.00000 
 43692.65567		 305.27265			43387.38302		68.70800		324.00000 
 43692.65567		 717.71295			42974.94272		219.06200		875.00000 
 43692.65567		 305.27265			43387.38302		68.70800		324.00000 
 43692.65567		 717.71295			42974.94272		219.06200		875.00000 
 43692.65567		 305.27265			43387.38302		68.70800		324.00000 
 43692.65567		 717.71295			42974.94272		219.06200		875.00000 
 43692.65567		 305.27265			43387.38302		68.70800		324.00000 
 43692.65567		 717.71295			42974.94272		219.06200		875.00000 
 43692.65567		 305.27265			43387.38302		68.70800		324.00000 
 43692.65567		 717.71295			42974.94272		219.06200		875.00000 
 43692.65567		 305.27265			43387.38302		68.70800		324.00000 
 43692.65567		 717.71295			42974.94272		219.06200		875.00000 
 43692.65567		 305.27265			43387.38302		68.70800		324.00000 
 43692.65567		 717.71295			42974.94272		219.06200		875.00000 
 43692.65567		 305.27265			43387.38302		68.70800		324.00000 
 43692.65567		 717.71295			42974.94272		219.06200		875.00000 
 43692.65567		 305.27265			43387.38302		68.70800		324.00000 
 43692.65567		 717.71295			42974.94272		219.06200		875.00000 
 43692.65567		 305.27265			43387.38302		68.70800		324.00000 
 43692.65567		 717.71295			42974.94272		219.06200		875.00000 
 43692.65567		 305.27265			43387.38302		68.70800		324.00000 
 43692.65567		 717.71295			42974.94272		219.06200		875.00000 
 43692.65567		 305.27265			43387.38302		68.70800		324.00000 
 43692.65567		 717.71295			42974.94272		219.06200		875.00000 
 43692.65567		 305.27265			43387.38302		68.70800		324.00000 
 43692.65567		 717.71295			42974.94272		219.06200		875.00000 
 43692.65567		 305.27265			43387.38302		68.70800		324.00000 
 43692.65567		 717.71295			42974.94272		219.06200		875.00000 
 43692.65567		 305.27265			43387.38302		68.70800		324.00000 
 43692.65567		 717.71295			42974.94272		219.06200		875.00000 
 43692.65567		 305.27265			43387.38302		68.70800		324.00000 
 43692.65567		 717.71295			42974.94272		219.06200		875.00000 
 43692.65567		 305.27265			43387.38302		68.70800		324.00000 
 43692.65567		 717.71295			42974.94272		219.06200		875.00000 
 43692.65567		 305.27265			43387.38302		68.70800		324.00000 
 43692.65567		 717.71295			42974.94272		219.06200		875.00000 
 43692.65567		 305.27265			43387.38302		68.70800		324.00000 
 43692.65567		 717.71295			42974.94272		219.06200		875.00000 
 43692.65567		 305.27265			43387.38302		68.70800		324.00000 
 43692.65567		 717.71295			42974.94272		219.06200		875.00000 
 43692.65567		 305.27265			43387.38302		68.70800		324.00000 
 43692.65567		 717.71295			42974.94272		219.06200		875.00000 
 43692.65567		 305.27265			43387.38302		68.70800		324.00000 
 43692.65567		 717.71295			42974.94272		219.06200		875.00000 
 43692.65567		 305.27265			43387.38302		68.70800		324.00000 
 43692.65567		 717.71295			42974.94272		219.06200		875.00000 
 43692.65567		 305.27265			43387.38302		68.70800		324.00000 
 43692.65567		 717.71295			42974.94272		219.06200		875.00000 
 43692.65567		 305.27265			43387.38302		68.70800		324.00000 
 43692.65567		 717.71295			42974.94272		219.06200		875.00000 
 43692.65567		 305.27265			43387.38302		68.70800		324.00000 
 43692.65567		 717.71295			42974.94272		219.06200		875.00000 
 43692.65567		 305.27265			43387.38302		68.70800		324.00000 
 43692.65567		 717.71295			42974.94272		219.06200		875.00000 
 43692.65567		 305.27265			43387.38302		68.70800		324.00000 
 43692.65567		 717.71295			42974.94272		219.06200		875.00000 
 43692.65567		 305.27265			43387.38302		68.70800		324.00000 
 43692.65567		 717.71295			42974.94272		219.06200		875.00000 
 43692.65567		 305.27265			43387.38302		68.70800		324.00000 
 43692.65567		 717.71295			42974.94272		219.06200		875.00000 
 43692.65567		 305.27265			43387.38302		68.70800		324.00000 
 43692.65567		 717.71295			42974.94272		219.06200		875.00000 
 43692.65567		 305.27265			43387.38302		68.70800		324.00000 
 43692.65567		 717.71295			42974.94272		219.06200		875.00000 
 43692.65567		 305.27265			43387.38302		68.70800		324.00000 
 43692.65567		 717.71295			42974.94272		219.06200		875.00000 
 43692.65567		 305.27265			43387.38302		68.70800		324.00000 
 43692.65567		 717.71295			42974.94272		219.06200		875.00000 
 43692.65567		 305.27265			43387.38302		68.70800		324.00000 
 43692.65567		 717.71295			42974.94272		219.06200		875.00000 
 43692.65567		 305.27265			43387.38302		68.70800		324.00000 
 43692.65567		 717.71295			42974.94272		219.06200		875.00000 
 43692.65567		 305.27265			43387.38302		68.70800		324.00000 
 43692.65567		 717.71295			42974.94272		219.06200		875.00000 
 43692.65567		 305.27265			43387.38302		68.70800		324.00000 
 43692.65567		 717.71295			42974.94272		219.06200		875.00000 
 43692.65567		 305.27265			43387.38302		68.70800		324.00000 
 43692.65567		 717.71295			42974.94272		219.06200		875.00000 
 43692.65567		 305.27265			43387.38302		68.70800		324.00000 
 43692.65567		 717.71295			42974.94272		219.06200		875.00000 
 43692.65567		 305.27265			43387.38302		68.70800		324.00000 
 43692.65567		 717.71295			42974.94272		219.06200		875.00000 
 43692.65567		 305.27265			43387.38302		68.70800		324.00000 
 43692.65567		 717.71295			42974.94272		219.06200		875.00000 
 43692.65567		 305.27265			43387.38302		68.70800		324.00000 
 43692.65567		 717.71295			42974.94272		219.06200		875.00000 
 43692.65567		 305.27265			43387.38302		68.70800		324.00000 
 43692.65567		 717.71295			42974.94272		219.06200		875.00000 
 43692.65567		 305.27265			43387.38302		68.70800		324.00000 
 43692.65567		 717.71295			42974.94272		219.06200		875.00000 
 43692.65567		 305.27265			43387.38302		68.70800		324.00000 
 43692.65567		 717.71295			42974.94272		219.06200		875.00000 
 43692.65567		 305.27265			43387.38302		68.70800		324.00000 
 43692.65567		 717.71295			42974.94272		219.06200		875.00000 
 43692.65567		 305.27265			43387.38302		68.70800		324.00000 
 43692.65567		 717.71295			42974.94272		219.06200		875.00000 
 43692.65567		 305.27265			43387.38302		68.70800		324.00000 
 43692.65567		 717.71295			42974.94272		219.06200		875.00000 
 43692.65567		 305.27265			43387.38302		68.70800		324.00000 
 43692.65567		 717.71295			42974.94272		219.06200		875.00000 
 43692.65567		 305.27265			43387.38302		68.70800		324.00000 
 43692.65567		 717.71295			42974.94272		219.06200		875.00000 
 43692.65567		 305.27265			43387.38302		68.70800		324.00000 
 43692.65567		 717.71295			42974.94272		219.06200		875.00000 
 43692.65567		 305.27265			43387.38302		68.70800		324.00000 
 43692.65567		 717.71295			42974.94272		219.06200		875.00000 
 43692.65567		 305.27265			43387.38302		68.70800		324.00000 
 43692.65567		 717.71295			42974.94272		219.06200		875.00000 
 43692.65567		 305.27265			43387.38302		68.70800		324.00000 
 43692.65567		 717.71295			42974.94272		219.06200		875.00000 
 43692.65567		 305.27265			43387.38302		68.70800		324.00000 
 43692.65567		 717.71295			42974.94272		219.06200		875.00000 
 43692.65567		 305.27265			43387.38302		68.70800		324.00000 
 43692.65567		 717.71295			42974.94272		219.06200		875.00000 
 43692.65567		 305.27265			43387.38302		68.70800		324.00000 
 43692.65567		 717.71295			42974.94272		219.06200		875.00000 
 43692.65567		 305.27265			43387.38302		68.70800		324.00000 
 43692.65567		 717.71295			42974.94272		219.06200		875.00000 
 43692.65567		 305.27265			43387.38302		68.70800		324.00000 
 43692.65567		 717.71295			42974.94272		219.06200		875.00000 
 43692.65567		 305.27265			43387.38302		68.70800		324.00000 
 43692.65567		 717.71295			42974.94272		219.06200		875.00000 
 43692.65567		 305.27265			43387.38302		68.70800		324.00000 
 43692.65567		 717.71295			42974.94272		219.06200		875.00000 
 43692.65567		 305.27265			43387.38302		68.70800		324.00000 
 43692.65567		 717.71295			42974.94272		219.06200		875.00000 
 43692.65567		 305.27265			43387.38302		68.70800		324.00000 
 43692.65567		 717.71295			42974.94272		219.06200		875.00000 
 43692.65567		 305.27265			43387.38302		68.70800		324.00000 
 43692.65567		 717.71295			42974.94272		219.06200		875.00000 
 43692.65567		 305.27265			43387.38302		68.70800		324.00000 
 43692.65567		 717.71295			42974.94272		219.06200		875.00000 
 43692.65567		 305.27265			43387.38302		68.70800		324.00000 
 43692.65567		 717.71295			42974.94272		219.06200		875.00000 
 43692.65567		 305.27265			43387.38302		68.70800		324.00000 
 43692.65567		 717.71295			42974.94272		219.06200		875.00000 
 43692.65567		 305.27265			43387.38302		68.70800		324.00000 
 43692.65567		 717.71295			42974.94272		219.06200		875.00000 
 43692.65567		 305.27265			43387.38302		68.70800		324.00000 
 43692.65567		 717.71295			42974.94272		219.06200		875.00000 
 43692.65567		 305.27265			43387.38302		68.70800		324.00000 
 43692.65567		 717.71295			42974.94272		219.06200		875.00000 
 43692.65567		 305.27265			43387.38302		68.70800		324.00000 
 43692.65567		 717.71295			42974.94272		219.06200		875.00000 
 43692.65567		 305.27265			43387.38302		68.70800		324.00000 
 43692.65567		 717.71295			42974.94272		219.06200		875.00000 
 43692.65567		 305.27265			43387.38302		68.70800		324.00000 
 43692.65567		 717.71295			42974.94272		219.06200		875.00000 
 43692.65567		 305.27265			43387.38302		68.70800		324.00000 
 43692.65567		 717.71295			42974.94272		219.06200		875.00000 
 43692.65567		 305.27265			43387.38302		68.70800		324.00000 
 43692.65567		 717.71295			42974.94272		219.06200		875.00000 
 43692.65567		 305.27265			43387.38302		68.70800		324.00000 
 43692.65567		 717.71295			42974.94272		219.06200		875.00000 
 43692.65567		 305.27265			43387.38302		68.70800		324.00000 
 43692.65567		 717.71295			42974.94272		219.06200		875.00000 
 43692.65567		 305.27265			43387.38302		68.70800		324.00000 
 43692.65567		 717.71295			42974.94272		219.06200		875.00000 
 43692.65567		 305.27265			43387.38302		68.70800		324.00000 
 43692.65567		 717.71295			42974.94272		219.06200		875.00000 
 43692.65567		 305.27265			43387.38302		68.70800		324.00000 
 43692.65567		 717.71295			42974.94272		219.06200		875.00000 
 43692.65567		 305.27265			43387.38302		68.70800		324.00000 
 43692.65567		 717.71295			42974.94272		219.06200		875.00000 
 43692.65567		 305.27265			43387.38302		68.70800		324.00000 
 43692.65567		 717.71295			42974.94272		219.06200		875.00000 
 43692.65567		 305.27265			43387.38302		68.70800		324.00000 
 43692.65567		 717.71295			42974.94272		219.06200		875.00000 
 43692.65567		 305.27265			43387.38302		68.70800		324.00000 
 43692.65567		 717.71295			42974.94272		219.06200		875.00000 
 43692.65567		 305.27265			43387.38302		68.70800		324.00000 
 43692.65567		 717.71295			42974.94272		219.06200		875.00000 
 43692.65567		 305.27265			43387.38302		68.70800		324.00000 
 43692.65567		 717.71295			42974.94272		219.06200		875.00000 
 43692.65567		 305.27265			43387.38302		68.70800		324.00000 
 43692.65567		 717.71295			42974.94272		219.06200		875.00000 
 43692.65567		 305.27265			43387.38302		68.70800		324.00000 
 43692.65567		 717.71295			42974.94272		219.06200		875.00000 
 43692.65567		 305.27265			43387.38302		68.70800		324.00000 
 43692.65567		 717.71295			42974.94272		219.06200		875.00000 
 43692.65567		 305.27265			43387.38302		68.70800		324.00000 
 43692.65567		 717.71295			42974.94272		219.06200		875.00000 
 43692.65567		 305.27265			43387.38302		68.70800		324.00000 
 43692.65567		 717.71295			42974.94272		219.06200		875.00000 
 43692.65567		 305.27265			43387.38302		68.70800		324.00000 
 43692.65567		 717.71295			42974.94272		219.06200		875.00000 
 43692.65567		 305.27265			43387.38302		68.70800		324.00000 
 43692.65567		 717.71295			42974.94272		219.06200		875.00000 
 43692.65567		 305.27265			43387.38302		68.70800		324.00000 
 43692.65567		 717.71295			42974.94272		219.06200		875.00000 
 43692.65567		 305.27265			43387.38302		68.70800		324.00000 
 43692.65567		 717.71295			42974.94272		219.06200		875.00000 
 43692.65567		 305.27265			43387.38302		68.70800		324.00000 
 43692.65567		 717.71295			42974.94272		219.06200		875.00000 
 43692.65567		 305.27265			43387.38302		68.70800		324.00000 
 43692.65567		 717.71295			42974.94272		219.06200		875.00000 
 43692.65567		 305.27265			43387.38302		68.70800		324.00000 
 43692.65567		 717.71295			42974.94272		219.06200		875.00000 
 43692.65567		 305.27265			43387.38302		68.70800		324.00000 
 43692.65567		 717.71295			42974.94272		219.06200		875.00000 
 43692.65567		 305.27265			43387.38302		68.70800		324.00000 
 43692.65567		 717.71295			42974.94272		219.06200		875.00000 
 43692.65567		 305.27265			43387.38302		68.70800		324.00000 
 43692.65567		 717.71295			42974.94272		219.06200		875.00000 
 43692.65567		 305.27265			43387.38302		68.70800		324.00000 
 43692.65567		 717.71295			42974.94272		219.06200		875.00000 
 43692.65567		 305.27265			43387.38302		68.70800		324.00000 
 43692.65567		 717.71295			42974.94272		219.06200		875.00000 
 43692.65567		 305.27265			43387.38302		68.70800		324.00000 
 43692.65567		 717.71295			42974.94272		219.06200		875.00000 
 43692.65567		 305.27265			43387.38302		68.70800		324.00000 
 43692.65567		 717.71295			42974.94272		219.06200		875.00000 
 43692.65567		 305.27265			43387.38302		68.70800		324.00000 
 43692.65567		 717.71295			42974.94272		219.06200		875.00000 
 43692.65567		 305.27265			43387.38302		68.70800		324.00000 
 43692.65567		 717.71295			42974.94272		219.06200		875.00000 
 43692.65567		 305.27265			43387.38302		68.70800		324.00000 
 43692.65567		 717.71295			42974.94272		219.06200		875.00000 
 43692.65567		 305.27265			43387.38302		68.70800		324.00000 
 43692.65567		 717.71295			42974.94272		219.06200		875.00000 
 43692.65567		 305.27265			43387.38302		68.70800		324.00000 
 43692.65567		 717.71295			42974.94272		219.06200		875.00000 
 43692.65567		 305.27265			43387.38302		68.70800		324.00000 
 43692.65567		 717.71295			42974.94272		219.06200		875.00000 
 43692.65567		 305.27265			43387.38302		68.70800		324.00000 
 43692.65567		 717.71295			42974.94272		219.06200		875.00000 
 43692.65567		 305.27265			43387.38302		68.70800		324.00000 
 43692.65567		 717.71295			42974.94272		219.06200		875.00000 
 43692.65567		 305.27265			43387.38302		68.70800		324.00000 
 43692.65567		 717.71295			42974.94272		219.06200		875.00000 
 43692.65567		 305.27265			43387.38302		68.70800		324.00000 
 43692.65567		 717.71295			42974.94272		219.06200		875.00000 
 43692.65567		 305.27265			43387.38302		68.70800		324.00000 
 43692.65567		 717.71295			42974.94272		219.06200		875.00000 
 43692.65567		 305.27265			43387.38302		68.70800		324.00000 
 43692.65567		 717.71295			42974.94272		219.06200		875.00000 
 43692.65567		 305.27265			43387.38302		68.70800		324.00000 
 43692.65567		 717.71295			42974.94272		219.06200		875.00000 
 43692.65567		 305.27265			43387.38302		68.70800		324.00000 
 43692.65567		 717.71295			42974.94272		219.06200		875.00000 
 43692.65567		 305.27265			43387.38302		68.70800		324.00000 
 43692.65567		 717.71295			42974.94272		219.06200		875.00000 
 43692.65567		 305.27265			43387.38302		68.70800		324.00000 
 43692.65567		 717.71295			42974.94272		219.06200		875.00000 
 43692.65567		 305.27265			43387.38302		68.70800		324.00000 
 43692.65567		 717.71295			42974.94272		219.06200		875.00000 
 43692.65567		 305.27265			43387.38302		68.70800		324.00000 
 43692.65567		 717.71295			42974.94272		219.06200		875.00000 
 43692.65567		 305.27265			43387.38302		68.70800		324.00000 
 43692.65567		 717.71295			42974.94272		219.06200		875.00000 
 43692.65567		 305.27265			43387.38302		68.70800		324.00000 
 43692.65567		 717.71295			42974.94272		219.06200		875.00000 
 43692.65567		 305.27265			43387.38302		68.70800		324.00000 
 43692.65567		 717.71295			42974.94272		219.06200		875.00000 
 43692.65567		 305.27265			43387.38302		68.70800		324.00000 
 43692.65567		 717.71295			42974.94272		219.06200		875.00000 
 43692.65567		 305.27265			43387.38302		68.70800		324.00000 
 43692.65567		 717.71295			42974.94272		219.06200		875.00000 
 43692.65567		 305.27265			43387.38302		68.70800		324.00000 
 43692.65567		 717.71295			42974.94272		219.06200		875.00000 
 43692.65567		 305.27265			43387.38302		68.70800		324.00000 
 43692.65567		 717.71295			42974.94272		219.06200		875.00000 
 43692.65567		 305.27265			43387.38302		68.70800		324.00000 
 43692.65567		 717.71295			42974.94272		219.06200		875.00000 
 43692.65567		 305.27265			43387.38302		68.70800		324.00000 
 43692.65567		 717.71295			42974.94272		219.06200		875.00000 
 43692.65567		 305.27265			43387.38302		68.70800		324.00000 
 43692.65567		 717.71295			42974.94272		219.06200		875.00000 
 43692.65567		 305.27265			43387.38302		68.70800		324.00000 
 43692.65567		 717.71295			42974.94272		219.06200		875.00000 
 43692.65567		 305.27265			43387.38302		68.70800		324.00000 
 43692.65567		 717.71295			42974.94272		219.06200		875.00000 
 43692.65567		 305.27265			43387.38302		68.70800		324.00000 
 43692.65567		 717.71295			42974.94272		219.06200		875.00000 
 43692.65567		 305.27265			43387.38302		68.70800		324.00000 
 43692.65567		 717.71295			42974.94272		219.06200		875.00000 
 43692.65567		 305.27265			43387.38302		68.70800		324.00000 
 43692.65567		 717.71295			42974.94272		219.06200		875.00000 
 43692.65567		 305.27265			43387.38302		68.70800		324.00000 
 43692.65567		 717.71295			42974.94272		219.06200		875.00000 
 43692.65567		 305.27265			43387.38302		68.70800		324.00000 
 43692.65567		 717.71295			42974.94272		219.06200		875.00000 
 43692.65567		 305.27265			43387.38302		68.70800		324.00000 
 43692.65567		 717.71295			42974.94272		219.06200		875.00000 
 43692.65567		 305.27265			43387.38302		68.70800		324.00000 
 43692.65567		 717.71295			42974.94272		219.06200		875.00000 
 43692.65567		 305.27265			43387.38302		68.70800		324.00000 
 43692.65567		 717.71295			42974.94272		219.06200		875.00000 
 43692.65567		 305.27265			43387.38302		68.70800		324.00000 
 43692.65567		 717.71295			42974.94272		219.06200		875.00000 
 43692.65567		 305.27265			43387.38302		68.70800		324.00000 
 43692.65567		 717.71295			42974.94272		219.06200		875.00000 
 43692.65567		 305.27265			43387.38302		68.70800		324.00000 
 43692.65567		 717.71295			42974.94272		219.06200		875.00000 
 43692.65567		 305.27265			43387.38302		68.70800		324.00000 
 43692.65567		 717.71295			42974.94272		219.06200		875.00000 
 43692.65567		 305.27265			43387.38302		68.70800		324.00000 
 43692.65567		 717.71295			42974.94272		219.06200		875.00000 
 43692.65567		 305.27265			43387.38302		68.70800		324.00000 
 43692.65567		 717.71295			42974.94272		219.06200		875.00000 
 43692.65567		 305.27265			43387.38302		68.70800		324.00000 
 43692.65567		 717.71295			42974.94272		219.06200		875.00000 
 43692.65567		 305.27265			43387.38302		68.70800		324.00000 
 43692.65567		 717.71295			42974.94272		219.06200		875.00000 
 43692.65567		 305.27265			43387.38302		68.70800		324.00000 
 43692.65567		 717.71295			42974.94272		219.06200		875.00000 
 43692.65567		 305.27265			43387.38302		68.70800		324.00000 
 43692.65567		 717.71295			42974.94272		219.06200		875.00000 
 43692.65567		 305.27265			43387.38302		68.70800		324.00000 
 43692.65567		 717.71295			42974.94272		219.06200		875.00000 
 43692.65567		 305.27265			43387.38302		68.70800		324.00000 
 43692.65567		 717.71295			42974.94272		219.06200		875.00000 
 43692.65567		 305.27265			43387.38302		68.70800		324.00000 
 43692.65567		 717.71295			42974.94272		219.06200		875.00000 
 43692.65567		 305.27265			43387.38302		68.70800		324.00000 
 43692.65567		 717.71295			42974.94272		219.06200		875.00000 
 43692.65567		 305.27265			43387.38302		68.70800		324.00000 
 43692.65567		 717.71295			42974.94272		219.06200		875.00000 
 43692.65567		 305.27265			43387.38302		68.70800		324.00000 
 43692.65567		 717.71295			42974.94272		219.06200		875.00000 
 43692.65567		 305.27265			43387.38302		68.70800		324.00000 
 43692.65567		 717.71295			42974.94272		219.06200		875.00000 
 43692.65567		 305.27265			43387.38302		68.70800		324.00000 
 43692.65567		 717.71295			42974.94272		219.06200		875.00000 
 43692.65567		 305.27265			43387.38302		68.70800		324.00000 
 43692.65567		 717.71295			42974.94272		219.06200		875.00000 
 43692.65567		 305.27265			43387.38302		68.70800		324.00000 
 43692.65567		 717.71295			42974.94272		219.06200		875.00000 
 43692.65567		 305.27265			43387.38302		68.70800		324.00000 
 43692.65567		 717.71295			42974.94272		219.06200		875.00000 
 43692.65567		 305.27265			43387.38302		68.70800		324.00000 
 43692.65567		 717.71295			42974.94272		219.06200		875.00000 
 43692.65567		 305.27265			43387.38302		68.70800		324.00000 
 43692.65567		 717.71295			42974.94272		219.06200		875.00000 
 43692.65567		 305.27265			43387.38302		68.70800		324.00000 
 43692.65567		 717.71295			42974.94272		219.06200		875.00000 
 43692.65567		 305.27265			43387.38302		68.70800		324.00000 
 43692.65567		 717.71295			42974.94272		219.06200		875.00000 
 43692.65567		 305.27265			43387.38302		68.70800		324.00000 
 43692.65567		 717.71295			42974.94272		219.06200		875.00000 
 43692.65567		 305.27265			43387.38302		68.70800		324.00000 
 43692.65567		 717.71295			42974.94272		219.06200		875.00000 
 43692.65567		 305.27265			43387.38302		68.70800		324.00000 
 43692.65567		 717.71295			42974.94272		219.06200		875.00000 
 43692.65567		 305.27265			43387.38302		68.70800		324.00000 
 43692.65567		 717.71295			42974.94272		219.06200		875.00000 
 43692.65567		 305.27265			43387.38302		68.70800		324.00000 
 43692.65567		 717.71295			42974.94272		219.06200		875.00000 
 43692.65567		 305.27265			43387.38302		68.70800		324.00000 
 43692.65567		 717.71295			42974.94272		219.06200		875.00000 
 43692.65567		 305.27265			43387.38302		68.70800		324.00000 
 43692.65567		 717.71295			42974.94272		219.06200		875.00000 
 43692.65567		 305.27265			43387.38302		68.70800		324.00000 
 43692.65567		 717.71295			42974.94272		219.06200		875.00000 
 43692.65567		 305.27265			43387.38302		68.70800		324.00000 
 43692.65567		 717.71295			42974.94272		219.06200		875.00000 
 43692.65567		 305.27265			43387.38302		68.70800		324.00000 
 43692.65567		 717.71295			42974.94272		219.06200		875.00000 
 43692.65567		 305.27265			43387.38302		68.70800		324.00000 
 43692.65567		 717.71295			42974.94272		219.06200		875.00000 
 43692.65567		 305.27265			43387.38302		68.70800		324.00000 
 43692.65567		 717.71295			42974.94272		219.06200		875.00000 
 43692.65567		 305.27265			43387.38302		68.70800		324.00000 
 43692.65567		 717.71295			42974.94272		219.06200		875.00000 
 43692.65567		 305.27265			43387.38302		68.70800		324.00000 
 43692.65567		 717.71295			42974.94272		219.06200		875.00000 
 43692.65567		 305.27265			43387.38302		68.70800		324.00000 
 43692.65567		 717.71295			42974.94272		219.06200		875.00000 
 43692.65567		 305.27265			43387.38302		68.70800		324.00000 
 43692.65567		 717.71295			42974.94272		219.06200		875.00000 
 43692.65567		 305.27265			43387.38302		68.70800		324.00000 
 43692.65567		 717.71295			42974.94272		219.06200		875.00000 
 43692.65567		 305.27265			43387.38302		68.70800		324.00000 
 43692.65567		 717.71295			42974.94272		219.06200		875.00000 
 43692.65567		 305.27265			43387.38302		68.70800		324.00000 
 43692.65567		 717.71295			42974.94272		219.06200		875.00000 
 43692.65567		 305.27265			43387.38302		68.70800		324.00000 
 43692.65567		 717.71295			42974.94272		219.06200		875.00000 
 43692.65567		 305.27265			43387.38302		68.70800		324.00000 
 43692.65567		 717.71295			42974.94272		219.06200		875.00000 
 43692.65567		 305.27265			43387.38302		68.70800		324.00000 
 43692.65567		 717.71295			42974.94272		219.06200		875.00000 
 43692.65567		 305.27265			43387.38302		68.70800		324.00000 
 43692.65567		 717.71295			42974.94272		219.06200		875.00000 
 43692.65567		 305.27265			43387.38302		68.70800		324.00000 
 43692.65567		 717.71295			42974.94272		219.06200		875.00000 
 43692.65567		 305.27265			43387.38302		68.70800		324.00000 
 43692.65567		 717.71295			42974.94272		219.06200		875.00000 
 43692.65567		 305.27265			43387.38302		68.70800		324.00000 
 43692.65567		 717.71295			42974.94272		219.06200		875.00000 
 43692.65567		 305.27265			43387.38302		68.70800		324.00000 
 43692.65567		 717.71295			42974.94272		219.06200		875.00000 
 43692.65567		 305.27265			43387.38302		68.70800		324.00000 
 43692.65567		 717.71295			42974.94272		219.06200		875.00000 
 43692.65567		 305.27265			43387.38302		68.70800		324.00000 
 43692.65567		 717.71295			42974.94272		219.06200		875.00000 
 43692.65567		 305.27265			43387.38302		68.70800		324.00000 
 43692.65567		 717.71295			42974.94272		219.06200		875.00000 
 43692.65567		 305.27265			43387.38302		68.70800		324.00000 
 43692.65567		 717.71295			42974.94272		219.06200		875.00000 
 43692.65567		 305.27265			43387.38302		68.70800		324.00000 
 43692.65567		 717.71295			42974.94272		219.06200		875.00000 
 43692.65567		 305.27265			43387.38302		68.70800		324.00000 
 43692.65567		 717.71295			42974.94272		219.06200		875.00000 
 43692.65567		 305.27265			43387.38302		68.70800		324.00000 
 43692.65567		 717.71295			42974.94272		219.06200		875.00000 
 43692.65567		 305.27265			43387.38302		68.70800		324.00000 
 43692.65567		 717.71295			42974.94272		219.06200		875.00000 
 43692.65567		 305.27265			43387.38302		68.70800		324.00000 
 43692.65567		 717.71295			42974.94272		219.06200		875.00000 
 43692.65567		 305.27265			43387.38302		68.70800		324.00000 
 43692.65567		 717.71295			42974.94272		219.06200		875.00000 
 43692.65567		 305.27265			43387.38302		68.70800		324.00000 
 43692.65567		 717.71295			42974.94272		219.06200		875.00000 
 43692.65567		 305.27265			43387.38302		68.70800		324.00000 
 43692.65567		 717.71295			42974.94272		219.06200		875.00000 
 43692.65567		 305.27265			43387.38302		68.70800		324.00000 
 43692.65567		 717.71295			42974.94272		219.06200		875.00000 
 43692.65567		 305.27265			43387.38302		68.70800		324.00000 
 43692.65567		 717.71295			42974.94272		219.06200		875.00000 
 43692.65567		 305.27265			43387.38302		68.70800		324.00000 
 43692.65567		 717.71295			42974.94272		219.06200		875.00000 
 43692.65567		 305.27265			43387.38302		68.70800		324.00000 
 43692.65567		 717.71295			42974.94272		219.06200		875.00000 
 43692.65567		 305.27265			43387.38302		68.70800		324.00000 
 43692.65567		 717.71295			42974.94272		219.06200		875.00000 
 43692.65567		 305.27265			43387.38302		68.70800		324.00000 
 43692.65567		 717.71295			42974.94272		219.06200		875.00000 
 43692.65567		 305.27265			43387.38302		68.70800		324.00000 
 43692.65567		 717.71295			42974.94272		219.06200		875.00000 
 43692.65567		 305.27265			43387.38302		68.70800		324.00000 
 43692.65567		 717.71295			42974.94272		219.06200		875.00000 
 43692.65567		 305.27265			43387.38302		68.70800		324.00000 
 43692.65567		 717.71295			42974.94272		219.06200		875.00000 
 43692.65567		 305.27265			43387.38302		68.70800		324.00000 
 43692.65567		 717.71295			42974.94272		219.06200		875.00000 
 43692.65567		 305.27265			43387.38302		68.70800		324.00000 
 43692.65567		 717.71295			42974.94272		219.06200		875.00000 
 43692.65567		 305.27265			43387.38302		68.70800		324.00000 
 43692.65567		 717.71295			42974.94272		219.06200		875.00000 
 43692.65567		 305.27265			43387.38302		68.70800		324.00000 
 43692.65567		 717.71295			42974.94272		219.06200		875.00000 
 43692.65567		 305.27265			43387.38302		68.70800		324.00000 
 43692.65567		 717.71295			42974.94272		219.06200		875.00000 
 43692.65567		 305.27265			43387.38302		68.70800		324.00000 
 43692.65567		 717.71295			42974.94272		219.06200		875.00000 
 43692.65567		 305.27265			43387.38302		68.70800		324.00000 
 43692.65567		 717.71295			42974.94272		219.06200		875.00000 
 43692.65567		 305.27265			43387.38302		68.70800		324.00000 
 43692.65567		 717.71295			42974.94272		219.06200		875.00000 
 43692.65567		 305.27265			43387.38302		68.70800		324.00000 
 43692.65567		 717.71295			42974.94272		219.06200		875.00000 
 43692.65567		 305.27265			43387.38302		68.70800		324.00000 
 43692.65567		 717.71295			42974.94272		219.06200		875.00000 
 43692.65567		 305.27265			43387.38302		68.70800		324.00000 
 43692.65567		 717.71295			42974.94272		219.06200		875.00000 
 43692.65567		 305.27265			43387.38302		68.70800		324.00000 
 43692.65567		 717.71295			42974.94272		219.06200		875.00000 
 43692.65567		 305.27265			43387.38302		68.70800		324.00000 
 43692.65567		 717.71295			42974.94272		219.06200		875.00000 
 43692.65567		 305.27265			43387.38302		68.70800		324.00000 
 43692.65567		 717.71295			42974.94272		219.06200		875.00000 
 43692.65567		 305.27265			43387.38302		68.70800		324.00000 
 43692.65567		 717.71295			42974.94272		219.06200		875.00000 
 43692.65567		 305.27265			43387.38302		68.70800		324.00000 
 43692.65567		 717.71295			42974.94272		219.06200		875.00000 
 43692.65567		 305.27265			43387.38302		68.70800		324.00000 
 43692.65567		 717.71295			42974.94272		219.06200		875.00000 
 43692.65567		 305.27265			43387.38302		68.70800		324.00000 
 43692.65567		 717.71295			42974.94272		219.06200		875.00000 
 43692.65567		 305.27265			43387.38302		68.70800		324.00000 
 43692.65567		 717.71295			42974.94272		219.06200		875.00000 
 43692.65567		 305.27265			43387.38302		68.70800		324.00000 
 43692.65567		 717.71295			42974.94272		219.06200		875.00000 
 43692.65567		 305.27265			43387.38302		68.70800		324.00000 
 43692.65567		 717.71295			42974.94272		219.06200		875.00000 
 43692.65567		 305.27265			43387.38302		68.70800		324.00000 
 43692.65567		 717.71295			42974.94272		219.06200		875.00000 
 43692.65567		 305.27265			43387.38302		68.70800		324.00000 
 43692.65567		 717.71295			42974.94272		219.06200		875.00000 
 43692.65567		 305.27265			43387.38302		68.70800		324.00000 
 43692.65567		 717.71295			42974.94272		219.06200		875.00000 
 43692.65567		 305.27265			43387.38302		68.70800		324.00000 
 43692.65567		 717.71295			42974.94272		219.06200		875.00000 
 43692.65567		 305.27265			43387.38302		68.70800		324.00000 
 43692.65567		 717.71295			42974.94272		219.06200		875.00000 
 43692.65567		 305.27265			43387.38302		68.70800		324.00000 
 43692.65567		 717.71295			42974.94272		219.06200		875.00000 
 43692.65567		 305.27265			43387.38302		68.70800		324.00000 
 43692.65567		 717.71295			42974.94272		219.06200		875.00000 
 43692.65567		 305.27265			43387.38302		68.70800		324.00000 
 43692.65567		 717.71295			42974.94272		219.06200		875.00000 
 43692.65567		 305.27265			43387.38302		68.70800		324.00000 
 43692.65567		 717.71295			42974.94272		219.06200		875.00000 
 43692.65567		 305.27265			43387.38302		68.70800		324.00000 
 43692.65567		 717.71295			42974.94272		219.06200		875.00000 
 43692.65567		 305.27265			43387.38302		68.70800		324.00000 
 43692.65567		 717.71295			42974.94272		219.06200		875.00000 
 43692.65567		 305.27265			43387.38302		68.70800		324.00000 
 43692.65567		 717.71295			42974.94272		219.06200		875.00000 
 43692.65567		 305.27265			43387.38302		68.70800		324.00000 
 43692.65567		 717.71295			42974.94272		219.06200		875.00000 
 43692.65567		 305.27265			43387.38302		68.70800		324.00000 
 43692.65567		 717.71295			42974.94272		219.06200		875.00000 
 43692.65567		 305.27265			43387.38302		68.70800		324.00000 
 43692.65567		 717.71295			42974.94272		219.06200		875.00000 
 43692.65567		 305.27265			43387.38302		68.70800		324.00000 
 43692.65567		 717.71295			42974.94272		219.06200		875.00000 
 43692.65567		 305.27265			43387.38302		68.70800		324.00000 
 43692.65567		 717.71295			42974.94272		219.06200		875.00000 
 43692.65567		 305.27265			43387.38302		68.70800		324.00000 
 43692.65567		 717.71295			42974.94272		219.06200		875.00000 
 43692.65567		 305.27265			43387.38302		68.70800		324.00000 
 43692.65567		 717.71295			42974.94272		219.06200		875.00000 
 43692.65567		 305.27265			43387.38302		68.70800		324.00000 
 43692.65567		 717.71295			42974.94272		219.06200		875.00000 
 43692.65567		 305.27265			43387.38302		68.70800		324.00000 
 43692.65567		 717.71295			42974.94272		219.06200		875.00000 
 43692.65567		 305.27265			43387.38302		68.70800		324.00000 
 43692.65567		 717.71295			42974.94272		219.06200		875.00000 
 43692.65567		 305.27265			43387.38302		68.70800		324.00000 
 43692.65567		 717.71295			42974.94272		219.06200		875.00000 
 43692.65567		 305.27265			43387.38302		68.70800		324.00000 
 43692.65567		 717.71295			42974.94272		219.06200		875.00000 
 43692.65567		 305.27265			43387.38302		68.70800		324.00000 
 43692.65567		 717.71295			42974.94272		219.06200		875.00000 
 43692.65567		 305.27265			43387.38302		68.70800		324.00000 
 43692.65567		 717.71295			42974.94272		219.06200		875.00000 
 43692.65567		 305.27265			43387.38302		68.70800		324.00000 
 43692.65567		 717.71295			42974.94272		219.06200		875.00000 
 43692.65567		 305.27265			43387.38302		68.70800		324.00000 
 43692.65567		 717.71295			42974.94272		219.06200		875.00000 
 43692.65567		 305.27265			43387.38302		68.70800		324.00000 
 43692.65567		 717.71295			42974.94272		219.06200		875.00000 
 43692.65567		 305.27265			43387.38302		68.70800		324.00000 
 43692.65567		 717.71295			42974.94272		219.06200		875.00000 
 43692.65567		 305.27265			43387.38302		68.70800		324.00000 
 43692.65567		 717.71295			42974.94272		219.06200		875.00000 
 43692.65567		 305.27265			43387.38302		68.70800		324.00000 
 43692.65567		 717.71295			42974.94272		219.06200		875.00000 
 43692.65567		 305.27265			43387.38302		68.70800		324.00000 
 43692.65567		 717.71295			42974.94272		219.06200		875.00000 
 43692.65567		 305.27265			43387.38302		68.70800		324.00000 
 43692.65567		 717.71295			42974.94272		219.06200		875.00000 
 43692.65567		 305.27265			43387.38302		68.70800		324.00000 
 43692.65567		 717.71295			42974.94272		219.06200		875.00000 
 43692.65567		 305.27265			43387.38302		68.70800		324.00000 
 43692.65567		 717.71295			42974.94272		219.06200		875.00000 
 43692.65567		 305.27265			43387.38302		68.70800		324.00000 
 43692.65567		 717.71295			42974.94272		219.06200		875.00000 
 43692.65567		 305.27265			43387.38302		68.70800		324.00000 
 43692.65567		 717.71295			42974.94272		219.06200		875.00000 
 43692.65567		 305.27265			43387.38302		68.70800		324.00000 
 43692.65567		 717.71295			42974.94272		219.06200		875.00000 
 43692.65567		 305.27265			43387.38302		68.70800		324.00000 
 43692.65567		 717.71295			42974.94272		219.06200		875.00000 
 43692.65567		 305.27265			43387.38302		68.70800		324.00000 
 43692.65567		 717.71295			42974.94272		219.06200		875.00000 
 43692.65567		 305.27265			43387.38302		68.70800		324.00000 
 43692.65567		 717.71295			42974.94272		219.06200		875.00000 
 43692.65567		 305.27265			43387.38302		68.70800		324.00000 
 43692.65567		 717.71295			42974.94272		219.06200		875.00000 
 43692.65567		 305.27265			43387.38302		68.70800		324.00000 
 43692.65567		 717.71295			42974.94272		219.06200		875.00000 
 43692.65567		 305.27265			43387.38302		68.70800		324.00000 
 43692.65567		 717.71295			42974.94272		219.06200		875.00000 
 43692.65567		 305.27265			43387.38302		68.70800		324.00000 
 43692.65567		 717.71295			42974.94272		219.06200		875.00000 
 43692.65567		 305.27265			43387.38302		68.70800		324.00000 
 43692.65567		 717.71295			42974.94272		219.06200		875.00000 
 43692.65567		 305.27265			43387.38302		68.70800		324.00000 
 43692.65567		 717.71295			42974.94272		219.06200		875.00000 
 43692.65567		 305.27265			43387.38302		68.70800		324.00000 
 43692.65567		 717.71295			42974.94272		219.06200		875.00000 
 43692.65567		 305.27265			43387.38302		68.70800		324.00000 
 43692.65567		 717.71295			42974.94272		219.06200		875.00000 
 43692.65567		 305.27265			43387.38302		68.70800		324.00000 
 43692.65567		 717.71295			42974.94272		219.06200		875.00000 
 43692.65567		 305.27265			43387.38302		68.70800		324.00000 
 43692.65567		 717.71295			42974.94272		219.06200		875.00000 
 43692.65567		 305.27265			43387.38302		68.70800		324.00000 
 43692.65567		 717.71295			42974.94272		219.06200		875.00000 
 43692.65567		 305.27265			43387.38302		68.70800		324.00000 
 43692.65567		 717.71295			42974.94272		219.06200		875.00000 
 43692.65567		 305.27265			43387.38302		68.70800		324.00000 
 43692.65567		 717.71295			42974.94272		218.46200		875.00000 
 43692.65567		 305.27265			43387.38302		68.70800		324.00000 
 43692.65567		 717.71295			42974.94272		218.46200		875.00000 
 43692.65567		 305.27265			43387.38302		68.70800		324.00000 
 43692.65567		 717.71295			42974.94272		218.46200		875.00000 
 43692.65567		 305.27265			43387.38302		68.70800		324.00000 
 43692.65567		 717.71295			42974.94272		218.46200		875.00000 
 43692.65567		 305.27265			43387.38302		68.70800		324.00000 
 43692.65567		 717.71295			42974.94272		218.46200		875.00000 
 43692.65567		 305.27265			43387.38302		68.70800		324.00000 
 43692.65567		 717.71295			42974.94272		218.46200		875.00000 
 43692.65567		 305.27265			43387.38302		68.70800		324.00000 
 43692.65567		 717.71295			42974.94272		218.46200		875.00000 
 43692.65567		 305.27265			43387.38302		68.70800		324.00000 
 43692.65567		 717.71295			42974.94272		218.46200		875.00000 
 43692.65567		 305.27265			43387.38302		68.70800		324.00000 
 43692.65567		 717.71295			42974.94272		218.46200		875.00000 
 43692.65567		 305.27265			43387.38302		68.70800		324.00000 
 43692.65567		 717.71295			42974.94272		218.46200		875.00000 
 43692.65567		 305.27265			43387.38302		68.70800		324.00000 
 43692.65567		 717.71295			42974.94272		218.46200		875.00000 
 43692.65567		 305.27265			43387.38302		68.70800		324.00000 
 43692.65567		 657.56541			43035.09026		218.46200		875.00000 
 43692.65567		 305.27265			43387.38302		68.70800		324.00000 
 43692.65567		 597.41787			43095.23781		218.46200		875.00000 
 43692.65567		 305.27265			43387.38302		68.70800		324.00000 
 43692.65567		 537.27032			43155.38535		218.46200		875.00000 
 43692.65567		 305.27265			43387.38302		68.70800		324.00000 
 43692.65567		 537.27032			43155.38535		218.46200		875.00000 
 43692.65567		 305.27265			43387.38302		68.70800		324.00000 
 43692.65567		 537.27032			43155.38535		218.46200		875.00000 
 43692.65567		 305.27265			43387.38302		68.70800		324.00000 
 43692.65567		 537.27032			43155.38535		218.46200		875.00000 
 43692.65567		 305.27265			43387.38302		68.70800		324.00000 
 43692.65567		 537.27032			43155.38535		218.46200		875.00000 
 43692.65567		 305.27265			43387.38302		68.70800		324.00000 
 43692.65567		 537.27032			43155.38535		218.46200		875.00000 
 43692.65567		 305.27265			43387.38302		68.70800		324.00000 
 43692.65567		 537.27032			43155.38535		218.46200		875.00000 
 43692.65567		 305.27265			43387.38302		68.70800		324.00000 
 43692.65567		 537.27032			43155.38535		218.46200		875.00000 
 43692.65567		 305.27265			43387.38302		68.70800		324.00000 
 43692.65567		 537.27032			43155.38535		218.46200		875.00000 
 43692.65567		 305.27265			43387.38302		68.70800		324.00000 
 43692.65567		 537.27032			43155.38535		218.46200		875.00000 
 43692.65567		 305.27265			43387.38302		68.70800		324.00000 
 43692.65567		 537.27032			43155.38535		218.46200		875.00000 
 43692.65567		 305.27265			43387.38302		68.70800		324.00000 
 43692.65567		 537.27032			43155.38535		218.46200		875.00000 
 43692.65567		 305.27265			43387.38302		68.70800		324.00000 
 43692.65567		 537.27032			43155.38535		218.46200		875.00000 
 43692.65567		 305.27265			43387.38302		68.70800		324.00000 
 43692.65567		 537.27032			43155.38535		218.46200		875.00000 
 43692.65567		 305.27265			43387.38302		68.70800		324.00000 
 43692.65567		 537.27032			43155.38535		218.46200		875.00000 
 43692.65567		 305.27265			43387.38302		68.70800		324.00000 
 43692.65567		 537.27032			43155.38535		218.46200		875.00000 
 43692.65567		 305.27265			43387.38302		68.70800		324.00000 
 43692.65567		 537.27032			43155.38535		218.46200		875.00000 
 43692.65567		 305.27265			43387.38302		68.70800		324.00000 
 43692.65567		 537.27032			43155.38535		218.46200		875.00000 
 43692.65567		 305.27265			43387.38302		68.70800		324.00000 
 43692.65567		 537.27032			43155.38535		218.46200		875.00000 
 43692.65567		 305.27265			43387.38302		68.70800		324.00000 
 43692.65567		 537.27032			43155.38535		218.46200		875.00000 
 43692.65567		 305.27265			43387.38302		68.70800		324.00000 
 43692.65567		 537.27032			43155.38535		218.46200		875.00000 
 43692.65567		 305.27265			43387.38302		68.70800		324.00000 
 43692.65567		 529.63254			43163.02313		218.46200		875.00000 
 43692.65567		 305.27265			43387.38302		68.70800		324.00000 
 43692.65567		 525.81365			43166.84203		218.46200		875.00000 
 43692.65567		 305.27265			43387.38302		68.70800		324.00000 
 43692.65567		 525.81365			43166.84203		218.46200		875.00000 
 43692.65567		 261.35540			43431.30027		68.70800		324.00000 
