Memory Total (MiB) 	 Memory Used (MiB) 	    Memory Free (MiB) 	 Power Drawed (W) 	 Clocks (Mhz) 	 
 43692.65567		 261.35540			43431.30027		187.00600		875.00000 
 43692.65567		 261.35540			43431.30027		69.65600		324.00000 
 43692.65567		 261.35540			43431.30027		187.00600		875.00000 
 43692.65567		 261.35540			43431.30027		69.65600		324.00000 
 43692.65567		 261.35540			43431.30027		187.00600		875.00000 
 43692.65567		 261.35540			43431.30027		69.65600		324.00000 
 43692.65567		 261.35540			43431.30027		187.00600		875.00000 
 43692.65567		 261.35540			43431.30027		69.65600		324.00000 
 43692.65567		 261.35540			43431.30027		187.00600		875.00000 
 43692.65567		 261.35540			43431.30027		69.65600		324.00000 
 43692.65567		 261.35540			43431.30027		187.00600		875.00000 
 43692.65567		 261.35540			43431.30027		69.65600		324.00000 
 43692.65567		 261.35540			43431.30027		187.00600		875.00000 
 43692.65567		 261.35540			43431.30027		69.65600		324.00000 
 43692.65567		 261.35540			43431.30027		187.00600		875.00000 
 43692.65567		 261.35540			43431.30027		69.65600		324.00000 
 43692.65567		 261.35540			43431.30027		187.00600		875.00000 
 43692.65567		 261.35540			43431.30027		69.65600		324.00000 
 43692.65567		 261.35540			43431.30027		187.00600		875.00000 
 43692.65567		 261.35540			43431.30027		69.65600		324.00000 
 43692.65567		 261.35540			43431.30027		187.00600		875.00000 
 43692.65567		 261.35540			43431.30027		69.65600		324.00000 
 43692.65567		 261.35540			43431.30027		187.00600		875.00000 
 43692.65567		 261.35540			43431.30027		69.65600		324.00000 
 43692.65567		 261.35540			43431.30027		187.00600		875.00000 
 43692.65567		 261.35540			43431.30027		69.65600		324.00000 
 43692.65567		 261.35540			43431.30027		187.00600		875.00000 
 43692.65567		 261.35540			43431.30027		69.65600		324.00000 
 43692.65567		 261.35540			43431.30027		187.00600		875.00000 
 43692.65567		 261.35540			43431.30027		69.65600		324.00000 
 43692.65567		 261.35540			43431.30027		187.00600		875.00000 
 43692.65567		 261.35540			43431.30027		69.65600		324.00000 
 43692.65567		 261.35540			43431.30027		187.00600		875.00000 
 43692.65567		 261.35540			43431.30027		69.65600		324.00000 
 43692.65567		 265.17429			43427.48138		187.00600		875.00000 
 43692.65567		 261.35540			43431.30027		69.65600		324.00000 
 43692.65567		 265.17429			43427.48138		187.00600		875.00000 
 43692.65567		 261.35540			43431.30027		69.65600		324.00000 
 43692.65567		 272.81207			43419.84360		187.00600		875.00000 
 43692.65567		 261.35540			43431.30027		69.65600		324.00000 
 43692.65567		 272.81207			43419.84360		187.00600		875.00000 
 43692.65567		 261.35540			43431.30027		69.65600		324.00000 
 43692.65567		 272.81207			43419.84360		187.00600		875.00000 
 43692.65567		 265.17429			43427.48138		69.65600		324.00000 
 43692.65567		 272.81207			43419.84360		187.00600		875.00000 
 43692.65567		 265.17429			43427.48138		69.65600		324.00000 
 43692.65567		 272.81207			43419.84360		152.89200		875.00000 
 43692.65567		 265.17429			43427.48138		69.65600		324.00000 
 43692.65567		 272.81207			43419.84360		152.89200		875.00000 
 43692.65567		 272.81207			43419.84360		69.65600		324.00000 
 43692.65567		 272.81207			43419.84360		152.89200		875.00000 
 43692.65567		 272.81207			43419.84360		69.65600		324.00000 
 43692.65567		 272.81207			43419.84360		152.89200		875.00000 
 43692.65567		 272.81207			43419.84360		69.65600		324.00000 
 43692.65567		 305.27265			43387.38302		152.89200		875.00000 
 43692.65567		 305.27265			43387.38302		69.65600		324.00000 
 43692.65567		 305.27265			43387.38302		152.89200		875.00000 
 43692.65567		 305.27265			43387.38302		69.65600		324.00000 
 43692.65567		 305.27265			43387.38302		152.89200		875.00000 
 43692.65567		 305.27265			43387.38302		69.65600		324.00000 
 43692.65567		 305.27265			43387.38302		152.89200		875.00000 
 43692.65567		 305.27265			43387.38302		69.65600		324.00000 
 43692.65567		 305.27265			43387.38302		152.89200		875.00000 
 43692.65567		 305.27265			43387.38302		69.65600		324.00000 
 43692.65567		 309.56891			43383.08677		152.89200		875.00000 
 43692.65567		 305.27265			43387.38302		69.65600		324.00000 
 43692.65567		 311.00099			43381.65468		152.89200		875.00000 
 43692.65567		 305.27265			43387.38302		69.65600		324.00000 
 43692.65567		 311.00099			43381.65468		152.89200		875.00000 
 43692.65567		 305.27265			43387.38302		69.65600		324.00000 
 43692.65567		 311.00099			43381.65468		152.89200		875.00000 
 43692.65567		 305.27265			43387.38302		69.65600		324.00000 
 43692.65567		 311.00099			43381.65468		152.89200		875.00000 
 43692.65567		 305.27265			43387.38302		69.65600		324.00000 
 43692.65567		 311.00099			43381.65468		152.89200		875.00000 
 43692.65567		 305.27265			43387.38302		69.65600		324.00000 
 43692.65567		 311.00099			43381.65468		152.89200		875.00000 
 43692.65567		 305.27265			43387.38302		69.65600		324.00000 
 43692.65567		 311.00099			43381.65468		152.89200		875.00000 
 43692.65567		 305.27265			43387.38302		69.65600		324.00000 
 43692.65567		 311.00099			43381.65468		152.89200		875.00000 
 43692.65567		 305.27265			43387.38302		69.65600		324.00000 
 43692.65567		 311.00099			43381.65468		152.89200		875.00000 
 43692.65567		 305.27265			43387.38302		69.65600		324.00000 
 43692.65567		 311.00099			43381.65468		152.89200		875.00000 
 43692.65567		 305.27265			43387.38302		69.65600		324.00000 
 43692.65567		 311.00099			43381.65468		152.89200		875.00000 
 43692.65567		 305.27265			43387.38302		69.65600		324.00000 
 43692.65567		 311.00099			43381.65468		152.89200		875.00000 
 43692.65567		 305.27265			43387.38302		69.65600		324.00000 
 43692.65567		 311.00099			43381.65468		152.89200		875.00000 
 43692.65567		 305.27265			43387.38302		69.65600		324.00000 
 43692.65567		 311.00099			43381.65468		152.89200		875.00000 
 43692.65567		 305.27265			43387.38302		69.65600		324.00000 
 43692.65567		 311.00099			43381.65468		152.89200		875.00000 
 43692.65567		 305.27265			43387.38302		69.65600		324.00000 
 43692.65567		 311.00099			43381.65468		152.89200		875.00000 
 43692.65567		 305.27265			43387.38302		69.65600		324.00000 
 43692.65567		 311.00099			43381.65468		152.89200		875.00000 
 43692.65567		 305.27265			43387.38302		69.65600		324.00000 
 43692.65567		 311.00099			43381.65468		152.89200		875.00000 
 43692.65567		 305.27265			43387.38302		69.65600		324.00000 
 43692.65567		 311.00099			43381.65468		152.89200		875.00000 
 43692.65567		 305.27265			43387.38302		69.65600		324.00000 
 43692.65567		 311.00099			43381.65468		152.89200		875.00000 
 43692.65567		 305.27265			43387.38302		69.65600		324.00000 
 43692.65567		 311.00099			43381.65468		152.89200		875.00000 
 43692.65567		 305.27265			43387.38302		69.65600		324.00000 
 43692.65567		 311.00099			43381.65468		152.89200		875.00000 
 43692.65567		 305.27265			43387.38302		69.65600		324.00000 
 43692.65567		 311.00099			43381.65468		152.89200		875.00000 
 43692.65567		 305.27265			43387.38302		69.65600		324.00000 
 43692.65567		 311.00099			43381.65468		139.24800		875.00000 
 43692.65567		 305.27265			43387.38302		69.65600		324.00000 
 43692.65567		 311.00099			43381.65468		139.24800		875.00000 
 43692.65567		 305.27265			43387.38302		69.65600		324.00000 
 43692.65567		 311.00099			43381.65468		139.24800		875.00000 
 43692.65567		 305.27265			43387.38302		69.65600		324.00000 
 43692.65567		 311.00099			43381.65468		139.24800		875.00000 
 43692.65567		 305.27265			43387.38302		69.65600		324.00000 
 43692.65567		 311.00099			43381.65468		139.24800		875.00000 
 43692.65567		 305.27265			43387.38302		69.65600		324.00000 
 43692.65567		 311.00099			43381.65468		139.24800		875.00000 
 43692.65567		 305.27265			43387.38302		69.65600		324.00000 
 43692.65567		 311.00099			43381.65468		139.24800		875.00000 
 43692.65567		 305.27265			43387.38302		66.22000		324.00000 
 43692.65567		 311.00099			43381.65468		139.24800		875.00000 
 43692.65567		 305.27265			43387.38302		66.22000		324.00000 
 43692.65567		 311.00099			43381.65468		139.24800		875.00000 
 43692.65567		 305.27265			43387.38302		66.22000		324.00000 
 43692.65567		 311.00099			43381.65468		139.24800		875.00000 
 43692.65567		 305.27265			43387.38302		66.22000		324.00000 
 43692.65567		 311.00099			43381.65468		139.24800		875.00000 
 43692.65567		 305.27265			43387.38302		66.22000		324.00000 
 43692.65567		 311.00099			43381.65468		139.24800		875.00000 
 43692.65567		 305.27265			43387.38302		66.22000		324.00000 
 43692.65567		 311.00099			43381.65468		139.24800		875.00000 
 43692.65567		 305.27265			43387.38302		66.22000		324.00000 
 43692.65567		 311.00099			43381.65468		139.24800		875.00000 
 43692.65567		 305.27265			43387.38302		66.22000		324.00000 
 43692.65567		 311.00099			43381.65468		139.24800		875.00000 
 43692.65567		 305.27265			43387.38302		66.22000		324.00000 
 43692.65567		 311.00099			43381.65468		139.24800		875.00000 
 43692.65567		 305.27265			43387.38302		66.22000		324.00000 
 43692.65567		 311.00099			43381.65468		139.24800		875.00000 
 43692.65567		 305.27265			43387.38302		66.22000		324.00000 
 43692.65567		 311.00099			43381.65468		139.24800		875.00000 
 43692.65567		 305.27265			43387.38302		66.22000		324.00000 
 43692.65567		 311.00099			43381.65468		139.24800		875.00000 
 43692.65567		 305.27265			43387.38302		66.22000		324.00000 
 43692.65567		 311.00099			43381.65468		139.24800		875.00000 
 43692.65567		 305.27265			43387.38302		66.22000		324.00000 
 43692.65567		 311.00099			43381.65468		139.24800		875.00000 
 43692.65567		 305.27265			43387.38302		66.22000		324.00000 
 43692.65567		 311.00099			43381.65468		139.24800		875.00000 
 43692.65567		 305.27265			43387.38302		66.22000		324.00000 
 43692.65567		 311.00099			43381.65468		139.24800		875.00000 
 43692.65567		 305.27265			43387.38302		66.22000		324.00000 
 43692.65567		 311.00099			43381.65468		139.24800		875.00000 
 43692.65567		 305.27265			43387.38302		66.22000		324.00000 
 43692.65567		 311.00099			43381.65468		139.24800		875.00000 
 43692.65567		 305.27265			43387.38302		66.22000		324.00000 
 43692.65567		 311.00099			43381.65468		139.24800		875.00000 
 43692.65567		 305.27265			43387.38302		66.22000		324.00000 
 43692.65567		 314.81988			43377.83579		139.24800		875.00000 
 43692.65567		 305.27265			43387.38302		66.22000		324.00000 
 43692.65567		 314.81988			43377.83579		139.24800		875.00000 
 43692.65567		 305.27265			43387.38302		66.22000		324.00000 
 43692.65567		 314.81988			43377.83579		139.24800		875.00000 
 43692.65567		 305.27265			43387.38302		66.22000		324.00000 
 43692.65567		 318.63877			43374.01690		139.24800		875.00000 
 43692.65567		 305.27265			43387.38302		66.22000		324.00000 
 43692.65567		 322.45767			43370.19801		139.24800		875.00000 
 43692.65567		 305.27265			43387.38302		66.22000		324.00000 
 43692.65567		 326.27656			43366.37912		135.03600		875.00000 
 43692.65567		 305.27265			43387.38302		66.22000		324.00000 
 43692.65567		 537.27032			43155.38535		135.03600		875.00000 
 43692.65567		 305.27265			43387.38302		66.22000		324.00000 
 43692.65567		 599.80467			43092.85100		135.03600		875.00000 
 43692.65567		 305.27265			43387.38302		66.22000		324.00000 
 43692.65567		 724.87338			42967.78230		135.03600		875.00000 
 43692.65567		 305.27265			43387.38302		66.22000		324.00000 
 43692.65567		 724.87338			42967.78230		135.03600		875.00000 
 43692.65567		 305.27265			43387.38302		66.22000		324.00000 
 43692.65567		 724.87338			42967.78230		135.03600		875.00000 
 43692.65567		 305.27265			43387.38302		66.22000		324.00000 
 43692.65567		 724.87338			42967.78230		135.03600		875.00000 
 43692.65567		 305.27265			43387.38302		66.22000		324.00000 
 43692.65567		 724.87338			42967.78230		135.03600		875.00000 
 43692.65567		 305.27265			43387.38302		66.22000		324.00000 
 43692.65567		 724.87338			42967.78230		135.03600		875.00000 
 43692.65567		 305.27265			43387.38302		66.22000		324.00000 
 43692.65567		 724.87338			42967.78230		135.03600		875.00000 
 43692.65567		 305.27265			43387.38302		66.22000		324.00000 
 43692.65567		 724.87338			42967.78230		135.03600		875.00000 
 43692.65567		 305.27265			43387.38302		66.22000		324.00000 
 43692.65567		 724.87338			42967.78230		135.03600		875.00000 
 43692.65567		 305.27265			43387.38302		66.22000		324.00000 
 43692.65567		 724.87338			42967.78230		135.03600		875.00000 
 43692.65567		 305.27265			43387.38302		66.22000		324.00000 
 43692.65567		 724.87338			42967.78230		135.03600		875.00000 
 43692.65567		 305.27265			43387.38302		66.22000		324.00000 
 43692.65567		 724.87338			42967.78230		135.03600		875.00000 
 43692.65567		 305.27265			43387.38302		66.22000		324.00000 
 43692.65567		 724.87338			42967.78230		135.03600		875.00000 
 43692.65567		 305.27265			43387.38302		66.22000		324.00000 
 43692.65567		 724.87338			42967.78230		135.03600		875.00000 
 43692.65567		 305.27265			43387.38302		66.22000		324.00000 
 43692.65567		 724.87338			42967.78230		135.03600		875.00000 
 43692.65567		 305.27265			43387.38302		66.22000		324.00000 
 43692.65567		 724.87338			42967.78230		135.03600		875.00000 
 43692.65567		 305.27265			43387.38302		66.22000		324.00000 
 43692.65567		 724.87338			42967.78230		135.03600		875.00000 
 43692.65567		 305.27265			43387.38302		66.22000		324.00000 
 43692.65567		 724.87338			42967.78230		135.03600		875.00000 
 43692.65567		 305.27265			43387.38302		66.22000		324.00000 
 43692.65567		 724.87338			42967.78230		135.03600		875.00000 
 43692.65567		 305.27265			43387.38302		66.22000		324.00000 
 43692.65567		 724.87338			42967.78230		135.03600		875.00000 
 43692.65567		 305.27265			43387.38302		66.22000		324.00000 
 43692.65567		 724.87338			42967.78230		135.03600		875.00000 
 43692.65567		 305.27265			43387.38302		66.22000		324.00000 
 43692.65567		 724.87338			42967.78230		135.03600		875.00000 
 43692.65567		 305.27265			43387.38302		66.22000		324.00000 
 43692.65567		 724.87338			42967.78230		135.03600		875.00000 
 43692.65567		 305.27265			43387.38302		66.22000		324.00000 
 43692.65567		 724.87338			42967.78230		135.03600		875.00000 
 43692.65567		 305.27265			43387.38302		66.22000		324.00000 
 43692.65567		 724.87338			42967.78230		135.03600		875.00000 
 43692.65567		 305.27265			43387.38302		66.22000		324.00000 
 43692.65567		 724.87338			42967.78230		135.03600		875.00000 
 43692.65567		 305.27265			43387.38302		66.22000		324.00000 
 43692.65567		 724.87338			42967.78230		135.03600		875.00000 
 43692.65567		 305.27265			43387.38302		66.22000		324.00000 
 43692.65567		 724.87338			42967.78230		135.03600		875.00000 
 43692.65567		 305.27265			43387.38302		66.22000		324.00000 
 43692.65567		 724.87338			42967.78230		135.03600		875.00000 
 43692.65567		 305.27265			43387.38302		66.22000		324.00000 
 43692.65567		 724.87338			42967.78230		135.03600		875.00000 
 43692.65567		 305.27265			43387.38302		66.22000		324.00000 
 43692.65567		 724.87338			42967.78230		135.03600		875.00000 
 43692.65567		 305.27265			43387.38302		66.22000		324.00000 
 43692.65567		 724.87338			42967.78230		135.03600		875.00000 
 43692.65567		 305.27265			43387.38302		66.22000		324.00000 
 43692.65567		 724.87338			42967.78230		135.03600		875.00000 
 43692.65567		 305.27265			43387.38302		66.22000		324.00000 
 43692.65567		 724.87338			42967.78230		135.03600		875.00000 
 43692.65567		 305.27265			43387.38302		66.22000		324.00000 
 43692.65567		 724.87338			42967.78230		135.03600		875.00000 
 43692.65567		 305.27265			43387.38302		66.22000		324.00000 
 43692.65567		 724.87338			42967.78230		135.03600		875.00000 
 43692.65567		 305.27265			43387.38302		66.22000		324.00000 
 43692.65567		 724.87338			42967.78230		135.03600		875.00000 
 43692.65567		 305.27265			43387.38302		66.22000		324.00000 
 43692.65567		 724.87338			42967.78230		135.03600		875.00000 
 43692.65567		 305.27265			43387.38302		66.22000		324.00000 
 43692.65567		 724.87338			42967.78230		135.03600		875.00000 
 43692.65567		 305.27265			43387.38302		66.22000		324.00000 
 43692.65567		 724.87338			42967.78230		135.03600		875.00000 
 43692.65567		 305.27265			43387.38302		66.22000		324.00000 
 43692.65567		 724.87338			42967.78230		135.03600		875.00000 
 43692.65567		 305.27265			43387.38302		66.22000		324.00000 
 43692.65567		 724.87338			42967.78230		135.03600		875.00000 
 43692.65567		 305.27265			43387.38302		66.22000		324.00000 
 43692.65567		 724.87338			42967.78230		135.03600		875.00000 
 43692.65567		 305.27265			43387.38302		66.22000		324.00000 
 43692.65567		 724.87338			42967.78230		135.03600		875.00000 
 43692.65567		 305.27265			43387.38302		66.22000		324.00000 
 43692.65567		 724.87338			42967.78230		135.03600		875.00000 
 43692.65567		 305.27265			43387.38302		66.22000		324.00000 
 43692.65567		 724.87338			42967.78230		135.03600		875.00000 
 43692.65567		 305.27265			43387.38302		66.22000		324.00000 
 43692.65567		 724.87338			42967.78230		135.03600		875.00000 
 43692.65567		 305.27265			43387.38302		66.22000		324.00000 
 43692.65567		 724.87338			42967.78230		135.03600		875.00000 
 43692.65567		 305.27265			43387.38302		66.22000		324.00000 
 43692.65567		 724.87338			42967.78230		135.03600		875.00000 
 43692.65567		 305.27265			43387.38302		66.22000		324.00000 
 43692.65567		 724.87338			42967.78230		135.03600		875.00000 
 43692.65567		 305.27265			43387.38302		66.22000		324.00000 
 43692.65567		 724.87338			42967.78230		135.03600		875.00000 
 43692.65567		 305.27265			43387.38302		66.22000		324.00000 
 43692.65567		 724.87338			42967.78230		135.03600		875.00000 
 43692.65567		 305.27265			43387.38302		66.22000		324.00000 
 43692.65567		 724.87338			42967.78230		135.03600		875.00000 
 43692.65567		 305.27265			43387.38302		66.22000		324.00000 
 43692.65567		 724.87338			42967.78230		135.03600		875.00000 
 43692.65567		 305.27265			43387.38302		66.22000		324.00000 
 43692.65567		 724.87338			42967.78230		135.03600		875.00000 
 43692.65567		 305.27265			43387.38302		66.22000		324.00000 
 43692.65567		 724.87338			42967.78230		135.03600		875.00000 
 43692.65567		 305.27265			43387.38302		66.22000		324.00000 
 43692.65567		 724.87338			42967.78230		135.03600		875.00000 
 43692.65567		 305.27265			43387.38302		66.22000		324.00000 
 43692.65567		 724.87338			42967.78230		135.03600		875.00000 
 43692.65567		 305.27265			43387.38302		66.22000		324.00000 
 43692.65567		 724.87338			42967.78230		135.03600		875.00000 
 43692.65567		 305.27265			43387.38302		66.22000		324.00000 
 43692.65567		 724.87338			42967.78230		185.24800		875.00000 
 43692.65567		 305.27265			43387.38302		66.22000		324.00000 
 43692.65567		 724.87338			42967.78230		185.24800		875.00000 
 43692.65567		 305.27265			43387.38302		66.22000		324.00000 
 43692.65567		 724.87338			42967.78230		185.24800		875.00000 
 43692.65567		 305.27265			43387.38302		66.22000		324.00000 
 43692.65567		 724.87338			42967.78230		185.24800		875.00000 
 43692.65567		 305.27265			43387.38302		66.22000		324.00000 
 43692.65567		 724.87338			42967.78230		185.24800		875.00000 
 43692.65567		 305.27265			43387.38302		66.22000		324.00000 
 43692.65567		 724.87338			42967.78230		185.24800		875.00000 
 43692.65567		 305.27265			43387.38302		66.22000		324.00000 
 43692.65567		 724.87338			42967.78230		185.24800		875.00000 
 43692.65567		 305.27265			43387.38302		66.22000		324.00000 
 43692.65567		 724.87338			42967.78230		185.24800		875.00000 
 43692.65567		 305.27265			43387.38302		66.22000		324.00000 
 43692.65567		 724.87338			42967.78230		185.24800		875.00000 
 43692.65567		 305.27265			43387.38302		66.22000		324.00000 
 43692.65567		 724.87338			42967.78230		185.24800		875.00000 
 43692.65567		 305.27265			43387.38302		66.22000		324.00000 
 43692.65567		 724.87338			42967.78230		185.24800		875.00000 
 43692.65567		 305.27265			43387.38302		66.22000		324.00000 
 43692.65567		 724.87338			42967.78230		185.24800		875.00000 
 43692.65567		 305.27265			43387.38302		66.22000		324.00000 
 43692.65567		 724.87338			42967.78230		185.24800		875.00000 
 43692.65567		 305.27265			43387.38302		66.22000		324.00000 
 43692.65567		 724.87338			42967.78230		185.24800		875.00000 
 43692.65567		 305.27265			43387.38302		66.22000		324.00000 
 43692.65567		 724.87338			42967.78230		185.24800		875.00000 
 43692.65567		 305.27265			43387.38302		66.22000		324.00000 
 43692.65567		 724.87338			42967.78230		185.24800		875.00000 
 43692.65567		 305.27265			43387.38302		66.22000		324.00000 
 43692.65567		 724.87338			42967.78230		185.24800		875.00000 
 43692.65567		 305.27265			43387.38302		66.22000		324.00000 
 43692.65567		 724.87338			42967.78230		185.24800		875.00000 
 43692.65567		 305.27265			43387.38302		66.22000		324.00000 
 43692.65567		 724.87338			42967.78230		185.24800		875.00000 
 43692.65567		 305.27265			43387.38302		66.22000		324.00000 
 43692.65567		 724.87338			42967.78230		185.24800		875.00000 
 43692.65567		 305.27265			43387.38302		66.22000		324.00000 
 43692.65567		 724.87338			42967.78230		185.24800		875.00000 
 43692.65567		 305.27265			43387.38302		66.22000		324.00000 
 43692.65567		 724.87338			42967.78230		185.24800		875.00000 
 43692.65567		 305.27265			43387.38302		66.22000		324.00000 
 43692.65567		 724.87338			42967.78230		185.24800		875.00000 
 43692.65567		 305.27265			43387.38302		66.22000		324.00000 
 43692.65567		 724.87338			42967.78230		185.24800		875.00000 
 43692.65567		 305.27265			43387.38302		66.22000		324.00000 
 43692.65567		 724.87338			42967.78230		185.24800		875.00000 
 43692.65567		 305.27265			43387.38302		66.22000		324.00000 
 43692.65567		 724.87338			42967.78230		185.24800		875.00000 
 43692.65567		 305.27265			43387.38302		66.22000		324.00000 
 43692.65567		 724.87338			42967.78230		185.24800		875.00000 
 43692.65567		 305.27265			43387.38302		66.22000		324.00000 
 43692.65567		 724.87338			42967.78230		185.24800		875.00000 
 43692.65567		 305.27265			43387.38302		66.22000		324.00000 
 43692.65567		 724.87338			42967.78230		185.24800		875.00000 
 43692.65567		 305.27265			43387.38302		66.22000		324.00000 
 43692.65567		 724.87338			42967.78230		185.24800		875.00000 
 43692.65567		 305.27265			43387.38302		66.22000		324.00000 
 43692.65567		 724.87338			42967.78230		185.24800		875.00000 
 43692.65567		 305.27265			43387.38302		66.22000		324.00000 
 43692.65567		 724.87338			42967.78230		185.24800		875.00000 
 43692.65567		 305.27265			43387.38302		66.22000		324.00000 
 43692.65567		 724.87338			42967.78230		185.24800		875.00000 
 43692.65567		 305.27265			43387.38302		66.22000		324.00000 
 43692.65567		 724.87338			42967.78230		185.24800		875.00000 
 43692.65567		 305.27265			43387.38302		66.22000		324.00000 
 43692.65567		 724.87338			42967.78230		185.24800		875.00000 
 43692.65567		 305.27265			43387.38302		66.22000		324.00000 
 43692.65567		 724.87338			42967.78230		185.24800		875.00000 
 43692.65567		 305.27265			43387.38302		66.22000		324.00000 
 43692.65567		 724.87338			42967.78230		185.24800		875.00000 
 43692.65567		 305.27265			43387.38302		66.22000		324.00000 
 43692.65567		 724.87338			42967.78230		185.24800		875.00000 
 43692.65567		 305.27265			43387.38302		66.22000		324.00000 
 43692.65567		 724.87338			42967.78230		185.24800		875.00000 
 43692.65567		 305.27265			43387.38302		66.22000		324.00000 
 43692.65567		 724.87338			42967.78230		185.24800		875.00000 
 43692.65567		 305.27265			43387.38302		66.22000		324.00000 
 43692.65567		 724.87338			42967.78230		185.24800		875.00000 
 43692.65567		 305.27265			43387.38302		66.22000		324.00000 
 43692.65567		 724.87338			42967.78230		185.24800		875.00000 
 43692.65567		 305.27265			43387.38302		66.22000		324.00000 
 43692.65567		 724.87338			42967.78230		185.24800		875.00000 
 43692.65567		 305.27265			43387.38302		66.22000		324.00000 
 43692.65567		 724.87338			42967.78230		185.24800		875.00000 
 43692.65567		 305.27265			43387.38302		66.22000		324.00000 
 43692.65567		 724.87338			42967.78230		185.24800		875.00000 
 43692.65567		 305.27265			43387.38302		66.22000		324.00000 
 43692.65567		 724.87338			42967.78230		185.24800		875.00000 
 43692.65567		 305.27265			43387.38302		66.22000		324.00000 
 43692.65567		 724.87338			42967.78230		185.24800		875.00000 
 43692.65567		 305.27265			43387.38302		66.22000		324.00000 
 43692.65567		 724.87338			42967.78230		185.24800		875.00000 
 43692.65567		 305.27265			43387.38302		66.22000		324.00000 
 43692.65567		 724.87338			42967.78230		185.24800		875.00000 
 43692.65567		 305.27265			43387.38302		66.22000		324.00000 
 43692.65567		 724.87338			42967.78230		185.24800		875.00000 
 43692.65567		 305.27265			43387.38302		66.22000		324.00000 
 43692.65567		 724.87338			42967.78230		185.24800		875.00000 
 43692.65567		 305.27265			43387.38302		66.22000		324.00000 
 43692.65567		 724.87338			42967.78230		185.24800		875.00000 
 43692.65567		 305.27265			43387.38302		66.22000		324.00000 
 43692.65567		 724.87338			42967.78230		185.24800		875.00000 
 43692.65567		 305.27265			43387.38302		66.22000		324.00000 
 43692.65567		 724.87338			42967.78230		185.24800		875.00000 
 43692.65567		 305.27265			43387.38302		66.22000		324.00000 
 43692.65567		 724.87338			42967.78230		185.24800		875.00000 
 43692.65567		 305.27265			43387.38302		66.22000		324.00000 
 43692.65567		 724.87338			42967.78230		185.24800		875.00000 
 43692.65567		 305.27265			43387.38302		66.22000		324.00000 
 43692.65567		 724.87338			42967.78230		185.24800		875.00000 
 43692.65567		 305.27265			43387.38302		66.22000		324.00000 
 43692.65567		 724.87338			42967.78230		185.24800		875.00000 
 43692.65567		 305.27265			43387.38302		66.22000		324.00000 
 43692.65567		 724.87338			42967.78230		185.24800		875.00000 
 43692.65567		 305.27265			43387.38302		66.22000		324.00000 
 43692.65567		 724.87338			42967.78230		185.24800		875.00000 
 43692.65567		 305.27265			43387.38302		66.22000		324.00000 
 43692.65567		 724.87338			42967.78230		185.24800		875.00000 
 43692.65567		 305.27265			43387.38302		66.22000		324.00000 
 43692.65567		 724.87338			42967.78230		185.24800		875.00000 
 43692.65567		 305.27265			43387.38302		66.22000		324.00000 
 43692.65567		 724.87338			42967.78230		185.24800		875.00000 
 43692.65567		 305.27265			43387.38302		66.22000		324.00000 
 43692.65567		 724.87338			42967.78230		185.24800		875.00000 
 43692.65567		 305.27265			43387.38302		66.22000		324.00000 
 43692.65567		 724.87338			42967.78230		185.24800		875.00000 
 43692.65567		 305.27265			43387.38302		66.22000		324.00000 
 43692.65567		 724.87338			42967.78230		206.65200		875.00000 
 43692.65567		 305.27265			43387.38302		66.22000		324.00000 
 43692.65567		 724.87338			42967.78230		206.65200		875.00000 
 43692.65567		 305.27265			43387.38302		66.22000		324.00000 
 43692.65567		 724.87338			42967.78230		206.65200		875.00000 
 43692.65567		 305.27265			43387.38302		66.22000		324.00000 
 43692.65567		 724.87338			42967.78230		206.65200		875.00000 
 43692.65567		 305.27265			43387.38302		66.22000		324.00000 
 43692.65567		 724.87338			42967.78230		206.65200		875.00000 
 43692.65567		 305.27265			43387.38302		66.22000		324.00000 
 43692.65567		 724.87338			42967.78230		206.65200		875.00000 
 43692.65567		 305.27265			43387.38302		66.22000		324.00000 
 43692.65567		 724.87338			42967.78230		206.65200		875.00000 
 43692.65567		 305.27265			43387.38302		66.22000		324.00000 
 43692.65567		 724.87338			42967.78230		206.65200		875.00000 
 43692.65567		 305.27265			43387.38302		66.22000		324.00000 
 43692.65567		 724.87338			42967.78230		206.65200		875.00000 
 43692.65567		 305.27265			43387.38302		66.22000		324.00000 
 43692.65567		 724.87338			42967.78230		206.65200		875.00000 
 43692.65567		 305.27265			43387.38302		66.22000		324.00000 
 43692.65567		 724.87338			42967.78230		206.65200		875.00000 
 43692.65567		 305.27265			43387.38302		66.22000		324.00000 
 43692.65567		 724.87338			42967.78230		206.65200		875.00000 
 43692.65567		 305.27265			43387.38302		66.22000		324.00000 
 43692.65567		 724.87338			42967.78230		206.65200		875.00000 
 43692.65567		 305.27265			43387.38302		66.22000		324.00000 
 43692.65567		 724.87338			42967.78230		206.65200		875.00000 
 43692.65567		 305.27265			43387.38302		66.22000		324.00000 
 43692.65567		 724.87338			42967.78230		206.65200		875.00000 
 43692.65567		 305.27265			43387.38302		66.22000		324.00000 
 43692.65567		 724.87338			42967.78230		206.65200		875.00000 
 43692.65567		 305.27265			43387.38302		66.22000		324.00000 
 43692.65567		 724.87338			42967.78230		206.65200		875.00000 
 43692.65567		 305.27265			43387.38302		66.22000		324.00000 
 43692.65567		 724.87338			42967.78230		206.65200		875.00000 
 43692.65567		 305.27265			43387.38302		66.22000		324.00000 
 43692.65567		 724.87338			42967.78230		206.65200		875.00000 
 43692.65567		 305.27265			43387.38302		66.22000		324.00000 
 43692.65567		 724.87338			42967.78230		206.65200		875.00000 
 43692.65567		 305.27265			43387.38302		66.22000		324.00000 
 43692.65567		 724.87338			42967.78230		206.65200		875.00000 
 43692.65567		 305.27265			43387.38302		66.22000		324.00000 
 43692.65567		 724.87338			42967.78230		206.65200		875.00000 
 43692.65567		 305.27265			43387.38302		66.22000		324.00000 
 43692.65567		 724.87338			42967.78230		206.65200		875.00000 
 43692.65567		 305.27265			43387.38302		66.22000		324.00000 
 43692.65567		 724.87338			42967.78230		206.65200		875.00000 
 43692.65567		 305.27265			43387.38302		66.22000		324.00000 
 43692.65567		 724.87338			42967.78230		206.65200		875.00000 
 43692.65567		 305.27265			43387.38302		66.22000		324.00000 
 43692.65567		 724.87338			42967.78230		206.65200		875.00000 
 43692.65567		 305.27265			43387.38302		66.22000		324.00000 
 43692.65567		 724.87338			42967.78230		206.65200		875.00000 
 43692.65567		 305.27265			43387.38302		66.22000		324.00000 
 43692.65567		 724.87338			42967.78230		206.65200		875.00000 
 43692.65567		 305.27265			43387.38302		66.22000		324.00000 
 43692.65567		 724.87338			42967.78230		206.65200		875.00000 
 43692.65567		 305.27265			43387.38302		66.22000		324.00000 
 43692.65567		 724.87338			42967.78230		206.65200		875.00000 
 43692.65567		 305.27265			43387.38302		66.22000		324.00000 
 43692.65567		 724.87338			42967.78230		206.65200		875.00000 
 43692.65567		 305.27265			43387.38302		66.22000		324.00000 
 43692.65567		 724.87338			42967.78230		206.65200		875.00000 
 43692.65567		 305.27265			43387.38302		66.22000		324.00000 
 43692.65567		 724.87338			42967.78230		206.65200		875.00000 
 43692.65567		 305.27265			43387.38302		66.22000		324.00000 
 43692.65567		 724.87338			42967.78230		206.65200		875.00000 
 43692.65567		 305.27265			43387.38302		66.22000		324.00000 
 43692.65567		 724.87338			42967.78230		206.65200		875.00000 
 43692.65567		 305.27265			43387.38302		66.22000		324.00000 
 43692.65567		 724.87338			42967.78230		206.65200		875.00000 
 43692.65567		 305.27265			43387.38302		66.22000		324.00000 
 43692.65567		 724.87338			42967.78230		206.65200		875.00000 
 43692.65567		 305.27265			43387.38302		66.22000		324.00000 
 43692.65567		 724.87338			42967.78230		206.65200		875.00000 
 43692.65567		 305.27265			43387.38302		66.22000		324.00000 
 43692.65567		 724.87338			42967.78230		206.65200		875.00000 
 43692.65567		 305.27265			43387.38302		66.22000		324.00000 
 43692.65567		 724.87338			42967.78230		206.65200		875.00000 
 43692.65567		 305.27265			43387.38302		66.22000		324.00000 
 43692.65567		 724.87338			42967.78230		206.65200		875.00000 
 43692.65567		 305.27265			43387.38302		66.22000		324.00000 
 43692.65567		 724.87338			42967.78230		206.65200		875.00000 
 43692.65567		 305.27265			43387.38302		66.22000		324.00000 
 43692.65567		 724.87338			42967.78230		206.65200		875.00000 
 43692.65567		 305.27265			43387.38302		66.22000		324.00000 
 43692.65567		 724.87338			42967.78230		206.65200		875.00000 
 43692.65567		 305.27265			43387.38302		66.22000		324.00000 
 43692.65567		 724.87338			42967.78230		206.65200		875.00000 
 43692.65567		 305.27265			43387.38302		66.22000		324.00000 
 43692.65567		 724.87338			42967.78230		206.65200		875.00000 
 43692.65567		 305.27265			43387.38302		66.22000		324.00000 
 43692.65567		 724.87338			42967.78230		206.65200		875.00000 
 43692.65567		 305.27265			43387.38302		66.22000		324.00000 
 43692.65567		 724.87338			42967.78230		206.65200		875.00000 
 43692.65567		 305.27265			43387.38302		66.22000		324.00000 
 43692.65567		 724.87338			42967.78230		206.65200		875.00000 
 43692.65567		 305.27265			43387.38302		66.22000		324.00000 
 43692.65567		 724.87338			42967.78230		206.65200		875.00000 
 43692.65567		 305.27265			43387.38302		66.22000		324.00000 
 43692.65567		 724.87338			42967.78230		206.65200		875.00000 
 43692.65567		 305.27265			43387.38302		66.22000		324.00000 
 43692.65567		 724.87338			42967.78230		206.65200		875.00000 
 43692.65567		 305.27265			43387.38302		66.22000		324.00000 
 43692.65567		 724.87338			42967.78230		206.65200		875.00000 
 43692.65567		 305.27265			43387.38302		66.22000		324.00000 
 43692.65567		 724.87338			42967.78230		206.65200		875.00000 
 43692.65567		 305.27265			43387.38302		66.22000		324.00000 
 43692.65567		 724.87338			42967.78230		206.65200		875.00000 
 43692.65567		 305.27265			43387.38302		66.22000		324.00000 
 43692.65567		 724.87338			42967.78230		206.65200		875.00000 
 43692.65567		 305.27265			43387.38302		66.22000		324.00000 
 43692.65567		 724.87338			42967.78230		206.65200		875.00000 
 43692.65567		 305.27265			43387.38302		66.22000		324.00000 
 43692.65567		 724.87338			42967.78230		206.65200		875.00000 
 43692.65567		 305.27265			43387.38302		66.22000		324.00000 
 43692.65567		 724.87338			42967.78230		206.65200		875.00000 
 43692.65567		 305.27265			43387.38302		66.22000		324.00000 
 43692.65567		 724.87338			42967.78230		214.42400		875.00000 
 43692.65567		 305.27265			43387.38302		66.22000		324.00000 
 43692.65567		 724.87338			42967.78230		214.42400		875.00000 
 43692.65567		 305.27265			43387.38302		66.22000		324.00000 
 43692.65567		 724.87338			42967.78230		214.42400		875.00000 
 43692.65567		 305.27265			43387.38302		66.22000		324.00000 
 43692.65567		 724.87338			42967.78230		214.42400		875.00000 
 43692.65567		 305.27265			43387.38302		66.22000		324.00000 
 43692.65567		 724.87338			42967.78230		214.42400		875.00000 
 43692.65567		 305.27265			43387.38302		66.22000		324.00000 
 43692.65567		 724.87338			42967.78230		214.42400		875.00000 
 43692.65567		 305.27265			43387.38302		66.22000		324.00000 
 43692.65567		 724.87338			42967.78230		214.42400		875.00000 
 43692.65567		 305.27265			43387.38302		66.22000		324.00000 
 43692.65567		 724.87338			42967.78230		214.42400		875.00000 
 43692.65567		 305.27265			43387.38302		66.22000		324.00000 
 43692.65567		 724.87338			42967.78230		214.42400		875.00000 
 43692.65567		 305.27265			43387.38302		66.22000		324.00000 
 43692.65567		 724.87338			42967.78230		214.42400		875.00000 
 43692.65567		 305.27265			43387.38302		66.22000		324.00000 
 43692.65567		 724.87338			42967.78230		214.42400		875.00000 
 43692.65567		 305.27265			43387.38302		66.22000		324.00000 
 43692.65567		 724.87338			42967.78230		214.42400		875.00000 
 43692.65567		 305.27265			43387.38302		66.22000		324.00000 
 43692.65567		 724.87338			42967.78230		214.42400		875.00000 
 43692.65567		 305.27265			43387.38302		66.22000		324.00000 
 43692.65567		 724.87338			42967.78230		214.42400		875.00000 
 43692.65567		 305.27265			43387.38302		66.22000		324.00000 
 43692.65567		 724.87338			42967.78230		214.42400		875.00000 
 43692.65567		 305.27265			43387.38302		66.22000		324.00000 
 43692.65567		 724.87338			42967.78230		214.42400		875.00000 
 43692.65567		 305.27265			43387.38302		66.22000		324.00000 
 43692.65567		 724.87338			42967.78230		214.42400		875.00000 
 43692.65567		 305.27265			43387.38302		66.22000		324.00000 
 43692.65567		 724.87338			42967.78230		214.42400		875.00000 
 43692.65567		 305.27265			43387.38302		66.22000		324.00000 
 43692.65567		 724.87338			42967.78230		214.42400		875.00000 
 43692.65567		 305.27265			43387.38302		66.22000		324.00000 
 43692.65567		 724.87338			42967.78230		214.42400		875.00000 
 43692.65567		 305.27265			43387.38302		66.22000		324.00000 
 43692.65567		 724.87338			42967.78230		214.42400		875.00000 
 43692.65567		 305.27265			43387.38302		66.22000		324.00000 
 43692.65567		 724.87338			42967.78230		214.42400		875.00000 
 43692.65567		 305.27265			43387.38302		66.22000		324.00000 
 43692.65567		 724.87338			42967.78230		214.42400		875.00000 
 43692.65567		 305.27265			43387.38302		66.22000		324.00000 
 43692.65567		 724.87338			42967.78230		214.42400		875.00000 
 43692.65567		 305.27265			43387.38302		66.22000		324.00000 
 43692.65567		 724.87338			42967.78230		214.42400		875.00000 
 43692.65567		 305.27265			43387.38302		66.22000		324.00000 
 43692.65567		 724.87338			42967.78230		214.42400		875.00000 
 43692.65567		 305.27265			43387.38302		66.22000		324.00000 
 43692.65567		 724.87338			42967.78230		214.42400		875.00000 
 43692.65567		 305.27265			43387.38302		66.22000		324.00000 
 43692.65567		 724.87338			42967.78230		214.42400		875.00000 
 43692.65567		 305.27265			43387.38302		66.22000		324.00000 
 43692.65567		 724.87338			42967.78230		214.42400		875.00000 
 43692.65567		 305.27265			43387.38302		66.22000		324.00000 
 43692.65567		 724.87338			42967.78230		214.42400		875.00000 
 43692.65567		 305.27265			43387.38302		66.22000		324.00000 
 43692.65567		 724.87338			42967.78230		214.42400		875.00000 
 43692.65567		 305.27265			43387.38302		66.22000		324.00000 
 43692.65567		 724.87338			42967.78230		214.42400		875.00000 
 43692.65567		 305.27265			43387.38302		66.22000		324.00000 
 43692.65567		 724.87338			42967.78230		214.42400		875.00000 
 43692.65567		 305.27265			43387.38302		66.22000		324.00000 
 43692.65567		 724.87338			42967.78230		214.42400		875.00000 
 43692.65567		 305.27265			43387.38302		66.22000		324.00000 
 43692.65567		 724.87338			42967.78230		214.42400		875.00000 
 43692.65567		 305.27265			43387.38302		66.22000		324.00000 
 43692.65567		 724.87338			42967.78230		214.42400		875.00000 
 43692.65567		 305.27265			43387.38302		66.22000		324.00000 
 43692.65567		 724.87338			42967.78230		214.42400		875.00000 
 43692.65567		 305.27265			43387.38302		66.22000		324.00000 
 43692.65567		 724.87338			42967.78230		214.42400		875.00000 
 43692.65567		 305.27265			43387.38302		66.22000		324.00000 
 43692.65567		 724.87338			42967.78230		214.42400		875.00000 
 43692.65567		 305.27265			43387.38302		66.22000		324.00000 
 43692.65567		 724.87338			42967.78230		214.42400		875.00000 
 43692.65567		 305.27265			43387.38302		66.22000		324.00000 
 43692.65567		 724.87338			42967.78230		214.42400		875.00000 
 43692.65567		 305.27265			43387.38302		66.22000		324.00000 
 43692.65567		 724.87338			42967.78230		214.42400		875.00000 
 43692.65567		 305.27265			43387.38302		66.22000		324.00000 
 43692.65567		 724.87338			42967.78230		214.42400		875.00000 
 43692.65567		 305.27265			43387.38302		66.22000		324.00000 
 43692.65567		 724.87338			42967.78230		214.42400		875.00000 
 43692.65567		 305.27265			43387.38302		66.22000		324.00000 
 43692.65567		 724.87338			42967.78230		214.42400		875.00000 
 43692.65567		 305.27265			43387.38302		66.22000		324.00000 
 43692.65567		 724.87338			42967.78230		214.42400		875.00000 
 43692.65567		 305.27265			43387.38302		66.22000		324.00000 
 43692.65567		 724.87338			42967.78230		214.42400		875.00000 
 43692.65567		 305.27265			43387.38302		66.22000		324.00000 
 43692.65567		 724.87338			42967.78230		214.42400		875.00000 
 43692.65567		 305.27265			43387.38302		66.22000		324.00000 
 43692.65567		 724.87338			42967.78230		214.42400		875.00000 
 43692.65567		 305.27265			43387.38302		66.22000		324.00000 
 43692.65567		 724.87338			42967.78230		214.42400		875.00000 
 43692.65567		 305.27265			43387.38302		66.22000		324.00000 
 43692.65567		 724.87338			42967.78230		214.42400		875.00000 
 43692.65567		 305.27265			43387.38302		66.22000		324.00000 
 43692.65567		 724.87338			42967.78230		214.42400		875.00000 
 43692.65567		 305.27265			43387.38302		66.22000		324.00000 
 43692.65567		 724.87338			42967.78230		214.42400		875.00000 
 43692.65567		 305.27265			43387.38302		66.22000		324.00000 
 43692.65567		 724.87338			42967.78230		214.42400		875.00000 
 43692.65567		 305.27265			43387.38302		66.22000		324.00000 
 43692.65567		 724.87338			42967.78230		214.42400		875.00000 
 43692.65567		 305.27265			43387.38302		66.22000		324.00000 
 43692.65567		 724.87338			42967.78230		214.42400		875.00000 
 43692.65567		 305.27265			43387.38302		66.22000		324.00000 
 43692.65567		 724.87338			42967.78230		214.42400		875.00000 
 43692.65567		 305.27265			43387.38302		66.22000		324.00000 
 43692.65567		 724.87338			42967.78230		214.42400		875.00000 
 43692.65567		 305.27265			43387.38302		66.22000		324.00000 
 43692.65567		 724.87338			42967.78230		214.42400		875.00000 
 43692.65567		 305.27265			43387.38302		66.22000		324.00000 
 43692.65567		 724.87338			42967.78230		214.42400		875.00000 
 43692.65567		 305.27265			43387.38302		66.22000		324.00000 
 43692.65567		 724.87338			42967.78230		217.33600		875.00000 
 43692.65567		 305.27265			43387.38302		66.22000		324.00000 
 43692.65567		 724.87338			42967.78230		217.33600		875.00000 
 43692.65567		 305.27265			43387.38302		66.22000		324.00000 
 43692.65567		 724.87338			42967.78230		217.33600		875.00000 
 43692.65567		 305.27265			43387.38302		66.22000		324.00000 
 43692.65567		 724.87338			42967.78230		217.33600		875.00000 
 43692.65567		 305.27265			43387.38302		66.22000		324.00000 
 43692.65567		 724.87338			42967.78230		217.33600		875.00000 
 43692.65567		 305.27265			43387.38302		66.22000		324.00000 
 43692.65567		 724.87338			42967.78230		217.33600		875.00000 
 43692.65567		 305.27265			43387.38302		66.22000		324.00000 
 43692.65567		 724.87338			42967.78230		217.33600		875.00000 
 43692.65567		 305.27265			43387.38302		66.22000		324.00000 
 43692.65567		 724.87338			42967.78230		217.33600		875.00000 
 43692.65567		 305.27265			43387.38302		66.22000		324.00000 
 43692.65567		 724.87338			42967.78230		217.33600		875.00000 
 43692.65567		 305.27265			43387.38302		66.22000		324.00000 
 43692.65567		 724.87338			42967.78230		217.33600		875.00000 
 43692.65567		 305.27265			43387.38302		66.22000		324.00000 
 43692.65567		 724.87338			42967.78230		217.33600		875.00000 
 43692.65567		 305.27265			43387.38302		66.22000		324.00000 
 43692.65567		 724.87338			42967.78230		217.33600		875.00000 
 43692.65567		 305.27265			43387.38302		66.22000		324.00000 
 43692.65567		 724.87338			42967.78230		217.33600		875.00000 
 43692.65567		 305.27265			43387.38302		66.22000		324.00000 
 43692.65567		 724.87338			42967.78230		217.33600		875.00000 
 43692.65567		 305.27265			43387.38302		66.22000		324.00000 
 43692.65567		 724.87338			42967.78230		217.33600		875.00000 
 43692.65567		 305.27265			43387.38302		66.22000		324.00000 
 43692.65567		 724.87338			42967.78230		217.33600		875.00000 
 43692.65567		 305.27265			43387.38302		66.22000		324.00000 
 43692.65567		 724.87338			42967.78230		217.33600		875.00000 
 43692.65567		 305.27265			43387.38302		66.22000		324.00000 
 43692.65567		 724.87338			42967.78230		217.33600		875.00000 
 43692.65567		 305.27265			43387.38302		66.22000		324.00000 
 43692.65567		 724.87338			42967.78230		217.33600		875.00000 
 43692.65567		 305.27265			43387.38302		66.22000		324.00000 
 43692.65567		 724.87338			42967.78230		217.33600		875.00000 
 43692.65567		 305.27265			43387.38302		66.22000		324.00000 
 43692.65567		 724.87338			42967.78230		217.33600		875.00000 
 43692.65567		 305.27265			43387.38302		66.22000		324.00000 
 43692.65567		 724.87338			42967.78230		217.33600		875.00000 
 43692.65567		 305.27265			43387.38302		66.22000		324.00000 
 43692.65567		 724.87338			42967.78230		217.33600		875.00000 
 43692.65567		 305.27265			43387.38302		66.22000		324.00000 
 43692.65567		 724.87338			42967.78230		217.33600		875.00000 
 43692.65567		 305.27265			43387.38302		66.22000		324.00000 
 43692.65567		 724.87338			42967.78230		217.33600		875.00000 
 43692.65567		 305.27265			43387.38302		66.22000		324.00000 
 43692.65567		 724.87338			42967.78230		217.33600		875.00000 
 43692.65567		 305.27265			43387.38302		66.22000		324.00000 
 43692.65567		 724.87338			42967.78230		217.33600		875.00000 
 43692.65567		 305.27265			43387.38302		66.22000		324.00000 
 43692.65567		 724.87338			42967.78230		217.33600		875.00000 
 43692.65567		 305.27265			43387.38302		66.22000		324.00000 
 43692.65567		 724.87338			42967.78230		217.33600		875.00000 
 43692.65567		 305.27265			43387.38302		66.22000		324.00000 
 43692.65567		 724.87338			42967.78230		217.33600		875.00000 
 43692.65567		 305.27265			43387.38302		66.22000		324.00000 
 43692.65567		 724.87338			42967.78230		217.33600		875.00000 
 43692.65567		 305.27265			43387.38302		66.22000		324.00000 
 43692.65567		 724.87338			42967.78230		217.33600		875.00000 
 43692.65567		 305.27265			43387.38302		66.22000		324.00000 
 43692.65567		 724.87338			42967.78230		217.33600		875.00000 
 43692.65567		 305.27265			43387.38302		66.22000		324.00000 
 43692.65567		 724.87338			42967.78230		217.33600		875.00000 
 43692.65567		 305.27265			43387.38302		66.22000		324.00000 
 43692.65567		 724.87338			42967.78230		217.33600		875.00000 
 43692.65567		 305.27265			43387.38302		66.22000		324.00000 
 43692.65567		 724.87338			42967.78230		217.33600		875.00000 
 43692.65567		 305.27265			43387.38302		66.22000		324.00000 
 43692.65567		 724.87338			42967.78230		217.33600		875.00000 
 43692.65567		 305.27265			43387.38302		66.22000		324.00000 
 43692.65567		 724.87338			42967.78230		217.33600		875.00000 
 43692.65567		 305.27265			43387.38302		66.22000		324.00000 
 43692.65567		 724.87338			42967.78230		217.33600		875.00000 
 43692.65567		 305.27265			43387.38302		66.22000		324.00000 
 43692.65567		 724.87338			42967.78230		217.33600		875.00000 
 43692.65567		 305.27265			43387.38302		66.22000		324.00000 
 43692.65567		 724.87338			42967.78230		217.33600		875.00000 
 43692.65567		 305.27265			43387.38302		66.22000		324.00000 
 43692.65567		 724.87338			42967.78230		217.33600		875.00000 
 43692.65567		 305.27265			43387.38302		66.22000		324.00000 
 43692.65567		 724.87338			42967.78230		217.33600		875.00000 
 43692.65567		 305.27265			43387.38302		66.22000		324.00000 
 43692.65567		 724.87338			42967.78230		217.33600		875.00000 
 43692.65567		 305.27265			43387.38302		66.22000		324.00000 
 43692.65567		 724.87338			42967.78230		217.33600		875.00000 
 43692.65567		 305.27265			43387.38302		66.22000		324.00000 
 43692.65567		 724.87338			42967.78230		217.33600		875.00000 
 43692.65567		 305.27265			43387.38302		66.22000		324.00000 
 43692.65567		 724.87338			42967.78230		217.33600		875.00000 
 43692.65567		 305.27265			43387.38302		66.22000		324.00000 
 43692.65567		 724.87338			42967.78230		217.33600		875.00000 
 43692.65567		 305.27265			43387.38302		66.22000		324.00000 
 43692.65567		 724.87338			42967.78230		217.33600		875.00000 
 43692.65567		 305.27265			43387.38302		66.22000		324.00000 
 43692.65567		 724.87338			42967.78230		217.33600		875.00000 
 43692.65567		 305.27265			43387.38302		66.22000		324.00000 
 43692.65567		 724.87338			42967.78230		217.33600		875.00000 
 43692.65567		 305.27265			43387.38302		66.22000		324.00000 
 43692.65567		 724.87338			42967.78230		217.33600		875.00000 
 43692.65567		 305.27265			43387.38302		66.22000		324.00000 
 43692.65567		 724.87338			42967.78230		217.33600		875.00000 
 43692.65567		 305.27265			43387.38302		66.22000		324.00000 
 43692.65567		 724.87338			42967.78230		217.33600		875.00000 
 43692.65567		 305.27265			43387.38302		66.22000		324.00000 
 43692.65567		 724.87338			42967.78230		217.33600		875.00000 
 43692.65567		 305.27265			43387.38302		66.22000		324.00000 
 43692.65567		 724.87338			42967.78230		217.33600		875.00000 
 43692.65567		 305.27265			43387.38302		66.22000		324.00000 
 43692.65567		 724.87338			42967.78230		219.06200		875.00000 
 43692.65567		 305.27265			43387.38302		66.22000		324.00000 
 43692.65567		 724.87338			42967.78230		219.06200		875.00000 
 43692.65567		 305.27265			43387.38302		66.22000		324.00000 
 43692.65567		 724.87338			42967.78230		219.06200		875.00000 
 43692.65567		 305.27265			43387.38302		66.22000		324.00000 
 43692.65567		 724.87338			42967.78230		219.06200		875.00000 
 43692.65567		 305.27265			43387.38302		66.22000		324.00000 
 43692.65567		 724.87338			42967.78230		219.06200		875.00000 
 43692.65567		 305.27265			43387.38302		66.22000		324.00000 
 43692.65567		 724.87338			42967.78230		219.06200		875.00000 
 43692.65567		 305.27265			43387.38302		66.22000		324.00000 
 43692.65567		 724.87338			42967.78230		219.06200		875.00000 
 43692.65567		 305.27265			43387.38302		66.22000		324.00000 
 43692.65567		 724.87338			42967.78230		219.06200		875.00000 
 43692.65567		 305.27265			43387.38302		66.22000		324.00000 
 43692.65567		 724.87338			42967.78230		219.06200		875.00000 
 43692.65567		 305.27265			43387.38302		66.22000		324.00000 
 43692.65567		 724.87338			42967.78230		219.06200		875.00000 
 43692.65567		 305.27265			43387.38302		66.22000		324.00000 
 43692.65567		 724.87338			42967.78230		219.06200		875.00000 
 43692.65567		 305.27265			43387.38302		66.22000		324.00000 
 43692.65567		 724.87338			42967.78230		219.06200		875.00000 
 43692.65567		 305.27265			43387.38302		66.22000		324.00000 
 43692.65567		 724.87338			42967.78230		219.06200		875.00000 
 43692.65567		 305.27265			43387.38302		66.22000		324.00000 
 43692.65567		 724.87338			42967.78230		219.06200		875.00000 
 43692.65567		 305.27265			43387.38302		66.22000		324.00000 
 43692.65567		 724.87338			42967.78230		219.06200		875.00000 
 43692.65567		 305.27265			43387.38302		66.22000		324.00000 
 43692.65567		 724.87338			42967.78230		219.06200		875.00000 
 43692.65567		 305.27265			43387.38302		66.22000		324.00000 
 43692.65567		 724.87338			42967.78230		219.06200		875.00000 
 43692.65567		 305.27265			43387.38302		66.22000		324.00000 
 43692.65567		 724.87338			42967.78230		219.06200		875.00000 
 43692.65567		 305.27265			43387.38302		66.22000		324.00000 
 43692.65567		 724.87338			42967.78230		219.06200		875.00000 
 43692.65567		 305.27265			43387.38302		66.22000		324.00000 
 43692.65567		 724.87338			42967.78230		219.06200		875.00000 
 43692.65567		 305.27265			43387.38302		66.22000		324.00000 
 43692.65567		 724.87338			42967.78230		219.06200		875.00000 
 43692.65567		 305.27265			43387.38302		66.22000		324.00000 
 43692.65567		 724.87338			42967.78230		219.06200		875.00000 
 43692.65567		 305.27265			43387.38302		66.22000		324.00000 
 43692.65567		 724.87338			42967.78230		219.06200		875.00000 
 43692.65567		 305.27265			43387.38302		66.22000		324.00000 
 43692.65567		 724.87338			42967.78230		219.06200		875.00000 
 43692.65567		 305.27265			43387.38302		66.22000		324.00000 
 43692.65567		 724.87338			42967.78230		219.06200		875.00000 
 43692.65567		 305.27265			43387.38302		66.22000		324.00000 
 43692.65567		 724.87338			42967.78230		219.06200		875.00000 
 43692.65567		 305.27265			43387.38302		66.22000		324.00000 
 43692.65567		 724.87338			42967.78230		219.06200		875.00000 
 43692.65567		 305.27265			43387.38302		66.22000		324.00000 
 43692.65567		 724.87338			42967.78230		219.06200		875.00000 
 43692.65567		 305.27265			43387.38302		66.22000		324.00000 
 43692.65567		 724.87338			42967.78230		219.06200		875.00000 
 43692.65567		 305.27265			43387.38302		66.22000		324.00000 
 43692.65567		 724.87338			42967.78230		219.06200		875.00000 
 43692.65567		 305.27265			43387.38302		66.22000		324.00000 
 43692.65567		 724.87338			42967.78230		219.06200		875.00000 
 43692.65567		 305.27265			43387.38302		66.22000		324.00000 
 43692.65567		 724.87338			42967.78230		219.06200		875.00000 
 43692.65567		 305.27265			43387.38302		66.22000		324.00000 
 43692.65567		 724.87338			42967.78230		219.06200		875.00000 
 43692.65567		 305.27265			43387.38302		66.22000		324.00000 
 43692.65567		 724.87338			42967.78230		219.06200		875.00000 
 43692.65567		 305.27265			43387.38302		66.22000		324.00000 
 43692.65567		 724.87338			42967.78230		219.06200		875.00000 
 43692.65567		 305.27265			43387.38302		66.22000		324.00000 
 43692.65567		 724.87338			42967.78230		219.06200		875.00000 
 43692.65567		 305.27265			43387.38302		66.22000		324.00000 
 43692.65567		 724.87338			42967.78230		219.06200		875.00000 
 43692.65567		 305.27265			43387.38302		66.22000		324.00000 
 43692.65567		 724.87338			42967.78230		219.06200		875.00000 
 43692.65567		 305.27265			43387.38302		66.22000		324.00000 
 43692.65567		 724.87338			42967.78230		219.06200		875.00000 
 43692.65567		 305.27265			43387.38302		66.22000		324.00000 
 43692.65567		 724.87338			42967.78230		219.06200		875.00000 
 43692.65567		 305.27265			43387.38302		66.22000		324.00000 
 43692.65567		 724.87338			42967.78230		219.06200		875.00000 
 43692.65567		 305.27265			43387.38302		66.22000		324.00000 
 43692.65567		 724.87338			42967.78230		219.06200		875.00000 
 43692.65567		 305.27265			43387.38302		66.22000		324.00000 
 43692.65567		 724.87338			42967.78230		219.06200		875.00000 
 43692.65567		 305.27265			43387.38302		66.22000		324.00000 
 43692.65567		 724.87338			42967.78230		219.06200		875.00000 
 43692.65567		 305.27265			43387.38302		66.22000		324.00000 
 43692.65567		 724.87338			42967.78230		219.06200		875.00000 
 43692.65567		 305.27265			43387.38302		66.22000		324.00000 
 43692.65567		 724.87338			42967.78230		219.06200		875.00000 
 43692.65567		 305.27265			43387.38302		66.22000		324.00000 
 43692.65567		 724.87338			42967.78230		219.06200		875.00000 
 43692.65567		 305.27265			43387.38302		66.22000		324.00000 
 43692.65567		 724.87338			42967.78230		219.06200		875.00000 
 43692.65567		 305.27265			43387.38302		66.22000		324.00000 
 43692.65567		 724.87338			42967.78230		219.06200		875.00000 
 43692.65567		 305.27265			43387.38302		66.22000		324.00000 
 43692.65567		 724.87338			42967.78230		219.06200		875.00000 
 43692.65567		 305.27265			43387.38302		66.22000		324.00000 
 43692.65567		 724.87338			42967.78230		219.06200		875.00000 
 43692.65567		 305.27265			43387.38302		66.22000		324.00000 
 43692.65567		 724.87338			42967.78230		219.06200		875.00000 
 43692.65567		 305.27265			43387.38302		66.22000		324.00000 
 43692.65567		 724.87338			42967.78230		219.06200		875.00000 
 43692.65567		 305.27265			43387.38302		66.22000		324.00000 
 43692.65567		 724.87338			42967.78230		219.06200		875.00000 
 43692.65567		 305.27265			43387.38302		66.22000		324.00000 
 43692.65567		 724.87338			42967.78230		219.06200		875.00000 
 43692.65567		 305.27265			43387.38302		66.22000		324.00000 
 43692.65567		 724.87338			42967.78230		219.06200		875.00000 
 43692.65567		 305.27265			43387.38302		66.22000		324.00000 
 43692.65567		 724.87338			42967.78230		219.06200		875.00000 
 43692.65567		 305.27265			43387.38302		66.22000		324.00000 
 43692.65567		 724.87338			42967.78230		219.06200		875.00000 
 43692.65567		 305.27265			43387.38302		66.22000		324.00000 
 43692.65567		 724.87338			42967.78230		219.06200		875.00000 
 43692.65567		 305.27265			43387.38302		66.22000		324.00000 
 43692.65567		 724.87338			42967.78230		219.06200		875.00000 
 43692.65567		 305.27265			43387.38302		66.22000		324.00000 
 43692.65567		 724.87338			42967.78230		218.46200		875.00000 
 43692.65567		 305.27265			43387.38302		66.22000		324.00000 
 43692.65567		 724.87338			42967.78230		218.46200		875.00000 
 43692.65567		 305.27265			43387.38302		66.22000		324.00000 
 43692.65567		 724.87338			42967.78230		218.46200		875.00000 
 43692.65567		 305.27265			43387.38302		66.22000		324.00000 
 43692.65567		 724.87338			42967.78230		218.46200		875.00000 
 43692.65567		 305.27265			43387.38302		66.22000		324.00000 
 43692.65567		 724.87338			42967.78230		218.46200		875.00000 
 43692.65567		 305.27265			43387.38302		66.22000		324.00000 
 43692.65567		 724.87338			42967.78230		218.46200		875.00000 
 43692.65567		 305.27265			43387.38302		66.22000		324.00000 
 43692.65567		 724.87338			42967.78230		218.46200		875.00000 
 43692.65567		 305.27265			43387.38302		66.22000		324.00000 
 43692.65567		 724.87338			42967.78230		218.46200		875.00000 
 43692.65567		 305.27265			43387.38302		66.22000		324.00000 
 43692.65567		 724.87338			42967.78230		218.46200		875.00000 
 43692.65567		 305.27265			43387.38302		66.22000		324.00000 
 43692.65567		 724.87338			42967.78230		218.46200		875.00000 
 43692.65567		 305.27265			43387.38302		66.22000		324.00000 
 43692.65567		 724.87338			42967.78230		218.46200		875.00000 
 43692.65567		 305.27265			43387.38302		66.22000		324.00000 
 43692.65567		 724.87338			42967.78230		218.46200		875.00000 
 43692.65567		 305.27265			43387.38302		66.22000		324.00000 
 43692.65567		 724.87338			42967.78230		218.46200		875.00000 
 43692.65567		 305.27265			43387.38302		66.22000		324.00000 
 43692.65567		 724.87338			42967.78230		218.46200		875.00000 
 43692.65567		 305.27265			43387.38302		66.22000		324.00000 
 43692.65567		 724.87338			42967.78230		218.46200		875.00000 
 43692.65567		 305.27265			43387.38302		66.22000		324.00000 
 43692.65567		 724.87338			42967.78230		218.46200		875.00000 
 43692.65567		 305.27265			43387.38302		66.22000		324.00000 
 43692.65567		 724.87338			42967.78230		218.46200		875.00000 
 43692.65567		 305.27265			43387.38302		66.22000		324.00000 
 43692.65567		 724.87338			42967.78230		218.46200		875.00000 
 43692.65567		 305.27265			43387.38302		66.22000		324.00000 
 43692.65567		 724.87338			42967.78230		218.46200		875.00000 
 43692.65567		 305.27265			43387.38302		66.22000		324.00000 
 43692.65567		 724.87338			42967.78230		218.46200		875.00000 
 43692.65567		 305.27265			43387.38302		66.22000		324.00000 
 43692.65567		 724.87338			42967.78230		218.46200		875.00000 
 43692.65567		 305.27265			43387.38302		66.22000		324.00000 
 43692.65567		 724.87338			42967.78230		218.46200		875.00000 
 43692.65567		 305.27265			43387.38302		66.22000		324.00000 
 43692.65567		 724.87338			42967.78230		218.46200		875.00000 
 43692.65567		 305.27265			43387.38302		66.22000		324.00000 
 43692.65567		 724.87338			42967.78230		218.46200		875.00000 
 43692.65567		 305.27265			43387.38302		66.22000		324.00000 
 43692.65567		 724.87338			42967.78230		218.46200		875.00000 
 43692.65567		 305.27265			43387.38302		66.22000		324.00000 
 43692.65567		 724.87338			42967.78230		218.46200		875.00000 
 43692.65567		 305.27265			43387.38302		66.22000		324.00000 
 43692.65567		 724.87338			42967.78230		218.46200		875.00000 
 43692.65567		 305.27265			43387.38302		66.22000		324.00000 
 43692.65567		 724.87338			42967.78230		218.46200		875.00000 
 43692.65567		 305.27265			43387.38302		66.22000		324.00000 
 43692.65567		 724.87338			42967.78230		218.46200		875.00000 
 43692.65567		 305.27265			43387.38302		66.22000		324.00000 
 43692.65567		 724.87338			42967.78230		218.46200		875.00000 
 43692.65567		 305.27265			43387.38302		66.22000		324.00000 
 43692.65567		 724.87338			42967.78230		218.46200		875.00000 
 43692.65567		 305.27265			43387.38302		66.22000		324.00000 
 43692.65567		 724.87338			42967.78230		218.46200		875.00000 
 43692.65567		 305.27265			43387.38302		66.22000		324.00000 
 43692.65567		 724.87338			42967.78230		218.46200		875.00000 
 43692.65567		 305.27265			43387.38302		66.22000		324.00000 
 43692.65567		 724.87338			42967.78230		218.46200		875.00000 
 43692.65567		 305.27265			43387.38302		66.22000		324.00000 
 43692.65567		 724.87338			42967.78230		218.46200		875.00000 
 43692.65567		 305.27265			43387.38302		66.22000		324.00000 
 43692.65567		 724.87338			42967.78230		218.46200		875.00000 
 43692.65567		 305.27265			43387.38302		66.22000		324.00000 
 43692.65567		 724.87338			42967.78230		218.46200		875.00000 
 43692.65567		 305.27265			43387.38302		66.22000		324.00000 
 43692.65567		 724.87338			42967.78230		218.46200		875.00000 
 43692.65567		 305.27265			43387.38302		66.22000		324.00000 
 43692.65567		 724.87338			42967.78230		218.46200		875.00000 
 43692.65567		 305.27265			43387.38302		66.22000		324.00000 
 43692.65567		 724.87338			42967.78230		218.46200		875.00000 
 43692.65567		 305.27265			43387.38302		66.22000		324.00000 
 43692.65567		 724.87338			42967.78230		218.46200		875.00000 
 43692.65567		 305.27265			43387.38302		66.22000		324.00000 
 43692.65567		 724.87338			42967.78230		218.46200		875.00000 
 43692.65567		 305.27265			43387.38302		66.22000		324.00000 
 43692.65567		 724.87338			42967.78230		218.46200		875.00000 
 43692.65567		 305.27265			43387.38302		66.22000		324.00000 
 43692.65567		 724.87338			42967.78230		218.46200		875.00000 
 43692.65567		 305.27265			43387.38302		66.22000		324.00000 
 43692.65567		 724.87338			42967.78230		218.46200		875.00000 
 43692.65567		 305.27265			43387.38302		66.22000		324.00000 
 43692.65567		 724.87338			42967.78230		218.46200		875.00000 
 43692.65567		 305.27265			43387.38302		66.22000		324.00000 
 43692.65567		 724.87338			42967.78230		218.46200		875.00000 
 43692.65567		 305.27265			43387.38302		66.22000		324.00000 
 43692.65567		 724.87338			42967.78230		218.46200		875.00000 
 43692.65567		 305.27265			43387.38302		66.22000		324.00000 
 43692.65567		 724.87338			42967.78230		218.46200		875.00000 
 43692.65567		 305.27265			43387.38302		66.22000		324.00000 
 43692.65567		 724.87338			42967.78230		218.46200		875.00000 
 43692.65567		 305.27265			43387.38302		66.22000		324.00000 
 43692.65567		 724.87338			42967.78230		218.46200		875.00000 
 43692.65567		 305.27265			43387.38302		66.22000		324.00000 
 43692.65567		 724.87338			42967.78230		218.46200		875.00000 
 43692.65567		 305.27265			43387.38302		66.22000		324.00000 
 43692.65567		 724.87338			42967.78230		218.46200		875.00000 
 43692.65567		 305.27265			43387.38302		66.22000		324.00000 
 43692.65567		 724.87338			42967.78230		218.46200		875.00000 
 43692.65567		 305.27265			43387.38302		66.22000		324.00000 
 43692.65567		 724.87338			42967.78230		218.46200		875.00000 
 43692.65567		 305.27265			43387.38302		66.22000		324.00000 
 43692.65567		 724.87338			42967.78230		218.46200		875.00000 
 43692.65567		 305.27265			43387.38302		66.22000		324.00000 
 43692.65567		 724.87338			42967.78230		218.46200		875.00000 
 43692.65567		 305.27265			43387.38302		66.22000		324.00000 
 43692.65567		 724.87338			42967.78230		218.46200		875.00000 
 43692.65567		 305.27265			43387.38302		66.22000		324.00000 
 43692.65567		 724.87338			42967.78230		218.46200		875.00000 
 43692.65567		 305.27265			43387.38302		66.22000		324.00000 
 43692.65567		 724.87338			42967.78230		218.46200		875.00000 
 43692.65567		 305.27265			43387.38302		66.22000		324.00000 
 43692.65567		 724.87338			42967.78230		218.46200		875.00000 
 43692.65567		 305.27265			43387.38302		66.22000		324.00000 
 43692.65567		 724.87338			42967.78230		218.46200		875.00000 
 43692.65567		 305.27265			43387.38302		66.22000		324.00000 
 43692.65567		 724.87338			42967.78230		218.46200		875.00000 
 43692.65567		 305.27265			43387.38302		66.22000		324.00000 
 43692.65567		 724.87338			42967.78230		218.46200		875.00000 
 43692.65567		 305.27265			43387.38302		66.22000		324.00000 
 43692.65567		 724.87338			42967.78230		218.46200		875.00000 
 43692.65567		 305.27265			43387.38302		66.22000		324.00000 
 43692.65567		 724.87338			42967.78230		218.46200		875.00000 
 43692.65567		 305.27265			43387.38302		66.22000		324.00000 
 43692.65567		 724.87338			42967.78230		218.46200		875.00000 
 43692.65567		 305.27265			43387.38302		66.22000		324.00000 
 43692.65567		 724.87338			42967.78230		218.46200		875.00000 
 43692.65567		 305.27265			43387.38302		66.22000		324.00000 
 43692.65567		 724.87338			42967.78230		218.46200		875.00000 
 43692.65567		 305.27265			43387.38302		66.22000		324.00000 
 43692.65567		 724.87338			42967.78230		218.46200		875.00000 
 43692.65567		 305.27265			43387.38302		66.22000		324.00000 
 43692.65567		 724.87338			42967.78230		218.46200		875.00000 
 43692.65567		 305.27265			43387.38302		66.22000		324.00000 
 43692.65567		 724.87338			42967.78230		218.46200		875.00000 
 43692.65567		 305.27265			43387.38302		66.22000		324.00000 
 43692.65567		 724.87338			42967.78230		218.46200		875.00000 
 43692.65567		 305.27265			43387.38302		66.22000		324.00000 
 43692.65567		 724.87338			42967.78230		218.46200		875.00000 
 43692.65567		 305.27265			43387.38302		66.22000		324.00000 
 43692.65567		 724.87338			42967.78230		218.46200		875.00000 
 43692.65567		 305.27265			43387.38302		66.22000		324.00000 
 43692.65567		 724.87338			42967.78230		218.46200		875.00000 
 43692.65567		 305.27265			43387.38302		66.22000		324.00000 
 43692.65567		 724.87338			42967.78230		218.46200		875.00000 
 43692.65567		 305.27265			43387.38302		66.22000		324.00000 
 43692.65567		 724.87338			42967.78230		218.46200		875.00000 
 43692.65567		 305.27265			43387.38302		66.22000		324.00000 
 43692.65567		 724.87338			42967.78230		218.46200		875.00000 
 43692.65567		 305.27265			43387.38302		66.22000		324.00000 
 43692.65567		 724.87338			42967.78230		218.46200		875.00000 
 43692.65567		 305.27265			43387.38302		66.22000		324.00000 
 43692.65567		 724.87338			42967.78230		218.46200		875.00000 
 43692.65567		 305.27265			43387.38302		66.22000		324.00000 
 43692.65567		 724.87338			42967.78230		218.46200		875.00000 
 43692.65567		 305.27265			43387.38302		66.22000		324.00000 
 43692.65567		 724.87338			42967.78230		218.46200		875.00000 
 43692.65567		 305.27265			43387.38302		66.22000		324.00000 
 43692.65567		 724.87338			42967.78230		218.46200		875.00000 
 43692.65567		 305.27265			43387.38302		66.22000		324.00000 
 43692.65567		 724.87338			42967.78230		218.46200		875.00000 
 43692.65567		 305.27265			43387.38302		66.22000		324.00000 
 43692.65567		 724.87338			42967.78230		218.46200		875.00000 
 43692.65567		 305.27265			43387.38302		66.22000		324.00000 
 43692.65567		 724.87338			42967.78230		218.46200		875.00000 
 43692.65567		 305.27265			43387.38302		66.22000		324.00000 
 43692.65567		 724.87338			42967.78230		218.46200		875.00000 
 43692.65567		 305.27265			43387.38302		66.22000		324.00000 
 43692.65567		 724.87338			42967.78230		218.46200		875.00000 
 43692.65567		 305.27265			43387.38302		66.22000		324.00000 
 43692.65567		 724.87338			42967.78230		218.46200		875.00000 
 43692.65567		 305.27265			43387.38302		66.22000		324.00000 
 43692.65567		 724.87338			42967.78230		218.46200		875.00000 
 43692.65567		 305.27265			43387.38302		66.22000		324.00000 
 43692.65567		 724.87338			42967.78230		218.46200		875.00000 
 43692.65567		 305.27265			43387.38302		66.22000		324.00000 
 43692.65567		 724.87338			42967.78230		218.46200		875.00000 
 43692.65567		 305.27265			43387.38302		66.22000		324.00000 
 43692.65567		 724.87338			42967.78230		218.46200		875.00000 
 43692.65567		 305.27265			43387.38302		66.22000		324.00000 
 43692.65567		 724.87338			42967.78230		218.46200		875.00000 
 43692.65567		 305.27265			43387.38302		66.22000		324.00000 
 43692.65567		 724.87338			42967.78230		218.46200		875.00000 
 43692.65567		 305.27265			43387.38302		66.22000		324.00000 
 43692.65567		 724.87338			42967.78230		218.46200		875.00000 
 43692.65567		 305.27265			43387.38302		66.22000		324.00000 
 43692.65567		 724.87338			42967.78230		218.46200		875.00000 
 43692.65567		 305.27265			43387.38302		66.22000		324.00000 
 43692.65567		 724.87338			42967.78230		218.46200		875.00000 
 43692.65567		 305.27265			43387.38302		66.22000		324.00000 
 43692.65567		 724.87338			42967.78230		218.46200		875.00000 
 43692.65567		 305.27265			43387.38302		66.22000		324.00000 
 43692.65567		 724.87338			42967.78230		218.46200		875.00000 
 43692.65567		 305.27265			43387.38302		66.22000		324.00000 
 43692.65567		 724.87338			42967.78230		218.46200		875.00000 
 43692.65567		 305.27265			43387.38302		66.22000		324.00000 
 43692.65567		 724.87338			42967.78230		218.46200		875.00000 
 43692.65567		 305.27265			43387.38302		66.22000		324.00000 
 43692.65567		 724.87338			42967.78230		218.46200		875.00000 
 43692.65567		 305.27265			43387.38302		66.22000		324.00000 
 43692.65567		 724.87338			42967.78230		218.46200		875.00000 
 43692.65567		 305.27265			43387.38302		66.22000		324.00000 
 43692.65567		 724.87338			42967.78230		218.46200		875.00000 
 43692.65567		 305.27265			43387.38302		66.22000		324.00000 
 43692.65567		 724.87338			42967.78230		218.46200		875.00000 
 43692.65567		 305.27265			43387.38302		66.22000		324.00000 
 43692.65567		 724.87338			42967.78230		218.46200		875.00000 
 43692.65567		 305.27265			43387.38302		66.22000		324.00000 
 43692.65567		 724.87338			42967.78230		218.46200		875.00000 
 43692.65567		 305.27265			43387.38302		66.22000		324.00000 
 43692.65567		 724.87338			42967.78230		218.46200		875.00000 
 43692.65567		 305.27265			43387.38302		66.22000		324.00000 
 43692.65567		 724.87338			42967.78230		218.46200		875.00000 
 43692.65567		 305.27265			43387.38302		66.22000		324.00000 
 43692.65567		 724.87338			42967.78230		218.46200		875.00000 
 43692.65567		 305.27265			43387.38302		66.22000		324.00000 
 43692.65567		 724.87338			42967.78230		218.46200		875.00000 
 43692.65567		 305.27265			43387.38302		66.22000		324.00000 
 43692.65567		 724.87338			42967.78230		218.46200		875.00000 
 43692.65567		 305.27265			43387.38302		66.22000		324.00000 
 43692.65567		 724.87338			42967.78230		218.46200		875.00000 
 43692.65567		 305.27265			43387.38302		66.22000		324.00000 
 43692.65567		 724.87338			42967.78230		218.46200		875.00000 
 43692.65567		 305.27265			43387.38302		66.22000		324.00000 
 43692.65567		 724.87338			42967.78230		218.46200		875.00000 
 43692.65567		 305.27265			43387.38302		66.22000		324.00000 
 43692.65567		 724.87338			42967.78230		218.46200		875.00000 
 43692.65567		 305.27265			43387.38302		66.22000		324.00000 
 43692.65567		 724.87338			42967.78230		218.46200		875.00000 
 43692.65567		 305.27265			43387.38302		66.22000		324.00000 
 43692.65567		 724.87338			42967.78230		218.46200		875.00000 
 43692.65567		 305.27265			43387.38302		66.22000		324.00000 
 43692.65567		 724.87338			42967.78230		218.46200		875.00000 
 43692.65567		 305.27265			43387.38302		66.22000		324.00000 
 43692.65567		 724.87338			42967.78230		218.46200		875.00000 
 43692.65567		 305.27265			43387.38302		66.22000		324.00000 
 43692.65567		 724.87338			42967.78230		218.46200		875.00000 
 43692.65567		 305.27265			43387.38302		66.22000		324.00000 
 43692.65567		 724.87338			42967.78230		218.46200		875.00000 
 43692.65567		 305.27265			43387.38302		66.22000		324.00000 
 43692.65567		 724.87338			42967.78230		218.46200		875.00000 
 43692.65567		 305.27265			43387.38302		66.22000		324.00000 
 43692.65567		 724.87338			42967.78230		218.46200		875.00000 
 43692.65567		 305.27265			43387.38302		66.22000		324.00000 
 43692.65567		 724.87338			42967.78230		218.46200		875.00000 
 43692.65567		 305.27265			43387.38302		66.22000		324.00000 
 43692.65567		 724.87338			42967.78230		218.46200		875.00000 
 43692.65567		 305.27265			43387.38302		66.22000		324.00000 
 43692.65567		 724.87338			42967.78230		218.46200		875.00000 
 43692.65567		 305.27265			43387.38302		66.22000		324.00000 
 43692.65567		 724.87338			42967.78230		218.46200		875.00000 
 43692.65567		 305.27265			43387.38302		66.22000		324.00000 
 43692.65567		 724.87338			42967.78230		218.46200		875.00000 
 43692.65567		 305.27265			43387.38302		66.22000		324.00000 
 43692.65567		 724.87338			42967.78230		218.46200		875.00000 
 43692.65567		 305.27265			43387.38302		66.22000		324.00000 
 43692.65567		 724.87338			42967.78230		218.46200		875.00000 
 43692.65567		 305.27265			43387.38302		66.22000		324.00000 
 43692.65567		 724.87338			42967.78230		218.46200		875.00000 
 43692.65567		 305.27265			43387.38302		66.22000		324.00000 
 43692.65567		 724.87338			42967.78230		218.46200		875.00000 
 43692.65567		 305.27265			43387.38302		66.22000		324.00000 
 43692.65567		 724.87338			42967.78230		218.46200		875.00000 
 43692.65567		 305.27265			43387.38302		66.22000		324.00000 
 43692.65567		 724.87338			42967.78230		218.46200		875.00000 
 43692.65567		 305.27265			43387.38302		66.22000		324.00000 
 43692.65567		 724.87338			42967.78230		218.46200		875.00000 
 43692.65567		 305.27265			43387.38302		66.22000		324.00000 
 43692.65567		 724.87338			42967.78230		218.46200		875.00000 
 43692.65567		 305.27265			43387.38302		66.22000		324.00000 
 43692.65567		 724.87338			42967.78230		218.46200		875.00000 
 43692.65567		 305.27265			43387.38302		66.22000		324.00000 
 43692.65567		 724.87338			42967.78230		218.46200		875.00000 
 43692.65567		 305.27265			43387.38302		66.22000		324.00000 
 43692.65567		 724.87338			42967.78230		218.46200		875.00000 
 43692.65567		 305.27265			43387.38302		66.22000		324.00000 
 43692.65567		 724.87338			42967.78230		218.46200		875.00000 
 43692.65567		 305.27265			43387.38302		66.22000		324.00000 
 43692.65567		 724.87338			42967.78230		218.46200		875.00000 
 43692.65567		 305.27265			43387.38302		66.22000		324.00000 
 43692.65567		 724.87338			42967.78230		218.46200		875.00000 
 43692.65567		 305.27265			43387.38302		66.22000		324.00000 
 43692.65567		 724.87338			42967.78230		218.46200		875.00000 
 43692.65567		 305.27265			43387.38302		66.22000		324.00000 
 43692.65567		 724.87338			42967.78230		218.46200		875.00000 
 43692.65567		 305.27265			43387.38302		66.22000		324.00000 
 43692.65567		 724.87338			42967.78230		218.46200		875.00000 
 43692.65567		 305.27265			43387.38302		66.22000		324.00000 
 43692.65567		 724.87338			42967.78230		218.46200		875.00000 
 43692.65567		 305.27265			43387.38302		66.22000		324.00000 
 43692.65567		 724.87338			42967.78230		218.46200		875.00000 
 43692.65567		 305.27265			43387.38302		66.22000		324.00000 
 43692.65567		 724.87338			42967.78230		218.46200		875.00000 
 43692.65567		 305.27265			43387.38302		66.22000		324.00000 
 43692.65567		 724.87338			42967.78230		218.46200		875.00000 
 43692.65567		 305.27265			43387.38302		66.22000		324.00000 
 43692.65567		 724.87338			42967.78230		218.46200		875.00000 
 43692.65567		 305.27265			43387.38302		66.22000		324.00000 
 43692.65567		 724.87338			42967.78230		218.46200		875.00000 
 43692.65567		 305.27265			43387.38302		66.22000		324.00000 
 43692.65567		 724.87338			42967.78230		218.46200		875.00000 
 43692.65567		 305.27265			43387.38302		66.22000		324.00000 
 43692.65567		 724.87338			42967.78230		218.46200		875.00000 
 43692.65567		 305.27265			43387.38302		66.22000		324.00000 
 43692.65567		 724.87338			42967.78230		218.46200		875.00000 
 43692.65567		 305.27265			43387.38302		66.22000		324.00000 
 43692.65567		 724.87338			42967.78230		218.46200		875.00000 
 43692.65567		 305.27265			43387.38302		66.22000		324.00000 
 43692.65567		 724.87338			42967.78230		218.46200		875.00000 
 43692.65567		 305.27265			43387.38302		66.22000		324.00000 
 43692.65567		 724.87338			42967.78230		218.46200		875.00000 
 43692.65567		 305.27265			43387.38302		66.22000		324.00000 
 43692.65567		 724.87338			42967.78230		218.46200		875.00000 
 43692.65567		 305.27265			43387.38302		66.22000		324.00000 
 43692.65567		 724.87338			42967.78230		218.46200		875.00000 
 43692.65567		 305.27265			43387.38302		66.22000		324.00000 
 43692.65567		 724.87338			42967.78230		218.46200		875.00000 
 43692.65567		 305.27265			43387.38302		66.22000		324.00000 
 43692.65567		 724.87338			42967.78230		218.46200		875.00000 
 43692.65567		 305.27265			43387.38302		66.22000		324.00000 
 43692.65567		 724.87338			42967.78230		218.46200		875.00000 
 43692.65567		 305.27265			43387.38302		66.22000		324.00000 
 43692.65567		 724.87338			42967.78230		218.46200		875.00000 
 43692.65567		 305.27265			43387.38302		66.22000		324.00000 
 43692.65567		 724.87338			42967.78230		218.46200		875.00000 
 43692.65567		 305.27265			43387.38302		66.22000		324.00000 
 43692.65567		 724.87338			42967.78230		218.46200		875.00000 
 43692.65567		 305.27265			43387.38302		66.22000		324.00000 
 43692.65567		 724.87338			42967.78230		218.46200		875.00000 
 43692.65567		 305.27265			43387.38302		66.22000		324.00000 
 43692.65567		 724.87338			42967.78230		218.46200		875.00000 
 43692.65567		 305.27265			43387.38302		66.22000		324.00000 
 43692.65567		 724.87338			42967.78230		218.46200		875.00000 
 43692.65567		 305.27265			43387.38302		66.22000		324.00000 
 43692.65567		 724.87338			42967.78230		218.46200		875.00000 
 43692.65567		 305.27265			43387.38302		66.22000		324.00000 
 43692.65567		 724.87338			42967.78230		218.46200		875.00000 
 43692.65567		 305.27265			43387.38302		66.22000		324.00000 
 43692.65567		 724.87338			42967.78230		218.46200		875.00000 
 43692.65567		 305.27265			43387.38302		66.22000		324.00000 
 43692.65567		 724.87338			42967.78230		218.46200		875.00000 
 43692.65567		 305.27265			43387.38302		66.22000		324.00000 
 43692.65567		 724.87338			42967.78230		218.46200		875.00000 
 43692.65567		 305.27265			43387.38302		66.22000		324.00000 
 43692.65567		 724.87338			42967.78230		218.46200		875.00000 
 43692.65567		 305.27265			43387.38302		66.22000		324.00000 
 43692.65567		 724.87338			42967.78230		218.46200		875.00000 
 43692.65567		 305.27265			43387.38302		66.22000		324.00000 
 43692.65567		 724.87338			42967.78230		218.46200		875.00000 
 43692.65567		 305.27265			43387.38302		66.22000		324.00000 
 43692.65567		 724.87338			42967.78230		218.46200		875.00000 
 43692.65567		 305.27265			43387.38302		66.22000		324.00000 
 43692.65567		 724.87338			42967.78230		218.46200		875.00000 
 43692.65567		 305.27265			43387.38302		66.22000		324.00000 
 43692.65567		 724.87338			42967.78230		218.46200		875.00000 
 43692.65567		 305.27265			43387.38302		66.22000		324.00000 
 43692.65567		 724.87338			42967.78230		218.46200		875.00000 
 43692.65567		 305.27265			43387.38302		66.22000		324.00000 
 43692.65567		 724.87338			42967.78230		218.46200		875.00000 
 43692.65567		 305.27265			43387.38302		66.22000		324.00000 
 43692.65567		 724.87338			42967.78230		218.46200		875.00000 
 43692.65567		 305.27265			43387.38302		66.22000		324.00000 
 43692.65567		 724.87338			42967.78230		218.46200		875.00000 
 43692.65567		 305.27265			43387.38302		66.22000		324.00000 
 43692.65567		 724.87338			42967.78230		218.46200		875.00000 
 43692.65567		 305.27265			43387.38302		66.22000		324.00000 
 43692.65567		 724.87338			42967.78230		218.46200		875.00000 
 43692.65567		 305.27265			43387.38302		66.22000		324.00000 
 43692.65567		 724.87338			42967.78230		218.46200		875.00000 
 43692.65567		 305.27265			43387.38302		66.22000		324.00000 
 43692.65567		 724.87338			42967.78230		218.46200		875.00000 
 43692.65567		 305.27265			43387.38302		66.22000		324.00000 
 43692.65567		 724.87338			42967.78230		218.46200		875.00000 
 43692.65567		 305.27265			43387.38302		66.22000		324.00000 
 43692.65567		 724.87338			42967.78230		218.46200		875.00000 
 43692.65567		 305.27265			43387.38302		66.22000		324.00000 
 43692.65567		 724.87338			42967.78230		218.46200		875.00000 
 43692.65567		 305.27265			43387.38302		66.22000		324.00000 
 43692.65567		 724.87338			42967.78230		218.46200		875.00000 
 43692.65567		 305.27265			43387.38302		66.22000		324.00000 
 43692.65567		 724.87338			42967.78230		218.46200		875.00000 
 43692.65567		 305.27265			43387.38302		66.22000		324.00000 
 43692.65567		 724.87338			42967.78230		218.46200		875.00000 
 43692.65567		 305.27265			43387.38302		66.22000		324.00000 
 43692.65567		 724.87338			42967.78230		218.46200		875.00000 
 43692.65567		 305.27265			43387.38302		66.22000		324.00000 
 43692.65567		 724.87338			42967.78230		218.46200		875.00000 
 43692.65567		 305.27265			43387.38302		66.22000		324.00000 
 43692.65567		 724.87338			42967.78230		218.46200		875.00000 
 43692.65567		 305.27265			43387.38302		66.22000		324.00000 
 43692.65567		 724.87338			42967.78230		218.46200		875.00000 
 43692.65567		 305.27265			43387.38302		66.22000		324.00000 
 43692.65567		 724.87338			42967.78230		218.46200		875.00000 
 43692.65567		 305.27265			43387.38302		66.22000		324.00000 
 43692.65567		 724.87338			42967.78230		218.46200		875.00000 
 43692.65567		 305.27265			43387.38302		66.22000		324.00000 
 43692.65567		 724.87338			42967.78230		218.46200		875.00000 
 43692.65567		 305.27265			43387.38302		66.22000		324.00000 
 43692.65567		 724.87338			42967.78230		218.46200		875.00000 
 43692.65567		 305.27265			43387.38302		66.22000		324.00000 
 43692.65567		 724.87338			42967.78230		218.46200		875.00000 
 43692.65567		 305.27265			43387.38302		66.22000		324.00000 
 43692.65567		 724.87338			42967.78230		218.46200		875.00000 
 43692.65567		 305.27265			43387.38302		66.22000		324.00000 
 43692.65567		 724.87338			42967.78230		218.46200		875.00000 
 43692.65567		 305.27265			43387.38302		66.22000		324.00000 
 43692.65567		 724.87338			42967.78230		218.46200		875.00000 
 43692.65567		 305.27265			43387.38302		66.22000		324.00000 
 43692.65567		 724.87338			42967.78230		218.46200		875.00000 
 43692.65567		 305.27265			43387.38302		66.22000		324.00000 
 43692.65567		 724.87338			42967.78230		218.46200		875.00000 
 43692.65567		 305.27265			43387.38302		66.22000		324.00000 
 43692.65567		 724.87338			42967.78230		218.46200		875.00000 
 43692.65567		 305.27265			43387.38302		69.65600		324.00000 
 43692.65567		 724.87338			42967.78230		218.46200		875.00000 
 43692.65567		 305.27265			43387.38302		69.65600		324.00000 
 43692.65567		 724.87338			42967.78230		218.46200		875.00000 
 43692.65567		 305.27265			43387.38302		69.65600		324.00000 
 43692.65567		 724.87338			42967.78230		218.46200		875.00000 
 43692.65567		 305.27265			43387.38302		69.65600		324.00000 
 43692.65567		 724.87338			42967.78230		218.46200		875.00000 
 43692.65567		 305.27265			43387.38302		69.65600		324.00000 
 43692.65567		 724.87338			42967.78230		218.46200		875.00000 
 43692.65567		 305.27265			43387.38302		69.65600		324.00000 
 43692.65567		 724.87338			42967.78230		218.46200		875.00000 
 43692.65567		 305.27265			43387.38302		69.65600		324.00000 
 43692.65567		 724.87338			42967.78230		218.46200		875.00000 
 43692.65567		 305.27265			43387.38302		69.65600		324.00000 
 43692.65567		 724.87338			42967.78230		218.46200		875.00000 
 43692.65567		 305.27265			43387.38302		69.65600		324.00000 
 43692.65567		 724.87338			42967.78230		218.46200		875.00000 
 43692.65567		 305.27265			43387.38302		69.65600		324.00000 
 43692.65567		 724.87338			42967.78230		218.46200		875.00000 
 43692.65567		 305.27265			43387.38302		69.65600		324.00000 
 43692.65567		 724.87338			42967.78230		218.46200		875.00000 
 43692.65567		 305.27265			43387.38302		69.65600		324.00000 
 43692.65567		 724.87338			42967.78230		218.46200		875.00000 
 43692.65567		 305.27265			43387.38302		69.65600		324.00000 
 43692.65567		 724.87338			42967.78230		218.46200		875.00000 
 43692.65567		 305.27265			43387.38302		69.65600		324.00000 
 43692.65567		 724.87338			42967.78230		218.46200		875.00000 
 43692.65567		 305.27265			43387.38302		69.65600		324.00000 
 43692.65567		 724.87338			42967.78230		218.46200		875.00000 
 43692.65567		 305.27265			43387.38302		69.65600		324.00000 
 43692.65567		 724.87338			42967.78230		218.46200		875.00000 
 43692.65567		 305.27265			43387.38302		69.65600		324.00000 
 43692.65567		 724.87338			42967.78230		218.46200		875.00000 
 43692.65567		 305.27265			43387.38302		69.65600		324.00000 
 43692.65567		 724.87338			42967.78230		218.46200		875.00000 
 43692.65567		 305.27265			43387.38302		69.65600		324.00000 
 43692.65567		 724.87338			42967.78230		218.46200		875.00000 
 43692.65567		 305.27265			43387.38302		69.65600		324.00000 
 43692.65567		 724.87338			42967.78230		218.46200		875.00000 
 43692.65567		 305.27265			43387.38302		69.65600		324.00000 
 43692.65567		 724.87338			42967.78230		218.46200		875.00000 
 43692.65567		 305.27265			43387.38302		69.65600		324.00000 
 43692.65567		 724.87338			42967.78230		218.46200		875.00000 
 43692.65567		 305.27265			43387.38302		69.65600		324.00000 
 43692.65567		 724.87338			42967.78230		218.46200		875.00000 
 43692.65567		 305.27265			43387.38302		69.65600		324.00000 
 43692.65567		 724.87338			42967.78230		218.46200		875.00000 
 43692.65567		 305.27265			43387.38302		69.65600		324.00000 
 43692.65567		 724.87338			42967.78230		218.46200		875.00000 
 43692.65567		 305.27265			43387.38302		69.65600		324.00000 
 43692.65567		 724.87338			42967.78230		218.46200		875.00000 
 43692.65567		 305.27265			43387.38302		69.65600		324.00000 
 43692.65567		 724.87338			42967.78230		218.46200		875.00000 
 43692.65567		 305.27265			43387.38302		69.65600		324.00000 
 43692.65567		 724.87338			42967.78230		218.46200		875.00000 
 43692.65567		 305.27265			43387.38302		69.65600		324.00000 
 43692.65567		 724.87338			42967.78230		218.46200		875.00000 
 43692.65567		 305.27265			43387.38302		69.65600		324.00000 
 43692.65567		 724.87338			42967.78230		218.46200		875.00000 
 43692.65567		 305.27265			43387.38302		69.65600		324.00000 
 43692.65567		 724.87338			42967.78230		218.46200		875.00000 
 43692.65567		 305.27265			43387.38302		69.65600		324.00000 
 43692.65567		 724.87338			42967.78230		218.46200		875.00000 
 43692.65567		 305.27265			43387.38302		69.65600		324.00000 
 43692.65567		 724.87338			42967.78230		218.46200		875.00000 
 43692.65567		 305.27265			43387.38302		69.65600		324.00000 
 43692.65567		 724.87338			42967.78230		218.46200		875.00000 
 43692.65567		 305.27265			43387.38302		69.65600		324.00000 
 43692.65567		 724.87338			42967.78230		218.46200		875.00000 
 43692.65567		 305.27265			43387.38302		69.65600		324.00000 
 43692.65567		 724.87338			42967.78230		218.46200		875.00000 
 43692.65567		 305.27265			43387.38302		69.65600		324.00000 
 43692.65567		 724.87338			42967.78230		218.46200		875.00000 
 43692.65567		 305.27265			43387.38302		69.65600		324.00000 
 43692.65567		 724.87338			42967.78230		218.46200		875.00000 
 43692.65567		 305.27265			43387.38302		69.65600		324.00000 
 43692.65567		 724.87338			42967.78230		218.46200		875.00000 
 43692.65567		 305.27265			43387.38302		69.65600		324.00000 
 43692.65567		 724.87338			42967.78230		218.46200		875.00000 
 43692.65567		 305.27265			43387.38302		69.65600		324.00000 
 43692.65567		 724.87338			42967.78230		218.46200		875.00000 
 43692.65567		 305.27265			43387.38302		69.65600		324.00000 
 43692.65567		 724.87338			42967.78230		218.46200		875.00000 
 43692.65567		 305.27265			43387.38302		69.65600		324.00000 
 43692.65567		 724.87338			42967.78230		218.46200		875.00000 
 43692.65567		 305.27265			43387.38302		69.65600		324.00000 
 43692.65567		 724.87338			42967.78230		218.46200		875.00000 
 43692.65567		 305.27265			43387.38302		69.65600		324.00000 
 43692.65567		 724.87338			42967.78230		218.46200		875.00000 
 43692.65567		 305.27265			43387.38302		69.65600		324.00000 
 43692.65567		 724.87338			42967.78230		218.46200		875.00000 
 43692.65567		 305.27265			43387.38302		69.65600		324.00000 
 43692.65567		 724.87338			42967.78230		218.46200		875.00000 
 43692.65567		 305.27265			43387.38302		69.65600		324.00000 
 43692.65567		 724.87338			42967.78230		218.46200		875.00000 
 43692.65567		 305.27265			43387.38302		69.65600		324.00000 
 43692.65567		 724.87338			42967.78230		218.46200		875.00000 
 43692.65567		 305.27265			43387.38302		69.65600		324.00000 
 43692.65567		 724.87338			42967.78230		218.46200		875.00000 
 43692.65567		 305.27265			43387.38302		69.65600		324.00000 
 43692.65567		 724.87338			42967.78230		218.46200		875.00000 
 43692.65567		 305.27265			43387.38302		69.65600		324.00000 
 43692.65567		 724.87338			42967.78230		218.46200		875.00000 
 43692.65567		 305.27265			43387.38302		69.65600		324.00000 
 43692.65567		 724.87338			42967.78230		218.46200		875.00000 
 43692.65567		 305.27265			43387.38302		69.65600		324.00000 
 43692.65567		 724.87338			42967.78230		218.46200		875.00000 
 43692.65567		 305.27265			43387.38302		69.65600		324.00000 
 43692.65567		 724.87338			42967.78230		218.46200		875.00000 
 43692.65567		 305.27265			43387.38302		69.65600		324.00000 
 43692.65567		 724.87338			42967.78230		218.46200		875.00000 
 43692.65567		 305.27265			43387.38302		69.65600		324.00000 
 43692.65567		 724.87338			42967.78230		218.46200		875.00000 
 43692.65567		 305.27265			43387.38302		69.65600		324.00000 
 43692.65567		 724.87338			42967.78230		218.46200		875.00000 
 43692.65567		 305.27265			43387.38302		69.65600		324.00000 
 43692.65567		 724.87338			42967.78230		218.46200		875.00000 
 43692.65567		 305.27265			43387.38302		69.65600		324.00000 
 43692.65567		 724.87338			42967.78230		218.46200		875.00000 
 43692.65567		 305.27265			43387.38302		69.65600		324.00000 
 43692.65567		 724.87338			42967.78230		218.46200		875.00000 
 43692.65567		 305.27265			43387.38302		69.65600		324.00000 
 43692.65567		 724.87338			42967.78230		218.46200		875.00000 
 43692.65567		 305.27265			43387.38302		69.65600		324.00000 
 43692.65567		 724.87338			42967.78230		218.46200		875.00000 
 43692.65567		 305.27265			43387.38302		69.65600		324.00000 
 43692.65567		 724.87338			42967.78230		218.46200		875.00000 
 43692.65567		 305.27265			43387.38302		69.65600		324.00000 
 43692.65567		 724.87338			42967.78230		218.46200		875.00000 
 43692.65567		 305.27265			43387.38302		69.65600		324.00000 
 43692.65567		 724.87338			42967.78230		218.46200		875.00000 
 43692.65567		 305.27265			43387.38302		69.65600		324.00000 
 43692.65567		 724.87338			42967.78230		218.46200		875.00000 
 43692.65567		 305.27265			43387.38302		69.65600		324.00000 
 43692.65567		 724.87338			42967.78230		218.46200		875.00000 
 43692.65567		 305.27265			43387.38302		69.65600		324.00000 
 43692.65567		 724.87338			42967.78230		218.46200		875.00000 
 43692.65567		 305.27265			43387.38302		69.65600		324.00000 
 43692.65567		 724.87338			42967.78230		218.46200		875.00000 
 43692.65567		 305.27265			43387.38302		69.65600		324.00000 
 43692.65567		 724.87338			42967.78230		218.46200		875.00000 
 43692.65567		 305.27265			43387.38302		69.65600		324.00000 
 43692.65567		 724.87338			42967.78230		218.46200		875.00000 
 43692.65567		 305.27265			43387.38302		69.65600		324.00000 
 43692.65567		 724.87338			42967.78230		218.46200		875.00000 
 43692.65567		 305.27265			43387.38302		69.65600		324.00000 
 43692.65567		 724.87338			42967.78230		218.46200		875.00000 
 43692.65567		 305.27265			43387.38302		69.65600		324.00000 
 43692.65567		 724.87338			42967.78230		218.46200		875.00000 
 43692.65567		 305.27265			43387.38302		69.65600		324.00000 
 43692.65567		 724.87338			42967.78230		218.46200		875.00000 
 43692.65567		 305.27265			43387.38302		69.65600		324.00000 
 43692.65567		 724.87338			42967.78230		218.46200		875.00000 
 43692.65567		 305.27265			43387.38302		69.65600		324.00000 
 43692.65567		 724.87338			42967.78230		218.46200		875.00000 
 43692.65567		 305.27265			43387.38302		69.65600		324.00000 
 43692.65567		 724.87338			42967.78230		218.46200		875.00000 
 43692.65567		 305.27265			43387.38302		69.65600		324.00000 
 43692.65567		 724.87338			42967.78230		218.46200		875.00000 
 43692.65567		 305.27265			43387.38302		69.65600		324.00000 
 43692.65567		 724.87338			42967.78230		218.46200		875.00000 
 43692.65567		 305.27265			43387.38302		69.65600		324.00000 
 43692.65567		 724.87338			42967.78230		218.46200		875.00000 
 43692.65567		 305.27265			43387.38302		69.65600		324.00000 
 43692.65567		 724.87338			42967.78230		218.46200		875.00000 
 43692.65567		 305.27265			43387.38302		69.65600		324.00000 
 43692.65567		 724.87338			42967.78230		218.46200		875.00000 
 43692.65567		 305.27265			43387.38302		69.65600		324.00000 
 43692.65567		 724.87338			42967.78230		218.46200		875.00000 
 43692.65567		 305.27265			43387.38302		69.65600		324.00000 
 43692.65567		 724.87338			42967.78230		218.46200		875.00000 
 43692.65567		 305.27265			43387.38302		69.65600		324.00000 
 43692.65567		 724.87338			42967.78230		218.46200		875.00000 
 43692.65567		 305.27265			43387.38302		69.65600		324.00000 
 43692.65567		 724.87338			42967.78230		218.46200		875.00000 
 43692.65567		 305.27265			43387.38302		69.65600		324.00000 
 43692.65567		 724.87338			42967.78230		218.46200		875.00000 
 43692.65567		 305.27265			43387.38302		69.65600		324.00000 
 43692.65567		 724.87338			42967.78230		218.46200		875.00000 
 43692.65567		 305.27265			43387.38302		69.65600		324.00000 
 43692.65567		 724.87338			42967.78230		218.46200		875.00000 
 43692.65567		 305.27265			43387.38302		69.65600		324.00000 
 43692.65567		 662.33902			43030.31665		218.46200		875.00000 
 43692.65567		 305.27265			43387.38302		69.65600		324.00000 
 43692.65567		 599.80467			43092.85100		218.46200		875.00000 
 43692.65567		 305.27265			43387.38302		69.65600		324.00000 
 43692.65567		 537.27032			43155.38535		218.46200		875.00000 
 43692.65567		 305.27265			43387.38302		69.65600		324.00000 
 43692.65567		 537.27032			43155.38535		218.46200		875.00000 
 43692.65567		 305.27265			43387.38302		69.65600		324.00000 
 43692.65567		 537.27032			43155.38535		218.46200		875.00000 
 43692.65567		 305.27265			43387.38302		69.65600		324.00000 
 43692.65567		 537.27032			43155.38535		210.94800		875.00000 
 43692.65567		 305.27265			43387.38302		69.65600		324.00000 
 43692.65567		 537.27032			43155.38535		210.94800		875.00000 
 43692.65567		 305.27265			43387.38302		69.65600		324.00000 
 43692.65567		 537.27032			43155.38535		210.94800		875.00000 
 43692.65567		 305.27265			43387.38302		69.65600		324.00000 
 43692.65567		 537.27032			43155.38535		210.94800		875.00000 
 43692.65567		 305.27265			43387.38302		69.65600		324.00000 
 43692.65567		 537.27032			43155.38535		210.94800		875.00000 
 43692.65567		 305.27265			43387.38302		69.65600		324.00000 
 43692.65567		 537.27032			43155.38535		210.94800		875.00000 
 43692.65567		 305.27265			43387.38302		69.65600		324.00000 
 43692.65567		 537.27032			43155.38535		210.94800		875.00000 
 43692.65567		 305.27265			43387.38302		69.65600		324.00000 
 43692.65567		 537.27032			43155.38535		210.94800		875.00000 
 43692.65567		 305.27265			43387.38302		69.65600		324.00000 
 43692.65567		 537.27032			43155.38535		210.94800		875.00000 
 43692.65567		 305.27265			43387.38302		69.65600		324.00000 
 43692.65567		 537.27032			43155.38535		210.94800		875.00000 
 43692.65567		 305.27265			43387.38302		69.65600		324.00000 
 43692.65567		 537.27032			43155.38535		210.94800		875.00000 
 43692.65567		 305.27265			43387.38302		69.65600		324.00000 
 43692.65567		 537.27032			43155.38535		210.94800		875.00000 
 43692.65567		 305.27265			43387.38302		69.65600		324.00000 
 43692.65567		 537.27032			43155.38535		210.94800		875.00000 
 43692.65567		 305.27265			43387.38302		69.65600		324.00000 
 43692.65567		 537.27032			43155.38535		210.94800		875.00000 
 43692.65567		 305.27265			43387.38302		69.65600		324.00000 
 43692.65567		 537.27032			43155.38535		210.94800		875.00000 
 43692.65567		 305.27265			43387.38302		69.65600		324.00000 
 43692.65567		 537.27032			43155.38535		210.94800		875.00000 
 43692.65567		 305.27265			43387.38302		69.65600		324.00000 
 43692.65567		 537.27032			43155.38535		210.94800		875.00000 
 43692.65567		 305.27265			43387.38302		69.65600		324.00000 
 43692.65567		 537.27032			43155.38535		210.94800		875.00000 
 43692.65567		 305.27265			43387.38302		69.65600		324.00000 
 43692.65567		 525.81365			43166.84203		210.94800		875.00000 
 43692.65567		 305.27265			43387.38302		69.65600		324.00000 
 43692.65567		 525.81365			43166.84203		210.94800		875.00000 
 43692.65567		 261.35540			43431.30027		69.65600		324.00000 
 43692.65567		 261.35540			43431.30027		210.94800		875.00000 
 43692.65567		 261.35540			43431.30027		69.65600		324.00000 
