Memory Total (MiB) 	 Memory Used (MiB) 	    Memory Free (MiB) 	 Power Drawed (W) 	 Clocks (Mhz) 	 
 43692.65567		 261.35540			43431.30027		188.20800		875.00000 
 43692.65567		 261.35540			43431.30027		71.21000		324.00000 
 43692.65567		 261.35540			43431.30027		188.20800		875.00000 
 43692.65567		 261.35540			43431.30027		71.21000		324.00000 
 43692.65567		 261.35540			43431.30027		188.20800		875.00000 
 43692.65567		 261.35540			43431.30027		71.21000		324.00000 
 43692.65567		 261.35540			43431.30027		188.20800		875.00000 
 43692.65567		 261.35540			43431.30027		71.21000		324.00000 
 43692.65567		 261.35540			43431.30027		188.20800		875.00000 
 43692.65567		 261.35540			43431.30027		71.21000		324.00000 
 43692.65567		 261.35540			43431.30027		188.20800		875.00000 
 43692.65567		 261.35540			43431.30027		71.21000		324.00000 
 43692.65567		 261.35540			43431.30027		188.20800		875.00000 
 43692.65567		 261.35540			43431.30027		71.21000		324.00000 
 43692.65567		 261.35540			43431.30027		188.20800		875.00000 
 43692.65567		 261.35540			43431.30027		71.21000		324.00000 
 43692.65567		 261.35540			43431.30027		188.20800		875.00000 
 43692.65567		 261.35540			43431.30027		71.21000		324.00000 
 43692.65567		 261.35540			43431.30027		153.49000		875.00000 
 43692.65567		 261.35540			43431.30027		71.21000		324.00000 
 43692.65567		 261.35540			43431.30027		153.49000		875.00000 
 43692.65567		 261.35540			43431.30027		71.21000		324.00000 
 43692.65567		 261.35540			43431.30027		153.49000		875.00000 
 43692.65567		 261.35540			43431.30027		71.21000		324.00000 
 43692.65567		 261.35540			43431.30027		153.49000		875.00000 
 43692.65567		 261.35540			43431.30027		71.21000		324.00000 
 43692.65567		 261.35540			43431.30027		153.49000		875.00000 
 43692.65567		 261.35540			43431.30027		71.21000		324.00000 
 43692.65567		 261.35540			43431.30027		153.49000		875.00000 
 43692.65567		 261.35540			43431.30027		71.21000		324.00000 
 43692.65567		 261.35540			43431.30027		153.49000		875.00000 
 43692.65567		 261.35540			43431.30027		71.21000		324.00000 
 43692.65567		 261.35540			43431.30027		153.49000		875.00000 
 43692.65567		 261.35540			43431.30027		71.21000		324.00000 
 43692.65567		 261.35540			43431.30027		153.49000		875.00000 
 43692.65567		 261.35540			43431.30027		71.21000		324.00000 
 43692.65567		 265.17429			43427.48138		153.49000		875.00000 
 43692.65567		 261.35540			43431.30027		71.21000		324.00000 
 43692.65567		 265.17429			43427.48138		153.49000		875.00000 
 43692.65567		 261.35540			43431.30027		71.21000		324.00000 
 43692.65567		 272.81207			43419.84360		153.49000		875.00000 
 43692.65567		 261.35540			43431.30027		71.21000		324.00000 
 43692.65567		 272.81207			43419.84360		153.49000		875.00000 
 43692.65567		 261.35540			43431.30027		71.21000		324.00000 
 43692.65567		 272.81207			43419.84360		153.49000		875.00000 
 43692.65567		 265.17429			43427.48138		71.21000		324.00000 
 43692.65567		 272.81207			43419.84360		153.49000		875.00000 
 43692.65567		 265.17429			43427.48138		71.21000		324.00000 
 43692.65567		 272.81207			43419.84360		153.49000		875.00000 
 43692.65567		 265.17429			43427.48138		71.21000		324.00000 
 43692.65567		 272.81207			43419.84360		153.49000		875.00000 
 43692.65567		 272.81207			43419.84360		71.21000		324.00000 
 43692.65567		 272.81207			43419.84360		153.49000		875.00000 
 43692.65567		 272.81207			43419.84360		71.21000		324.00000 
 43692.65567		 272.81207			43419.84360		153.49000		875.00000 
 43692.65567		 272.81207			43419.84360		71.21000		324.00000 
 43692.65567		 305.27265			43387.38302		153.49000		875.00000 
 43692.65567		 305.27265			43387.38302		71.21000		324.00000 
 43692.65567		 305.27265			43387.38302		153.49000		875.00000 
 43692.65567		 305.27265			43387.38302		71.21000		324.00000 
 43692.65567		 305.27265			43387.38302		153.49000		875.00000 
 43692.65567		 305.27265			43387.38302		71.21000		324.00000 
 43692.65567		 305.27265			43387.38302		153.49000		875.00000 
 43692.65567		 305.27265			43387.38302		71.21000		324.00000 
 43692.65567		 305.27265			43387.38302		153.49000		875.00000 
 43692.65567		 305.27265			43387.38302		71.21000		324.00000 
 43692.65567		 309.56891			43383.08677		153.49000		875.00000 
 43692.65567		 305.27265			43387.38302		71.21000		324.00000 
 43692.65567		 311.00099			43381.65468		153.49000		875.00000 
 43692.65567		 305.27265			43387.38302		71.21000		324.00000 
 43692.65567		 311.00099			43381.65468		153.49000		875.00000 
 43692.65567		 305.27265			43387.38302		71.21000		324.00000 
 43692.65567		 311.00099			43381.65468		153.49000		875.00000 
 43692.65567		 305.27265			43387.38302		71.21000		324.00000 
 43692.65567		 311.00099			43381.65468		153.49000		875.00000 
 43692.65567		 305.27265			43387.38302		71.21000		324.00000 
 43692.65567		 311.00099			43381.65468		153.49000		875.00000 
 43692.65567		 305.27265			43387.38302		71.21000		324.00000 
 43692.65567		 311.00099			43381.65468		153.49000		875.00000 
 43692.65567		 305.27265			43387.38302		71.21000		324.00000 
 43692.65567		 311.00099			43381.65468		153.49000		875.00000 
 43692.65567		 305.27265			43387.38302		71.21000		324.00000 
 43692.65567		 311.00099			43381.65468		139.87400		875.00000 
 43692.65567		 305.27265			43387.38302		71.21000		324.00000 
 43692.65567		 311.00099			43381.65468		139.87400		875.00000 
 43692.65567		 305.27265			43387.38302		66.21000		324.00000 
 43692.65567		 311.00099			43381.65468		139.87400		875.00000 
 43692.65567		 305.27265			43387.38302		66.21000		324.00000 
 43692.65567		 311.00099			43381.65468		139.87400		875.00000 
 43692.65567		 305.27265			43387.38302		66.21000		324.00000 
 43692.65567		 311.00099			43381.65468		139.87400		875.00000 
 43692.65567		 305.27265			43387.38302		66.21000		324.00000 
 43692.65567		 311.00099			43381.65468		139.87400		875.00000 
 43692.65567		 305.27265			43387.38302		66.21000		324.00000 
 43692.65567		 311.00099			43381.65468		139.87400		875.00000 
 43692.65567		 305.27265			43387.38302		66.21000		324.00000 
 43692.65567		 311.00099			43381.65468		139.87400		875.00000 
 43692.65567		 305.27265			43387.38302		66.21000		324.00000 
 43692.65567		 311.00099			43381.65468		139.87400		875.00000 
 43692.65567		 305.27265			43387.38302		66.21000		324.00000 
 43692.65567		 311.00099			43381.65468		139.87400		875.00000 
 43692.65567		 305.27265			43387.38302		66.21000		324.00000 
 43692.65567		 311.00099			43381.65468		139.87400		875.00000 
 43692.65567		 305.27265			43387.38302		66.21000		324.00000 
 43692.65567		 311.00099			43381.65468		139.87400		875.00000 
 43692.65567		 305.27265			43387.38302		66.21000		324.00000 
 43692.65567		 311.00099			43381.65468		139.87400		875.00000 
 43692.65567		 305.27265			43387.38302		66.21000		324.00000 
 43692.65567		 311.00099			43381.65468		139.87400		875.00000 
 43692.65567		 305.27265			43387.38302		66.21000		324.00000 
 43692.65567		 311.00099			43381.65468		139.87400		875.00000 
 43692.65567		 305.27265			43387.38302		66.21000		324.00000 
 43692.65567		 311.00099			43381.65468		139.87400		875.00000 
 43692.65567		 305.27265			43387.38302		66.21000		324.00000 
 43692.65567		 311.00099			43381.65468		139.87400		875.00000 
 43692.65567		 305.27265			43387.38302		66.21000		324.00000 
 43692.65567		 311.00099			43381.65468		139.87400		875.00000 
 43692.65567		 305.27265			43387.38302		66.21000		324.00000 
 43692.65567		 311.00099			43381.65468		139.87400		875.00000 
 43692.65567		 305.27265			43387.38302		66.21000		324.00000 
 43692.65567		 311.00099			43381.65468		139.87400		875.00000 
 43692.65567		 305.27265			43387.38302		66.21000		324.00000 
 43692.65567		 311.00099			43381.65468		139.87400		875.00000 
 43692.65567		 305.27265			43387.38302		66.21000		324.00000 
 43692.65567		 311.00099			43381.65468		139.87400		875.00000 
 43692.65567		 305.27265			43387.38302		66.21000		324.00000 
 43692.65567		 311.00099			43381.65468		139.87400		875.00000 
 43692.65567		 305.27265			43387.38302		66.21000		324.00000 
 43692.65567		 311.00099			43381.65468		139.87400		875.00000 
 43692.65567		 305.27265			43387.38302		66.21000		324.00000 
 43692.65567		 311.00099			43381.65468		139.87400		875.00000 
 43692.65567		 305.27265			43387.38302		66.21000		324.00000 
 43692.65567		 311.00099			43381.65468		139.87400		875.00000 
 43692.65567		 305.27265			43387.38302		66.21000		324.00000 
 43692.65567		 311.00099			43381.65468		139.87400		875.00000 
 43692.65567		 305.27265			43387.38302		66.21000		324.00000 
 43692.65567		 311.00099			43381.65468		139.87400		875.00000 
 43692.65567		 305.27265			43387.38302		66.21000		324.00000 
 43692.65567		 311.00099			43381.65468		139.87400		875.00000 
 43692.65567		 305.27265			43387.38302		66.21000		324.00000 
 43692.65567		 311.00099			43381.65468		135.03600		875.00000 
 43692.65567		 305.27265			43387.38302		66.21000		324.00000 
 43692.65567		 311.00099			43381.65468		135.03600		875.00000 
 43692.65567		 305.27265			43387.38302		66.21000		324.00000 
 43692.65567		 311.00099			43381.65468		135.03600		875.00000 
 43692.65567		 305.27265			43387.38302		66.21000		324.00000 
 43692.65567		 311.00099			43381.65468		135.03600		875.00000 
 43692.65567		 305.27265			43387.38302		66.21000		324.00000 
 43692.65567		 311.00099			43381.65468		135.03600		875.00000 
 43692.65567		 305.27265			43387.38302		66.21000		324.00000 
 43692.65567		 311.00099			43381.65468		135.03600		875.00000 
 43692.65567		 305.27265			43387.38302		66.21000		324.00000 
 43692.65567		 311.00099			43381.65468		135.03600		875.00000 
 43692.65567		 305.27265			43387.38302		66.21000		324.00000 
 43692.65567		 311.00099			43381.65468		135.03600		875.00000 
 43692.65567		 305.27265			43387.38302		66.21000		324.00000 
 43692.65567		 311.00099			43381.65468		135.03600		875.00000 
 43692.65567		 305.27265			43387.38302		66.21000		324.00000 
 43692.65567		 311.00099			43381.65468		135.03600		875.00000 
 43692.65567		 305.27265			43387.38302		66.21000		324.00000 
 43692.65567		 311.00099			43381.65468		135.03600		875.00000 
 43692.65567		 305.27265			43387.38302		66.21000		324.00000 
 43692.65567		 311.00099			43381.65468		135.03600		875.00000 
 43692.65567		 305.27265			43387.38302		66.21000		324.00000 
 43692.65567		 311.00099			43381.65468		135.03600		875.00000 
 43692.65567		 305.27265			43387.38302		66.21000		324.00000 
 43692.65567		 311.00099			43381.65468		135.03600		875.00000 
 43692.65567		 305.27265			43387.38302		66.21000		324.00000 
 43692.65567		 311.00099			43381.65468		135.03600		875.00000 
 43692.65567		 305.27265			43387.38302		66.21000		324.00000 
 43692.65567		 311.00099			43381.65468		135.03600		875.00000 
 43692.65567		 305.27265			43387.38302		66.21000		324.00000 
 43692.65567		 314.81988			43377.83579		135.03600		875.00000 
 43692.65567		 305.27265			43387.38302		66.21000		324.00000 
 43692.65567		 314.81988			43377.83579		135.03600		875.00000 
 43692.65567		 305.27265			43387.38302		66.21000		324.00000 
 43692.65567		 314.81988			43377.83579		135.03600		875.00000 
 43692.65567		 305.27265			43387.38302		66.21000		324.00000 
 43692.65567		 318.63877			43374.01690		135.03600		875.00000 
 43692.65567		 305.27265			43387.38302		66.21000		324.00000 
 43692.65567		 322.45767			43370.19801		135.03600		875.00000 
 43692.65567		 305.27265			43387.38302		66.21000		324.00000 
 43692.65567		 326.27656			43366.37912		135.03600		875.00000 
 43692.65567		 305.27265			43387.38302		66.21000		324.00000 
 43692.65567		 326.27656			43366.37912		135.03600		875.00000 
 43692.65567		 305.27265			43387.38302		66.21000		324.00000 
 43692.65567		 326.27656			43366.37912		135.03600		875.00000 
 43692.65567		 305.27265			43387.38302		66.21000		324.00000 
 43692.65567		 537.27032			43155.38535		135.03600		875.00000 
 43692.65567		 305.27265			43387.38302		66.21000		324.00000 
 43692.65567		 675.22778			43017.42789		135.03600		875.00000 
 43692.65567		 305.27265			43387.38302		66.21000		324.00000 
 43692.65567		 951.14271			42741.51297		135.03600		875.00000 
 43692.65567		 305.27265			43387.38302		66.21000		324.00000 
 43692.65567		 951.14271			42741.51297		135.03600		875.00000 
 43692.65567		 305.27265			43387.38302		66.21000		324.00000 
 43692.65567		 951.14271			42741.51297		135.03600		875.00000 
 43692.65567		 305.27265			43387.38302		66.21000		324.00000 
 43692.65567		 951.14271			42741.51297		135.03600		875.00000 
 43692.65567		 305.27265			43387.38302		66.21000		324.00000 
 43692.65567		 951.14271			42741.51297		135.03600		875.00000 
 43692.65567		 305.27265			43387.38302		66.21000		324.00000 
 43692.65567		 951.14271			42741.51297		135.03600		875.00000 
 43692.65567		 305.27265			43387.38302		66.21000		324.00000 
 43692.65567		 951.14271			42741.51297		135.03600		875.00000 
 43692.65567		 305.27265			43387.38302		66.21000		324.00000 
 43692.65567		 951.14271			42741.51297		135.03600		875.00000 
 43692.65567		 305.27265			43387.38302		66.21000		324.00000 
 43692.65567		 951.14271			42741.51297		135.03600		875.00000 
 43692.65567		 305.27265			43387.38302		66.21000		324.00000 
 43692.65567		 951.14271			42741.51297		135.03600		875.00000 
 43692.65567		 305.27265			43387.38302		66.21000		324.00000 
 43692.65567		 951.14271			42741.51297		135.03600		875.00000 
 43692.65567		 305.27265			43387.38302		66.21000		324.00000 
 43692.65567		 951.14271			42741.51297		135.03600		875.00000 
 43692.65567		 305.27265			43387.38302		66.21000		324.00000 
 43692.65567		 951.14271			42741.51297		135.03600		875.00000 
 43692.65567		 305.27265			43387.38302		66.21000		324.00000 
 43692.65567		 951.14271			42741.51297		135.03600		875.00000 
 43692.65567		 305.27265			43387.38302		66.21000		324.00000 
 43692.65567		 951.14271			42741.51297		135.03600		875.00000 
 43692.65567		 305.27265			43387.38302		66.21000		324.00000 
 43692.65567		 951.14271			42741.51297		135.03600		875.00000 
 43692.65567		 305.27265			43387.38302		66.21000		324.00000 
 43692.65567		 951.14271			42741.51297		135.03600		875.00000 
 43692.65567		 305.27265			43387.38302		66.21000		324.00000 
 43692.65567		 951.14271			42741.51297		135.03600		875.00000 
 43692.65567		 305.27265			43387.38302		66.21000		324.00000 
 43692.65567		 951.14271			42741.51297		155.57800		875.00000 
 43692.65567		 305.27265			43387.38302		66.21000		324.00000 
 43692.65567		 951.14271			42741.51297		155.57800		875.00000 
 43692.65567		 305.27265			43387.38302		66.21000		324.00000 
 43692.65567		 951.14271			42741.51297		155.57800		875.00000 
 43692.65567		 305.27265			43387.38302		66.21000		324.00000 
 43692.65567		 951.14271			42741.51297		155.57800		875.00000 
 43692.65567		 305.27265			43387.38302		66.21000		324.00000 
 43692.65567		 951.14271			42741.51297		155.57800		875.00000 
 43692.65567		 305.27265			43387.38302		66.21000		324.00000 
 43692.65567		 951.14271			42741.51297		155.57800		875.00000 
 43692.65567		 305.27265			43387.38302		66.21000		324.00000 
 43692.65567		 951.14271			42741.51297		155.57800		875.00000 
 43692.65567		 305.27265			43387.38302		66.21000		324.00000 
 43692.65567		 951.14271			42741.51297		155.57800		875.00000 
 43692.65567		 305.27265			43387.38302		66.21000		324.00000 
 43692.65567		 951.14271			42741.51297		155.57800		875.00000 
 43692.65567		 305.27265			43387.38302		66.21000		324.00000 
 43692.65567		 951.14271			42741.51297		155.57800		875.00000 
 43692.65567		 305.27265			43387.38302		66.21000		324.00000 
 43692.65567		 951.14271			42741.51297		155.57800		875.00000 
 43692.65567		 305.27265			43387.38302		66.21000		324.00000 
 43692.65567		 951.14271			42741.51297		155.57800		875.00000 
 43692.65567		 305.27265			43387.38302		66.21000		324.00000 
 43692.65567		 951.14271			42741.51297		155.57800		875.00000 
 43692.65567		 305.27265			43387.38302		66.21000		324.00000 
 43692.65567		 951.14271			42741.51297		155.57800		875.00000 
 43692.65567		 305.27265			43387.38302		66.21000		324.00000 
 43692.65567		 951.14271			42741.51297		155.57800		875.00000 
 43692.65567		 305.27265			43387.38302		66.21000		324.00000 
 43692.65567		 951.14271			42741.51297		155.57800		875.00000 
 43692.65567		 305.27265			43387.38302		66.21000		324.00000 
 43692.65567		 951.14271			42741.51297		155.57800		875.00000 
 43692.65567		 305.27265			43387.38302		66.21000		324.00000 
 43692.65567		 951.14271			42741.51297		155.57800		875.00000 
 43692.65567		 305.27265			43387.38302		66.21000		324.00000 
 43692.65567		 951.14271			42741.51297		155.57800		875.00000 
 43692.65567		 305.27265			43387.38302		66.21000		324.00000 
 43692.65567		 951.14271			42741.51297		155.57800		875.00000 
 43692.65567		 305.27265			43387.38302		66.21000		324.00000 
 43692.65567		 951.14271			42741.51297		155.57800		875.00000 
 43692.65567		 305.27265			43387.38302		66.21000		324.00000 
 43692.65567		 951.14271			42741.51297		155.57800		875.00000 
 43692.65567		 305.27265			43387.38302		66.21000		324.00000 
 43692.65567		 951.14271			42741.51297		155.57800		875.00000 
 43692.65567		 305.27265			43387.38302		66.21000		324.00000 
 43692.65567		 951.14271			42741.51297		155.57800		875.00000 
 43692.65567		 305.27265			43387.38302		66.21000		324.00000 
 43692.65567		 951.14271			42741.51297		155.57800		875.00000 
 43692.65567		 305.27265			43387.38302		66.21000		324.00000 
 43692.65567		 951.14271			42741.51297		155.57800		875.00000 
 43692.65567		 305.27265			43387.38302		66.21000		324.00000 
 43692.65567		 951.14271			42741.51297		155.57800		875.00000 
 43692.65567		 305.27265			43387.38302		66.21000		324.00000 
 43692.65567		 951.14271			42741.51297		155.57800		875.00000 
 43692.65567		 305.27265			43387.38302		66.21000		324.00000 
 43692.65567		 951.14271			42741.51297		155.57800		875.00000 
 43692.65567		 305.27265			43387.38302		66.21000		324.00000 
 43692.65567		 951.14271			42741.51297		155.57800		875.00000 
 43692.65567		 305.27265			43387.38302		66.21000		324.00000 
 43692.65567		 951.14271			42741.51297		155.57800		875.00000 
 43692.65567		 305.27265			43387.38302		66.21000		324.00000 
 43692.65567		 951.14271			42741.51297		155.57800		875.00000 
 43692.65567		 305.27265			43387.38302		66.21000		324.00000 
 43692.65567		 951.14271			42741.51297		155.57800		875.00000 
 43692.65567		 305.27265			43387.38302		66.21000		324.00000 
 43692.65567		 951.14271			42741.51297		155.57800		875.00000 
 43692.65567		 305.27265			43387.38302		66.21000		324.00000 
 43692.65567		 951.14271			42741.51297		155.57800		875.00000 
 43692.65567		 305.27265			43387.38302		66.21000		324.00000 
 43692.65567		 951.14271			42741.51297		155.57800		875.00000 
 43692.65567		 305.27265			43387.38302		66.21000		324.00000 
 43692.65567		 951.14271			42741.51297		155.57800		875.00000 
 43692.65567		 305.27265			43387.38302		66.21000		324.00000 
 43692.65567		 951.14271			42741.51297		155.57800		875.00000 
 43692.65567		 305.27265			43387.38302		66.21000		324.00000 
 43692.65567		 951.14271			42741.51297		155.57800		875.00000 
 43692.65567		 305.27265			43387.38302		66.21000		324.00000 
 43692.65567		 951.14271			42741.51297		155.57800		875.00000 
 43692.65567		 305.27265			43387.38302		66.21000		324.00000 
 43692.65567		 951.14271			42741.51297		155.57800		875.00000 
 43692.65567		 305.27265			43387.38302		66.21000		324.00000 
 43692.65567		 951.14271			42741.51297		155.57800		875.00000 
 43692.65567		 305.27265			43387.38302		66.21000		324.00000 
 43692.65567		 951.14271			42741.51297		155.57800		875.00000 
 43692.65567		 305.27265			43387.38302		66.21000		324.00000 
 43692.65567		 951.14271			42741.51297		155.57800		875.00000 
 43692.65567		 305.27265			43387.38302		66.21000		324.00000 
 43692.65567		 951.14271			42741.51297		155.57800		875.00000 
 43692.65567		 305.27265			43387.38302		66.21000		324.00000 
 43692.65567		 951.14271			42741.51297		155.57800		875.00000 
 43692.65567		 305.27265			43387.38302		66.21000		324.00000 
 43692.65567		 951.14271			42741.51297		155.57800		875.00000 
 43692.65567		 305.27265			43387.38302		66.21000		324.00000 
 43692.65567		 951.14271			42741.51297		155.57800		875.00000 
 43692.65567		 305.27265			43387.38302		66.21000		324.00000 
 43692.65567		 951.14271			42741.51297		155.57800		875.00000 
 43692.65567		 305.27265			43387.38302		66.21000		324.00000 
 43692.65567		 951.14271			42741.51297		155.57800		875.00000 
 43692.65567		 305.27265			43387.38302		66.21000		324.00000 
 43692.65567		 951.14271			42741.51297		155.57800		875.00000 
 43692.65567		 305.27265			43387.38302		66.21000		324.00000 
 43692.65567		 951.14271			42741.51297		155.57800		875.00000 
 43692.65567		 305.27265			43387.38302		66.21000		324.00000 
 43692.65567		 951.14271			42741.51297		155.57800		875.00000 
 43692.65567		 305.27265			43387.38302		66.21000		324.00000 
 43692.65567		 951.14271			42741.51297		155.57800		875.00000 
 43692.65567		 305.27265			43387.38302		66.21000		324.00000 
 43692.65567		 951.14271			42741.51297		155.57800		875.00000 
 43692.65567		 305.27265			43387.38302		66.21000		324.00000 
 43692.65567		 951.14271			42741.51297		155.57800		875.00000 
 43692.65567		 305.27265			43387.38302		66.21000		324.00000 
 43692.65567		 951.14271			42741.51297		155.57800		875.00000 
 43692.65567		 305.27265			43387.38302		66.21000		324.00000 
 43692.65567		 951.14271			42741.51297		155.57800		875.00000 
 43692.65567		 305.27265			43387.38302		66.21000		324.00000 
 43692.65567		 951.14271			42741.51297		155.57800		875.00000 
 43692.65567		 305.27265			43387.38302		66.21000		324.00000 
 43692.65567		 951.14271			42741.51297		155.57800		875.00000 
 43692.65567		 305.27265			43387.38302		66.21000		324.00000 
 43692.65567		 951.14271			42741.51297		155.57800		875.00000 
 43692.65567		 305.27265			43387.38302		66.21000		324.00000 
 43692.65567		 951.14271			42741.51297		155.57800		875.00000 
 43692.65567		 305.27265			43387.38302		66.21000		324.00000 
 43692.65567		 951.14271			42741.51297		155.57800		875.00000 
 43692.65567		 305.27265			43387.38302		66.21000		324.00000 
 43692.65567		 951.14271			42741.51297		155.57800		875.00000 
 43692.65567		 305.27265			43387.38302		66.21000		324.00000 
 43692.65567		 951.14271			42741.51297		198.21800		875.00000 
 43692.65567		 305.27265			43387.38302		66.21000		324.00000 
 43692.65567		 951.14271			42741.51297		198.21800		875.00000 
 43692.65567		 305.27265			43387.38302		66.21000		324.00000 
 43692.65567		 951.14271			42741.51297		198.21800		875.00000 
 43692.65567		 305.27265			43387.38302		66.21000		324.00000 
 43692.65567		 951.14271			42741.51297		198.21800		875.00000 
 43692.65567		 305.27265			43387.38302		66.21000		324.00000 
 43692.65567		 951.14271			42741.51297		198.21800		875.00000 
 43692.65567		 305.27265			43387.38302		66.21000		324.00000 
 43692.65567		 951.14271			42741.51297		198.21800		875.00000 
 43692.65567		 305.27265			43387.38302		66.21000		324.00000 
 43692.65567		 951.14271			42741.51297		198.21800		875.00000 
 43692.65567		 305.27265			43387.38302		66.21000		324.00000 
 43692.65567		 951.14271			42741.51297		198.21800		875.00000 
 43692.65567		 305.27265			43387.38302		66.21000		324.00000 
 43692.65567		 951.14271			42741.51297		198.21800		875.00000 
 43692.65567		 305.27265			43387.38302		66.21000		324.00000 
 43692.65567		 951.14271			42741.51297		198.21800		875.00000 
 43692.65567		 305.27265			43387.38302		66.21000		324.00000 
 43692.65567		 951.14271			42741.51297		198.21800		875.00000 
 43692.65567		 305.27265			43387.38302		66.21000		324.00000 
 43692.65567		 951.14271			42741.51297		198.21800		875.00000 
 43692.65567		 305.27265			43387.38302		66.21000		324.00000 
 43692.65567		 951.14271			42741.51297		198.21800		875.00000 
 43692.65567		 305.27265			43387.38302		66.21000		324.00000 
 43692.65567		 951.14271			42741.51297		198.21800		875.00000 
 43692.65567		 305.27265			43387.38302		66.21000		324.00000 
 43692.65567		 951.14271			42741.51297		198.21800		875.00000 
 43692.65567		 305.27265			43387.38302		66.21000		324.00000 
 43692.65567		 951.14271			42741.51297		198.21800		875.00000 
 43692.65567		 305.27265			43387.38302		66.21000		324.00000 
 43692.65567		 951.14271			42741.51297		198.21800		875.00000 
 43692.65567		 305.27265			43387.38302		66.21000		324.00000 
 43692.65567		 951.14271			42741.51297		198.21800		875.00000 
 43692.65567		 305.27265			43387.38302		66.21000		324.00000 
 43692.65567		 951.14271			42741.51297		198.21800		875.00000 
 43692.65567		 305.27265			43387.38302		66.21000		324.00000 
 43692.65567		 951.14271			42741.51297		198.21800		875.00000 
 43692.65567		 305.27265			43387.38302		66.21000		324.00000 
 43692.65567		 951.14271			42741.51297		198.21800		875.00000 
 43692.65567		 305.27265			43387.38302		66.21000		324.00000 
 43692.65567		 951.14271			42741.51297		198.21800		875.00000 
 43692.65567		 305.27265			43387.38302		66.21000		324.00000 
 43692.65567		 951.14271			42741.51297		198.21800		875.00000 
 43692.65567		 305.27265			43387.38302		66.21000		324.00000 
 43692.65567		 951.14271			42741.51297		198.21800		875.00000 
 43692.65567		 305.27265			43387.38302		66.21000		324.00000 
 43692.65567		 951.14271			42741.51297		198.21800		875.00000 
 43692.65567		 305.27265			43387.38302		66.21000		324.00000 
 43692.65567		 951.14271			42741.51297		198.21800		875.00000 
 43692.65567		 305.27265			43387.38302		66.21000		324.00000 
 43692.65567		 951.14271			42741.51297		198.21800		875.00000 
 43692.65567		 305.27265			43387.38302		66.21000		324.00000 
 43692.65567		 951.14271			42741.51297		198.21800		875.00000 
 43692.65567		 305.27265			43387.38302		66.21000		324.00000 
 43692.65567		 951.14271			42741.51297		198.21800		875.00000 
 43692.65567		 305.27265			43387.38302		66.21000		324.00000 
 43692.65567		 951.14271			42741.51297		198.21800		875.00000 
 43692.65567		 305.27265			43387.38302		66.21000		324.00000 
 43692.65567		 951.14271			42741.51297		198.21800		875.00000 
 43692.65567		 305.27265			43387.38302		66.21000		324.00000 
 43692.65567		 951.14271			42741.51297		198.21800		875.00000 
 43692.65567		 305.27265			43387.38302		66.21000		324.00000 
 43692.65567		 951.14271			42741.51297		198.21800		875.00000 
 43692.65567		 305.27265			43387.38302		66.21000		324.00000 
 43692.65567		 951.14271			42741.51297		198.21800		875.00000 
 43692.65567		 305.27265			43387.38302		66.21000		324.00000 
 43692.65567		 951.14271			42741.51297		198.21800		875.00000 
 43692.65567		 305.27265			43387.38302		66.21000		324.00000 
 43692.65567		 951.14271			42741.51297		198.21800		875.00000 
 43692.65567		 305.27265			43387.38302		66.21000		324.00000 
 43692.65567		 951.14271			42741.51297		198.21800		875.00000 
 43692.65567		 305.27265			43387.38302		66.21000		324.00000 
 43692.65567		 951.14271			42741.51297		198.21800		875.00000 
 43692.65567		 305.27265			43387.38302		66.21000		324.00000 
 43692.65567		 951.14271			42741.51297		198.21800		875.00000 
 43692.65567		 305.27265			43387.38302		66.21000		324.00000 
 43692.65567		 951.14271			42741.51297		198.21800		875.00000 
 43692.65567		 305.27265			43387.38302		66.21000		324.00000 
 43692.65567		 951.14271			42741.51297		198.21800		875.00000 
 43692.65567		 305.27265			43387.38302		66.21000		324.00000 
 43692.65567		 951.14271			42741.51297		198.21800		875.00000 
 43692.65567		 305.27265			43387.38302		66.21000		324.00000 
 43692.65567		 951.14271			42741.51297		198.21800		875.00000 
 43692.65567		 305.27265			43387.38302		66.21000		324.00000 
 43692.65567		 951.14271			42741.51297		198.21800		875.00000 
 43692.65567		 305.27265			43387.38302		66.21000		324.00000 
 43692.65567		 951.14271			42741.51297		198.21800		875.00000 
 43692.65567		 305.27265			43387.38302		66.21000		324.00000 
 43692.65567		 951.14271			42741.51297		198.21800		875.00000 
 43692.65567		 305.27265			43387.38302		66.21000		324.00000 
 43692.65567		 951.14271			42741.51297		198.21800		875.00000 
 43692.65567		 305.27265			43387.38302		66.21000		324.00000 
 43692.65567		 951.14271			42741.51297		198.21800		875.00000 
 43692.65567		 305.27265			43387.38302		66.21000		324.00000 
 43692.65567		 951.14271			42741.51297		198.21800		875.00000 
 43692.65567		 305.27265			43387.38302		66.21000		324.00000 
 43692.65567		 951.14271			42741.51297		198.21800		875.00000 
 43692.65567		 305.27265			43387.38302		66.21000		324.00000 
 43692.65567		 951.14271			42741.51297		198.21800		875.00000 
 43692.65567		 305.27265			43387.38302		66.21000		324.00000 
 43692.65567		 951.14271			42741.51297		198.21800		875.00000 
 43692.65567		 305.27265			43387.38302		66.21000		324.00000 
 43692.65567		 951.14271			42741.51297		198.21800		875.00000 
 43692.65567		 305.27265			43387.38302		66.21000		324.00000 
 43692.65567		 951.14271			42741.51297		198.21800		875.00000 
 43692.65567		 305.27265			43387.38302		66.21000		324.00000 
 43692.65567		 951.14271			42741.51297		198.21800		875.00000 
 43692.65567		 305.27265			43387.38302		66.21000		324.00000 
 43692.65567		 951.14271			42741.51297		198.21800		875.00000 
 43692.65567		 305.27265			43387.38302		66.21000		324.00000 
 43692.65567		 951.14271			42741.51297		198.21800		875.00000 
 43692.65567		 305.27265			43387.38302		66.21000		324.00000 
 43692.65567		 951.14271			42741.51297		198.21800		875.00000 
 43692.65567		 305.27265			43387.38302		66.21000		324.00000 
 43692.65567		 951.14271			42741.51297		198.21800		875.00000 
 43692.65567		 305.27265			43387.38302		66.21000		324.00000 
 43692.65567		 951.14271			42741.51297		198.21800		875.00000 
 43692.65567		 305.27265			43387.38302		66.21000		324.00000 
 43692.65567		 951.14271			42741.51297		198.21800		875.00000 
 43692.65567		 305.27265			43387.38302		66.21000		324.00000 
 43692.65567		 951.14271			42741.51297		198.21800		875.00000 
 43692.65567		 305.27265			43387.38302		66.21000		324.00000 
 43692.65567		 951.14271			42741.51297		198.21800		875.00000 
 43692.65567		 305.27265			43387.38302		66.21000		324.00000 
 43692.65567		 951.14271			42741.51297		198.21800		875.00000 
 43692.65567		 305.27265			43387.38302		66.21000		324.00000 
 43692.65567		 951.14271			42741.51297		198.21800		875.00000 
 43692.65567		 305.27265			43387.38302		66.21000		324.00000 
 43692.65567		 951.14271			42741.51297		214.13600		875.00000 
 43692.65567		 305.27265			43387.38302		66.21000		324.00000 
 43692.65567		 951.14271			42741.51297		214.13600		875.00000 
 43692.65567		 305.27265			43387.38302		66.21000		324.00000 
 43692.65567		 951.14271			42741.51297		214.13600		875.00000 
 43692.65567		 305.27265			43387.38302		66.21000		324.00000 
 43692.65567		 951.14271			42741.51297		214.13600		875.00000 
 43692.65567		 305.27265			43387.38302		66.21000		324.00000 
 43692.65567		 951.14271			42741.51297		214.13600		875.00000 
 43692.65567		 305.27265			43387.38302		66.21000		324.00000 
 43692.65567		 951.14271			42741.51297		214.13600		875.00000 
 43692.65567		 305.27265			43387.38302		66.21000		324.00000 
 43692.65567		 951.14271			42741.51297		214.13600		875.00000 
 43692.65567		 305.27265			43387.38302		66.21000		324.00000 
 43692.65567		 951.14271			42741.51297		214.13600		875.00000 
 43692.65567		 305.27265			43387.38302		66.21000		324.00000 
 43692.65567		 951.14271			42741.51297		214.13600		875.00000 
 43692.65567		 305.27265			43387.38302		66.21000		324.00000 
 43692.65567		 951.14271			42741.51297		214.13600		875.00000 
 43692.65567		 305.27265			43387.38302		66.21000		324.00000 
 43692.65567		 951.14271			42741.51297		214.13600		875.00000 
 43692.65567		 305.27265			43387.38302		66.21000		324.00000 
 43692.65567		 951.14271			42741.51297		214.13600		875.00000 
 43692.65567		 305.27265			43387.38302		66.21000		324.00000 
 43692.65567		 951.14271			42741.51297		214.13600		875.00000 
 43692.65567		 305.27265			43387.38302		66.21000		324.00000 
 43692.65567		 951.14271			42741.51297		214.13600		875.00000 
 43692.65567		 305.27265			43387.38302		66.21000		324.00000 
 43692.65567		 951.14271			42741.51297		214.13600		875.00000 
 43692.65567		 305.27265			43387.38302		66.21000		324.00000 
 43692.65567		 951.14271			42741.51297		214.13600		875.00000 
 43692.65567		 305.27265			43387.38302		66.21000		324.00000 
 43692.65567		 951.14271			42741.51297		214.13600		875.00000 
 43692.65567		 305.27265			43387.38302		66.21000		324.00000 
 43692.65567		 951.14271			42741.51297		214.13600		875.00000 
 43692.65567		 305.27265			43387.38302		66.21000		324.00000 
 43692.65567		 951.14271			42741.51297		214.13600		875.00000 
 43692.65567		 305.27265			43387.38302		66.21000		324.00000 
 43692.65567		 951.14271			42741.51297		214.13600		875.00000 
 43692.65567		 305.27265			43387.38302		66.21000		324.00000 
 43692.65567		 951.14271			42741.51297		214.13600		875.00000 
 43692.65567		 305.27265			43387.38302		66.21000		324.00000 
 43692.65567		 951.14271			42741.51297		214.13600		875.00000 
 43692.65567		 305.27265			43387.38302		66.21000		324.00000 
 43692.65567		 951.14271			42741.51297		214.13600		875.00000 
 43692.65567		 305.27265			43387.38302		66.21000		324.00000 
 43692.65567		 951.14271			42741.51297		214.13600		875.00000 
 43692.65567		 305.27265			43387.38302		66.21000		324.00000 
 43692.65567		 951.14271			42741.51297		214.13600		875.00000 
 43692.65567		 305.27265			43387.38302		66.21000		324.00000 
 43692.65567		 951.14271			42741.51297		214.13600		875.00000 
 43692.65567		 305.27265			43387.38302		66.21000		324.00000 
 43692.65567		 951.14271			42741.51297		214.13600		875.00000 
 43692.65567		 305.27265			43387.38302		66.21000		324.00000 
 43692.65567		 951.14271			42741.51297		214.13600		875.00000 
 43692.65567		 305.27265			43387.38302		66.21000		324.00000 
 43692.65567		 951.14271			42741.51297		214.13600		875.00000 
 43692.65567		 305.27265			43387.38302		66.21000		324.00000 
 43692.65567		 951.14271			42741.51297		214.13600		875.00000 
 43692.65567		 305.27265			43387.38302		66.21000		324.00000 
 43692.65567		 951.14271			42741.51297		214.13600		875.00000 
 43692.65567		 305.27265			43387.38302		66.21000		324.00000 
 43692.65567		 951.14271			42741.51297		214.13600		875.00000 
 43692.65567		 305.27265			43387.38302		66.21000		324.00000 
 43692.65567		 951.14271			42741.51297		214.13600		875.00000 
 43692.65567		 305.27265			43387.38302		66.21000		324.00000 
 43692.65567		 951.14271			42741.51297		214.13600		875.00000 
 43692.65567		 305.27265			43387.38302		66.21000		324.00000 
 43692.65567		 951.14271			42741.51297		214.13600		875.00000 
 43692.65567		 305.27265			43387.38302		66.21000		324.00000 
 43692.65567		 951.14271			42741.51297		214.13600		875.00000 
 43692.65567		 305.27265			43387.38302		66.21000		324.00000 
 43692.65567		 951.14271			42741.51297		214.13600		875.00000 
 43692.65567		 305.27265			43387.38302		66.21000		324.00000 
 43692.65567		 951.14271			42741.51297		214.13600		875.00000 
 43692.65567		 305.27265			43387.38302		66.21000		324.00000 
 43692.65567		 951.14271			42741.51297		214.13600		875.00000 
 43692.65567		 305.27265			43387.38302		66.21000		324.00000 
 43692.65567		 951.14271			42741.51297		214.13600		875.00000 
 43692.65567		 305.27265			43387.38302		66.21000		324.00000 
 43692.65567		 951.14271			42741.51297		214.13600		875.00000 
 43692.65567		 305.27265			43387.38302		66.21000		324.00000 
 43692.65567		 951.14271			42741.51297		214.13600		875.00000 
 43692.65567		 305.27265			43387.38302		66.21000		324.00000 
 43692.65567		 951.14271			42741.51297		214.13600		875.00000 
 43692.65567		 305.27265			43387.38302		66.21000		324.00000 
 43692.65567		 951.14271			42741.51297		214.13600		875.00000 
 43692.65567		 305.27265			43387.38302		66.21000		324.00000 
 43692.65567		 951.14271			42741.51297		214.13600		875.00000 
 43692.65567		 305.27265			43387.38302		66.21000		324.00000 
 43692.65567		 951.14271			42741.51297		214.13600		875.00000 
 43692.65567		 305.27265			43387.38302		66.21000		324.00000 
 43692.65567		 951.14271			42741.51297		214.13600		875.00000 
 43692.65567		 305.27265			43387.38302		66.21000		324.00000 
 43692.65567		 951.14271			42741.51297		214.13600		875.00000 
 43692.65567		 305.27265			43387.38302		66.21000		324.00000 
 43692.65567		 951.14271			42741.51297		214.13600		875.00000 
 43692.65567		 305.27265			43387.38302		66.21000		324.00000 
 43692.65567		 951.14271			42741.51297		214.13600		875.00000 
 43692.65567		 305.27265			43387.38302		66.21000		324.00000 
 43692.65567		 951.14271			42741.51297		214.13600		875.00000 
 43692.65567		 305.27265			43387.38302		66.21000		324.00000 
 43692.65567		 951.14271			42741.51297		214.13600		875.00000 
 43692.65567		 305.27265			43387.38302		66.21000		324.00000 
 43692.65567		 951.14271			42741.51297		214.13600		875.00000 
 43692.65567		 305.27265			43387.38302		66.21000		324.00000 
 43692.65567		 951.14271			42741.51297		214.13600		875.00000 
 43692.65567		 305.27265			43387.38302		66.21000		324.00000 
 43692.65567		 951.14271			42741.51297		214.13600		875.00000 
 43692.65567		 305.27265			43387.38302		66.21000		324.00000 
 43692.65567		 951.14271			42741.51297		214.13600		875.00000 
 43692.65567		 305.27265			43387.38302		66.21000		324.00000 
 43692.65567		 951.14271			42741.51297		214.13600		875.00000 
 43692.65567		 305.27265			43387.38302		66.21000		324.00000 
 43692.65567		 951.14271			42741.51297		214.13600		875.00000 
 43692.65567		 305.27265			43387.38302		66.21000		324.00000 
 43692.65567		 951.14271			42741.51297		214.13600		875.00000 
 43692.65567		 305.27265			43387.38302		66.21000		324.00000 
 43692.65567		 951.14271			42741.51297		214.13600		875.00000 
 43692.65567		 305.27265			43387.38302		66.21000		324.00000 
 43692.65567		 951.14271			42741.51297		214.13600		875.00000 
 43692.65567		 305.27265			43387.38302		66.21000		324.00000 
 43692.65567		 951.14271			42741.51297		214.13600		875.00000 
 43692.65567		 305.27265			43387.38302		66.21000		324.00000 
 43692.65567		 951.14271			42741.51297		214.13600		875.00000 
 43692.65567		 305.27265			43387.38302		66.21000		324.00000 
 43692.65567		 951.14271			42741.51297		214.13600		875.00000 
 43692.65567		 305.27265			43387.38302		66.21000		324.00000 
 43692.65567		 951.14271			42741.51297		214.13600		875.00000 
 43692.65567		 305.27265			43387.38302		66.21000		324.00000 
 43692.65567		 951.14271			42741.51297		214.13600		875.00000 
 43692.65567		 305.27265			43387.38302		66.21000		324.00000 
 43692.65567		 951.14271			42741.51297		219.71800		875.00000 
 43692.65567		 305.27265			43387.38302		66.21000		324.00000 
 43692.65567		 951.14271			42741.51297		219.71800		875.00000 
 43692.65567		 305.27265			43387.38302		66.21000		324.00000 
 43692.65567		 951.14271			42741.51297		219.71800		875.00000 
 43692.65567		 305.27265			43387.38302		66.21000		324.00000 
 43692.65567		 951.14271			42741.51297		219.71800		875.00000 
 43692.65567		 305.27265			43387.38302		66.21000		324.00000 
 43692.65567		 951.14271			42741.51297		219.71800		875.00000 
 43692.65567		 305.27265			43387.38302		66.21000		324.00000 
 43692.65567		 951.14271			42741.51297		219.71800		875.00000 
 43692.65567		 305.27265			43387.38302		66.21000		324.00000 
 43692.65567		 951.14271			42741.51297		219.71800		875.00000 
 43692.65567		 305.27265			43387.38302		66.21000		324.00000 
 43692.65567		 951.14271			42741.51297		219.71800		875.00000 
 43692.65567		 305.27265			43387.38302		66.21000		324.00000 
 43692.65567		 951.14271			42741.51297		219.71800		875.00000 
 43692.65567		 305.27265			43387.38302		66.21000		324.00000 
 43692.65567		 951.14271			42741.51297		219.71800		875.00000 
 43692.65567		 305.27265			43387.38302		66.21000		324.00000 
 43692.65567		 951.14271			42741.51297		219.71800		875.00000 
 43692.65567		 305.27265			43387.38302		66.21000		324.00000 
 43692.65567		 951.14271			42741.51297		219.71800		875.00000 
 43692.65567		 305.27265			43387.38302		66.21000		324.00000 
 43692.65567		 951.14271			42741.51297		219.71800		875.00000 
 43692.65567		 305.27265			43387.38302		66.21000		324.00000 
 43692.65567		 951.14271			42741.51297		219.71800		875.00000 
 43692.65567		 305.27265			43387.38302		66.21000		324.00000 
 43692.65567		 951.14271			42741.51297		219.71800		875.00000 
 43692.65567		 305.27265			43387.38302		66.21000		324.00000 
 43692.65567		 951.14271			42741.51297		219.71800		875.00000 
 43692.65567		 305.27265			43387.38302		66.21000		324.00000 
 43692.65567		 951.14271			42741.51297		219.71800		875.00000 
 43692.65567		 305.27265			43387.38302		66.21000		324.00000 
 43692.65567		 951.14271			42741.51297		219.71800		875.00000 
 43692.65567		 305.27265			43387.38302		66.21000		324.00000 
 43692.65567		 951.14271			42741.51297		219.71800		875.00000 
 43692.65567		 305.27265			43387.38302		66.21000		324.00000 
 43692.65567		 951.14271			42741.51297		219.71800		875.00000 
 43692.65567		 305.27265			43387.38302		66.21000		324.00000 
 43692.65567		 951.14271			42741.51297		219.71800		875.00000 
 43692.65567		 305.27265			43387.38302		66.21000		324.00000 
 43692.65567		 951.14271			42741.51297		219.71800		875.00000 
 43692.65567		 305.27265			43387.38302		66.21000		324.00000 
 43692.65567		 951.14271			42741.51297		219.71800		875.00000 
 43692.65567		 305.27265			43387.38302		66.21000		324.00000 
 43692.65567		 951.14271			42741.51297		219.71800		875.00000 
 43692.65567		 305.27265			43387.38302		66.21000		324.00000 
 43692.65567		 951.14271			42741.51297		219.71800		875.00000 
 43692.65567		 305.27265			43387.38302		66.21000		324.00000 
 43692.65567		 951.14271			42741.51297		219.71800		875.00000 
 43692.65567		 305.27265			43387.38302		66.21000		324.00000 
 43692.65567		 951.14271			42741.51297		219.71800		875.00000 
 43692.65567		 305.27265			43387.38302		66.21000		324.00000 
 43692.65567		 951.14271			42741.51297		219.71800		875.00000 
 43692.65567		 305.27265			43387.38302		66.21000		324.00000 
 43692.65567		 951.14271			42741.51297		219.71800		875.00000 
 43692.65567		 305.27265			43387.38302		66.21000		324.00000 
 43692.65567		 951.14271			42741.51297		219.71800		875.00000 
 43692.65567		 305.27265			43387.38302		66.21000		324.00000 
 43692.65567		 951.14271			42741.51297		219.71800		875.00000 
 43692.65567		 305.27265			43387.38302		66.21000		324.00000 
 43692.65567		 951.14271			42741.51297		219.71800		875.00000 
 43692.65567		 305.27265			43387.38302		66.21000		324.00000 
 43692.65567		 951.14271			42741.51297		219.71800		875.00000 
 43692.65567		 305.27265			43387.38302		66.21000		324.00000 
 43692.65567		 951.14271			42741.51297		219.71800		875.00000 
 43692.65567		 305.27265			43387.38302		66.21000		324.00000 
 43692.65567		 951.14271			42741.51297		219.71800		875.00000 
 43692.65567		 305.27265			43387.38302		66.21000		324.00000 
 43692.65567		 951.14271			42741.51297		219.71800		875.00000 
 43692.65567		 305.27265			43387.38302		66.21000		324.00000 
 43692.65567		 951.14271			42741.51297		219.71800		875.00000 
 43692.65567		 305.27265			43387.38302		66.21000		324.00000 
 43692.65567		 951.14271			42741.51297		219.71800		875.00000 
 43692.65567		 305.27265			43387.38302		66.21000		324.00000 
 43692.65567		 951.14271			42741.51297		219.71800		875.00000 
 43692.65567		 305.27265			43387.38302		66.21000		324.00000 
 43692.65567		 951.14271			42741.51297		219.71800		875.00000 
 43692.65567		 305.27265			43387.38302		66.21000		324.00000 
 43692.65567		 951.14271			42741.51297		219.71800		875.00000 
 43692.65567		 305.27265			43387.38302		66.21000		324.00000 
 43692.65567		 951.14271			42741.51297		219.71800		875.00000 
 43692.65567		 305.27265			43387.38302		66.21000		324.00000 
 43692.65567		 951.14271			42741.51297		219.71800		875.00000 
 43692.65567		 305.27265			43387.38302		66.21000		324.00000 
 43692.65567		 951.14271			42741.51297		219.71800		875.00000 
 43692.65567		 305.27265			43387.38302		66.21000		324.00000 
 43692.65567		 951.14271			42741.51297		219.71800		875.00000 
 43692.65567		 305.27265			43387.38302		66.21000		324.00000 
 43692.65567		 951.14271			42741.51297		219.71800		875.00000 
 43692.65567		 305.27265			43387.38302		66.21000		324.00000 
 43692.65567		 951.14271			42741.51297		219.71800		875.00000 
 43692.65567		 305.27265			43387.38302		66.21000		324.00000 
 43692.65567		 951.14271			42741.51297		219.71800		875.00000 
 43692.65567		 305.27265			43387.38302		66.21000		324.00000 
 43692.65567		 951.14271			42741.51297		219.71800		875.00000 
 43692.65567		 305.27265			43387.38302		66.21000		324.00000 
 43692.65567		 951.14271			42741.51297		219.71800		875.00000 
 43692.65567		 305.27265			43387.38302		66.21000		324.00000 
 43692.65567		 951.14271			42741.51297		219.71800		875.00000 
 43692.65567		 305.27265			43387.38302		66.21000		324.00000 
 43692.65567		 951.14271			42741.51297		219.71800		875.00000 
 43692.65567		 305.27265			43387.38302		66.21000		324.00000 
 43692.65567		 951.14271			42741.51297		219.71800		875.00000 
 43692.65567		 305.27265			43387.38302		66.21000		324.00000 
 43692.65567		 951.14271			42741.51297		219.71800		875.00000 
 43692.65567		 305.27265			43387.38302		66.21000		324.00000 
 43692.65567		 951.14271			42741.51297		219.71800		875.00000 
 43692.65567		 305.27265			43387.38302		66.21000		324.00000 
 43692.65567		 951.14271			42741.51297		219.71800		875.00000 
 43692.65567		 305.27265			43387.38302		66.21000		324.00000 
 43692.65567		 951.14271			42741.51297		219.71800		875.00000 
 43692.65567		 305.27265			43387.38302		66.21000		324.00000 
 43692.65567		 951.14271			42741.51297		219.71800		875.00000 
 43692.65567		 305.27265			43387.38302		66.21000		324.00000 
 43692.65567		 951.14271			42741.51297		219.71800		875.00000 
 43692.65567		 305.27265			43387.38302		66.21000		324.00000 
 43692.65567		 951.14271			42741.51297		219.71800		875.00000 
 43692.65567		 305.27265			43387.38302		66.21000		324.00000 
 43692.65567		 951.14271			42741.51297		219.71800		875.00000 
 43692.65567		 305.27265			43387.38302		66.21000		324.00000 
 43692.65567		 951.14271			42741.51297		219.71800		875.00000 
 43692.65567		 305.27265			43387.38302		66.21000		324.00000 
 43692.65567		 951.14271			42741.51297		219.71800		875.00000 
 43692.65567		 305.27265			43387.38302		66.21000		324.00000 
 43692.65567		 951.14271			42741.51297		219.71800		875.00000 
 43692.65567		 305.27265			43387.38302		66.21000		324.00000 
 43692.65567		 951.14271			42741.51297		221.07600		875.00000 
 43692.65567		 305.27265			43387.38302		66.21000		324.00000 
 43692.65567		 951.14271			42741.51297		221.07600		875.00000 
 43692.65567		 305.27265			43387.38302		66.21000		324.00000 
 43692.65567		 951.14271			42741.51297		221.07600		875.00000 
 43692.65567		 305.27265			43387.38302		66.21000		324.00000 
 43692.65567		 951.14271			42741.51297		221.07600		875.00000 
 43692.65567		 305.27265			43387.38302		66.21000		324.00000 
 43692.65567		 951.14271			42741.51297		221.07600		875.00000 
 43692.65567		 305.27265			43387.38302		66.21000		324.00000 
 43692.65567		 951.14271			42741.51297		221.07600		875.00000 
 43692.65567		 305.27265			43387.38302		66.21000		324.00000 
 43692.65567		 951.14271			42741.51297		221.07600		875.00000 
 43692.65567		 305.27265			43387.38302		66.21000		324.00000 
 43692.65567		 951.14271			42741.51297		221.07600		875.00000 
 43692.65567		 305.27265			43387.38302		66.21000		324.00000 
 43692.65567		 951.14271			42741.51297		221.07600		875.00000 
 43692.65567		 305.27265			43387.38302		66.21000		324.00000 
 43692.65567		 951.14271			42741.51297		221.07600		875.00000 
 43692.65567		 305.27265			43387.38302		66.21000		324.00000 
 43692.65567		 951.14271			42741.51297		221.07600		875.00000 
 43692.65567		 305.27265			43387.38302		66.21000		324.00000 
 43692.65567		 951.14271			42741.51297		221.07600		875.00000 
 43692.65567		 305.27265			43387.38302		66.21000		324.00000 
 43692.65567		 951.14271			42741.51297		221.07600		875.00000 
 43692.65567		 305.27265			43387.38302		66.21000		324.00000 
 43692.65567		 951.14271			42741.51297		221.07600		875.00000 
 43692.65567		 305.27265			43387.38302		66.21000		324.00000 
 43692.65567		 951.14271			42741.51297		221.07600		875.00000 
 43692.65567		 305.27265			43387.38302		66.21000		324.00000 
 43692.65567		 951.14271			42741.51297		221.07600		875.00000 
 43692.65567		 305.27265			43387.38302		66.21000		324.00000 
 43692.65567		 951.14271			42741.51297		221.07600		875.00000 
 43692.65567		 305.27265			43387.38302		66.21000		324.00000 
 43692.65567		 951.14271			42741.51297		221.07600		875.00000 
 43692.65567		 305.27265			43387.38302		66.21000		324.00000 
 43692.65567		 951.14271			42741.51297		221.07600		875.00000 
 43692.65567		 305.27265			43387.38302		66.21000		324.00000 
 43692.65567		 951.14271			42741.51297		221.07600		875.00000 
 43692.65567		 305.27265			43387.38302		66.21000		324.00000 
 43692.65567		 951.14271			42741.51297		221.07600		875.00000 
 43692.65567		 305.27265			43387.38302		66.21000		324.00000 
 43692.65567		 951.14271			42741.51297		221.07600		875.00000 
 43692.65567		 305.27265			43387.38302		66.21000		324.00000 
 43692.65567		 951.14271			42741.51297		221.07600		875.00000 
 43692.65567		 305.27265			43387.38302		66.21000		324.00000 
 43692.65567		 951.14271			42741.51297		221.07600		875.00000 
 43692.65567		 305.27265			43387.38302		66.21000		324.00000 
 43692.65567		 951.14271			42741.51297		221.07600		875.00000 
 43692.65567		 305.27265			43387.38302		66.21000		324.00000 
 43692.65567		 951.14271			42741.51297		221.07600		875.00000 
 43692.65567		 305.27265			43387.38302		66.21000		324.00000 
 43692.65567		 951.14271			42741.51297		221.07600		875.00000 
 43692.65567		 305.27265			43387.38302		66.21000		324.00000 
 43692.65567		 951.14271			42741.51297		221.07600		875.00000 
 43692.65567		 305.27265			43387.38302		66.21000		324.00000 
 43692.65567		 951.14271			42741.51297		221.07600		875.00000 
 43692.65567		 305.27265			43387.38302		66.21000		324.00000 
 43692.65567		 951.14271			42741.51297		221.07600		875.00000 
 43692.65567		 305.27265			43387.38302		66.21000		324.00000 
 43692.65567		 951.14271			42741.51297		221.07600		875.00000 
 43692.65567		 305.27265			43387.38302		66.21000		324.00000 
 43692.65567		 951.14271			42741.51297		221.07600		875.00000 
 43692.65567		 305.27265			43387.38302		66.21000		324.00000 
 43692.65567		 951.14271			42741.51297		221.07600		875.00000 
 43692.65567		 305.27265			43387.38302		66.21000		324.00000 
 43692.65567		 951.14271			42741.51297		221.07600		875.00000 
 43692.65567		 305.27265			43387.38302		66.21000		324.00000 
 43692.65567		 951.14271			42741.51297		221.07600		875.00000 
 43692.65567		 305.27265			43387.38302		66.21000		324.00000 
 43692.65567		 951.14271			42741.51297		221.07600		875.00000 
 43692.65567		 305.27265			43387.38302		66.21000		324.00000 
 43692.65567		 951.14271			42741.51297		221.07600		875.00000 
 43692.65567		 305.27265			43387.38302		66.21000		324.00000 
 43692.65567		 951.14271			42741.51297		221.07600		875.00000 
 43692.65567		 305.27265			43387.38302		66.21000		324.00000 
 43692.65567		 951.14271			42741.51297		221.07600		875.00000 
 43692.65567		 305.27265			43387.38302		66.21000		324.00000 
 43692.65567		 951.14271			42741.51297		221.07600		875.00000 
 43692.65567		 305.27265			43387.38302		66.21000		324.00000 
 43692.65567		 951.14271			42741.51297		221.07600		875.00000 
 43692.65567		 305.27265			43387.38302		66.21000		324.00000 
 43692.65567		 951.14271			42741.51297		221.07600		875.00000 
 43692.65567		 305.27265			43387.38302		66.21000		324.00000 
 43692.65567		 951.14271			42741.51297		221.07600		875.00000 
 43692.65567		 305.27265			43387.38302		66.21000		324.00000 
 43692.65567		 951.14271			42741.51297		221.07600		875.00000 
 43692.65567		 305.27265			43387.38302		66.21000		324.00000 
 43692.65567		 951.14271			42741.51297		221.07600		875.00000 
 43692.65567		 305.27265			43387.38302		66.21000		324.00000 
 43692.65567		 951.14271			42741.51297		221.07600		875.00000 
 43692.65567		 305.27265			43387.38302		66.21000		324.00000 
 43692.65567		 951.14271			42741.51297		221.07600		875.00000 
 43692.65567		 305.27265			43387.38302		66.21000		324.00000 
 43692.65567		 951.14271			42741.51297		221.07600		875.00000 
 43692.65567		 305.27265			43387.38302		66.21000		324.00000 
 43692.65567		 951.14271			42741.51297		221.07600		875.00000 
 43692.65567		 305.27265			43387.38302		66.21000		324.00000 
 43692.65567		 951.14271			42741.51297		221.07600		875.00000 
 43692.65567		 305.27265			43387.38302		66.21000		324.00000 
 43692.65567		 951.14271			42741.51297		221.07600		875.00000 
 43692.65567		 305.27265			43387.38302		66.21000		324.00000 
 43692.65567		 951.14271			42741.51297		221.07600		875.00000 
 43692.65567		 305.27265			43387.38302		66.21000		324.00000 
 43692.65567		 951.14271			42741.51297		221.07600		875.00000 
 43692.65567		 305.27265			43387.38302		66.21000		324.00000 
 43692.65567		 951.14271			42741.51297		221.07600		875.00000 
 43692.65567		 305.27265			43387.38302		66.21000		324.00000 
 43692.65567		 951.14271			42741.51297		221.07600		875.00000 
 43692.65567		 305.27265			43387.38302		66.21000		324.00000 
 43692.65567		 951.14271			42741.51297		221.07600		875.00000 
 43692.65567		 305.27265			43387.38302		66.21000		324.00000 
 43692.65567		 951.14271			42741.51297		221.07600		875.00000 
 43692.65567		 305.27265			43387.38302		66.21000		324.00000 
 43692.65567		 951.14271			42741.51297		221.07600		875.00000 
 43692.65567		 305.27265			43387.38302		66.21000		324.00000 
 43692.65567		 951.14271			42741.51297		221.07600		875.00000 
 43692.65567		 305.27265			43387.38302		66.21000		324.00000 
 43692.65567		 951.14271			42741.51297		221.07600		875.00000 
 43692.65567		 305.27265			43387.38302		66.21000		324.00000 
 43692.65567		 951.14271			42741.51297		221.07600		875.00000 
 43692.65567		 305.27265			43387.38302		66.21000		324.00000 
 43692.65567		 951.14271			42741.51297		221.07600		875.00000 
 43692.65567		 305.27265			43387.38302		66.21000		324.00000 
 43692.65567		 951.14271			42741.51297		221.07600		875.00000 
 43692.65567		 305.27265			43387.38302		66.21000		324.00000 
 43692.65567		 951.14271			42741.51297		221.07600		875.00000 
 43692.65567		 305.27265			43387.38302		66.21000		324.00000 
 43692.65567		 951.14271			42741.51297		221.86800		875.00000 
 43692.65567		 305.27265			43387.38302		66.21000		324.00000 
 43692.65567		 951.14271			42741.51297		221.86800		875.00000 
 43692.65567		 305.27265			43387.38302		66.21000		324.00000 
 43692.65567		 951.14271			42741.51297		221.86800		875.00000 
 43692.65567		 305.27265			43387.38302		66.21000		324.00000 
 43692.65567		 951.14271			42741.51297		221.86800		875.00000 
 43692.65567		 305.27265			43387.38302		66.21000		324.00000 
 43692.65567		 951.14271			42741.51297		221.86800		875.00000 
 43692.65567		 305.27265			43387.38302		66.21000		324.00000 
 43692.65567		 951.14271			42741.51297		221.86800		875.00000 
 43692.65567		 305.27265			43387.38302		66.21000		324.00000 
 43692.65567		 951.14271			42741.51297		221.86800		875.00000 
 43692.65567		 305.27265			43387.38302		66.21000		324.00000 
 43692.65567		 951.14271			42741.51297		221.86800		875.00000 
 43692.65567		 305.27265			43387.38302		66.21000		324.00000 
 43692.65567		 951.14271			42741.51297		221.86800		875.00000 
 43692.65567		 305.27265			43387.38302		66.21000		324.00000 
 43692.65567		 951.14271			42741.51297		221.86800		875.00000 
 43692.65567		 305.27265			43387.38302		66.21000		324.00000 
 43692.65567		 951.14271			42741.51297		221.86800		875.00000 
 43692.65567		 305.27265			43387.38302		66.21000		324.00000 
 43692.65567		 951.14271			42741.51297		221.86800		875.00000 
 43692.65567		 305.27265			43387.38302		66.21000		324.00000 
 43692.65567		 951.14271			42741.51297		221.86800		875.00000 
 43692.65567		 305.27265			43387.38302		66.21000		324.00000 
 43692.65567		 951.14271			42741.51297		221.86800		875.00000 
 43692.65567		 305.27265			43387.38302		66.21000		324.00000 
 43692.65567		 951.14271			42741.51297		221.86800		875.00000 
 43692.65567		 305.27265			43387.38302		66.21000		324.00000 
 43692.65567		 951.14271			42741.51297		221.86800		875.00000 
 43692.65567		 305.27265			43387.38302		66.21000		324.00000 
 43692.65567		 951.14271			42741.51297		221.86800		875.00000 
 43692.65567		 305.27265			43387.38302		66.21000		324.00000 
 43692.65567		 951.14271			42741.51297		221.86800		875.00000 
 43692.65567		 305.27265			43387.38302		66.21000		324.00000 
 43692.65567		 951.14271			42741.51297		221.86800		875.00000 
 43692.65567		 305.27265			43387.38302		66.21000		324.00000 
 43692.65567		 951.14271			42741.51297		221.86800		875.00000 
 43692.65567		 305.27265			43387.38302		66.21000		324.00000 
 43692.65567		 951.14271			42741.51297		221.86800		875.00000 
 43692.65567		 305.27265			43387.38302		66.21000		324.00000 
 43692.65567		 951.14271			42741.51297		221.86800		875.00000 
 43692.65567		 305.27265			43387.38302		66.21000		324.00000 
 43692.65567		 951.14271			42741.51297		221.86800		875.00000 
 43692.65567		 305.27265			43387.38302		66.21000		324.00000 
 43692.65567		 951.14271			42741.51297		221.86800		875.00000 
 43692.65567		 305.27265			43387.38302		66.21000		324.00000 
 43692.65567		 951.14271			42741.51297		221.86800		875.00000 
 43692.65567		 305.27265			43387.38302		66.21000		324.00000 
 43692.65567		 951.14271			42741.51297		221.86800		875.00000 
 43692.65567		 305.27265			43387.38302		66.21000		324.00000 
 43692.65567		 951.14271			42741.51297		221.86800		875.00000 
 43692.65567		 305.27265			43387.38302		66.21000		324.00000 
 43692.65567		 951.14271			42741.51297		221.86800		875.00000 
 43692.65567		 305.27265			43387.38302		66.21000		324.00000 
 43692.65567		 951.14271			42741.51297		221.86800		875.00000 
 43692.65567		 305.27265			43387.38302		66.21000		324.00000 
 43692.65567		 951.14271			42741.51297		221.86800		875.00000 
 43692.65567		 305.27265			43387.38302		66.21000		324.00000 
 43692.65567		 951.14271			42741.51297		221.86800		875.00000 
 43692.65567		 305.27265			43387.38302		66.21000		324.00000 
 43692.65567		 951.14271			42741.51297		221.86800		875.00000 
 43692.65567		 305.27265			43387.38302		66.21000		324.00000 
 43692.65567		 951.14271			42741.51297		221.86800		875.00000 
 43692.65567		 305.27265			43387.38302		66.21000		324.00000 
 43692.65567		 951.14271			42741.51297		221.86800		875.00000 
 43692.65567		 305.27265			43387.38302		66.21000		324.00000 
 43692.65567		 951.14271			42741.51297		221.86800		875.00000 
 43692.65567		 305.27265			43387.38302		66.21000		324.00000 
 43692.65567		 951.14271			42741.51297		221.86800		875.00000 
 43692.65567		 305.27265			43387.38302		66.21000		324.00000 
 43692.65567		 951.14271			42741.51297		221.86800		875.00000 
 43692.65567		 305.27265			43387.38302		66.21000		324.00000 
 43692.65567		 951.14271			42741.51297		221.86800		875.00000 
 43692.65567		 305.27265			43387.38302		66.21000		324.00000 
 43692.65567		 951.14271			42741.51297		221.86800		875.00000 
 43692.65567		 305.27265			43387.38302		66.21000		324.00000 
 43692.65567		 951.14271			42741.51297		221.86800		875.00000 
 43692.65567		 305.27265			43387.38302		66.21000		324.00000 
 43692.65567		 951.14271			42741.51297		221.86800		875.00000 
 43692.65567		 305.27265			43387.38302		66.21000		324.00000 
 43692.65567		 951.14271			42741.51297		221.86800		875.00000 
 43692.65567		 305.27265			43387.38302		66.21000		324.00000 
 43692.65567		 951.14271			42741.51297		221.86800		875.00000 
 43692.65567		 305.27265			43387.38302		66.21000		324.00000 
 43692.65567		 951.14271			42741.51297		221.86800		875.00000 
 43692.65567		 305.27265			43387.38302		66.21000		324.00000 
 43692.65567		 951.14271			42741.51297		221.86800		875.00000 
 43692.65567		 305.27265			43387.38302		66.21000		324.00000 
 43692.65567		 951.14271			42741.51297		221.86800		875.00000 
 43692.65567		 305.27265			43387.38302		66.21000		324.00000 
 43692.65567		 951.14271			42741.51297		221.86800		875.00000 
 43692.65567		 305.27265			43387.38302		66.21000		324.00000 
 43692.65567		 951.14271			42741.51297		221.86800		875.00000 
 43692.65567		 305.27265			43387.38302		66.21000		324.00000 
 43692.65567		 951.14271			42741.51297		221.86800		875.00000 
 43692.65567		 305.27265			43387.38302		66.21000		324.00000 
 43692.65567		 951.14271			42741.51297		221.86800		875.00000 
 43692.65567		 305.27265			43387.38302		66.21000		324.00000 
 43692.65567		 951.14271			42741.51297		221.86800		875.00000 
 43692.65567		 305.27265			43387.38302		66.21000		324.00000 
 43692.65567		 951.14271			42741.51297		221.86800		875.00000 
 43692.65567		 305.27265			43387.38302		66.21000		324.00000 
 43692.65567		 951.14271			42741.51297		221.86800		875.00000 
 43692.65567		 305.27265			43387.38302		66.21000		324.00000 
 43692.65567		 951.14271			42741.51297		221.86800		875.00000 
 43692.65567		 305.27265			43387.38302		66.21000		324.00000 
 43692.65567		 951.14271			42741.51297		221.86800		875.00000 
 43692.65567		 305.27265			43387.38302		66.21000		324.00000 
 43692.65567		 951.14271			42741.51297		221.86800		875.00000 
 43692.65567		 305.27265			43387.38302		66.21000		324.00000 
 43692.65567		 951.14271			42741.51297		221.86800		875.00000 
 43692.65567		 305.27265			43387.38302		66.21000		324.00000 
 43692.65567		 951.14271			42741.51297		221.86800		875.00000 
 43692.65567		 305.27265			43387.38302		66.21000		324.00000 
 43692.65567		 951.14271			42741.51297		221.86800		875.00000 
 43692.65567		 305.27265			43387.38302		66.21000		324.00000 
 43692.65567		 951.14271			42741.51297		221.86800		875.00000 
 43692.65567		 305.27265			43387.38302		66.21000		324.00000 
 43692.65567		 951.14271			42741.51297		221.86800		875.00000 
 43692.65567		 305.27265			43387.38302		66.21000		324.00000 
 43692.65567		 951.14271			42741.51297		221.86800		875.00000 
 43692.65567		 305.27265			43387.38302		66.21000		324.00000 
 43692.65567		 951.14271			42741.51297		221.86800		875.00000 
 43692.65567		 305.27265			43387.38302		66.21000		324.00000 
 43692.65567		 951.14271			42741.51297		221.86800		875.00000 
 43692.65567		 305.27265			43387.38302		66.21000		324.00000 
 43692.65567		 951.14271			42741.51297		221.86800		875.00000 
 43692.65567		 305.27265			43387.38302		66.21000		324.00000 
 43692.65567		 951.14271			42741.51297		222.42400		875.00000 
 43692.65567		 305.27265			43387.38302		66.21000		324.00000 
 43692.65567		 951.14271			42741.51297		222.42400		875.00000 
 43692.65567		 305.27265			43387.38302		66.21000		324.00000 
 43692.65567		 951.14271			42741.51297		222.42400		875.00000 
 43692.65567		 305.27265			43387.38302		66.21000		324.00000 
 43692.65567		 951.14271			42741.51297		222.42400		875.00000 
 43692.65567		 305.27265			43387.38302		66.21000		324.00000 
 43692.65567		 951.14271			42741.51297		222.42400		875.00000 
 43692.65567		 305.27265			43387.38302		66.21000		324.00000 
 43692.65567		 951.14271			42741.51297		222.42400		875.00000 
 43692.65567		 305.27265			43387.38302		66.21000		324.00000 
 43692.65567		 951.14271			42741.51297		222.42400		875.00000 
 43692.65567		 305.27265			43387.38302		66.21000		324.00000 
 43692.65567		 951.14271			42741.51297		222.42400		875.00000 
 43692.65567		 305.27265			43387.38302		66.21000		324.00000 
 43692.65567		 951.14271			42741.51297		222.42400		875.00000 
 43692.65567		 305.27265			43387.38302		66.21000		324.00000 
 43692.65567		 951.14271			42741.51297		222.42400		875.00000 
 43692.65567		 305.27265			43387.38302		66.21000		324.00000 
 43692.65567		 951.14271			42741.51297		222.42400		875.00000 
 43692.65567		 305.27265			43387.38302		66.21000		324.00000 
 43692.65567		 951.14271			42741.51297		222.42400		875.00000 
 43692.65567		 305.27265			43387.38302		66.21000		324.00000 
 43692.65567		 951.14271			42741.51297		222.42400		875.00000 
 43692.65567		 305.27265			43387.38302		66.21000		324.00000 
 43692.65567		 951.14271			42741.51297		222.42400		875.00000 
 43692.65567		 305.27265			43387.38302		66.21000		324.00000 
 43692.65567		 951.14271			42741.51297		222.42400		875.00000 
 43692.65567		 305.27265			43387.38302		66.21000		324.00000 
 43692.65567		 951.14271			42741.51297		222.42400		875.00000 
 43692.65567		 305.27265			43387.38302		66.21000		324.00000 
 43692.65567		 951.14271			42741.51297		222.42400		875.00000 
 43692.65567		 305.27265			43387.38302		66.21000		324.00000 
 43692.65567		 951.14271			42741.51297		222.42400		875.00000 
 43692.65567		 305.27265			43387.38302		66.21000		324.00000 
 43692.65567		 951.14271			42741.51297		222.42400		875.00000 
 43692.65567		 305.27265			43387.38302		66.21000		324.00000 
 43692.65567		 951.14271			42741.51297		222.42400		875.00000 
 43692.65567		 305.27265			43387.38302		66.21000		324.00000 
 43692.65567		 951.14271			42741.51297		222.42400		875.00000 
 43692.65567		 305.27265			43387.38302		66.21000		324.00000 
 43692.65567		 951.14271			42741.51297		222.42400		875.00000 
 43692.65567		 305.27265			43387.38302		66.21000		324.00000 
 43692.65567		 951.14271			42741.51297		222.42400		875.00000 
 43692.65567		 305.27265			43387.38302		66.21000		324.00000 
 43692.65567		 951.14271			42741.51297		222.42400		875.00000 
 43692.65567		 305.27265			43387.38302		66.21000		324.00000 
 43692.65567		 951.14271			42741.51297		222.42400		875.00000 
 43692.65567		 305.27265			43387.38302		66.21000		324.00000 
 43692.65567		 951.14271			42741.51297		222.42400		875.00000 
 43692.65567		 305.27265			43387.38302		66.21000		324.00000 
 43692.65567		 951.14271			42741.51297		222.42400		875.00000 
 43692.65567		 305.27265			43387.38302		66.21000		324.00000 
 43692.65567		 951.14271			42741.51297		222.42400		875.00000 
 43692.65567		 305.27265			43387.38302		66.21000		324.00000 
 43692.65567		 951.14271			42741.51297		222.42400		875.00000 
 43692.65567		 305.27265			43387.38302		66.21000		324.00000 
 43692.65567		 951.14271			42741.51297		222.42400		875.00000 
 43692.65567		 305.27265			43387.38302		66.21000		324.00000 
 43692.65567		 951.14271			42741.51297		222.42400		875.00000 
 43692.65567		 305.27265			43387.38302		66.21000		324.00000 
 43692.65567		 951.14271			42741.51297		222.42400		875.00000 
 43692.65567		 305.27265			43387.38302		66.21000		324.00000 
 43692.65567		 951.14271			42741.51297		222.42400		875.00000 
 43692.65567		 305.27265			43387.38302		66.21000		324.00000 
 43692.65567		 951.14271			42741.51297		222.42400		875.00000 
 43692.65567		 305.27265			43387.38302		66.21000		324.00000 
 43692.65567		 951.14271			42741.51297		222.42400		875.00000 
 43692.65567		 305.27265			43387.38302		66.21000		324.00000 
 43692.65567		 951.14271			42741.51297		222.42400		875.00000 
 43692.65567		 305.27265			43387.38302		66.21000		324.00000 
 43692.65567		 951.14271			42741.51297		222.42400		875.00000 
 43692.65567		 305.27265			43387.38302		66.21000		324.00000 
 43692.65567		 951.14271			42741.51297		222.42400		875.00000 
 43692.65567		 305.27265			43387.38302		66.21000		324.00000 
 43692.65567		 951.14271			42741.51297		222.42400		875.00000 
 43692.65567		 305.27265			43387.38302		66.21000		324.00000 
 43692.65567		 951.14271			42741.51297		222.42400		875.00000 
 43692.65567		 305.27265			43387.38302		66.21000		324.00000 
 43692.65567		 951.14271			42741.51297		222.42400		875.00000 
 43692.65567		 305.27265			43387.38302		66.21000		324.00000 
 43692.65567		 951.14271			42741.51297		222.42400		875.00000 
 43692.65567		 305.27265			43387.38302		66.21000		324.00000 
 43692.65567		 951.14271			42741.51297		222.42400		875.00000 
 43692.65567		 305.27265			43387.38302		66.21000		324.00000 
 43692.65567		 951.14271			42741.51297		222.42400		875.00000 
 43692.65567		 305.27265			43387.38302		66.21000		324.00000 
 43692.65567		 951.14271			42741.51297		222.42400		875.00000 
 43692.65567		 305.27265			43387.38302		66.21000		324.00000 
 43692.65567		 951.14271			42741.51297		222.42400		875.00000 
 43692.65567		 305.27265			43387.38302		66.21000		324.00000 
 43692.65567		 951.14271			42741.51297		222.42400		875.00000 
 43692.65567		 305.27265			43387.38302		66.21000		324.00000 
 43692.65567		 951.14271			42741.51297		222.42400		875.00000 
 43692.65567		 305.27265			43387.38302		66.21000		324.00000 
 43692.65567		 951.14271			42741.51297		222.42400		875.00000 
 43692.65567		 305.27265			43387.38302		66.21000		324.00000 
 43692.65567		 951.14271			42741.51297		222.42400		875.00000 
 43692.65567		 305.27265			43387.38302		66.21000		324.00000 
 43692.65567		 951.14271			42741.51297		222.42400		875.00000 
 43692.65567		 305.27265			43387.38302		66.21000		324.00000 
 43692.65567		 951.14271			42741.51297		222.42400		875.00000 
 43692.65567		 305.27265			43387.38302		66.21000		324.00000 
 43692.65567		 951.14271			42741.51297		222.42400		875.00000 
 43692.65567		 305.27265			43387.38302		66.21000		324.00000 
 43692.65567		 951.14271			42741.51297		222.42400		875.00000 
 43692.65567		 305.27265			43387.38302		66.21000		324.00000 
 43692.65567		 951.14271			42741.51297		222.42400		875.00000 
 43692.65567		 305.27265			43387.38302		66.21000		324.00000 
 43692.65567		 951.14271			42741.51297		222.42400		875.00000 
 43692.65567		 305.27265			43387.38302		66.21000		324.00000 
 43692.65567		 951.14271			42741.51297		222.42400		875.00000 
 43692.65567		 305.27265			43387.38302		66.21000		324.00000 
 43692.65567		 951.14271			42741.51297		222.42400		875.00000 
 43692.65567		 305.27265			43387.38302		66.21000		324.00000 
 43692.65567		 951.14271			42741.51297		222.42400		875.00000 
 43692.65567		 305.27265			43387.38302		66.21000		324.00000 
 43692.65567		 951.14271			42741.51297		222.42400		875.00000 
 43692.65567		 305.27265			43387.38302		66.21000		324.00000 
 43692.65567		 951.14271			42741.51297		222.42400		875.00000 
 43692.65567		 305.27265			43387.38302		66.21000		324.00000 
 43692.65567		 951.14271			42741.51297		222.42400		875.00000 
 43692.65567		 305.27265			43387.38302		66.21000		324.00000 
 43692.65567		 951.14271			42741.51297		222.42400		875.00000 
 43692.65567		 305.27265			43387.38302		66.21000		324.00000 
 43692.65567		 951.14271			42741.51297		222.42400		875.00000 
 43692.65567		 305.27265			43387.38302		66.21000		324.00000 
 43692.65567		 951.14271			42741.51297		222.42400		875.00000 
 43692.65567		 305.27265			43387.38302		66.21000		324.00000 
 43692.65567		 951.14271			42741.51297		221.82600		875.00000 
 43692.65567		 305.27265			43387.38302		66.21000		324.00000 
 43692.65567		 951.14271			42741.51297		221.82600		875.00000 
 43692.65567		 305.27265			43387.38302		66.21000		324.00000 
 43692.65567		 951.14271			42741.51297		221.82600		875.00000 
 43692.65567		 305.27265			43387.38302		66.21000		324.00000 
 43692.65567		 951.14271			42741.51297		221.82600		875.00000 
 43692.65567		 305.27265			43387.38302		66.21000		324.00000 
 43692.65567		 951.14271			42741.51297		221.82600		875.00000 
 43692.65567		 305.27265			43387.38302		66.21000		324.00000 
 43692.65567		 951.14271			42741.51297		221.82600		875.00000 
 43692.65567		 305.27265			43387.38302		66.21000		324.00000 
 43692.65567		 951.14271			42741.51297		221.82600		875.00000 
 43692.65567		 305.27265			43387.38302		66.21000		324.00000 
 43692.65567		 951.14271			42741.51297		221.82600		875.00000 
 43692.65567		 305.27265			43387.38302		66.21000		324.00000 
 43692.65567		 951.14271			42741.51297		221.82600		875.00000 
 43692.65567		 305.27265			43387.38302		66.21000		324.00000 
 43692.65567		 951.14271			42741.51297		221.82600		875.00000 
 43692.65567		 305.27265			43387.38302		66.21000		324.00000 
 43692.65567		 951.14271			42741.51297		221.82600		875.00000 
 43692.65567		 305.27265			43387.38302		66.21000		324.00000 
 43692.65567		 951.14271			42741.51297		221.82600		875.00000 
 43692.65567		 305.27265			43387.38302		66.21000		324.00000 
 43692.65567		 951.14271			42741.51297		221.82600		875.00000 
 43692.65567		 305.27265			43387.38302		66.21000		324.00000 
 43692.65567		 951.14271			42741.51297		221.82600		875.00000 
 43692.65567		 305.27265			43387.38302		66.21000		324.00000 
 43692.65567		 951.14271			42741.51297		221.82600		875.00000 
 43692.65567		 305.27265			43387.38302		66.21000		324.00000 
 43692.65567		 951.14271			42741.51297		221.82600		875.00000 
 43692.65567		 305.27265			43387.38302		66.21000		324.00000 
 43692.65567		 951.14271			42741.51297		221.82600		875.00000 
 43692.65567		 305.27265			43387.38302		66.21000		324.00000 
 43692.65567		 951.14271			42741.51297		221.82600		875.00000 
 43692.65567		 305.27265			43387.38302		66.21000		324.00000 
 43692.65567		 951.14271			42741.51297		221.82600		875.00000 
 43692.65567		 305.27265			43387.38302		66.21000		324.00000 
 43692.65567		 951.14271			42741.51297		221.82600		875.00000 
 43692.65567		 305.27265			43387.38302		66.21000		324.00000 
 43692.65567		 951.14271			42741.51297		221.82600		875.00000 
 43692.65567		 305.27265			43387.38302		66.21000		324.00000 
 43692.65567		 951.14271			42741.51297		221.82600		875.00000 
 43692.65567		 305.27265			43387.38302		66.21000		324.00000 
 43692.65567		 951.14271			42741.51297		221.82600		875.00000 
 43692.65567		 305.27265			43387.38302		66.21000		324.00000 
 43692.65567		 951.14271			42741.51297		221.82600		875.00000 
 43692.65567		 305.27265			43387.38302		66.21000		324.00000 
 43692.65567		 951.14271			42741.51297		221.82600		875.00000 
 43692.65567		 305.27265			43387.38302		66.21000		324.00000 
 43692.65567		 951.14271			42741.51297		221.82600		875.00000 
 43692.65567		 305.27265			43387.38302		66.21000		324.00000 
 43692.65567		 951.14271			42741.51297		221.82600		875.00000 
 43692.65567		 305.27265			43387.38302		66.21000		324.00000 
 43692.65567		 951.14271			42741.51297		221.82600		875.00000 
 43692.65567		 305.27265			43387.38302		66.21000		324.00000 
 43692.65567		 951.14271			42741.51297		221.82600		875.00000 
 43692.65567		 305.27265			43387.38302		66.21000		324.00000 
 43692.65567		 951.14271			42741.51297		221.82600		875.00000 
 43692.65567		 305.27265			43387.38302		66.21000		324.00000 
 43692.65567		 951.14271			42741.51297		221.82600		875.00000 
 43692.65567		 305.27265			43387.38302		66.21000		324.00000 
 43692.65567		 951.14271			42741.51297		221.82600		875.00000 
 43692.65567		 305.27265			43387.38302		66.21000		324.00000 
 43692.65567		 951.14271			42741.51297		221.82600		875.00000 
 43692.65567		 305.27265			43387.38302		66.21000		324.00000 
 43692.65567		 951.14271			42741.51297		221.82600		875.00000 
 43692.65567		 305.27265			43387.38302		66.21000		324.00000 
 43692.65567		 951.14271			42741.51297		221.82600		875.00000 
 43692.65567		 305.27265			43387.38302		66.21000		324.00000 
 43692.65567		 951.14271			42741.51297		221.82600		875.00000 
 43692.65567		 305.27265			43387.38302		66.21000		324.00000 
 43692.65567		 951.14271			42741.51297		221.82600		875.00000 
 43692.65567		 305.27265			43387.38302		66.21000		324.00000 
 43692.65567		 951.14271			42741.51297		221.82600		875.00000 
 43692.65567		 305.27265			43387.38302		66.21000		324.00000 
 43692.65567		 951.14271			42741.51297		221.82600		875.00000 
 43692.65567		 305.27265			43387.38302		66.21000		324.00000 
 43692.65567		 951.14271			42741.51297		221.82600		875.00000 
 43692.65567		 305.27265			43387.38302		66.21000		324.00000 
 43692.65567		 951.14271			42741.51297		221.82600		875.00000 
 43692.65567		 305.27265			43387.38302		66.21000		324.00000 
 43692.65567		 951.14271			42741.51297		221.82600		875.00000 
 43692.65567		 305.27265			43387.38302		66.21000		324.00000 
 43692.65567		 951.14271			42741.51297		221.82600		875.00000 
 43692.65567		 305.27265			43387.38302		66.21000		324.00000 
 43692.65567		 951.14271			42741.51297		221.82600		875.00000 
 43692.65567		 305.27265			43387.38302		66.21000		324.00000 
 43692.65567		 951.14271			42741.51297		221.82600		875.00000 
 43692.65567		 305.27265			43387.38302		66.21000		324.00000 
 43692.65567		 951.14271			42741.51297		221.82600		875.00000 
 43692.65567		 305.27265			43387.38302		66.21000		324.00000 
 43692.65567		 951.14271			42741.51297		221.82600		875.00000 
 43692.65567		 305.27265			43387.38302		66.21000		324.00000 
 43692.65567		 951.14271			42741.51297		221.82600		875.00000 
 43692.65567		 305.27265			43387.38302		66.21000		324.00000 
 43692.65567		 951.14271			42741.51297		221.82600		875.00000 
 43692.65567		 305.27265			43387.38302		66.21000		324.00000 
 43692.65567		 951.14271			42741.51297		221.82600		875.00000 
 43692.65567		 305.27265			43387.38302		66.21000		324.00000 
 43692.65567		 951.14271			42741.51297		221.82600		875.00000 
 43692.65567		 305.27265			43387.38302		66.21000		324.00000 
 43692.65567		 951.14271			42741.51297		221.82600		875.00000 
 43692.65567		 305.27265			43387.38302		66.21000		324.00000 
 43692.65567		 951.14271			42741.51297		221.82600		875.00000 
 43692.65567		 305.27265			43387.38302		66.21000		324.00000 
 43692.65567		 951.14271			42741.51297		221.82600		875.00000 
 43692.65567		 305.27265			43387.38302		66.21000		324.00000 
 43692.65567		 951.14271			42741.51297		221.82600		875.00000 
 43692.65567		 305.27265			43387.38302		66.21000		324.00000 
 43692.65567		 951.14271			42741.51297		221.82600		875.00000 
 43692.65567		 305.27265			43387.38302		66.21000		324.00000 
 43692.65567		 951.14271			42741.51297		221.82600		875.00000 
 43692.65567		 305.27265			43387.38302		66.21000		324.00000 
 43692.65567		 951.14271			42741.51297		221.82600		875.00000 
 43692.65567		 305.27265			43387.38302		66.21000		324.00000 
 43692.65567		 951.14271			42741.51297		221.82600		875.00000 
 43692.65567		 305.27265			43387.38302		66.21000		324.00000 
 43692.65567		 951.14271			42741.51297		221.82600		875.00000 
 43692.65567		 305.27265			43387.38302		66.21000		324.00000 
 43692.65567		 951.14271			42741.51297		221.82600		875.00000 
 43692.65567		 305.27265			43387.38302		66.21000		324.00000 
 43692.65567		 951.14271			42741.51297		221.82600		875.00000 
 43692.65567		 305.27265			43387.38302		66.21000		324.00000 
 43692.65567		 951.14271			42741.51297		221.82600		875.00000 
 43692.65567		 305.27265			43387.38302		66.21000		324.00000 
 43692.65567		 951.14271			42741.51297		221.82600		875.00000 
 43692.65567		 305.27265			43387.38302		66.21000		324.00000 
 43692.65567		 951.14271			42741.51297		221.82600		875.00000 
 43692.65567		 305.27265			43387.38302		66.21000		324.00000 
 43692.65567		 951.14271			42741.51297		221.82600		875.00000 
 43692.65567		 305.27265			43387.38302		66.21000		324.00000 
 43692.65567		 951.14271			42741.51297		221.82600		875.00000 
 43692.65567		 305.27265			43387.38302		66.21000		324.00000 
 43692.65567		 951.14271			42741.51297		221.82600		875.00000 
 43692.65567		 305.27265			43387.38302		66.21000		324.00000 
 43692.65567		 951.14271			42741.51297		221.82600		875.00000 
 43692.65567		 305.27265			43387.38302		66.21000		324.00000 
 43692.65567		 951.14271			42741.51297		221.82600		875.00000 
 43692.65567		 305.27265			43387.38302		66.21000		324.00000 
 43692.65567		 951.14271			42741.51297		221.82600		875.00000 
 43692.65567		 305.27265			43387.38302		66.21000		324.00000 
 43692.65567		 951.14271			42741.51297		221.82600		875.00000 
 43692.65567		 305.27265			43387.38302		66.21000		324.00000 
 43692.65567		 951.14271			42741.51297		221.82600		875.00000 
 43692.65567		 305.27265			43387.38302		66.21000		324.00000 
 43692.65567		 951.14271			42741.51297		221.82600		875.00000 
 43692.65567		 305.27265			43387.38302		66.21000		324.00000 
 43692.65567		 951.14271			42741.51297		221.82600		875.00000 
 43692.65567		 305.27265			43387.38302		66.21000		324.00000 
 43692.65567		 951.14271			42741.51297		221.82600		875.00000 
 43692.65567		 305.27265			43387.38302		66.21000		324.00000 
 43692.65567		 951.14271			42741.51297		221.82600		875.00000 
 43692.65567		 305.27265			43387.38302		66.21000		324.00000 
 43692.65567		 951.14271			42741.51297		221.82600		875.00000 
 43692.65567		 305.27265			43387.38302		66.21000		324.00000 
 43692.65567		 951.14271			42741.51297		221.82600		875.00000 
 43692.65567		 305.27265			43387.38302		66.21000		324.00000 
 43692.65567		 951.14271			42741.51297		221.82600		875.00000 
 43692.65567		 305.27265			43387.38302		66.21000		324.00000 
 43692.65567		 951.14271			42741.51297		221.82600		875.00000 
 43692.65567		 305.27265			43387.38302		66.21000		324.00000 
 43692.65567		 951.14271			42741.51297		221.82600		875.00000 
 43692.65567		 305.27265			43387.38302		66.21000		324.00000 
 43692.65567		 951.14271			42741.51297		221.82600		875.00000 
 43692.65567		 305.27265			43387.38302		66.21000		324.00000 
 43692.65567		 951.14271			42741.51297		221.82600		875.00000 
 43692.65567		 305.27265			43387.38302		66.21000		324.00000 
 43692.65567		 951.14271			42741.51297		221.82600		875.00000 
 43692.65567		 305.27265			43387.38302		66.21000		324.00000 
 43692.65567		 951.14271			42741.51297		221.82600		875.00000 
 43692.65567		 305.27265			43387.38302		70.25800		324.00000 
 43692.65567		 951.14271			42741.51297		221.82600		875.00000 
 43692.65567		 305.27265			43387.38302		70.25800		324.00000 
 43692.65567		 951.14271			42741.51297		221.82600		875.00000 
 43692.65567		 305.27265			43387.38302		70.25800		324.00000 
 43692.65567		 951.14271			42741.51297		221.82600		875.00000 
 43692.65567		 305.27265			43387.38302		70.25800		324.00000 
 43692.65567		 951.14271			42741.51297		221.82600		875.00000 
 43692.65567		 305.27265			43387.38302		70.25800		324.00000 
 43692.65567		 951.14271			42741.51297		221.82600		875.00000 
 43692.65567		 305.27265			43387.38302		70.25800		324.00000 
 43692.65567		 951.14271			42741.51297		221.82600		875.00000 
 43692.65567		 305.27265			43387.38302		70.25800		324.00000 
 43692.65567		 951.14271			42741.51297		221.82600		875.00000 
 43692.65567		 305.27265			43387.38302		70.25800		324.00000 
 43692.65567		 951.14271			42741.51297		221.82600		875.00000 
 43692.65567		 305.27265			43387.38302		70.25800		324.00000 
 43692.65567		 951.14271			42741.51297		221.82600		875.00000 
 43692.65567		 305.27265			43387.38302		70.25800		324.00000 
 43692.65567		 951.14271			42741.51297		221.82600		875.00000 
 43692.65567		 305.27265			43387.38302		70.25800		324.00000 
 43692.65567		 951.14271			42741.51297		221.82600		875.00000 
 43692.65567		 305.27265			43387.38302		70.25800		324.00000 
 43692.65567		 951.14271			42741.51297		221.82600		875.00000 
 43692.65567		 305.27265			43387.38302		70.25800		324.00000 
 43692.65567		 951.14271			42741.51297		221.82600		875.00000 
 43692.65567		 305.27265			43387.38302		70.25800		324.00000 
 43692.65567		 951.14271			42741.51297		221.82600		875.00000 
 43692.65567		 305.27265			43387.38302		70.25800		324.00000 
 43692.65567		 951.14271			42741.51297		221.82600		875.00000 
 43692.65567		 305.27265			43387.38302		70.25800		324.00000 
 43692.65567		 951.14271			42741.51297		221.82600		875.00000 
 43692.65567		 305.27265			43387.38302		70.25800		324.00000 
 43692.65567		 951.14271			42741.51297		221.82600		875.00000 
 43692.65567		 305.27265			43387.38302		70.25800		324.00000 
 43692.65567		 951.14271			42741.51297		221.82600		875.00000 
 43692.65567		 305.27265			43387.38302		70.25800		324.00000 
 43692.65567		 951.14271			42741.51297		221.82600		875.00000 
 43692.65567		 305.27265			43387.38302		70.25800		324.00000 
 43692.65567		 951.14271			42741.51297		221.82600		875.00000 
 43692.65567		 305.27265			43387.38302		70.25800		324.00000 
 43692.65567		 951.14271			42741.51297		221.82600		875.00000 
 43692.65567		 305.27265			43387.38302		70.25800		324.00000 
 43692.65567		 951.14271			42741.51297		221.82600		875.00000 
 43692.65567		 305.27265			43387.38302		70.25800		324.00000 
 43692.65567		 951.14271			42741.51297		221.82600		875.00000 
 43692.65567		 305.27265			43387.38302		70.25800		324.00000 
 43692.65567		 951.14271			42741.51297		221.82600		875.00000 
 43692.65567		 305.27265			43387.38302		70.25800		324.00000 
 43692.65567		 951.14271			42741.51297		221.82600		875.00000 
 43692.65567		 305.27265			43387.38302		70.25800		324.00000 
 43692.65567		 951.14271			42741.51297		221.82600		875.00000 
 43692.65567		 305.27265			43387.38302		70.25800		324.00000 
 43692.65567		 951.14271			42741.51297		221.82600		875.00000 
 43692.65567		 305.27265			43387.38302		70.25800		324.00000 
 43692.65567		 951.14271			42741.51297		221.82600		875.00000 
 43692.65567		 305.27265			43387.38302		70.25800		324.00000 
 43692.65567		 951.14271			42741.51297		221.82600		875.00000 
 43692.65567		 305.27265			43387.38302		70.25800		324.00000 
 43692.65567		 951.14271			42741.51297		221.82600		875.00000 
 43692.65567		 305.27265			43387.38302		70.25800		324.00000 
 43692.65567		 951.14271			42741.51297		221.82600		875.00000 
 43692.65567		 305.27265			43387.38302		70.25800		324.00000 
 43692.65567		 951.14271			42741.51297		221.82600		875.00000 
 43692.65567		 305.27265			43387.38302		70.25800		324.00000 
 43692.65567		 951.14271			42741.51297		221.82600		875.00000 
 43692.65567		 305.27265			43387.38302		70.25800		324.00000 
 43692.65567		 951.14271			42741.51297		221.82600		875.00000 
 43692.65567		 305.27265			43387.38302		70.25800		324.00000 
 43692.65567		 951.14271			42741.51297		221.82600		875.00000 
 43692.65567		 305.27265			43387.38302		70.25800		324.00000 
 43692.65567		 951.14271			42741.51297		221.82600		875.00000 
 43692.65567		 305.27265			43387.38302		70.25800		324.00000 
 43692.65567		 951.14271			42741.51297		221.82600		875.00000 
 43692.65567		 305.27265			43387.38302		70.25800		324.00000 
 43692.65567		 951.14271			42741.51297		221.82600		875.00000 
 43692.65567		 305.27265			43387.38302		70.25800		324.00000 
 43692.65567		 951.14271			42741.51297		221.82600		875.00000 
 43692.65567		 305.27265			43387.38302		70.25800		324.00000 
 43692.65567		 951.14271			42741.51297		221.82600		875.00000 
 43692.65567		 305.27265			43387.38302		70.25800		324.00000 
 43692.65567		 951.14271			42741.51297		221.82600		875.00000 
 43692.65567		 305.27265			43387.38302		70.25800		324.00000 
 43692.65567		 951.14271			42741.51297		221.82600		875.00000 
 43692.65567		 305.27265			43387.38302		70.25800		324.00000 
 43692.65567		 951.14271			42741.51297		221.82600		875.00000 
 43692.65567		 305.27265			43387.38302		70.25800		324.00000 
 43692.65567		 951.14271			42741.51297		221.82600		875.00000 
 43692.65567		 305.27265			43387.38302		70.25800		324.00000 
 43692.65567		 951.14271			42741.51297		221.82600		875.00000 
 43692.65567		 305.27265			43387.38302		70.25800		324.00000 
 43692.65567		 951.14271			42741.51297		221.82600		875.00000 
 43692.65567		 305.27265			43387.38302		70.25800		324.00000 
 43692.65567		 951.14271			42741.51297		221.82600		875.00000 
 43692.65567		 305.27265			43387.38302		70.25800		324.00000 
 43692.65567		 951.14271			42741.51297		221.82600		875.00000 
 43692.65567		 305.27265			43387.38302		70.25800		324.00000 
 43692.65567		 951.14271			42741.51297		221.82600		875.00000 
 43692.65567		 305.27265			43387.38302		70.25800		324.00000 
 43692.65567		 951.14271			42741.51297		221.82600		875.00000 
 43692.65567		 305.27265			43387.38302		70.25800		324.00000 
 43692.65567		 951.14271			42741.51297		221.82600		875.00000 
 43692.65567		 305.27265			43387.38302		70.25800		324.00000 
 43692.65567		 951.14271			42741.51297		221.82600		875.00000 
 43692.65567		 305.27265			43387.38302		70.25800		324.00000 
 43692.65567		 951.14271			42741.51297		221.82600		875.00000 
 43692.65567		 305.27265			43387.38302		70.25800		324.00000 
 43692.65567		 951.14271			42741.51297		221.82600		875.00000 
 43692.65567		 305.27265			43387.38302		70.25800		324.00000 
 43692.65567		 951.14271			42741.51297		221.82600		875.00000 
 43692.65567		 305.27265			43387.38302		70.25800		324.00000 
 43692.65567		 951.14271			42741.51297		221.82600		875.00000 
 43692.65567		 305.27265			43387.38302		70.25800		324.00000 
 43692.65567		 951.14271			42741.51297		221.82600		875.00000 
 43692.65567		 305.27265			43387.38302		70.25800		324.00000 
 43692.65567		 951.14271			42741.51297		221.82600		875.00000 
 43692.65567		 305.27265			43387.38302		70.25800		324.00000 
 43692.65567		 951.14271			42741.51297		221.82600		875.00000 
 43692.65567		 305.27265			43387.38302		70.25800		324.00000 
 43692.65567		 951.14271			42741.51297		221.82600		875.00000 
 43692.65567		 305.27265			43387.38302		70.25800		324.00000 
 43692.65567		 951.14271			42741.51297		221.82600		875.00000 
 43692.65567		 305.27265			43387.38302		70.25800		324.00000 
 43692.65567		 951.14271			42741.51297		221.82600		875.00000 
 43692.65567		 305.27265			43387.38302		70.25800		324.00000 
 43692.65567		 951.14271			42741.51297		221.82600		875.00000 
 43692.65567		 305.27265			43387.38302		70.25800		324.00000 
 43692.65567		 951.14271			42741.51297		221.82600		875.00000 
 43692.65567		 305.27265			43387.38302		70.25800		324.00000 
 43692.65567		 951.14271			42741.51297		221.82600		875.00000 
 43692.65567		 305.27265			43387.38302		70.25800		324.00000 
 43692.65567		 951.14271			42741.51297		221.82600		875.00000 
 43692.65567		 305.27265			43387.38302		70.25800		324.00000 
 43692.65567		 951.14271			42741.51297		221.82600		875.00000 
 43692.65567		 305.27265			43387.38302		70.25800		324.00000 
 43692.65567		 951.14271			42741.51297		221.82600		875.00000 
 43692.65567		 305.27265			43387.38302		70.25800		324.00000 
 43692.65567		 951.14271			42741.51297		221.82600		875.00000 
 43692.65567		 305.27265			43387.38302		70.25800		324.00000 
 43692.65567		 951.14271			42741.51297		221.82600		875.00000 
 43692.65567		 305.27265			43387.38302		70.25800		324.00000 
 43692.65567		 951.14271			42741.51297		221.82600		875.00000 
 43692.65567		 305.27265			43387.38302		70.25800		324.00000 
 43692.65567		 951.14271			42741.51297		221.82600		875.00000 
 43692.65567		 305.27265			43387.38302		70.25800		324.00000 
 43692.65567		 951.14271			42741.51297		221.82600		875.00000 
 43692.65567		 305.27265			43387.38302		70.25800		324.00000 
 43692.65567		 951.14271			42741.51297		221.82600		875.00000 
 43692.65567		 305.27265			43387.38302		70.25800		324.00000 
 43692.65567		 951.14271			42741.51297		221.82600		875.00000 
 43692.65567		 305.27265			43387.38302		70.25800		324.00000 
 43692.65567		 951.14271			42741.51297		221.82600		875.00000 
 43692.65567		 305.27265			43387.38302		70.25800		324.00000 
 43692.65567		 951.14271			42741.51297		221.82600		875.00000 
 43692.65567		 305.27265			43387.38302		70.25800		324.00000 
 43692.65567		 951.14271			42741.51297		221.82600		875.00000 
 43692.65567		 305.27265			43387.38302		70.25800		324.00000 
 43692.65567		 951.14271			42741.51297		221.82600		875.00000 
 43692.65567		 305.27265			43387.38302		70.25800		324.00000 
 43692.65567		 951.14271			42741.51297		221.82600		875.00000 
 43692.65567		 305.27265			43387.38302		70.25800		324.00000 
 43692.65567		 951.14271			42741.51297		221.82600		875.00000 
 43692.65567		 305.27265			43387.38302		70.25800		324.00000 
 43692.65567		 951.14271			42741.51297		221.82600		875.00000 
 43692.65567		 305.27265			43387.38302		70.25800		324.00000 
 43692.65567		 951.14271			42741.51297		221.82600		875.00000 
 43692.65567		 305.27265			43387.38302		70.25800		324.00000 
 43692.65567		 951.14271			42741.51297		221.82600		875.00000 
 43692.65567		 305.27265			43387.38302		70.25800		324.00000 
 43692.65567		 951.14271			42741.51297		221.82600		875.00000 
 43692.65567		 305.27265			43387.38302		70.25800		324.00000 
 43692.65567		 951.14271			42741.51297		221.82600		875.00000 
 43692.65567		 305.27265			43387.38302		70.25800		324.00000 
 43692.65567		 951.14271			42741.51297		221.82600		875.00000 
 43692.65567		 305.27265			43387.38302		70.25800		324.00000 
 43692.65567		 951.14271			42741.51297		221.82600		875.00000 
 43692.65567		 305.27265			43387.38302		70.25800		324.00000 
 43692.65567		 951.14271			42741.51297		221.82600		875.00000 
 43692.65567		 305.27265			43387.38302		70.25800		324.00000 
 43692.65567		 951.14271			42741.51297		221.82600		875.00000 
 43692.65567		 305.27265			43387.38302		70.25800		324.00000 
 43692.65567		 951.14271			42741.51297		221.82600		875.00000 
 43692.65567		 305.27265			43387.38302		70.25800		324.00000 
 43692.65567		 951.14271			42741.51297		221.82600		875.00000 
 43692.65567		 305.27265			43387.38302		70.25800		324.00000 
 43692.65567		 951.14271			42741.51297		221.82600		875.00000 
 43692.65567		 305.27265			43387.38302		70.25800		324.00000 
 43692.65567		 951.14271			42741.51297		221.82600		875.00000 
 43692.65567		 305.27265			43387.38302		70.25800		324.00000 
 43692.65567		 951.14271			42741.51297		221.82600		875.00000 
 43692.65567		 305.27265			43387.38302		70.25800		324.00000 
 43692.65567		 951.14271			42741.51297		221.82600		875.00000 
 43692.65567		 305.27265			43387.38302		70.25800		324.00000 
 43692.65567		 951.14271			42741.51297		221.82600		875.00000 
 43692.65567		 305.27265			43387.38302		70.25800		324.00000 
 43692.65567		 951.14271			42741.51297		221.82600		875.00000 
 43692.65567		 305.27265			43387.38302		70.25800		324.00000 
 43692.65567		 951.14271			42741.51297		221.82600		875.00000 
 43692.65567		 305.27265			43387.38302		70.25800		324.00000 
 43692.65567		 951.14271			42741.51297		221.82600		875.00000 
 43692.65567		 305.27265			43387.38302		70.25800		324.00000 
 43692.65567		 951.14271			42741.51297		221.82600		875.00000 
 43692.65567		 305.27265			43387.38302		70.25800		324.00000 
 43692.65567		 951.14271			42741.51297		221.82600		875.00000 
 43692.65567		 305.27265			43387.38302		70.25800		324.00000 
 43692.65567		 951.14271			42741.51297		221.82600		875.00000 
 43692.65567		 305.27265			43387.38302		70.25800		324.00000 
 43692.65567		 951.14271			42741.51297		221.82600		875.00000 
 43692.65567		 305.27265			43387.38302		70.25800		324.00000 
 43692.65567		 951.14271			42741.51297		221.82600		875.00000 
 43692.65567		 305.27265			43387.38302		70.25800		324.00000 
 43692.65567		 951.14271			42741.51297		221.82600		875.00000 
 43692.65567		 305.27265			43387.38302		70.25800		324.00000 
 43692.65567		 951.14271			42741.51297		221.82600		875.00000 
 43692.65567		 305.27265			43387.38302		70.25800		324.00000 
 43692.65567		 951.14271			42741.51297		221.82600		875.00000 
 43692.65567		 305.27265			43387.38302		70.25800		324.00000 
 43692.65567		 951.14271			42741.51297		221.82600		875.00000 
 43692.65567		 305.27265			43387.38302		70.25800		324.00000 
 43692.65567		 951.14271			42741.51297		221.82600		875.00000 
 43692.65567		 305.27265			43387.38302		70.25800		324.00000 
 43692.65567		 951.14271			42741.51297		221.82600		875.00000 
 43692.65567		 305.27265			43387.38302		70.25800		324.00000 
 43692.65567		 951.14271			42741.51297		221.82600		875.00000 
 43692.65567		 305.27265			43387.38302		70.25800		324.00000 
 43692.65567		 951.14271			42741.51297		221.82600		875.00000 
 43692.65567		 305.27265			43387.38302		70.25800		324.00000 
 43692.65567		 951.14271			42741.51297		221.82600		875.00000 
 43692.65567		 305.27265			43387.38302		70.25800		324.00000 
 43692.65567		 951.14271			42741.51297		221.82600		875.00000 
 43692.65567		 305.27265			43387.38302		70.25800		324.00000 
 43692.65567		 951.14271			42741.51297		221.82600		875.00000 
 43692.65567		 305.27265			43387.38302		70.25800		324.00000 
 43692.65567		 951.14271			42741.51297		221.82600		875.00000 
 43692.65567		 305.27265			43387.38302		70.25800		324.00000 
 43692.65567		 951.14271			42741.51297		221.82600		875.00000 
 43692.65567		 305.27265			43387.38302		70.25800		324.00000 
 43692.65567		 951.14271			42741.51297		221.82600		875.00000 
 43692.65567		 305.27265			43387.38302		70.25800		324.00000 
 43692.65567		 951.14271			42741.51297		221.82600		875.00000 
 43692.65567		 305.27265			43387.38302		70.25800		324.00000 
 43692.65567		 951.14271			42741.51297		221.82600		875.00000 
 43692.65567		 305.27265			43387.38302		70.25800		324.00000 
 43692.65567		 951.14271			42741.51297		221.82600		875.00000 
 43692.65567		 305.27265			43387.38302		70.25800		324.00000 
 43692.65567		 951.14271			42741.51297		221.82600		875.00000 
 43692.65567		 305.27265			43387.38302		70.25800		324.00000 
 43692.65567		 951.14271			42741.51297		221.82600		875.00000 
 43692.65567		 305.27265			43387.38302		70.25800		324.00000 
 43692.65567		 951.14271			42741.51297		221.82600		875.00000 
 43692.65567		 305.27265			43387.38302		70.25800		324.00000 
 43692.65567		 951.14271			42741.51297		221.82600		875.00000 
 43692.65567		 305.27265			43387.38302		70.25800		324.00000 
 43692.65567		 951.14271			42741.51297		221.82600		875.00000 
 43692.65567		 305.27265			43387.38302		70.25800		324.00000 
 43692.65567		 951.14271			42741.51297		221.82600		875.00000 
 43692.65567		 305.27265			43387.38302		70.25800		324.00000 
 43692.65567		 951.14271			42741.51297		221.82600		875.00000 
 43692.65567		 305.27265			43387.38302		70.25800		324.00000 
 43692.65567		 951.14271			42741.51297		221.82600		875.00000 
 43692.65567		 305.27265			43387.38302		70.25800		324.00000 
 43692.65567		 951.14271			42741.51297		221.82600		875.00000 
 43692.65567		 305.27265			43387.38302		70.25800		324.00000 
 43692.65567		 951.14271			42741.51297		221.82600		875.00000 
 43692.65567		 305.27265			43387.38302		70.25800		324.00000 
 43692.65567		 951.14271			42741.51297		221.82600		875.00000 
 43692.65567		 305.27265			43387.38302		70.25800		324.00000 
 43692.65567		 951.14271			42741.51297		221.82600		875.00000 
 43692.65567		 305.27265			43387.38302		70.25800		324.00000 
 43692.65567		 951.14271			42741.51297		221.82600		875.00000 
 43692.65567		 305.27265			43387.38302		70.25800		324.00000 
 43692.65567		 951.14271			42741.51297		221.82600		875.00000 
 43692.65567		 305.27265			43387.38302		70.25800		324.00000 
 43692.65567		 951.14271			42741.51297		221.82600		875.00000 
 43692.65567		 305.27265			43387.38302		70.25800		324.00000 
 43692.65567		 951.14271			42741.51297		221.82600		875.00000 
 43692.65567		 305.27265			43387.38302		70.25800		324.00000 
 43692.65567		 951.14271			42741.51297		221.82600		875.00000 
 43692.65567		 305.27265			43387.38302		70.25800		324.00000 
 43692.65567		 951.14271			42741.51297		221.82600		875.00000 
 43692.65567		 305.27265			43387.38302		70.25800		324.00000 
 43692.65567		 951.14271			42741.51297		221.82600		875.00000 
 43692.65567		 305.27265			43387.38302		70.25800		324.00000 
 43692.65567		 951.14271			42741.51297		221.82600		875.00000 
 43692.65567		 305.27265			43387.38302		70.25800		324.00000 
 43692.65567		 951.14271			42741.51297		221.82600		875.00000 
 43692.65567		 305.27265			43387.38302		70.25800		324.00000 
 43692.65567		 951.14271			42741.51297		221.82600		875.00000 
 43692.65567		 305.27265			43387.38302		70.25800		324.00000 
 43692.65567		 951.14271			42741.51297		221.82600		875.00000 
 43692.65567		 305.27265			43387.38302		70.25800		324.00000 
 43692.65567		 951.14271			42741.51297		221.82600		875.00000 
 43692.65567		 305.27265			43387.38302		70.25800		324.00000 
 43692.65567		 951.14271			42741.51297		221.82600		875.00000 
 43692.65567		 305.27265			43387.38302		70.25800		324.00000 
 43692.65567		 951.14271			42741.51297		221.82600		875.00000 
 43692.65567		 305.27265			43387.38302		70.25800		324.00000 
 43692.65567		 951.14271			42741.51297		221.82600		875.00000 
 43692.65567		 305.27265			43387.38302		70.25800		324.00000 
 43692.65567		 951.14271			42741.51297		221.82600		875.00000 
 43692.65567		 305.27265			43387.38302		70.25800		324.00000 
 43692.65567		 951.14271			42741.51297		221.82600		875.00000 
 43692.65567		 305.27265			43387.38302		70.25800		324.00000 
 43692.65567		 951.14271			42741.51297		221.82600		875.00000 
 43692.65567		 305.27265			43387.38302		70.25800		324.00000 
 43692.65567		 951.14271			42741.51297		221.82600		875.00000 
 43692.65567		 305.27265			43387.38302		70.25800		324.00000 
 43692.65567		 951.14271			42741.51297		221.82600		875.00000 
 43692.65567		 305.27265			43387.38302		70.25800		324.00000 
 43692.65567		 951.14271			42741.51297		221.82600		875.00000 
 43692.65567		 305.27265			43387.38302		70.25800		324.00000 
 43692.65567		 951.14271			42741.51297		221.82600		875.00000 
 43692.65567		 305.27265			43387.38302		70.25800		324.00000 
 43692.65567		 951.14271			42741.51297		221.82600		875.00000 
 43692.65567		 305.27265			43387.38302		70.25800		324.00000 
 43692.65567		 951.14271			42741.51297		221.82600		875.00000 
 43692.65567		 305.27265			43387.38302		70.25800		324.00000 
 43692.65567		 951.14271			42741.51297		221.82600		875.00000 
 43692.65567		 305.27265			43387.38302		70.25800		324.00000 
 43692.65567		 951.14271			42741.51297		221.82600		875.00000 
 43692.65567		 305.27265			43387.38302		70.25800		324.00000 
 43692.65567		 951.14271			42741.51297		221.82600		875.00000 
 43692.65567		 305.27265			43387.38302		70.25800		324.00000 
 43692.65567		 951.14271			42741.51297		221.82600		875.00000 
 43692.65567		 305.27265			43387.38302		70.25800		324.00000 
 43692.65567		 951.14271			42741.51297		221.82600		875.00000 
 43692.65567		 305.27265			43387.38302		70.25800		324.00000 
 43692.65567		 951.14271			42741.51297		221.82600		875.00000 
 43692.65567		 305.27265			43387.38302		70.25800		324.00000 
 43692.65567		 951.14271			42741.51297		221.82600		875.00000 
 43692.65567		 305.27265			43387.38302		70.25800		324.00000 
 43692.65567		 951.14271			42741.51297		221.82600		875.00000 
 43692.65567		 305.27265			43387.38302		70.25800		324.00000 
 43692.65567		 951.14271			42741.51297		221.82600		875.00000 
 43692.65567		 305.27265			43387.38302		70.25800		324.00000 
 43692.65567		 951.14271			42741.51297		221.82600		875.00000 
 43692.65567		 305.27265			43387.38302		70.25800		324.00000 
 43692.65567		 951.14271			42741.51297		221.82600		875.00000 
 43692.65567		 305.27265			43387.38302		70.25800		324.00000 
 43692.65567		 951.14271			42741.51297		221.82600		875.00000 
 43692.65567		 305.27265			43387.38302		70.25800		324.00000 
 43692.65567		 951.14271			42741.51297		221.82600		875.00000 
 43692.65567		 305.27265			43387.38302		70.25800		324.00000 
 43692.65567		 951.14271			42741.51297		221.82600		875.00000 
 43692.65567		 305.27265			43387.38302		70.25800		324.00000 
 43692.65567		 951.14271			42741.51297		221.82600		875.00000 
 43692.65567		 305.27265			43387.38302		70.25800		324.00000 
 43692.65567		 951.14271			42741.51297		221.82600		875.00000 
 43692.65567		 305.27265			43387.38302		70.25800		324.00000 
 43692.65567		 951.14271			42741.51297		221.82600		875.00000 
 43692.65567		 305.27265			43387.38302		70.25800		324.00000 
 43692.65567		 951.14271			42741.51297		221.82600		875.00000 
 43692.65567		 305.27265			43387.38302		70.25800		324.00000 
 43692.65567		 951.14271			42741.51297		221.82600		875.00000 
 43692.65567		 305.27265			43387.38302		70.25800		324.00000 
 43692.65567		 951.14271			42741.51297		221.82600		875.00000 
 43692.65567		 305.27265			43387.38302		70.25800		324.00000 
 43692.65567		 951.14271			42741.51297		221.82600		875.00000 
 43692.65567		 305.27265			43387.38302		70.25800		324.00000 
 43692.65567		 951.14271			42741.51297		221.82600		875.00000 
 43692.65567		 305.27265			43387.38302		70.25800		324.00000 
 43692.65567		 951.14271			42741.51297		221.82600		875.00000 
 43692.65567		 305.27265			43387.38302		70.25800		324.00000 
 43692.65567		 951.14271			42741.51297		221.82600		875.00000 
 43692.65567		 305.27265			43387.38302		70.25800		324.00000 
 43692.65567		 951.14271			42741.51297		221.82600		875.00000 
 43692.65567		 305.27265			43387.38302		70.25800		324.00000 
 43692.65567		 951.14271			42741.51297		221.82600		875.00000 
 43692.65567		 305.27265			43387.38302		70.25800		324.00000 
 43692.65567		 951.14271			42741.51297		221.82600		875.00000 
 43692.65567		 305.27265			43387.38302		70.25800		324.00000 
 43692.65567		 951.14271			42741.51297		221.82600		875.00000 
 43692.65567		 305.27265			43387.38302		70.25800		324.00000 
 43692.65567		 951.14271			42741.51297		221.82600		875.00000 
 43692.65567		 305.27265			43387.38302		70.25800		324.00000 
 43692.65567		 951.14271			42741.51297		221.82600		875.00000 
 43692.65567		 305.27265			43387.38302		70.25800		324.00000 
 43692.65567		 951.14271			42741.51297		221.82600		875.00000 
 43692.65567		 305.27265			43387.38302		70.25800		324.00000 
 43692.65567		 951.14271			42741.51297		221.82600		875.00000 
 43692.65567		 305.27265			43387.38302		70.25800		324.00000 
 43692.65567		 951.14271			42741.51297		221.82600		875.00000 
 43692.65567		 305.27265			43387.38302		70.25800		324.00000 
 43692.65567		 951.14271			42741.51297		221.82600		875.00000 
 43692.65567		 305.27265			43387.38302		70.25800		324.00000 
 43692.65567		 951.14271			42741.51297		221.82600		875.00000 
 43692.65567		 305.27265			43387.38302		70.25800		324.00000 
 43692.65567		 951.14271			42741.51297		221.82600		875.00000 
 43692.65567		 305.27265			43387.38302		70.25800		324.00000 
 43692.65567		 951.14271			42741.51297		221.82600		875.00000 
 43692.65567		 305.27265			43387.38302		70.25800		324.00000 
 43692.65567		 951.14271			42741.51297		221.82600		875.00000 
 43692.65567		 305.27265			43387.38302		70.25800		324.00000 
 43692.65567		 951.14271			42741.51297		221.82600		875.00000 
 43692.65567		 305.27265			43387.38302		70.25800		324.00000 
 43692.65567		 951.14271			42741.51297		221.82600		875.00000 
 43692.65567		 305.27265			43387.38302		70.25800		324.00000 
 43692.65567		 951.14271			42741.51297		221.82600		875.00000 
 43692.65567		 305.27265			43387.38302		70.25800		324.00000 
 43692.65567		 951.14271			42741.51297		221.82600		875.00000 
 43692.65567		 305.27265			43387.38302		70.25800		324.00000 
 43692.65567		 951.14271			42741.51297		221.82600		875.00000 
 43692.65567		 305.27265			43387.38302		70.25800		324.00000 
 43692.65567		 951.14271			42741.51297		221.82600		875.00000 
 43692.65567		 305.27265			43387.38302		70.25800		324.00000 
 43692.65567		 951.14271			42741.51297		221.82600		875.00000 
 43692.65567		 305.27265			43387.38302		70.25800		324.00000 
 43692.65567		 951.14271			42741.51297		221.82600		875.00000 
 43692.65567		 305.27265			43387.38302		70.25800		324.00000 
 43692.65567		 951.14271			42741.51297		221.82600		875.00000 
 43692.65567		 305.27265			43387.38302		70.25800		324.00000 
 43692.65567		 951.14271			42741.51297		221.82600		875.00000 
 43692.65567		 305.27265			43387.38302		70.25800		324.00000 
 43692.65567		 951.14271			42741.51297		221.82600		875.00000 
 43692.65567		 305.27265			43387.38302		70.25800		324.00000 
 43692.65567		 951.14271			42741.51297		221.82600		875.00000 
 43692.65567		 305.27265			43387.38302		70.25800		324.00000 
 43692.65567		 951.14271			42741.51297		221.82600		875.00000 
 43692.65567		 305.27265			43387.38302		70.25800		324.00000 
 43692.65567		 951.14271			42741.51297		221.82600		875.00000 
 43692.65567		 305.27265			43387.38302		70.25800		324.00000 
 43692.65567		 951.14271			42741.51297		221.82600		875.00000 
 43692.65567		 305.27265			43387.38302		70.25800		324.00000 
 43692.65567		 951.14271			42741.51297		221.82600		875.00000 
 43692.65567		 305.27265			43387.38302		70.25800		324.00000 
 43692.65567		 951.14271			42741.51297		221.82600		875.00000 
 43692.65567		 305.27265			43387.38302		70.25800		324.00000 
 43692.65567		 951.14271			42741.51297		221.82600		875.00000 
 43692.65567		 305.27265			43387.38302		70.25800		324.00000 
 43692.65567		 951.14271			42741.51297		221.82600		875.00000 
 43692.65567		 305.27265			43387.38302		70.25800		324.00000 
 43692.65567		 951.14271			42741.51297		221.82600		875.00000 
 43692.65567		 305.27265			43387.38302		70.25800		324.00000 
 43692.65567		 951.14271			42741.51297		221.82600		875.00000 
 43692.65567		 305.27265			43387.38302		70.25800		324.00000 
 43692.65567		 951.14271			42741.51297		221.82600		875.00000 
 43692.65567		 305.27265			43387.38302		70.25800		324.00000 
 43692.65567		 951.14271			42741.51297		221.82600		875.00000 
 43692.65567		 305.27265			43387.38302		70.25800		324.00000 
 43692.65567		 951.14271			42741.51297		221.82600		875.00000 
 43692.65567		 305.27265			43387.38302		70.25800		324.00000 
 43692.65567		 951.14271			42741.51297		221.82600		875.00000 
 43692.65567		 305.27265			43387.38302		70.25800		324.00000 
 43692.65567		 951.14271			42741.51297		221.82600		875.00000 
 43692.65567		 305.27265			43387.38302		70.25800		324.00000 
 43692.65567		 951.14271			42741.51297		221.82600		875.00000 
 43692.65567		 305.27265			43387.38302		70.25800		324.00000 
 43692.65567		 951.14271			42741.51297		221.82600		875.00000 
 43692.65567		 305.27265			43387.38302		70.25800		324.00000 
 43692.65567		 951.14271			42741.51297		221.82600		875.00000 
 43692.65567		 305.27265			43387.38302		70.25800		324.00000 
 43692.65567		 951.14271			42741.51297		221.82600		875.00000 
 43692.65567		 305.27265			43387.38302		70.25800		324.00000 
 43692.65567		 951.14271			42741.51297		221.82600		875.00000 
 43692.65567		 305.27265			43387.38302		70.25800		324.00000 
 43692.65567		 951.14271			42741.51297		221.82600		875.00000 
 43692.65567		 305.27265			43387.38302		70.25800		324.00000 
 43692.65567		 951.14271			42741.51297		221.82600		875.00000 
 43692.65567		 305.27265			43387.38302		70.25800		324.00000 
 43692.65567		 951.14271			42741.51297		221.82600		875.00000 
 43692.65567		 305.27265			43387.38302		70.25800		324.00000 
 43692.65567		 951.14271			42741.51297		221.82600		875.00000 
 43692.65567		 305.27265			43387.38302		70.25800		324.00000 
 43692.65567		 951.14271			42741.51297		221.82600		875.00000 
 43692.65567		 305.27265			43387.38302		70.25800		324.00000 
 43692.65567		 951.14271			42741.51297		221.82600		875.00000 
 43692.65567		 305.27265			43387.38302		70.25800		324.00000 
 43692.65567		 951.14271			42741.51297		221.82600		875.00000 
 43692.65567		 305.27265			43387.38302		70.25800		324.00000 
 43692.65567		 951.14271			42741.51297		221.82600		875.00000 
 43692.65567		 305.27265			43387.38302		70.25800		324.00000 
 43692.65567		 951.14271			42741.51297		221.82600		875.00000 
 43692.65567		 305.27265			43387.38302		70.25800		324.00000 
 43692.65567		 951.14271			42741.51297		221.82600		875.00000 
 43692.65567		 305.27265			43387.38302		70.25800		324.00000 
 43692.65567		 951.14271			42741.51297		221.82600		875.00000 
 43692.65567		 305.27265			43387.38302		70.25800		324.00000 
 43692.65567		 951.14271			42741.51297		221.82600		875.00000 
 43692.65567		 305.27265			43387.38302		70.25800		324.00000 
 43692.65567		 951.14271			42741.51297		221.82600		875.00000 
 43692.65567		 305.27265			43387.38302		70.25800		324.00000 
 43692.65567		 951.14271			42741.51297		221.82600		875.00000 
 43692.65567		 305.27265			43387.38302		70.25800		324.00000 
 43692.65567		 951.14271			42741.51297		221.82600		875.00000 
 43692.65567		 305.27265			43387.38302		70.25800		324.00000 
 43692.65567		 951.14271			42741.51297		221.82600		875.00000 
 43692.65567		 305.27265			43387.38302		70.25800		324.00000 
 43692.65567		 951.14271			42741.51297		221.82600		875.00000 
 43692.65567		 305.27265			43387.38302		70.25800		324.00000 
 43692.65567		 951.14271			42741.51297		221.82600		875.00000 
 43692.65567		 305.27265			43387.38302		70.25800		324.00000 
 43692.65567		 951.14271			42741.51297		221.82600		875.00000 
 43692.65567		 305.27265			43387.38302		70.25800		324.00000 
 43692.65567		 951.14271			42741.51297		221.82600		875.00000 
 43692.65567		 305.27265			43387.38302		70.25800		324.00000 
 43692.65567		 951.14271			42741.51297		221.82600		875.00000 
 43692.65567		 305.27265			43387.38302		70.25800		324.00000 
 43692.65567		 951.14271			42741.51297		221.82600		875.00000 
 43692.65567		 305.27265			43387.38302		70.25800		324.00000 
 43692.65567		 951.14271			42741.51297		221.82600		875.00000 
 43692.65567		 305.27265			43387.38302		70.25800		324.00000 
 43692.65567		 951.14271			42741.51297		221.82600		875.00000 
 43692.65567		 305.27265			43387.38302		70.25800		324.00000 
 43692.65567		 951.14271			42741.51297		221.82600		875.00000 
 43692.65567		 305.27265			43387.38302		70.25800		324.00000 
 43692.65567		 951.14271			42741.51297		221.82600		875.00000 
 43692.65567		 305.27265			43387.38302		70.25800		324.00000 
 43692.65567		 951.14271			42741.51297		221.82600		875.00000 
 43692.65567		 305.27265			43387.38302		70.25800		324.00000 
 43692.65567		 951.14271			42741.51297		221.82600		875.00000 
 43692.65567		 305.27265			43387.38302		70.25800		324.00000 
 43692.65567		 951.14271			42741.51297		221.82600		875.00000 
 43692.65567		 305.27265			43387.38302		70.25800		324.00000 
 43692.65567		 951.14271			42741.51297		221.82600		875.00000 
 43692.65567		 305.27265			43387.38302		70.25800		324.00000 
 43692.65567		 951.14271			42741.51297		221.82600		875.00000 
 43692.65567		 305.27265			43387.38302		70.25800		324.00000 
 43692.65567		 951.14271			42741.51297		221.82600		875.00000 
 43692.65567		 305.27265			43387.38302		70.25800		324.00000 
 43692.65567		 951.14271			42741.51297		221.82600		875.00000 
 43692.65567		 305.27265			43387.38302		70.25800		324.00000 
 43692.65567		 951.14271			42741.51297		221.82600		875.00000 
 43692.65567		 305.27265			43387.38302		70.25800		324.00000 
 43692.65567		 951.14271			42741.51297		221.82600		875.00000 
 43692.65567		 305.27265			43387.38302		70.25800		324.00000 
 43692.65567		 951.14271			42741.51297		221.82600		875.00000 
 43692.65567		 305.27265			43387.38302		70.25800		324.00000 
 43692.65567		 951.14271			42741.51297		221.82600		875.00000 
 43692.65567		 305.27265			43387.38302		70.25800		324.00000 
 43692.65567		 951.14271			42741.51297		221.82600		875.00000 
 43692.65567		 305.27265			43387.38302		70.25800		324.00000 
 43692.65567		 951.14271			42741.51297		221.82600		875.00000 
 43692.65567		 305.27265			43387.38302		70.25800		324.00000 
 43692.65567		 951.14271			42741.51297		221.82600		875.00000 
 43692.65567		 305.27265			43387.38302		70.25800		324.00000 
 43692.65567		 951.14271			42741.51297		221.82600		875.00000 
 43692.65567		 305.27265			43387.38302		70.25800		324.00000 
 43692.65567		 951.14271			42741.51297		221.82600		875.00000 
 43692.65567		 305.27265			43387.38302		70.25800		324.00000 
 43692.65567		 951.14271			42741.51297		221.82600		875.00000 
 43692.65567		 305.27265			43387.38302		70.25800		324.00000 
 43692.65567		 951.14271			42741.51297		221.82600		875.00000 
 43692.65567		 305.27265			43387.38302		70.25800		324.00000 
 43692.65567		 951.14271			42741.51297		221.82600		875.00000 
 43692.65567		 305.27265			43387.38302		70.25800		324.00000 
 43692.65567		 951.14271			42741.51297		221.82600		875.00000 
 43692.65567		 305.27265			43387.38302		70.25800		324.00000 
 43692.65567		 951.14271			42741.51297		221.82600		875.00000 
 43692.65567		 305.27265			43387.38302		70.25800		324.00000 
 43692.65567		 951.14271			42741.51297		221.82600		875.00000 
 43692.65567		 305.27265			43387.38302		70.25800		324.00000 
 43692.65567		 951.14271			42741.51297		221.82600		875.00000 
 43692.65567		 305.27265			43387.38302		70.25800		324.00000 
 43692.65567		 951.14271			42741.51297		221.82600		875.00000 
 43692.65567		 305.27265			43387.38302		70.25800		324.00000 
 43692.65567		 951.14271			42741.51297		221.82600		875.00000 
 43692.65567		 305.27265			43387.38302		70.25800		324.00000 
 43692.65567		 951.14271			42741.51297		221.82600		875.00000 
 43692.65567		 305.27265			43387.38302		70.25800		324.00000 
 43692.65567		 951.14271			42741.51297		221.82600		875.00000 
 43692.65567		 305.27265			43387.38302		70.25800		324.00000 
 43692.65567		 951.14271			42741.51297		221.82600		875.00000 
 43692.65567		 305.27265			43387.38302		70.25800		324.00000 
 43692.65567		 951.14271			42741.51297		221.82600		875.00000 
 43692.65567		 305.27265			43387.38302		70.25800		324.00000 
 43692.65567		 951.14271			42741.51297		221.82600		875.00000 
 43692.65567		 305.27265			43387.38302		70.25800		324.00000 
 43692.65567		 951.14271			42741.51297		221.82600		875.00000 
 43692.65567		 305.27265			43387.38302		70.25800		324.00000 
 43692.65567		 951.14271			42741.51297		221.82600		875.00000 
 43692.65567		 305.27265			43387.38302		70.25800		324.00000 
 43692.65567		 951.14271			42741.51297		221.82600		875.00000 
 43692.65567		 305.27265			43387.38302		70.25800		324.00000 
 43692.65567		 951.14271			42741.51297		221.82600		875.00000 
 43692.65567		 305.27265			43387.38302		70.25800		324.00000 
 43692.65567		 951.14271			42741.51297		221.82600		875.00000 
 43692.65567		 305.27265			43387.38302		70.25800		324.00000 
 43692.65567		 951.14271			42741.51297		221.82600		875.00000 
 43692.65567		 305.27265			43387.38302		70.25800		324.00000 
 43692.65567		 951.14271			42741.51297		221.82600		875.00000 
 43692.65567		 305.27265			43387.38302		70.25800		324.00000 
 43692.65567		 951.14271			42741.51297		221.82600		875.00000 
 43692.65567		 305.27265			43387.38302		70.25800		324.00000 
 43692.65567		 951.14271			42741.51297		221.82600		875.00000 
 43692.65567		 305.27265			43387.38302		70.25800		324.00000 
 43692.65567		 951.14271			42741.51297		221.82600		875.00000 
 43692.65567		 305.27265			43387.38302		70.25800		324.00000 
 43692.65567		 951.14271			42741.51297		221.82600		875.00000 
 43692.65567		 305.27265			43387.38302		70.25800		324.00000 
 43692.65567		 951.14271			42741.51297		221.82600		875.00000 
 43692.65567		 305.27265			43387.38302		70.25800		324.00000 
 43692.65567		 951.14271			42741.51297		221.82600		875.00000 
 43692.65567		 305.27265			43387.38302		70.25800		324.00000 
 43692.65567		 951.14271			42741.51297		221.82600		875.00000 
 43692.65567		 305.27265			43387.38302		70.25800		324.00000 
 43692.65567		 951.14271			42741.51297		221.82600		875.00000 
 43692.65567		 305.27265			43387.38302		70.25800		324.00000 
 43692.65567		 951.14271			42741.51297		221.82600		875.00000 
 43692.65567		 305.27265			43387.38302		70.25800		324.00000 
 43692.65567		 951.14271			42741.51297		221.82600		875.00000 
 43692.65567		 305.27265			43387.38302		70.25800		324.00000 
 43692.65567		 951.14271			42741.51297		221.82600		875.00000 
 43692.65567		 305.27265			43387.38302		70.25800		324.00000 
 43692.65567		 951.14271			42741.51297		221.82600		875.00000 
 43692.65567		 305.27265			43387.38302		70.25800		324.00000 
 43692.65567		 951.14271			42741.51297		221.82600		875.00000 
 43692.65567		 305.27265			43387.38302		70.25800		324.00000 
 43692.65567		 951.14271			42741.51297		221.82600		875.00000 
 43692.65567		 305.27265			43387.38302		70.25800		324.00000 
 43692.65567		 951.14271			42741.51297		221.82600		875.00000 
 43692.65567		 305.27265			43387.38302		70.25800		324.00000 
 43692.65567		 951.14271			42741.51297		221.82600		875.00000 
 43692.65567		 305.27265			43387.38302		70.25800		324.00000 
 43692.65567		 951.14271			42741.51297		221.82600		875.00000 
 43692.65567		 305.27265			43387.38302		70.25800		324.00000 
 43692.65567		 951.14271			42741.51297		221.82600		875.00000 
 43692.65567		 305.27265			43387.38302		70.25800		324.00000 
 43692.65567		 951.14271			42741.51297		221.82600		875.00000 
 43692.65567		 305.27265			43387.38302		70.25800		324.00000 
 43692.65567		 951.14271			42741.51297		221.82600		875.00000 
 43692.65567		 305.27265			43387.38302		70.25800		324.00000 
 43692.65567		 951.14271			42741.51297		221.82600		875.00000 
 43692.65567		 305.27265			43387.38302		70.25800		324.00000 
 43692.65567		 951.14271			42741.51297		221.82600		875.00000 
 43692.65567		 305.27265			43387.38302		70.25800		324.00000 
 43692.65567		 951.14271			42741.51297		221.82600		875.00000 
 43692.65567		 305.27265			43387.38302		70.25800		324.00000 
 43692.65567		 951.14271			42741.51297		221.82600		875.00000 
 43692.65567		 305.27265			43387.38302		70.25800		324.00000 
 43692.65567		 951.14271			42741.51297		221.82600		875.00000 
 43692.65567		 305.27265			43387.38302		70.25800		324.00000 
 43692.65567		 951.14271			42741.51297		221.82600		875.00000 
 43692.65567		 305.27265			43387.38302		70.25800		324.00000 
 43692.65567		 951.14271			42741.51297		221.82600		875.00000 
 43692.65567		 305.27265			43387.38302		70.25800		324.00000 
 43692.65567		 951.14271			42741.51297		221.82600		875.00000 
 43692.65567		 305.27265			43387.38302		70.25800		324.00000 
 43692.65567		 951.14271			42741.51297		221.82600		875.00000 
 43692.65567		 305.27265			43387.38302		70.25800		324.00000 
 43692.65567		 951.14271			42741.51297		221.82600		875.00000 
 43692.65567		 305.27265			43387.38302		70.25800		324.00000 
 43692.65567		 951.14271			42741.51297		221.82600		875.00000 
 43692.65567		 305.27265			43387.38302		70.25800		324.00000 
 43692.65567		 951.14271			42741.51297		221.82600		875.00000 
 43692.65567		 305.27265			43387.38302		70.25800		324.00000 
 43692.65567		 951.14271			42741.51297		221.82600		875.00000 
 43692.65567		 305.27265			43387.38302		70.25800		324.00000 
 43692.65567		 951.14271			42741.51297		221.82600		875.00000 
 43692.65567		 305.27265			43387.38302		70.25800		324.00000 
 43692.65567		 951.14271			42741.51297		221.82600		875.00000 
 43692.65567		 305.27265			43387.38302		70.25800		324.00000 
 43692.65567		 951.14271			42741.51297		221.82600		875.00000 
 43692.65567		 305.27265			43387.38302		70.25800		324.00000 
 43692.65567		 951.14271			42741.51297		221.82600		875.00000 
 43692.65567		 305.27265			43387.38302		70.25800		324.00000 
 43692.65567		 951.14271			42741.51297		221.82600		875.00000 
 43692.65567		 305.27265			43387.38302		70.25800		324.00000 
 43692.65567		 951.14271			42741.51297		221.82600		875.00000 
 43692.65567		 305.27265			43387.38302		70.25800		324.00000 
 43692.65567		 951.14271			42741.51297		221.82600		875.00000 
 43692.65567		 305.27265			43387.38302		70.25800		324.00000 
 43692.65567		 951.14271			42741.51297		221.82600		875.00000 
 43692.65567		 305.27265			43387.38302		70.25800		324.00000 
 43692.65567		 951.14271			42741.51297		221.82600		875.00000 
 43692.65567		 305.27265			43387.38302		70.25800		324.00000 
 43692.65567		 951.14271			42741.51297		221.82600		875.00000 
 43692.65567		 305.27265			43387.38302		70.25800		324.00000 
 43692.65567		 951.14271			42741.51297		221.82600		875.00000 
 43692.65567		 305.27265			43387.38302		70.25800		324.00000 
 43692.65567		 951.14271			42741.51297		221.82600		875.00000 
 43692.65567		 305.27265			43387.38302		70.25800		324.00000 
 43692.65567		 951.14271			42741.51297		221.82600		875.00000 
 43692.65567		 305.27265			43387.38302		70.25800		324.00000 
 43692.65567		 951.14271			42741.51297		221.82600		875.00000 
 43692.65567		 305.27265			43387.38302		70.25800		324.00000 
 43692.65567		 951.14271			42741.51297		221.82600		875.00000 
 43692.65567		 305.27265			43387.38302		70.25800		324.00000 
 43692.65567		 951.14271			42741.51297		221.82600		875.00000 
 43692.65567		 305.27265			43387.38302		70.25800		324.00000 
 43692.65567		 951.14271			42741.51297		221.82600		875.00000 
 43692.65567		 305.27265			43387.38302		70.25800		324.00000 
 43692.65567		 951.14271			42741.51297		221.82600		875.00000 
 43692.65567		 305.27265			43387.38302		70.25800		324.00000 
 43692.65567		 951.14271			42741.51297		221.82600		875.00000 
 43692.65567		 305.27265			43387.38302		70.25800		324.00000 
 43692.65567		 951.14271			42741.51297		221.82600		875.00000 
 43692.65567		 305.27265			43387.38302		70.25800		324.00000 
 43692.65567		 951.14271			42741.51297		221.82600		875.00000 
 43692.65567		 305.27265			43387.38302		70.25800		324.00000 
 43692.65567		 951.14271			42741.51297		221.82600		875.00000 
 43692.65567		 305.27265			43387.38302		70.25800		324.00000 
 43692.65567		 951.14271			42741.51297		221.82600		875.00000 
 43692.65567		 305.27265			43387.38302		70.25800		324.00000 
 43692.65567		 951.14271			42741.51297		221.82600		875.00000 
 43692.65567		 305.27265			43387.38302		70.25800		324.00000 
 43692.65567		 951.14271			42741.51297		221.82600		875.00000 
 43692.65567		 305.27265			43387.38302		70.25800		324.00000 
 43692.65567		 951.14271			42741.51297		221.82600		875.00000 
 43692.65567		 305.27265			43387.38302		70.25800		324.00000 
 43692.65567		 951.14271			42741.51297		221.82600		875.00000 
 43692.65567		 305.27265			43387.38302		70.25800		324.00000 
 43692.65567		 951.14271			42741.51297		221.82600		875.00000 
 43692.65567		 305.27265			43387.38302		70.25800		324.00000 
 43692.65567		 951.14271			42741.51297		221.82600		875.00000 
 43692.65567		 305.27265			43387.38302		70.25800		324.00000 
 43692.65567		 951.14271			42741.51297		221.82600		875.00000 
 43692.65567		 305.27265			43387.38302		70.25800		324.00000 
 43692.65567		 951.14271			42741.51297		221.82600		875.00000 
 43692.65567		 305.27265			43387.38302		70.25800		324.00000 
 43692.65567		 951.14271			42741.51297		221.82600		875.00000 
 43692.65567		 305.27265			43387.38302		70.25800		324.00000 
 43692.65567		 951.14271			42741.51297		221.82600		875.00000 
 43692.65567		 305.27265			43387.38302		70.25800		324.00000 
 43692.65567		 951.14271			42741.51297		221.82600		875.00000 
 43692.65567		 305.27265			43387.38302		70.25800		324.00000 
 43692.65567		 951.14271			42741.51297		221.82600		875.00000 
 43692.65567		 305.27265			43387.38302		70.25800		324.00000 
 43692.65567		 951.14271			42741.51297		221.82600		875.00000 
 43692.65567		 305.27265			43387.38302		70.25800		324.00000 
 43692.65567		 951.14271			42741.51297		221.82600		875.00000 
 43692.65567		 305.27265			43387.38302		70.25800		324.00000 
 43692.65567		 951.14271			42741.51297		221.82600		875.00000 
 43692.65567		 305.27265			43387.38302		70.25800		324.00000 
 43692.65567		 951.14271			42741.51297		221.82600		875.00000 
 43692.65567		 305.27265			43387.38302		70.25800		324.00000 
 43692.65567		 951.14271			42741.51297		221.82600		875.00000 
 43692.65567		 305.27265			43387.38302		70.25800		324.00000 
 43692.65567		 951.14271			42741.51297		221.82600		875.00000 
 43692.65567		 305.27265			43387.38302		70.25800		324.00000 
 43692.65567		 951.14271			42741.51297		221.82600		875.00000 
 43692.65567		 305.27265			43387.38302		70.25800		324.00000 
 43692.65567		 951.14271			42741.51297		221.82600		875.00000 
 43692.65567		 305.27265			43387.38302		70.25800		324.00000 
 43692.65567		 951.14271			42741.51297		221.82600		875.00000 
 43692.65567		 305.27265			43387.38302		70.25800		324.00000 
 43692.65567		 951.14271			42741.51297		221.82600		875.00000 
 43692.65567		 305.27265			43387.38302		70.25800		324.00000 
 43692.65567		 951.14271			42741.51297		221.82600		875.00000 
 43692.65567		 305.27265			43387.38302		70.25800		324.00000 
 43692.65567		 951.14271			42741.51297		221.82600		875.00000 
 43692.65567		 305.27265			43387.38302		70.25800		324.00000 
 43692.65567		 951.14271			42741.51297		221.82600		875.00000 
 43692.65567		 305.27265			43387.38302		70.25800		324.00000 
 43692.65567		 951.14271			42741.51297		221.82600		875.00000 
 43692.65567		 305.27265			43387.38302		70.25800		324.00000 
 43692.65567		 951.14271			42741.51297		221.82600		875.00000 
 43692.65567		 305.27265			43387.38302		70.25800		324.00000 
 43692.65567		 951.14271			42741.51297		221.82600		875.00000 
 43692.65567		 305.27265			43387.38302		70.25800		324.00000 
 43692.65567		 951.14271			42741.51297		221.82600		875.00000 
 43692.65567		 305.27265			43387.38302		70.25800		324.00000 
 43692.65567		 951.14271			42741.51297		221.82600		875.00000 
 43692.65567		 305.27265			43387.38302		70.25800		324.00000 
 43692.65567		 951.14271			42741.51297		221.82600		875.00000 
 43692.65567		 305.27265			43387.38302		70.25800		324.00000 
 43692.65567		 951.14271			42741.51297		221.82600		875.00000 
 43692.65567		 305.27265			43387.38302		70.25800		324.00000 
 43692.65567		 951.14271			42741.51297		221.82600		875.00000 
 43692.65567		 305.27265			43387.38302		70.25800		324.00000 
 43692.65567		 951.14271			42741.51297		221.82600		875.00000 
 43692.65567		 305.27265			43387.38302		70.25800		324.00000 
 43692.65567		 951.14271			42741.51297		221.82600		875.00000 
 43692.65567		 305.27265			43387.38302		70.25800		324.00000 
 43692.65567		 951.14271			42741.51297		221.82600		875.00000 
 43692.65567		 305.27265			43387.38302		70.25800		324.00000 
 43692.65567		 951.14271			42741.51297		221.82600		875.00000 
 43692.65567		 305.27265			43387.38302		70.25800		324.00000 
 43692.65567		 951.14271			42741.51297		221.82600		875.00000 
 43692.65567		 305.27265			43387.38302		70.25800		324.00000 
 43692.65567		 951.14271			42741.51297		221.82600		875.00000 
 43692.65567		 305.27265			43387.38302		70.25800		324.00000 
 43692.65567		 951.14271			42741.51297		221.82600		875.00000 
 43692.65567		 305.27265			43387.38302		70.25800		324.00000 
 43692.65567		 951.14271			42741.51297		221.82600		875.00000 
 43692.65567		 305.27265			43387.38302		70.25800		324.00000 
 43692.65567		 951.14271			42741.51297		221.82600		875.00000 
 43692.65567		 305.27265			43387.38302		70.25800		324.00000 
 43692.65567		 951.14271			42741.51297		221.82600		875.00000 
 43692.65567		 305.27265			43387.38302		70.25800		324.00000 
 43692.65567		 951.14271			42741.51297		221.82600		875.00000 
 43692.65567		 305.27265			43387.38302		70.25800		324.00000 
 43692.65567		 951.14271			42741.51297		221.82600		875.00000 
 43692.65567		 305.27265			43387.38302		70.25800		324.00000 
 43692.65567		 951.14271			42741.51297		221.82600		875.00000 
 43692.65567		 305.27265			43387.38302		70.25800		324.00000 
 43692.65567		 951.14271			42741.51297		221.82600		875.00000 
 43692.65567		 305.27265			43387.38302		70.25800		324.00000 
 43692.65567		 951.14271			42741.51297		221.82600		875.00000 
 43692.65567		 305.27265			43387.38302		70.25800		324.00000 
 43692.65567		 951.14271			42741.51297		221.82600		875.00000 
 43692.65567		 305.27265			43387.38302		70.25800		324.00000 
 43692.65567		 951.14271			42741.51297		221.82600		875.00000 
 43692.65567		 305.27265			43387.38302		70.25800		324.00000 
 43692.65567		 951.14271			42741.51297		221.82600		875.00000 
 43692.65567		 305.27265			43387.38302		70.25800		324.00000 
 43692.65567		 951.14271			42741.51297		221.82600		875.00000 
 43692.65567		 305.27265			43387.38302		70.25800		324.00000 
 43692.65567		 951.14271			42741.51297		221.82600		875.00000 
 43692.65567		 305.27265			43387.38302		70.25800		324.00000 
 43692.65567		 951.14271			42741.51297		221.82600		875.00000 
 43692.65567		 305.27265			43387.38302		70.25800		324.00000 
 43692.65567		 951.14271			42741.51297		221.82600		875.00000 
 43692.65567		 305.27265			43387.38302		70.25800		324.00000 
 43692.65567		 951.14271			42741.51297		221.82600		875.00000 
 43692.65567		 305.27265			43387.38302		70.25800		324.00000 
 43692.65567		 951.14271			42741.51297		221.82600		875.00000 
 43692.65567		 305.27265			43387.38302		70.25800		324.00000 
 43692.65567		 951.14271			42741.51297		221.82600		875.00000 
 43692.65567		 305.27265			43387.38302		70.25800		324.00000 
 43692.65567		 951.14271			42741.51297		221.82600		875.00000 
 43692.65567		 305.27265			43387.38302		70.25800		324.00000 
 43692.65567		 951.14271			42741.51297		221.82600		875.00000 
 43692.65567		 305.27265			43387.38302		70.25800		324.00000 
 43692.65567		 951.14271			42741.51297		221.82600		875.00000 
 43692.65567		 305.27265			43387.38302		70.25800		324.00000 
 43692.65567		 951.14271			42741.51297		221.82600		875.00000 
 43692.65567		 305.27265			43387.38302		70.25800		324.00000 
 43692.65567		 951.14271			42741.51297		221.82600		875.00000 
 43692.65567		 305.27265			43387.38302		70.25800		324.00000 
 43692.65567		 951.14271			42741.51297		221.82600		875.00000 
 43692.65567		 305.27265			43387.38302		70.25800		324.00000 
 43692.65567		 951.14271			42741.51297		221.82600		875.00000 
 43692.65567		 305.27265			43387.38302		70.25800		324.00000 
 43692.65567		 951.14271			42741.51297		221.82600		875.00000 
 43692.65567		 305.27265			43387.38302		70.25800		324.00000 
 43692.65567		 951.14271			42741.51297		221.82600		875.00000 
 43692.65567		 305.27265			43387.38302		70.25800		324.00000 
 43692.65567		 951.14271			42741.51297		221.82600		875.00000 
 43692.65567		 305.27265			43387.38302		70.25800		324.00000 
 43692.65567		 951.14271			42741.51297		221.82600		875.00000 
 43692.65567		 305.27265			43387.38302		70.25800		324.00000 
 43692.65567		 951.14271			42741.51297		221.82600		875.00000 
 43692.65567		 305.27265			43387.38302		70.25800		324.00000 
 43692.65567		 951.14271			42741.51297		221.82600		875.00000 
 43692.65567		 305.27265			43387.38302		70.25800		324.00000 
 43692.65567		 951.14271			42741.51297		221.82600		875.00000 
 43692.65567		 305.27265			43387.38302		70.25800		324.00000 
 43692.65567		 951.14271			42741.51297		221.82600		875.00000 
 43692.65567		 305.27265			43387.38302		70.25800		324.00000 
 43692.65567		 951.14271			42741.51297		221.82600		875.00000 
 43692.65567		 305.27265			43387.38302		70.25800		324.00000 
 43692.65567		 951.14271			42741.51297		221.82600		875.00000 
 43692.65567		 305.27265			43387.38302		70.25800		324.00000 
 43692.65567		 951.14271			42741.51297		221.82600		875.00000 
 43692.65567		 305.27265			43387.38302		70.25800		324.00000 
 43692.65567		 951.14271			42741.51297		221.82600		875.00000 
 43692.65567		 305.27265			43387.38302		70.25800		324.00000 
 43692.65567		 951.14271			42741.51297		221.82600		875.00000 
 43692.65567		 305.27265			43387.38302		70.25800		324.00000 
 43692.65567		 951.14271			42741.51297		221.82600		875.00000 
 43692.65567		 305.27265			43387.38302		70.25800		324.00000 
 43692.65567		 951.14271			42741.51297		222.42400		875.00000 
 43692.65567		 305.27265			43387.38302		70.25800		324.00000 
 43692.65567		 951.14271			42741.51297		222.42400		875.00000 
 43692.65567		 305.27265			43387.38302		70.25800		324.00000 
 43692.65567		 951.14271			42741.51297		222.42400		875.00000 
 43692.65567		 305.27265			43387.38302		70.25800		324.00000 
 43692.65567		 951.14271			42741.51297		222.42400		875.00000 
 43692.65567		 305.27265			43387.38302		70.25800		324.00000 
 43692.65567		 951.14271			42741.51297		222.42400		875.00000 
 43692.65567		 305.27265			43387.38302		70.25800		324.00000 
 43692.65567		 951.14271			42741.51297		222.42400		875.00000 
 43692.65567		 305.27265			43387.38302		70.25800		324.00000 
 43692.65567		 951.14271			42741.51297		222.42400		875.00000 
 43692.65567		 305.27265			43387.38302		70.25800		324.00000 
 43692.65567		 951.14271			42741.51297		222.42400		875.00000 
 43692.65567		 305.27265			43387.38302		70.25800		324.00000 
 43692.65567		 951.14271			42741.51297		222.42400		875.00000 
 43692.65567		 305.27265			43387.38302		70.25800		324.00000 
 43692.65567		 951.14271			42741.51297		222.42400		875.00000 
 43692.65567		 305.27265			43387.38302		70.25800		324.00000 
 43692.65567		 951.14271			42741.51297		222.42400		875.00000 
 43692.65567		 305.27265			43387.38302		70.25800		324.00000 
 43692.65567		 951.14271			42741.51297		222.42400		875.00000 
 43692.65567		 305.27265			43387.38302		70.25800		324.00000 
 43692.65567		 951.14271			42741.51297		222.42400		875.00000 
 43692.65567		 305.27265			43387.38302		70.25800		324.00000 
 43692.65567		 951.14271			42741.51297		222.42400		875.00000 
 43692.65567		 305.27265			43387.38302		70.25800		324.00000 
 43692.65567		 951.14271			42741.51297		222.42400		875.00000 
 43692.65567		 305.27265			43387.38302		70.25800		324.00000 
 43692.65567		 951.14271			42741.51297		222.42400		875.00000 
 43692.65567		 305.27265			43387.38302		70.25800		324.00000 
 43692.65567		 951.14271			42741.51297		222.42400		875.00000 
 43692.65567		 305.27265			43387.38302		70.25800		324.00000 
 43692.65567		 951.14271			42741.51297		222.42400		875.00000 
 43692.65567		 305.27265			43387.38302		70.25800		324.00000 
 43692.65567		 951.14271			42741.51297		222.42400		875.00000 
 43692.65567		 305.27265			43387.38302		70.25800		324.00000 
 43692.65567		 951.14271			42741.51297		222.42400		875.00000 
 43692.65567		 305.27265			43387.38302		70.25800		324.00000 
 43692.65567		 951.14271			42741.51297		222.42400		875.00000 
 43692.65567		 305.27265			43387.38302		70.25800		324.00000 
 43692.65567		 951.14271			42741.51297		222.42400		875.00000 
 43692.65567		 305.27265			43387.38302		70.25800		324.00000 
 43692.65567		 951.14271			42741.51297		222.42400		875.00000 
 43692.65567		 305.27265			43387.38302		70.25800		324.00000 
 43692.65567		 951.14271			42741.51297		222.42400		875.00000 
 43692.65567		 305.27265			43387.38302		70.25800		324.00000 
 43692.65567		 951.14271			42741.51297		222.42400		875.00000 
 43692.65567		 305.27265			43387.38302		70.25800		324.00000 
 43692.65567		 951.14271			42741.51297		222.42400		875.00000 
 43692.65567		 305.27265			43387.38302		70.25800		324.00000 
 43692.65567		 951.14271			42741.51297		222.42400		875.00000 
 43692.65567		 305.27265			43387.38302		70.25800		324.00000 
 43692.65567		 951.14271			42741.51297		222.42400		875.00000 
 43692.65567		 305.27265			43387.38302		70.25800		324.00000 
 43692.65567		 951.14271			42741.51297		222.42400		875.00000 
 43692.65567		 305.27265			43387.38302		70.25800		324.00000 
 43692.65567		 951.14271			42741.51297		222.42400		875.00000 
 43692.65567		 305.27265			43387.38302		70.25800		324.00000 
 43692.65567		 951.14271			42741.51297		222.42400		875.00000 
 43692.65567		 305.27265			43387.38302		70.25800		324.00000 
 43692.65567		 951.14271			42741.51297		222.42400		875.00000 
 43692.65567		 305.27265			43387.38302		70.25800		324.00000 
 43692.65567		 951.14271			42741.51297		222.42400		875.00000 
 43692.65567		 305.27265			43387.38302		70.25800		324.00000 
 43692.65567		 951.14271			42741.51297		222.42400		875.00000 
 43692.65567		 305.27265			43387.38302		70.25800		324.00000 
 43692.65567		 951.14271			42741.51297		222.42400		875.00000 
 43692.65567		 305.27265			43387.38302		70.25800		324.00000 
 43692.65567		 951.14271			42741.51297		222.42400		875.00000 
 43692.65567		 305.27265			43387.38302		70.25800		324.00000 
 43692.65567		 951.14271			42741.51297		222.42400		875.00000 
 43692.65567		 305.27265			43387.38302		70.25800		324.00000 
 43692.65567		 951.14271			42741.51297		222.42400		875.00000 
 43692.65567		 305.27265			43387.38302		70.25800		324.00000 
 43692.65567		 951.14271			42741.51297		222.42400		875.00000 
 43692.65567		 305.27265			43387.38302		70.25800		324.00000 
 43692.65567		 951.14271			42741.51297		222.42400		875.00000 
 43692.65567		 305.27265			43387.38302		70.25800		324.00000 
 43692.65567		 951.14271			42741.51297		222.42400		875.00000 
 43692.65567		 305.27265			43387.38302		70.25800		324.00000 
 43692.65567		 951.14271			42741.51297		222.42400		875.00000 
 43692.65567		 305.27265			43387.38302		70.25800		324.00000 
 43692.65567		 951.14271			42741.51297		222.42400		875.00000 
 43692.65567		 305.27265			43387.38302		70.25800		324.00000 
 43692.65567		 951.14271			42741.51297		222.42400		875.00000 
 43692.65567		 305.27265			43387.38302		70.25800		324.00000 
 43692.65567		 951.14271			42741.51297		222.42400		875.00000 
 43692.65567		 305.27265			43387.38302		70.25800		324.00000 
 43692.65567		 951.14271			42741.51297		222.42400		875.00000 
 43692.65567		 305.27265			43387.38302		70.25800		324.00000 
 43692.65567		 951.14271			42741.51297		222.42400		875.00000 
 43692.65567		 305.27265			43387.38302		70.25800		324.00000 
 43692.65567		 951.14271			42741.51297		222.42400		875.00000 
 43692.65567		 305.27265			43387.38302		70.25800		324.00000 
 43692.65567		 951.14271			42741.51297		222.42400		875.00000 
 43692.65567		 305.27265			43387.38302		70.25800		324.00000 
 43692.65567		 951.14271			42741.51297		222.42400		875.00000 
 43692.65567		 305.27265			43387.38302		70.25800		324.00000 
 43692.65567		 951.14271			42741.51297		222.42400		875.00000 
 43692.65567		 305.27265			43387.38302		70.25800		324.00000 
 43692.65567		 951.14271			42741.51297		222.42400		875.00000 
 43692.65567		 305.27265			43387.38302		70.25800		324.00000 
 43692.65567		 951.14271			42741.51297		222.42400		875.00000 
 43692.65567		 305.27265			43387.38302		70.25800		324.00000 
 43692.65567		 951.14271			42741.51297		222.42400		875.00000 
 43692.65567		 305.27265			43387.38302		70.25800		324.00000 
 43692.65567		 951.14271			42741.51297		222.42400		875.00000 
 43692.65567		 305.27265			43387.38302		70.25800		324.00000 
 43692.65567		 951.14271			42741.51297		222.42400		875.00000 
 43692.65567		 305.27265			43387.38302		70.25800		324.00000 
 43692.65567		 951.14271			42741.51297		222.42400		875.00000 
 43692.65567		 305.27265			43387.38302		70.25800		324.00000 
 43692.65567		 951.14271			42741.51297		222.42400		875.00000 
 43692.65567		 305.27265			43387.38302		70.25800		324.00000 
 43692.65567		 951.14271			42741.51297		222.42400		875.00000 
 43692.65567		 305.27265			43387.38302		70.25800		324.00000 
 43692.65567		 951.14271			42741.51297		222.42400		875.00000 
 43692.65567		 305.27265			43387.38302		70.25800		324.00000 
 43692.65567		 951.14271			42741.51297		222.42400		875.00000 
 43692.65567		 305.27265			43387.38302		70.25800		324.00000 
 43692.65567		 951.14271			42741.51297		222.42400		875.00000 
 43692.65567		 305.27265			43387.38302		70.25800		324.00000 
 43692.65567		 951.14271			42741.51297		222.42400		875.00000 
 43692.65567		 305.27265			43387.38302		70.25800		324.00000 
 43692.65567		 951.14271			42741.51297		222.42400		875.00000 
 43692.65567		 305.27265			43387.38302		70.25800		324.00000 
 43692.65567		 951.14271			42741.51297		221.82600		875.00000 
 43692.65567		 305.27265			43387.38302		70.25800		324.00000 
 43692.65567		 951.14271			42741.51297		221.82600		875.00000 
 43692.65567		 305.27265			43387.38302		70.25800		324.00000 
 43692.65567		 951.14271			42741.51297		221.82600		875.00000 
 43692.65567		 305.27265			43387.38302		70.25800		324.00000 
 43692.65567		 951.14271			42741.51297		221.82600		875.00000 
 43692.65567		 305.27265			43387.38302		70.25800		324.00000 
 43692.65567		 951.14271			42741.51297		221.82600		875.00000 
 43692.65567		 305.27265			43387.38302		70.25800		324.00000 
 43692.65567		 951.14271			42741.51297		221.82600		875.00000 
 43692.65567		 305.27265			43387.38302		70.25800		324.00000 
 43692.65567		 951.14271			42741.51297		221.82600		875.00000 
 43692.65567		 305.27265			43387.38302		70.25800		324.00000 
 43692.65567		 951.14271			42741.51297		221.82600		875.00000 
 43692.65567		 305.27265			43387.38302		70.25800		324.00000 
 43692.65567		 951.14271			42741.51297		221.82600		875.00000 
 43692.65567		 305.27265			43387.38302		70.25800		324.00000 
 43692.65567		 951.14271			42741.51297		221.82600		875.00000 
 43692.65567		 305.27265			43387.38302		70.25800		324.00000 
 43692.65567		 951.14271			42741.51297		221.82600		875.00000 
 43692.65567		 305.27265			43387.38302		70.25800		324.00000 
 43692.65567		 951.14271			42741.51297		221.82600		875.00000 
 43692.65567		 305.27265			43387.38302		70.25800		324.00000 
 43692.65567		 951.14271			42741.51297		221.82600		875.00000 
 43692.65567		 305.27265			43387.38302		70.25800		324.00000 
 43692.65567		 951.14271			42741.51297		221.82600		875.00000 
 43692.65567		 305.27265			43387.38302		70.25800		324.00000 
 43692.65567		 951.14271			42741.51297		221.82600		875.00000 
 43692.65567		 305.27265			43387.38302		70.25800		324.00000 
 43692.65567		 951.14271			42741.51297		221.82600		875.00000 
 43692.65567		 305.27265			43387.38302		70.25800		324.00000 
 43692.65567		 951.14271			42741.51297		221.82600		875.00000 
 43692.65567		 305.27265			43387.38302		70.25800		324.00000 
 43692.65567		 951.14271			42741.51297		221.82600		875.00000 
 43692.65567		 305.27265			43387.38302		70.25800		324.00000 
 43692.65567		 951.14271			42741.51297		221.82600		875.00000 
 43692.65567		 305.27265			43387.38302		70.25800		324.00000 
 43692.65567		 951.14271			42741.51297		221.82600		875.00000 
 43692.65567		 305.27265			43387.38302		70.25800		324.00000 
 43692.65567		 951.14271			42741.51297		221.82600		875.00000 
 43692.65567		 305.27265			43387.38302		70.25800		324.00000 
 43692.65567		 951.14271			42741.51297		221.82600		875.00000 
 43692.65567		 305.27265			43387.38302		70.25800		324.00000 
 43692.65567		 951.14271			42741.51297		221.82600		875.00000 
 43692.65567		 305.27265			43387.38302		70.25800		324.00000 
 43692.65567		 951.14271			42741.51297		221.82600		875.00000 
 43692.65567		 305.27265			43387.38302		70.25800		324.00000 
 43692.65567		 951.14271			42741.51297		221.82600		875.00000 
 43692.65567		 305.27265			43387.38302		70.25800		324.00000 
 43692.65567		 951.14271			42741.51297		221.82600		875.00000 
 43692.65567		 305.27265			43387.38302		70.25800		324.00000 
 43692.65567		 951.14271			42741.51297		221.82600		875.00000 
 43692.65567		 305.27265			43387.38302		70.25800		324.00000 
 43692.65567		 951.14271			42741.51297		221.82600		875.00000 
 43692.65567		 305.27265			43387.38302		70.25800		324.00000 
 43692.65567		 951.14271			42741.51297		221.82600		875.00000 
 43692.65567		 305.27265			43387.38302		70.25800		324.00000 
 43692.65567		 951.14271			42741.51297		221.82600		875.00000 
 43692.65567		 305.27265			43387.38302		70.25800		324.00000 
 43692.65567		 951.14271			42741.51297		221.82600		875.00000 
 43692.65567		 305.27265			43387.38302		70.25800		324.00000 
 43692.65567		 951.14271			42741.51297		221.82600		875.00000 
 43692.65567		 305.27265			43387.38302		70.25800		324.00000 
 43692.65567		 951.14271			42741.51297		221.82600		875.00000 
 43692.65567		 305.27265			43387.38302		70.25800		324.00000 
 43692.65567		 951.14271			42741.51297		221.82600		875.00000 
 43692.65567		 305.27265			43387.38302		70.25800		324.00000 
 43692.65567		 951.14271			42741.51297		221.82600		875.00000 
 43692.65567		 305.27265			43387.38302		70.25800		324.00000 
 43692.65567		 951.14271			42741.51297		221.82600		875.00000 
 43692.65567		 305.27265			43387.38302		70.25800		324.00000 
 43692.65567		 951.14271			42741.51297		221.82600		875.00000 
 43692.65567		 305.27265			43387.38302		70.25800		324.00000 
 43692.65567		 951.14271			42741.51297		221.82600		875.00000 
 43692.65567		 305.27265			43387.38302		70.25800		324.00000 
 43692.65567		 951.14271			42741.51297		221.82600		875.00000 
 43692.65567		 305.27265			43387.38302		70.25800		324.00000 
 43692.65567		 951.14271			42741.51297		221.82600		875.00000 
 43692.65567		 305.27265			43387.38302		70.25800		324.00000 
 43692.65567		 951.14271			42741.51297		221.82600		875.00000 
 43692.65567		 305.27265			43387.38302		70.25800		324.00000 
 43692.65567		 951.14271			42741.51297		221.82600		875.00000 
 43692.65567		 305.27265			43387.38302		70.25800		324.00000 
 43692.65567		 951.14271			42741.51297		221.82600		875.00000 
 43692.65567		 305.27265			43387.38302		70.25800		324.00000 
 43692.65567		 951.14271			42741.51297		221.82600		875.00000 
 43692.65567		 305.27265			43387.38302		70.25800		324.00000 
 43692.65567		 951.14271			42741.51297		221.82600		875.00000 
 43692.65567		 305.27265			43387.38302		70.25800		324.00000 
 43692.65567		 951.14271			42741.51297		221.82600		875.00000 
 43692.65567		 305.27265			43387.38302		70.25800		324.00000 
 43692.65567		 951.14271			42741.51297		221.82600		875.00000 
 43692.65567		 305.27265			43387.38302		70.25800		324.00000 
 43692.65567		 951.14271			42741.51297		221.82600		875.00000 
 43692.65567		 305.27265			43387.38302		70.25800		324.00000 
 43692.65567		 951.14271			42741.51297		221.82600		875.00000 
 43692.65567		 305.27265			43387.38302		70.25800		324.00000 
 43692.65567		 951.14271			42741.51297		221.82600		875.00000 
 43692.65567		 305.27265			43387.38302		70.25800		324.00000 
 43692.65567		 951.14271			42741.51297		221.82600		875.00000 
 43692.65567		 305.27265			43387.38302		70.25800		324.00000 
 43692.65567		 951.14271			42741.51297		221.82600		875.00000 
 43692.65567		 305.27265			43387.38302		70.25800		324.00000 
 43692.65567		 951.14271			42741.51297		221.82600		875.00000 
 43692.65567		 305.27265			43387.38302		70.25800		324.00000 
 43692.65567		 951.14271			42741.51297		221.82600		875.00000 
 43692.65567		 305.27265			43387.38302		70.25800		324.00000 
 43692.65567		 951.14271			42741.51297		221.82600		875.00000 
 43692.65567		 305.27265			43387.38302		70.25800		324.00000 
 43692.65567		 951.14271			42741.51297		221.82600		875.00000 
 43692.65567		 305.27265			43387.38302		70.25800		324.00000 
 43692.65567		 951.14271			42741.51297		221.82600		875.00000 
 43692.65567		 305.27265			43387.38302		70.25800		324.00000 
 43692.65567		 951.14271			42741.51297		221.82600		875.00000 
 43692.65567		 305.27265			43387.38302		70.25800		324.00000 
 43692.65567		 951.14271			42741.51297		221.82600		875.00000 
 43692.65567		 305.27265			43387.38302		70.25800		324.00000 
 43692.65567		 951.14271			42741.51297		221.82600		875.00000 
 43692.65567		 305.27265			43387.38302		70.25800		324.00000 
 43692.65567		 951.14271			42741.51297		221.82600		875.00000 
 43692.65567		 305.27265			43387.38302		70.25800		324.00000 
 43692.65567		 951.14271			42741.51297		221.82600		875.00000 
 43692.65567		 305.27265			43387.38302		70.25800		324.00000 
 43692.65567		 951.14271			42741.51297		221.82600		875.00000 
 43692.65567		 305.27265			43387.38302		70.25800		324.00000 
 43692.65567		 951.14271			42741.51297		221.82600		875.00000 
 43692.65567		 305.27265			43387.38302		70.25800		324.00000 
 43692.65567		 951.14271			42741.51297		221.82600		875.00000 
 43692.65567		 305.27265			43387.38302		70.25800		324.00000 
 43692.65567		 951.14271			42741.51297		221.82600		875.00000 
 43692.65567		 305.27265			43387.38302		70.25800		324.00000 
 43692.65567		 951.14271			42741.51297		221.82600		875.00000 
 43692.65567		 305.27265			43387.38302		70.25800		324.00000 
 43692.65567		 951.14271			42741.51297		221.82600		875.00000 
 43692.65567		 305.27265			43387.38302		70.25800		324.00000 
 43692.65567		 951.14271			42741.51297		221.82600		875.00000 
 43692.65567		 305.27265			43387.38302		70.25800		324.00000 
 43692.65567		 951.14271			42741.51297		221.82600		875.00000 
 43692.65567		 305.27265			43387.38302		70.25800		324.00000 
 43692.65567		 951.14271			42741.51297		221.82600		875.00000 
 43692.65567		 305.27265			43387.38302		70.25800		324.00000 
 43692.65567		 951.14271			42741.51297		221.82600		875.00000 
 43692.65567		 305.27265			43387.38302		70.25800		324.00000 
 43692.65567		 951.14271			42741.51297		221.82600		875.00000 
 43692.65567		 305.27265			43387.38302		70.25800		324.00000 
 43692.65567		 951.14271			42741.51297		221.82600		875.00000 
 43692.65567		 305.27265			43387.38302		70.25800		324.00000 
 43692.65567		 951.14271			42741.51297		221.82600		875.00000 
 43692.65567		 305.27265			43387.38302		70.25800		324.00000 
 43692.65567		 951.14271			42741.51297		221.82600		875.00000 
 43692.65567		 305.27265			43387.38302		70.25800		324.00000 
 43692.65567		 951.14271			42741.51297		221.82600		875.00000 
 43692.65567		 305.27265			43387.38302		70.25800		324.00000 
 43692.65567		 951.14271			42741.51297		221.82600		875.00000 
 43692.65567		 305.27265			43387.38302		70.25800		324.00000 
 43692.65567		 951.14271			42741.51297		221.82600		875.00000 
 43692.65567		 305.27265			43387.38302		70.25800		324.00000 
 43692.65567		 951.14271			42741.51297		221.82600		875.00000 
 43692.65567		 305.27265			43387.38302		70.25800		324.00000 
 43692.65567		 951.14271			42741.51297		221.82600		875.00000 
 43692.65567		 305.27265			43387.38302		70.25800		324.00000 
 43692.65567		 951.14271			42741.51297		221.82600		875.00000 
 43692.65567		 305.27265			43387.38302		70.25800		324.00000 
 43692.65567		 951.14271			42741.51297		221.82600		875.00000 
 43692.65567		 305.27265			43387.38302		70.25800		324.00000 
 43692.65567		 951.14271			42741.51297		221.82600		875.00000 
 43692.65567		 305.27265			43387.38302		70.25800		324.00000 
 43692.65567		 951.14271			42741.51297		221.82600		875.00000 
 43692.65567		 305.27265			43387.38302		70.25800		324.00000 
 43692.65567		 951.14271			42741.51297		221.82600		875.00000 
 43692.65567		 305.27265			43387.38302		70.25800		324.00000 
 43692.65567		 951.14271			42741.51297		221.82600		875.00000 
 43692.65567		 305.27265			43387.38302		70.25800		324.00000 
 43692.65567		 951.14271			42741.51297		221.82600		875.00000 
 43692.65567		 305.27265			43387.38302		70.25800		324.00000 
 43692.65567		 951.14271			42741.51297		221.82600		875.00000 
 43692.65567		 305.27265			43387.38302		70.25800		324.00000 
 43692.65567		 951.14271			42741.51297		221.82600		875.00000 
 43692.65567		 305.27265			43387.38302		70.25800		324.00000 
 43692.65567		 951.14271			42741.51297		221.82600		875.00000 
 43692.65567		 305.27265			43387.38302		70.25800		324.00000 
 43692.65567		 951.14271			42741.51297		221.82600		875.00000 
 43692.65567		 305.27265			43387.38302		70.25800		324.00000 
 43692.65567		 951.14271			42741.51297		221.82600		875.00000 
 43692.65567		 305.27265			43387.38302		70.25800		324.00000 
 43692.65567		 951.14271			42741.51297		221.82600		875.00000 
 43692.65567		 305.27265			43387.38302		70.25800		324.00000 
 43692.65567		 951.14271			42741.51297		221.82600		875.00000 
 43692.65567		 305.27265			43387.38302		70.25800		324.00000 
 43692.65567		 951.14271			42741.51297		221.82600		875.00000 
 43692.65567		 305.27265			43387.38302		70.25800		324.00000 
 43692.65567		 951.14271			42741.51297		221.82600		875.00000 
 43692.65567		 305.27265			43387.38302		70.25800		324.00000 
 43692.65567		 951.14271			42741.51297		221.82600		875.00000 
 43692.65567		 305.27265			43387.38302		70.25800		324.00000 
 43692.65567		 951.14271			42741.51297		221.82600		875.00000 
 43692.65567		 305.27265			43387.38302		70.25800		324.00000 
 43692.65567		 951.14271			42741.51297		221.82600		875.00000 
 43692.65567		 305.27265			43387.38302		70.25800		324.00000 
 43692.65567		 951.14271			42741.51297		221.82600		875.00000 
 43692.65567		 305.27265			43387.38302		70.25800		324.00000 
 43692.65567		 951.14271			42741.51297		221.82600		875.00000 
 43692.65567		 305.27265			43387.38302		70.25800		324.00000 
 43692.65567		 951.14271			42741.51297		221.82600		875.00000 
 43692.65567		 305.27265			43387.38302		70.25800		324.00000 
 43692.65567		 951.14271			42741.51297		221.82600		875.00000 
 43692.65567		 305.27265			43387.38302		70.25800		324.00000 
 43692.65567		 951.14271			42741.51297		221.82600		875.00000 
 43692.65567		 305.27265			43387.38302		70.25800		324.00000 
 43692.65567		 951.14271			42741.51297		221.82600		875.00000 
 43692.65567		 305.27265			43387.38302		70.25800		324.00000 
 43692.65567		 951.14271			42741.51297		221.82600		875.00000 
 43692.65567		 305.27265			43387.38302		70.25800		324.00000 
 43692.65567		 951.14271			42741.51297		221.82600		875.00000 
 43692.65567		 305.27265			43387.38302		70.25800		324.00000 
 43692.65567		 951.14271			42741.51297		221.82600		875.00000 
 43692.65567		 305.27265			43387.38302		70.25800		324.00000 
 43692.65567		 951.14271			42741.51297		221.82600		875.00000 
 43692.65567		 305.27265			43387.38302		70.25800		324.00000 
 43692.65567		 951.14271			42741.51297		221.82600		875.00000 
 43692.65567		 305.27265			43387.38302		70.25800		324.00000 
 43692.65567		 951.14271			42741.51297		221.82600		875.00000 
 43692.65567		 305.27265			43387.38302		70.25800		324.00000 
 43692.65567		 951.14271			42741.51297		221.82600		875.00000 
 43692.65567		 305.27265			43387.38302		70.25800		324.00000 
 43692.65567		 951.14271			42741.51297		221.82600		875.00000 
 43692.65567		 305.27265			43387.38302		70.25800		324.00000 
 43692.65567		 951.14271			42741.51297		221.82600		875.00000 
 43692.65567		 305.27265			43387.38302		70.25800		324.00000 
 43692.65567		 951.14271			42741.51297		221.82600		875.00000 
 43692.65567		 305.27265			43387.38302		70.25800		324.00000 
 43692.65567		 951.14271			42741.51297		221.82600		875.00000 
 43692.65567		 305.27265			43387.38302		70.25800		324.00000 
 43692.65567		 951.14271			42741.51297		221.82600		875.00000 
 43692.65567		 305.27265			43387.38302		70.25800		324.00000 
 43692.65567		 951.14271			42741.51297		221.82600		875.00000 
 43692.65567		 305.27265			43387.38302		70.25800		324.00000 
 43692.65567		 951.14271			42741.51297		221.82600		875.00000 
 43692.65567		 305.27265			43387.38302		70.25800		324.00000 
 43692.65567		 951.14271			42741.51297		221.82600		875.00000 
 43692.65567		 305.27265			43387.38302		70.25800		324.00000 
 43692.65567		 951.14271			42741.51297		221.82600		875.00000 
 43692.65567		 305.27265			43387.38302		70.25800		324.00000 
 43692.65567		 951.14271			42741.51297		221.82600		875.00000 
 43692.65567		 305.27265			43387.38302		70.25800		324.00000 
 43692.65567		 951.14271			42741.51297		221.82600		875.00000 
 43692.65567		 305.27265			43387.38302		70.25800		324.00000 
 43692.65567		 951.14271			42741.51297		221.82600		875.00000 
 43692.65567		 305.27265			43387.38302		70.25800		324.00000 
 43692.65567		 951.14271			42741.51297		221.82600		875.00000 
 43692.65567		 305.27265			43387.38302		70.25800		324.00000 
 43692.65567		 951.14271			42741.51297		221.82600		875.00000 
 43692.65567		 305.27265			43387.38302		70.25800		324.00000 
 43692.65567		 951.14271			42741.51297		221.82600		875.00000 
 43692.65567		 305.27265			43387.38302		70.25800		324.00000 
 43692.65567		 951.14271			42741.51297		221.82600		875.00000 
 43692.65567		 305.27265			43387.38302		70.25800		324.00000 
 43692.65567		 951.14271			42741.51297		221.82600		875.00000 
 43692.65567		 305.27265			43387.38302		70.25800		324.00000 
 43692.65567		 951.14271			42741.51297		221.82600		875.00000 
 43692.65567		 305.27265			43387.38302		70.25800		324.00000 
 43692.65567		 951.14271			42741.51297		221.82600		875.00000 
 43692.65567		 305.27265			43387.38302		70.25800		324.00000 
 43692.65567		 951.14271			42741.51297		221.82600		875.00000 
 43692.65567		 305.27265			43387.38302		70.25800		324.00000 
 43692.65567		 951.14271			42741.51297		221.82600		875.00000 
 43692.65567		 305.27265			43387.38302		70.25800		324.00000 
 43692.65567		 951.14271			42741.51297		221.82600		875.00000 
 43692.65567		 305.27265			43387.38302		70.25800		324.00000 
 43692.65567		 951.14271			42741.51297		221.82600		875.00000 
 43692.65567		 305.27265			43387.38302		70.25800		324.00000 
 43692.65567		 951.14271			42741.51297		221.82600		875.00000 
 43692.65567		 305.27265			43387.38302		70.25800		324.00000 
 43692.65567		 951.14271			42741.51297		221.82600		875.00000 
 43692.65567		 305.27265			43387.38302		70.25800		324.00000 
 43692.65567		 951.14271			42741.51297		221.82600		875.00000 
 43692.65567		 305.27265			43387.38302		70.25800		324.00000 
 43692.65567		 951.14271			42741.51297		221.82600		875.00000 
 43692.65567		 305.27265			43387.38302		70.25800		324.00000 
 43692.65567		 951.14271			42741.51297		221.82600		875.00000 
 43692.65567		 305.27265			43387.38302		70.25800		324.00000 
 43692.65567		 951.14271			42741.51297		221.82600		875.00000 
 43692.65567		 305.27265			43387.38302		70.25800		324.00000 
 43692.65567		 951.14271			42741.51297		221.82600		875.00000 
 43692.65567		 305.27265			43387.38302		70.25800		324.00000 
 43692.65567		 951.14271			42741.51297		221.82600		875.00000 
 43692.65567		 305.27265			43387.38302		70.25800		324.00000 
 43692.65567		 951.14271			42741.51297		221.82600		875.00000 
 43692.65567		 305.27265			43387.38302		70.25800		324.00000 
 43692.65567		 951.14271			42741.51297		221.82600		875.00000 
 43692.65567		 305.27265			43387.38302		70.25800		324.00000 
 43692.65567		 951.14271			42741.51297		221.82600		875.00000 
 43692.65567		 305.27265			43387.38302		70.25800		324.00000 
 43692.65567		 951.14271			42741.51297		221.82600		875.00000 
 43692.65567		 305.27265			43387.38302		70.25800		324.00000 
 43692.65567		 951.14271			42741.51297		221.82600		875.00000 
 43692.65567		 305.27265			43387.38302		70.25800		324.00000 
 43692.65567		 951.14271			42741.51297		221.82600		875.00000 
 43692.65567		 305.27265			43387.38302		70.25800		324.00000 
 43692.65567		 951.14271			42741.51297		221.82600		875.00000 
 43692.65567		 305.27265			43387.38302		70.25800		324.00000 
 43692.65567		 951.14271			42741.51297		221.82600		875.00000 
 43692.65567		 305.27265			43387.38302		70.25800		324.00000 
 43692.65567		 951.14271			42741.51297		221.82600		875.00000 
 43692.65567		 305.27265			43387.38302		70.25800		324.00000 
 43692.65567		 951.14271			42741.51297		221.82600		875.00000 
 43692.65567		 305.27265			43387.38302		70.25800		324.00000 
 43692.65567		 951.14271			42741.51297		221.82600		875.00000 
 43692.65567		 305.27265			43387.38302		70.25800		324.00000 
 43692.65567		 951.14271			42741.51297		221.82600		875.00000 
 43692.65567		 305.27265			43387.38302		70.25800		324.00000 
 43692.65567		 951.14271			42741.51297		221.82600		875.00000 
 43692.65567		 305.27265			43387.38302		70.25800		324.00000 
 43692.65567		 951.14271			42741.51297		221.82600		875.00000 
 43692.65567		 305.27265			43387.38302		70.25800		324.00000 
 43692.65567		 951.14271			42741.51297		221.82600		875.00000 
 43692.65567		 305.27265			43387.38302		70.25800		324.00000 
 43692.65567		 951.14271			42741.51297		221.82600		875.00000 
 43692.65567		 305.27265			43387.38302		70.25800		324.00000 
 43692.65567		 951.14271			42741.51297		221.82600		875.00000 
 43692.65567		 305.27265			43387.38302		70.25800		324.00000 
 43692.65567		 951.14271			42741.51297		221.82600		875.00000 
 43692.65567		 305.27265			43387.38302		70.25800		324.00000 
 43692.65567		 951.14271			42741.51297		221.82600		875.00000 
 43692.65567		 305.27265			43387.38302		70.25800		324.00000 
 43692.65567		 951.14271			42741.51297		221.82600		875.00000 
 43692.65567		 305.27265			43387.38302		70.25800		324.00000 
 43692.65567		 951.14271			42741.51297		221.82600		875.00000 
 43692.65567		 305.27265			43387.38302		70.25800		324.00000 
 43692.65567		 951.14271			42741.51297		221.82600		875.00000 
 43692.65567		 305.27265			43387.38302		70.25800		324.00000 
 43692.65567		 951.14271			42741.51297		221.82600		875.00000 
 43692.65567		 305.27265			43387.38302		70.25800		324.00000 
 43692.65567		 951.14271			42741.51297		221.82600		875.00000 
 43692.65567		 305.27265			43387.38302		70.74000		324.00000 
 43692.65567		 951.14271			42741.51297		221.82600		875.00000 
 43692.65567		 305.27265			43387.38302		70.74000		324.00000 
 43692.65567		 951.14271			42741.51297		221.82600		875.00000 
 43692.65567		 305.27265			43387.38302		70.74000		324.00000 
 43692.65567		 951.14271			42741.51297		221.82600		875.00000 
 43692.65567		 305.27265			43387.38302		70.74000		324.00000 
 43692.65567		 951.14271			42741.51297		221.82600		875.00000 
 43692.65567		 305.27265			43387.38302		70.74000		324.00000 
 43692.65567		 951.14271			42741.51297		221.82600		875.00000 
 43692.65567		 305.27265			43387.38302		70.74000		324.00000 
 43692.65567		 951.14271			42741.51297		221.82600		875.00000 
 43692.65567		 305.27265			43387.38302		70.74000		324.00000 
 43692.65567		 951.14271			42741.51297		221.82600		875.00000 
 43692.65567		 305.27265			43387.38302		70.74000		324.00000 
 43692.65567		 951.14271			42741.51297		221.82600		875.00000 
 43692.65567		 305.27265			43387.38302		70.74000		324.00000 
 43692.65567		 951.14271			42741.51297		221.82600		875.00000 
 43692.65567		 305.27265			43387.38302		70.74000		324.00000 
 43692.65567		 951.14271			42741.51297		221.82600		875.00000 
 43692.65567		 305.27265			43387.38302		70.74000		324.00000 
 43692.65567		 951.14271			42741.51297		221.82600		875.00000 
 43692.65567		 305.27265			43387.38302		70.74000		324.00000 
 43692.65567		 951.14271			42741.51297		221.82600		875.00000 
 43692.65567		 305.27265			43387.38302		70.74000		324.00000 
 43692.65567		 951.14271			42741.51297		221.82600		875.00000 
 43692.65567		 305.27265			43387.38302		70.74000		324.00000 
 43692.65567		 951.14271			42741.51297		221.82600		875.00000 
 43692.65567		 305.27265			43387.38302		70.74000		324.00000 
 43692.65567		 951.14271			42741.51297		221.82600		875.00000 
 43692.65567		 305.27265			43387.38302		70.74000		324.00000 
 43692.65567		 951.14271			42741.51297		221.82600		875.00000 
 43692.65567		 305.27265			43387.38302		70.74000		324.00000 
 43692.65567		 951.14271			42741.51297		221.82600		875.00000 
 43692.65567		 305.27265			43387.38302		70.74000		324.00000 
 43692.65567		 951.14271			42741.51297		221.82600		875.00000 
 43692.65567		 305.27265			43387.38302		70.74000		324.00000 
 43692.65567		 951.14271			42741.51297		221.82600		875.00000 
 43692.65567		 305.27265			43387.38302		70.74000		324.00000 
 43692.65567		 951.14271			42741.51297		221.82600		875.00000 
 43692.65567		 305.27265			43387.38302		70.74000		324.00000 
 43692.65567		 951.14271			42741.51297		221.82600		875.00000 
 43692.65567		 305.27265			43387.38302		70.74000		324.00000 
 43692.65567		 951.14271			42741.51297		222.42400		875.00000 
 43692.65567		 305.27265			43387.38302		70.74000		324.00000 
 43692.65567		 951.14271			42741.51297		222.42400		875.00000 
 43692.65567		 305.27265			43387.38302		70.74000		324.00000 
 43692.65567		 951.14271			42741.51297		222.42400		875.00000 
 43692.65567		 305.27265			43387.38302		70.74000		324.00000 
 43692.65567		 951.14271			42741.51297		222.42400		875.00000 
 43692.65567		 305.27265			43387.38302		70.74000		324.00000 
 43692.65567		 951.14271			42741.51297		222.42400		875.00000 
 43692.65567		 305.27265			43387.38302		70.74000		324.00000 
 43692.65567		 951.14271			42741.51297		222.42400		875.00000 
 43692.65567		 305.27265			43387.38302		70.74000		324.00000 
 43692.65567		 951.14271			42741.51297		222.42400		875.00000 
 43692.65567		 305.27265			43387.38302		70.74000		324.00000 
 43692.65567		 951.14271			42741.51297		222.42400		875.00000 
 43692.65567		 305.27265			43387.38302		70.74000		324.00000 
 43692.65567		 951.14271			42741.51297		222.42400		875.00000 
 43692.65567		 305.27265			43387.38302		70.74000		324.00000 
 43692.65567		 951.14271			42741.51297		222.42400		875.00000 
 43692.65567		 305.27265			43387.38302		70.74000		324.00000 
 43692.65567		 951.14271			42741.51297		222.42400		875.00000 
 43692.65567		 305.27265			43387.38302		70.74000		324.00000 
 43692.65567		 951.14271			42741.51297		222.42400		875.00000 
 43692.65567		 305.27265			43387.38302		70.74000		324.00000 
 43692.65567		 951.14271			42741.51297		222.42400		875.00000 
 43692.65567		 305.27265			43387.38302		70.74000		324.00000 
 43692.65567		 951.14271			42741.51297		222.42400		875.00000 
 43692.65567		 305.27265			43387.38302		70.74000		324.00000 
 43692.65567		 951.14271			42741.51297		222.42400		875.00000 
 43692.65567		 305.27265			43387.38302		70.74000		324.00000 
 43692.65567		 951.14271			42741.51297		222.42400		875.00000 
 43692.65567		 305.27265			43387.38302		70.74000		324.00000 
 43692.65567		 951.14271			42741.51297		222.42400		875.00000 
 43692.65567		 305.27265			43387.38302		70.74000		324.00000 
 43692.65567		 951.14271			42741.51297		222.42400		875.00000 
 43692.65567		 305.27265			43387.38302		70.74000		324.00000 
 43692.65567		 951.14271			42741.51297		222.42400		875.00000 
 43692.65567		 305.27265			43387.38302		70.74000		324.00000 
 43692.65567		 951.14271			42741.51297		222.42400		875.00000 
 43692.65567		 305.27265			43387.38302		70.74000		324.00000 
 43692.65567		 951.14271			42741.51297		222.42400		875.00000 
 43692.65567		 305.27265			43387.38302		70.74000		324.00000 
 43692.65567		 951.14271			42741.51297		222.42400		875.00000 
 43692.65567		 305.27265			43387.38302		70.74000		324.00000 
 43692.65567		 951.14271			42741.51297		222.42400		875.00000 
 43692.65567		 305.27265			43387.38302		70.74000		324.00000 
 43692.65567		 951.14271			42741.51297		222.42400		875.00000 
 43692.65567		 305.27265			43387.38302		70.74000		324.00000 
 43692.65567		 951.14271			42741.51297		222.42400		875.00000 
 43692.65567		 305.27265			43387.38302		70.74000		324.00000 
 43692.65567		 951.14271			42741.51297		222.42400		875.00000 
 43692.65567		 305.27265			43387.38302		70.74000		324.00000 
 43692.65567		 951.14271			42741.51297		222.42400		875.00000 
 43692.65567		 305.27265			43387.38302		70.74000		324.00000 
 43692.65567		 951.14271			42741.51297		222.42400		875.00000 
 43692.65567		 305.27265			43387.38302		70.74000		324.00000 
 43692.65567		 951.14271			42741.51297		222.42400		875.00000 
 43692.65567		 305.27265			43387.38302		70.74000		324.00000 
 43692.65567		 951.14271			42741.51297		222.42400		875.00000 
 43692.65567		 305.27265			43387.38302		70.74000		324.00000 
 43692.65567		 951.14271			42741.51297		222.42400		875.00000 
 43692.65567		 305.27265			43387.38302		70.74000		324.00000 
 43692.65567		 951.14271			42741.51297		222.42400		875.00000 
 43692.65567		 305.27265			43387.38302		70.74000		324.00000 
 43692.65567		 951.14271			42741.51297		222.42400		875.00000 
 43692.65567		 305.27265			43387.38302		70.74000		324.00000 
 43692.65567		 951.14271			42741.51297		222.42400		875.00000 
 43692.65567		 305.27265			43387.38302		70.74000		324.00000 
 43692.65567		 951.14271			42741.51297		222.42400		875.00000 
 43692.65567		 305.27265			43387.38302		70.74000		324.00000 
 43692.65567		 951.14271			42741.51297		222.42400		875.00000 
 43692.65567		 305.27265			43387.38302		70.74000		324.00000 
 43692.65567		 951.14271			42741.51297		222.42400		875.00000 
 43692.65567		 305.27265			43387.38302		70.74000		324.00000 
 43692.65567		 951.14271			42741.51297		222.42400		875.00000 
 43692.65567		 305.27265			43387.38302		70.74000		324.00000 
 43692.65567		 951.14271			42741.51297		222.42400		875.00000 
 43692.65567		 305.27265			43387.38302		70.74000		324.00000 
 43692.65567		 951.14271			42741.51297		222.42400		875.00000 
 43692.65567		 305.27265			43387.38302		70.74000		324.00000 
 43692.65567		 951.14271			42741.51297		222.42400		875.00000 
 43692.65567		 305.27265			43387.38302		70.74000		324.00000 
 43692.65567		 951.14271			42741.51297		222.42400		875.00000 
 43692.65567		 305.27265			43387.38302		70.74000		324.00000 
 43692.65567		 951.14271			42741.51297		222.42400		875.00000 
 43692.65567		 305.27265			43387.38302		70.74000		324.00000 
 43692.65567		 951.14271			42741.51297		222.42400		875.00000 
 43692.65567		 305.27265			43387.38302		70.74000		324.00000 
 43692.65567		 951.14271			42741.51297		222.42400		875.00000 
 43692.65567		 305.27265			43387.38302		70.74000		324.00000 
 43692.65567		 951.14271			42741.51297		222.42400		875.00000 
 43692.65567		 305.27265			43387.38302		70.74000		324.00000 
 43692.65567		 951.14271			42741.51297		222.42400		875.00000 
 43692.65567		 305.27265			43387.38302		70.74000		324.00000 
 43692.65567		 951.14271			42741.51297		222.42400		875.00000 
 43692.65567		 305.27265			43387.38302		70.74000		324.00000 
 43692.65567		 951.14271			42741.51297		222.42400		875.00000 
 43692.65567		 305.27265			43387.38302		70.74000		324.00000 
 43692.65567		 951.14271			42741.51297		222.42400		875.00000 
 43692.65567		 305.27265			43387.38302		70.74000		324.00000 
 43692.65567		 951.14271			42741.51297		222.42400		875.00000 
 43692.65567		 305.27265			43387.38302		70.74000		324.00000 
 43692.65567		 951.14271			42741.51297		222.42400		875.00000 
 43692.65567		 305.27265			43387.38302		70.74000		324.00000 
 43692.65567		 951.14271			42741.51297		222.42400		875.00000 
 43692.65567		 305.27265			43387.38302		70.74000		324.00000 
 43692.65567		 951.14271			42741.51297		222.42400		875.00000 
 43692.65567		 305.27265			43387.38302		70.74000		324.00000 
 43692.65567		 951.14271			42741.51297		222.42400		875.00000 
 43692.65567		 305.27265			43387.38302		70.74000		324.00000 
 43692.65567		 951.14271			42741.51297		222.42400		875.00000 
 43692.65567		 305.27265			43387.38302		70.74000		324.00000 
 43692.65567		 951.14271			42741.51297		222.42400		875.00000 
 43692.65567		 305.27265			43387.38302		70.74000		324.00000 
 43692.65567		 951.14271			42741.51297		222.42400		875.00000 
 43692.65567		 305.27265			43387.38302		70.74000		324.00000 
 43692.65567		 951.14271			42741.51297		222.42400		875.00000 
 43692.65567		 305.27265			43387.38302		70.74000		324.00000 
 43692.65567		 951.14271			42741.51297		222.42400		875.00000 
 43692.65567		 305.27265			43387.38302		70.74000		324.00000 
 43692.65567		 951.14271			42741.51297		222.42400		875.00000 
 43692.65567		 305.27265			43387.38302		70.74000		324.00000 
 43692.65567		 951.14271			42741.51297		222.42400		875.00000 
 43692.65567		 305.27265			43387.38302		70.74000		324.00000 
 43692.65567		 951.14271			42741.51297		222.42400		875.00000 
 43692.65567		 305.27265			43387.38302		70.74000		324.00000 
 43692.65567		 951.14271			42741.51297		222.42400		875.00000 
 43692.65567		 305.27265			43387.38302		70.74000		324.00000 
 43692.65567		 951.14271			42741.51297		222.42400		875.00000 
 43692.65567		 305.27265			43387.38302		70.74000		324.00000 
 43692.65567		 951.14271			42741.51297		222.42400		875.00000 
 43692.65567		 305.27265			43387.38302		70.74000		324.00000 
 43692.65567		 951.14271			42741.51297		222.42400		875.00000 
 43692.65567		 305.27265			43387.38302		70.74000		324.00000 
 43692.65567		 951.14271			42741.51297		222.42400		875.00000 
 43692.65567		 305.27265			43387.38302		70.74000		324.00000 
 43692.65567		 951.14271			42741.51297		222.42400		875.00000 
 43692.65567		 305.27265			43387.38302		70.74000		324.00000 
 43692.65567		 951.14271			42741.51297		222.42400		875.00000 
 43692.65567		 305.27265			43387.38302		70.74000		324.00000 
 43692.65567		 951.14271			42741.51297		222.42400		875.00000 
 43692.65567		 305.27265			43387.38302		70.74000		324.00000 
 43692.65567		 951.14271			42741.51297		222.42400		875.00000 
 43692.65567		 305.27265			43387.38302		70.74000		324.00000 
 43692.65567		 951.14271			42741.51297		222.42400		875.00000 
 43692.65567		 305.27265			43387.38302		70.74000		324.00000 
 43692.65567		 951.14271			42741.51297		222.42400		875.00000 
 43692.65567		 305.27265			43387.38302		70.74000		324.00000 
 43692.65567		 951.14271			42741.51297		222.42400		875.00000 
 43692.65567		 305.27265			43387.38302		70.74000		324.00000 
 43692.65567		 951.14271			42741.51297		222.42400		875.00000 
 43692.65567		 305.27265			43387.38302		70.74000		324.00000 
 43692.65567		 951.14271			42741.51297		222.42400		875.00000 
 43692.65567		 305.27265			43387.38302		70.74000		324.00000 
 43692.65567		 951.14271			42741.51297		222.42400		875.00000 
 43692.65567		 305.27265			43387.38302		70.74000		324.00000 
 43692.65567		 951.14271			42741.51297		222.42400		875.00000 
 43692.65567		 305.27265			43387.38302		70.74000		324.00000 
 43692.65567		 951.14271			42741.51297		222.42400		875.00000 
 43692.65567		 305.27265			43387.38302		70.74000		324.00000 
 43692.65567		 951.14271			42741.51297		222.42400		875.00000 
 43692.65567		 305.27265			43387.38302		70.74000		324.00000 
 43692.65567		 951.14271			42741.51297		222.42400		875.00000 
 43692.65567		 305.27265			43387.38302		70.74000		324.00000 
 43692.65567		 951.14271			42741.51297		222.42400		875.00000 
 43692.65567		 305.27265			43387.38302		70.74000		324.00000 
 43692.65567		 951.14271			42741.51297		222.42400		875.00000 
 43692.65567		 305.27265			43387.38302		70.74000		324.00000 
 43692.65567		 951.14271			42741.51297		222.42400		875.00000 
 43692.65567		 305.27265			43387.38302		70.74000		324.00000 
 43692.65567		 951.14271			42741.51297		222.42400		875.00000 
 43692.65567		 305.27265			43387.38302		70.74000		324.00000 
 43692.65567		 951.14271			42741.51297		222.42400		875.00000 
 43692.65567		 305.27265			43387.38302		70.74000		324.00000 
 43692.65567		 951.14271			42741.51297		222.42400		875.00000 
 43692.65567		 305.27265			43387.38302		70.74000		324.00000 
 43692.65567		 951.14271			42741.51297		222.42400		875.00000 
 43692.65567		 305.27265			43387.38302		70.74000		324.00000 
 43692.65567		 951.14271			42741.51297		222.42400		875.00000 
 43692.65567		 305.27265			43387.38302		70.74000		324.00000 
 43692.65567		 951.14271			42741.51297		222.42400		875.00000 
 43692.65567		 305.27265			43387.38302		70.74000		324.00000 
 43692.65567		 951.14271			42741.51297		222.42400		875.00000 
 43692.65567		 305.27265			43387.38302		70.74000		324.00000 
 43692.65567		 951.14271			42741.51297		222.42400		875.00000 
 43692.65567		 305.27265			43387.38302		70.74000		324.00000 
 43692.65567		 951.14271			42741.51297		222.42400		875.00000 
 43692.65567		 305.27265			43387.38302		70.74000		324.00000 
 43692.65567		 951.14271			42741.51297		222.42400		875.00000 
 43692.65567		 305.27265			43387.38302		70.74000		324.00000 
 43692.65567		 951.14271			42741.51297		222.42400		875.00000 
 43692.65567		 305.27265			43387.38302		70.74000		324.00000 
 43692.65567		 951.14271			42741.51297		222.42400		875.00000 
 43692.65567		 305.27265			43387.38302		70.74000		324.00000 
 43692.65567		 951.14271			42741.51297		222.42400		875.00000 
 43692.65567		 305.27265			43387.38302		70.74000		324.00000 
 43692.65567		 951.14271			42741.51297		222.42400		875.00000 
 43692.65567		 305.27265			43387.38302		70.74000		324.00000 
 43692.65567		 951.14271			42741.51297		222.42400		875.00000 
 43692.65567		 305.27265			43387.38302		70.74000		324.00000 
 43692.65567		 951.14271			42741.51297		222.42400		875.00000 
 43692.65567		 305.27265			43387.38302		70.74000		324.00000 
 43692.65567		 951.14271			42741.51297		222.42400		875.00000 
 43692.65567		 305.27265			43387.38302		70.74000		324.00000 
 43692.65567		 951.14271			42741.51297		222.42400		875.00000 
 43692.65567		 305.27265			43387.38302		70.74000		324.00000 
 43692.65567		 951.14271			42741.51297		222.42400		875.00000 
 43692.65567		 305.27265			43387.38302		70.74000		324.00000 
 43692.65567		 951.14271			42741.51297		222.42400		875.00000 
 43692.65567		 305.27265			43387.38302		70.74000		324.00000 
 43692.65567		 951.14271			42741.51297		222.42400		875.00000 
 43692.65567		 305.27265			43387.38302		70.74000		324.00000 
 43692.65567		 951.14271			42741.51297		222.42400		875.00000 
 43692.65567		 305.27265			43387.38302		70.74000		324.00000 
 43692.65567		 951.14271			42741.51297		222.42400		875.00000 
 43692.65567		 305.27265			43387.38302		70.74000		324.00000 
 43692.65567		 951.14271			42741.51297		222.42400		875.00000 
 43692.65567		 305.27265			43387.38302		70.74000		324.00000 
 43692.65567		 951.14271			42741.51297		222.42400		875.00000 
 43692.65567		 305.27265			43387.38302		70.74000		324.00000 
 43692.65567		 951.14271			42741.51297		222.42400		875.00000 
 43692.65567		 305.27265			43387.38302		70.74000		324.00000 
 43692.65567		 951.14271			42741.51297		222.42400		875.00000 
 43692.65567		 305.27265			43387.38302		70.74000		324.00000 
 43692.65567		 951.14271			42741.51297		222.42400		875.00000 
 43692.65567		 305.27265			43387.38302		70.74000		324.00000 
 43692.65567		 951.14271			42741.51297		222.42400		875.00000 
 43692.65567		 305.27265			43387.38302		70.74000		324.00000 
 43692.65567		 951.14271			42741.51297		222.42400		875.00000 
 43692.65567		 305.27265			43387.38302		70.74000		324.00000 
 43692.65567		 951.14271			42741.51297		222.42400		875.00000 
 43692.65567		 305.27265			43387.38302		70.74000		324.00000 
 43692.65567		 951.14271			42741.51297		222.42400		875.00000 
 43692.65567		 305.27265			43387.38302		70.74000		324.00000 
 43692.65567		 951.14271			42741.51297		222.42400		875.00000 
 43692.65567		 305.27265			43387.38302		70.74000		324.00000 
 43692.65567		 951.14271			42741.51297		222.42400		875.00000 
 43692.65567		 305.27265			43387.38302		70.74000		324.00000 
 43692.65567		 951.14271			42741.51297		222.42400		875.00000 
 43692.65567		 305.27265			43387.38302		70.74000		324.00000 
 43692.65567		 951.14271			42741.51297		222.42400		875.00000 
 43692.65567		 305.27265			43387.38302		70.74000		324.00000 
 43692.65567		 951.14271			42741.51297		222.42400		875.00000 
 43692.65567		 305.27265			43387.38302		70.74000		324.00000 
 43692.65567		 951.14271			42741.51297		222.42400		875.00000 
 43692.65567		 305.27265			43387.38302		70.74000		324.00000 
 43692.65567		 951.14271			42741.51297		222.42400		875.00000 
 43692.65567		 305.27265			43387.38302		70.74000		324.00000 
 43692.65567		 951.14271			42741.51297		222.42400		875.00000 
 43692.65567		 305.27265			43387.38302		70.74000		324.00000 
 43692.65567		 951.14271			42741.51297		222.42400		875.00000 
 43692.65567		 305.27265			43387.38302		70.74000		324.00000 
 43692.65567		 951.14271			42741.51297		222.42400		875.00000 
 43692.65567		 305.27265			43387.38302		70.74000		324.00000 
 43692.65567		 951.14271			42741.51297		222.42400		875.00000 
 43692.65567		 305.27265			43387.38302		70.74000		324.00000 
 43692.65567		 951.14271			42741.51297		222.42400		875.00000 
 43692.65567		 305.27265			43387.38302		70.74000		324.00000 
 43692.65567		 951.14271			42741.51297		221.82600		875.00000 
 43692.65567		 305.27265			43387.38302		70.74000		324.00000 
 43692.65567		 951.14271			42741.51297		221.82600		875.00000 
 43692.65567		 305.27265			43387.38302		70.74000		324.00000 
 43692.65567		 951.14271			42741.51297		221.82600		875.00000 
 43692.65567		 305.27265			43387.38302		70.74000		324.00000 
 43692.65567		 951.14271			42741.51297		221.82600		875.00000 
 43692.65567		 305.27265			43387.38302		70.74000		324.00000 
 43692.65567		 951.14271			42741.51297		221.82600		875.00000 
 43692.65567		 305.27265			43387.38302		70.74000		324.00000 
 43692.65567		 951.14271			42741.51297		221.82600		875.00000 
 43692.65567		 305.27265			43387.38302		70.74000		324.00000 
 43692.65567		 951.14271			42741.51297		221.82600		875.00000 
 43692.65567		 305.27265			43387.38302		70.74000		324.00000 
 43692.65567		 951.14271			42741.51297		221.82600		875.00000 
 43692.65567		 305.27265			43387.38302		70.74000		324.00000 
 43692.65567		 951.14271			42741.51297		221.82600		875.00000 
 43692.65567		 305.27265			43387.38302		70.74000		324.00000 
 43692.65567		 951.14271			42741.51297		221.82600		875.00000 
 43692.65567		 305.27265			43387.38302		70.74000		324.00000 
 43692.65567		 951.14271			42741.51297		221.82600		875.00000 
 43692.65567		 305.27265			43387.38302		70.74000		324.00000 
 43692.65567		 951.14271			42741.51297		221.82600		875.00000 
 43692.65567		 305.27265			43387.38302		70.74000		324.00000 
 43692.65567		 951.14271			42741.51297		221.82600		875.00000 
 43692.65567		 305.27265			43387.38302		70.74000		324.00000 
 43692.65567		 951.14271			42741.51297		221.82600		875.00000 
 43692.65567		 305.27265			43387.38302		70.74000		324.00000 
 43692.65567		 951.14271			42741.51297		221.82600		875.00000 
 43692.65567		 305.27265			43387.38302		70.74000		324.00000 
 43692.65567		 951.14271			42741.51297		221.82600		875.00000 
 43692.65567		 305.27265			43387.38302		70.74000		324.00000 
 43692.65567		 951.14271			42741.51297		221.82600		875.00000 
 43692.65567		 305.27265			43387.38302		70.74000		324.00000 
 43692.65567		 951.14271			42741.51297		221.82600		875.00000 
 43692.65567		 305.27265			43387.38302		70.74000		324.00000 
 43692.65567		 951.14271			42741.51297		221.82600		875.00000 
 43692.65567		 305.27265			43387.38302		70.74000		324.00000 
 43692.65567		 951.14271			42741.51297		221.82600		875.00000 
 43692.65567		 305.27265			43387.38302		70.74000		324.00000 
 43692.65567		 951.14271			42741.51297		221.82600		875.00000 
 43692.65567		 305.27265			43387.38302		70.74000		324.00000 
 43692.65567		 951.14271			42741.51297		221.82600		875.00000 
 43692.65567		 305.27265			43387.38302		70.74000		324.00000 
 43692.65567		 951.14271			42741.51297		221.82600		875.00000 
 43692.65567		 305.27265			43387.38302		70.74000		324.00000 
 43692.65567		 951.14271			42741.51297		221.82600		875.00000 
 43692.65567		 305.27265			43387.38302		70.74000		324.00000 
 43692.65567		 951.14271			42741.51297		221.82600		875.00000 
 43692.65567		 305.27265			43387.38302		70.74000		324.00000 
 43692.65567		 951.14271			42741.51297		221.82600		875.00000 
 43692.65567		 305.27265			43387.38302		70.74000		324.00000 
 43692.65567		 951.14271			42741.51297		221.82600		875.00000 
 43692.65567		 305.27265			43387.38302		70.74000		324.00000 
 43692.65567		 951.14271			42741.51297		221.82600		875.00000 
 43692.65567		 305.27265			43387.38302		70.74000		324.00000 
 43692.65567		 951.14271			42741.51297		221.82600		875.00000 
 43692.65567		 305.27265			43387.38302		70.74000		324.00000 
 43692.65567		 951.14271			42741.51297		221.82600		875.00000 
 43692.65567		 305.27265			43387.38302		70.74000		324.00000 
 43692.65567		 951.14271			42741.51297		221.82600		875.00000 
 43692.65567		 305.27265			43387.38302		70.74000		324.00000 
 43692.65567		 951.14271			42741.51297		221.82600		875.00000 
 43692.65567		 305.27265			43387.38302		70.74000		324.00000 
 43692.65567		 951.14271			42741.51297		221.82600		875.00000 
 43692.65567		 305.27265			43387.38302		70.74000		324.00000 
 43692.65567		 951.14271			42741.51297		221.82600		875.00000 
 43692.65567		 305.27265			43387.38302		70.74000		324.00000 
 43692.65567		 951.14271			42741.51297		221.82600		875.00000 
 43692.65567		 305.27265			43387.38302		70.74000		324.00000 
 43692.65567		 951.14271			42741.51297		221.82600		875.00000 
 43692.65567		 305.27265			43387.38302		70.74000		324.00000 
 43692.65567		 951.14271			42741.51297		221.82600		875.00000 
 43692.65567		 305.27265			43387.38302		70.74000		324.00000 
 43692.65567		 951.14271			42741.51297		221.82600		875.00000 
 43692.65567		 305.27265			43387.38302		70.74000		324.00000 
 43692.65567		 951.14271			42741.51297		221.82600		875.00000 
 43692.65567		 305.27265			43387.38302		70.74000		324.00000 
 43692.65567		 951.14271			42741.51297		221.82600		875.00000 
 43692.65567		 305.27265			43387.38302		70.74000		324.00000 
 43692.65567		 951.14271			42741.51297		221.82600		875.00000 
 43692.65567		 305.27265			43387.38302		70.74000		324.00000 
 43692.65567		 951.14271			42741.51297		221.82600		875.00000 
 43692.65567		 305.27265			43387.38302		70.74000		324.00000 
 43692.65567		 951.14271			42741.51297		221.82600		875.00000 
 43692.65567		 305.27265			43387.38302		70.74000		324.00000 
 43692.65567		 951.14271			42741.51297		221.82600		875.00000 
 43692.65567		 305.27265			43387.38302		70.74000		324.00000 
 43692.65567		 951.14271			42741.51297		221.82600		875.00000 
 43692.65567		 305.27265			43387.38302		70.74000		324.00000 
 43692.65567		 951.14271			42741.51297		221.82600		875.00000 
 43692.65567		 305.27265			43387.38302		70.74000		324.00000 
 43692.65567		 951.14271			42741.51297		221.82600		875.00000 
 43692.65567		 305.27265			43387.38302		70.74000		324.00000 
 43692.65567		 951.14271			42741.51297		221.82600		875.00000 
 43692.65567		 305.27265			43387.38302		70.74000		324.00000 
 43692.65567		 951.14271			42741.51297		221.82600		875.00000 
 43692.65567		 305.27265			43387.38302		70.74000		324.00000 
 43692.65567		 951.14271			42741.51297		221.82600		875.00000 
 43692.65567		 305.27265			43387.38302		70.74000		324.00000 
 43692.65567		 951.14271			42741.51297		221.82600		875.00000 
 43692.65567		 305.27265			43387.38302		70.74000		324.00000 
 43692.65567		 951.14271			42741.51297		221.82600		875.00000 
 43692.65567		 305.27265			43387.38302		70.74000		324.00000 
 43692.65567		 951.14271			42741.51297		221.82600		875.00000 
 43692.65567		 305.27265			43387.38302		70.74000		324.00000 
 43692.65567		 951.14271			42741.51297		221.82600		875.00000 
 43692.65567		 305.27265			43387.38302		70.74000		324.00000 
 43692.65567		 951.14271			42741.51297		221.82600		875.00000 
 43692.65567		 305.27265			43387.38302		70.74000		324.00000 
 43692.65567		 951.14271			42741.51297		221.82600		875.00000 
 43692.65567		 305.27265			43387.38302		70.74000		324.00000 
 43692.65567		 951.14271			42741.51297		221.82600		875.00000 
 43692.65567		 305.27265			43387.38302		70.74000		324.00000 
 43692.65567		 951.14271			42741.51297		221.82600		875.00000 
 43692.65567		 305.27265			43387.38302		70.74000		324.00000 
 43692.65567		 951.14271			42741.51297		221.82600		875.00000 
 43692.65567		 305.27265			43387.38302		70.74000		324.00000 
 43692.65567		 951.14271			42741.51297		221.82600		875.00000 
 43692.65567		 305.27265			43387.38302		70.74000		324.00000 
 43692.65567		 951.14271			42741.51297		221.82600		875.00000 
 43692.65567		 305.27265			43387.38302		70.74000		324.00000 
 43692.65567		 951.14271			42741.51297		221.82600		875.00000 
 43692.65567		 305.27265			43387.38302		70.74000		324.00000 
 43692.65567		 951.14271			42741.51297		221.82600		875.00000 
 43692.65567		 305.27265			43387.38302		70.74000		324.00000 
 43692.65567		 951.14271			42741.51297		221.82600		875.00000 
 43692.65567		 305.27265			43387.38302		70.74000		324.00000 
 43692.65567		 951.14271			42741.51297		221.82600		875.00000 
 43692.65567		 305.27265			43387.38302		70.74000		324.00000 
 43692.65567		 951.14271			42741.51297		221.82600		875.00000 
 43692.65567		 305.27265			43387.38302		70.74000		324.00000 
 43692.65567		 951.14271			42741.51297		221.82600		875.00000 
 43692.65567		 305.27265			43387.38302		70.74000		324.00000 
 43692.65567		 951.14271			42741.51297		221.82600		875.00000 
 43692.65567		 305.27265			43387.38302		70.74000		324.00000 
 43692.65567		 951.14271			42741.51297		221.82600		875.00000 
 43692.65567		 305.27265			43387.38302		70.74000		324.00000 
 43692.65567		 951.14271			42741.51297		221.82600		875.00000 
 43692.65567		 305.27265			43387.38302		70.74000		324.00000 
 43692.65567		 951.14271			42741.51297		221.82600		875.00000 
 43692.65567		 305.27265			43387.38302		70.74000		324.00000 
 43692.65567		 951.14271			42741.51297		221.82600		875.00000 
 43692.65567		 305.27265			43387.38302		70.74000		324.00000 
 43692.65567		 951.14271			42741.51297		221.82600		875.00000 
 43692.65567		 305.27265			43387.38302		70.74000		324.00000 
 43692.65567		 951.14271			42741.51297		221.82600		875.00000 
 43692.65567		 305.27265			43387.38302		70.74000		324.00000 
 43692.65567		 951.14271			42741.51297		221.82600		875.00000 
 43692.65567		 305.27265			43387.38302		70.74000		324.00000 
 43692.65567		 951.14271			42741.51297		221.82600		875.00000 
 43692.65567		 305.27265			43387.38302		70.74000		324.00000 
 43692.65567		 951.14271			42741.51297		221.82600		875.00000 
 43692.65567		 305.27265			43387.38302		70.74000		324.00000 
 43692.65567		 951.14271			42741.51297		221.82600		875.00000 
 43692.65567		 305.27265			43387.38302		70.74000		324.00000 
 43692.65567		 951.14271			42741.51297		221.82600		875.00000 
 43692.65567		 305.27265			43387.38302		70.74000		324.00000 
 43692.65567		 951.14271			42741.51297		221.82600		875.00000 
 43692.65567		 305.27265			43387.38302		70.74000		324.00000 
 43692.65567		 951.14271			42741.51297		221.82600		875.00000 
 43692.65567		 305.27265			43387.38302		70.74000		324.00000 
 43692.65567		 951.14271			42741.51297		221.82600		875.00000 
 43692.65567		 305.27265			43387.38302		70.74000		324.00000 
 43692.65567		 951.14271			42741.51297		221.82600		875.00000 
 43692.65567		 305.27265			43387.38302		70.74000		324.00000 
 43692.65567		 951.14271			42741.51297		221.82600		875.00000 
 43692.65567		 305.27265			43387.38302		70.74000		324.00000 
 43692.65567		 951.14271			42741.51297		221.82600		875.00000 
 43692.65567		 305.27265			43387.38302		70.74000		324.00000 
 43692.65567		 951.14271			42741.51297		221.82600		875.00000 
 43692.65567		 305.27265			43387.38302		70.74000		324.00000 
 43692.65567		 951.14271			42741.51297		221.82600		875.00000 
 43692.65567		 305.27265			43387.38302		70.74000		324.00000 
 43692.65567		 951.14271			42741.51297		221.82600		875.00000 
 43692.65567		 305.27265			43387.38302		70.74000		324.00000 
 43692.65567		 951.14271			42741.51297		221.82600		875.00000 
 43692.65567		 305.27265			43387.38302		70.74000		324.00000 
 43692.65567		 951.14271			42741.51297		221.82600		875.00000 
 43692.65567		 305.27265			43387.38302		70.74000		324.00000 
 43692.65567		 951.14271			42741.51297		221.82600		875.00000 
 43692.65567		 305.27265			43387.38302		70.74000		324.00000 
 43692.65567		 951.14271			42741.51297		221.82600		875.00000 
 43692.65567		 305.27265			43387.38302		70.74000		324.00000 
 43692.65567		 951.14271			42741.51297		221.82600		875.00000 
 43692.65567		 305.27265			43387.38302		70.74000		324.00000 
 43692.65567		 951.14271			42741.51297		221.82600		875.00000 
 43692.65567		 305.27265			43387.38302		70.74000		324.00000 
 43692.65567		 951.14271			42741.51297		221.82600		875.00000 
 43692.65567		 305.27265			43387.38302		70.74000		324.00000 
 43692.65567		 951.14271			42741.51297		221.82600		875.00000 
 43692.65567		 305.27265			43387.38302		70.74000		324.00000 
 43692.65567		 951.14271			42741.51297		221.82600		875.00000 
 43692.65567		 305.27265			43387.38302		70.74000		324.00000 
 43692.65567		 951.14271			42741.51297		221.82600		875.00000 
 43692.65567		 305.27265			43387.38302		70.74000		324.00000 
 43692.65567		 951.14271			42741.51297		221.82600		875.00000 
 43692.65567		 305.27265			43387.38302		70.74000		324.00000 
 43692.65567		 951.14271			42741.51297		221.82600		875.00000 
 43692.65567		 305.27265			43387.38302		70.74000		324.00000 
 43692.65567		 951.14271			42741.51297		221.82600		875.00000 
 43692.65567		 305.27265			43387.38302		70.74000		324.00000 
 43692.65567		 951.14271			42741.51297		221.82600		875.00000 
 43692.65567		 305.27265			43387.38302		70.74000		324.00000 
 43692.65567		 951.14271			42741.51297		221.82600		875.00000 
 43692.65567		 305.27265			43387.38302		70.74000		324.00000 
 43692.65567		 951.14271			42741.51297		221.82600		875.00000 
 43692.65567		 305.27265			43387.38302		70.74000		324.00000 
 43692.65567		 951.14271			42741.51297		221.82600		875.00000 
 43692.65567		 305.27265			43387.38302		70.74000		324.00000 
 43692.65567		 951.14271			42741.51297		221.82600		875.00000 
 43692.65567		 305.27265			43387.38302		70.74000		324.00000 
 43692.65567		 951.14271			42741.51297		221.82600		875.00000 
 43692.65567		 305.27265			43387.38302		70.74000		324.00000 
 43692.65567		 951.14271			42741.51297		221.82600		875.00000 
 43692.65567		 305.27265			43387.38302		70.74000		324.00000 
 43692.65567		 951.14271			42741.51297		221.82600		875.00000 
 43692.65567		 305.27265			43387.38302		70.74000		324.00000 
 43692.65567		 951.14271			42741.51297		221.82600		875.00000 
 43692.65567		 305.27265			43387.38302		70.74000		324.00000 
 43692.65567		 951.14271			42741.51297		221.82600		875.00000 
 43692.65567		 305.27265			43387.38302		70.74000		324.00000 
 43692.65567		 951.14271			42741.51297		221.82600		875.00000 
 43692.65567		 305.27265			43387.38302		70.74000		324.00000 
 43692.65567		 951.14271			42741.51297		221.82600		875.00000 
 43692.65567		 305.27265			43387.38302		70.74000		324.00000 
 43692.65567		 951.14271			42741.51297		221.82600		875.00000 
 43692.65567		 305.27265			43387.38302		70.74000		324.00000 
 43692.65567		 951.14271			42741.51297		221.82600		875.00000 
 43692.65567		 305.27265			43387.38302		70.74000		324.00000 
 43692.65567		 951.14271			42741.51297		221.82600		875.00000 
 43692.65567		 305.27265			43387.38302		70.74000		324.00000 
 43692.65567		 951.14271			42741.51297		221.82600		875.00000 
 43692.65567		 305.27265			43387.38302		70.74000		324.00000 
 43692.65567		 951.14271			42741.51297		221.82600		875.00000 
 43692.65567		 305.27265			43387.38302		70.74000		324.00000 
 43692.65567		 951.14271			42741.51297		221.82600		875.00000 
 43692.65567		 305.27265			43387.38302		70.74000		324.00000 
 43692.65567		 951.14271			42741.51297		221.82600		875.00000 
 43692.65567		 305.27265			43387.38302		70.74000		324.00000 
 43692.65567		 951.14271			42741.51297		221.82600		875.00000 
 43692.65567		 305.27265			43387.38302		70.74000		324.00000 
 43692.65567		 951.14271			42741.51297		221.82600		875.00000 
 43692.65567		 305.27265			43387.38302		70.74000		324.00000 
 43692.65567		 951.14271			42741.51297		221.82600		875.00000 
 43692.65567		 305.27265			43387.38302		70.74000		324.00000 
 43692.65567		 951.14271			42741.51297		221.82600		875.00000 
 43692.65567		 305.27265			43387.38302		70.74000		324.00000 
 43692.65567		 951.14271			42741.51297		221.82600		875.00000 
 43692.65567		 305.27265			43387.38302		70.74000		324.00000 
 43692.65567		 951.14271			42741.51297		221.82600		875.00000 
 43692.65567		 305.27265			43387.38302		70.74000		324.00000 
 43692.65567		 951.14271			42741.51297		221.82600		875.00000 
 43692.65567		 305.27265			43387.38302		70.74000		324.00000 
 43692.65567		 951.14271			42741.51297		221.82600		875.00000 
 43692.65567		 305.27265			43387.38302		70.74000		324.00000 
 43692.65567		 951.14271			42741.51297		221.82600		875.00000 
 43692.65567		 305.27265			43387.38302		70.74000		324.00000 
 43692.65567		 951.14271			42741.51297		221.82600		875.00000 
 43692.65567		 305.27265			43387.38302		70.74000		324.00000 
 43692.65567		 813.18525			42879.47043		221.82600		875.00000 
 43692.65567		 305.27265			43387.38302		70.74000		324.00000 
 43692.65567		 813.18525			42879.47043		221.82600		875.00000 
 43692.65567		 305.27265			43387.38302		70.74000		324.00000 
 43692.65567		 675.22778			43017.42789		221.82600		875.00000 
 43692.65567		 305.27265			43387.38302		70.74000		324.00000 
 43692.65567		 675.22778			43017.42789		221.82600		875.00000 
 43692.65567		 305.27265			43387.38302		70.74000		324.00000 
 43692.65567		 537.27032			43155.38535		221.82600		875.00000 
 43692.65567		 305.27265			43387.38302		70.74000		324.00000 
 43692.65567		 537.27032			43155.38535		221.82600		875.00000 
 43692.65567		 305.27265			43387.38302		70.74000		324.00000 
 43692.65567		 537.27032			43155.38535		221.82600		875.00000 
 43692.65567		 305.27265			43387.38302		70.74000		324.00000 
 43692.65567		 537.27032			43155.38535		221.82600		875.00000 
 43692.65567		 305.27265			43387.38302		70.74000		324.00000 
 43692.65567		 537.27032			43155.38535		221.82600		875.00000 
 43692.65567		 305.27265			43387.38302		70.74000		324.00000 
 43692.65567		 537.27032			43155.38535		221.82600		875.00000 
 43692.65567		 305.27265			43387.38302		70.74000		324.00000 
 43692.65567		 537.27032			43155.38535		221.82600		875.00000 
 43692.65567		 305.27265			43387.38302		70.74000		324.00000 
 43692.65567		 537.27032			43155.38535		221.82600		875.00000 
 43692.65567		 305.27265			43387.38302		70.74000		324.00000 
 43692.65567		 537.27032			43155.38535		221.82600		875.00000 
 43692.65567		 305.27265			43387.38302		70.74000		324.00000 
 43692.65567		 537.27032			43155.38535		221.82600		875.00000 
 43692.65567		 305.27265			43387.38302		70.74000		324.00000 
 43692.65567		 537.27032			43155.38535		221.82600		875.00000 
 43692.65567		 305.27265			43387.38302		70.74000		324.00000 
 43692.65567		 537.27032			43155.38535		221.82600		875.00000 
 43692.65567		 305.27265			43387.38302		70.74000		324.00000 
 43692.65567		 537.27032			43155.38535		221.82600		875.00000 
 43692.65567		 305.27265			43387.38302		70.74000		324.00000 
 43692.65567		 537.27032			43155.38535		221.82600		875.00000 
 43692.65567		 305.27265			43387.38302		70.74000		324.00000 
 43692.65567		 537.27032			43155.38535		221.82600		875.00000 
 43692.65567		 305.27265			43387.38302		70.74000		324.00000 
 43692.65567		 537.27032			43155.38535		221.82600		875.00000 
 43692.65567		 305.27265			43387.38302		70.74000		324.00000 
 43692.65567		 537.27032			43155.38535		221.82600		875.00000 
 43692.65567		 305.27265			43387.38302		70.74000		324.00000 
 43692.65567		 537.27032			43155.38535		221.82600		875.00000 
 43692.65567		 305.27265			43387.38302		70.74000		324.00000 
 43692.65567		 537.27032			43155.38535		221.82600		875.00000 
 43692.65567		 305.27265			43387.38302		70.74000		324.00000 
 43692.65567		 537.27032			43155.38535		221.82600		875.00000 
 43692.65567		 305.27265			43387.38302		70.74000		324.00000 
 43692.65567		 525.81365			43166.84203		221.82600		875.00000 
 43692.65567		 305.27265			43387.38302		70.74000		324.00000 
 43692.65567		 525.81365			43166.84203		221.82600		875.00000 
 43692.65567		 261.35540			43431.30027		70.74000		324.00000 
 43692.65567		 261.35540			43431.30027		221.82600		875.00000 
 43692.65567		 261.35540			43431.30027		70.74000		324.00000 
