Memory Total (MiB) 	 Memory Used (MiB) 	    Memory Free (MiB) 	 Power Drawed (W) 	 Clocks (Mhz) 	 
 43692.65567		 261.35540			43431.30027		167.34800		875.00000 
 43692.65567		 261.35540			43431.30027		69.19000		324.00000 
 43692.65567		 261.35540			43431.30027		167.34800		875.00000 
 43692.65567		 261.35540			43431.30027		69.19000		324.00000 
 43692.65567		 261.35540			43431.30027		167.34800		875.00000 
 43692.65567		 261.35540			43431.30027		69.19000		324.00000 
 43692.65567		 261.35540			43431.30027		167.34800		875.00000 
 43692.65567		 261.35540			43431.30027		69.19000		324.00000 
 43692.65567		 261.35540			43431.30027		167.34800		875.00000 
 43692.65567		 261.35540			43431.30027		69.19000		324.00000 
 43692.65567		 261.35540			43431.30027		167.34800		875.00000 
 43692.65567		 261.35540			43431.30027		69.19000		324.00000 
 43692.65567		 261.35540			43431.30027		167.34800		875.00000 
 43692.65567		 261.35540			43431.30027		69.19000		324.00000 
 43692.65567		 261.35540			43431.30027		167.34800		875.00000 
 43692.65567		 261.35540			43431.30027		69.19000		324.00000 
 43692.65567		 261.35540			43431.30027		167.34800		875.00000 
 43692.65567		 261.35540			43431.30027		69.19000		324.00000 
 43692.65567		 261.35540			43431.30027		167.34800		875.00000 
 43692.65567		 261.35540			43431.30027		69.19000		324.00000 
 43692.65567		 261.35540			43431.30027		167.34800		875.00000 
 43692.65567		 261.35540			43431.30027		69.19000		324.00000 
 43692.65567		 261.35540			43431.30027		167.34800		875.00000 
 43692.65567		 261.35540			43431.30027		69.19000		324.00000 
 43692.65567		 261.35540			43431.30027		167.34800		875.00000 
 43692.65567		 261.35540			43431.30027		69.19000		324.00000 
 43692.65567		 261.35540			43431.30027		167.34800		875.00000 
 43692.65567		 261.35540			43431.30027		69.19000		324.00000 
 43692.65567		 261.35540			43431.30027		167.34800		875.00000 
 43692.65567		 261.35540			43431.30027		69.19000		324.00000 
 43692.65567		 261.35540			43431.30027		167.34800		875.00000 
 43692.65567		 261.35540			43431.30027		69.19000		324.00000 
 43692.65567		 261.35540			43431.30027		167.34800		875.00000 
 43692.65567		 261.35540			43431.30027		69.19000		324.00000 
 43692.65567		 261.35540			43431.30027		167.34800		875.00000 
 43692.65567		 261.35540			43431.30027		69.19000		324.00000 
 43692.65567		 261.35540			43431.30027		167.34800		875.00000 
 43692.65567		 261.35540			43431.30027		69.19000		324.00000 
 43692.65567		 265.17429			43427.48138		167.34800		875.00000 
 43692.65567		 261.35540			43431.30027		69.19000		324.00000 
 43692.65567		 272.81207			43419.84360		167.34800		875.00000 
 43692.65567		 261.35540			43431.30027		69.19000		324.00000 
 43692.65567		 272.81207			43419.84360		167.34800		875.00000 
 43692.65567		 261.35540			43431.30027		69.19000		324.00000 
 43692.65567		 272.81207			43419.84360		167.34800		875.00000 
 43692.65567		 265.17429			43427.48138		69.19000		324.00000 
 43692.65567		 272.81207			43419.84360		167.34800		875.00000 
 43692.65567		 265.17429			43427.48138		69.19000		324.00000 
 43692.65567		 272.81207			43419.84360		167.34800		875.00000 
 43692.65567		 265.17429			43427.48138		69.19000		324.00000 
 43692.65567		 272.81207			43419.84360		145.70600		875.00000 
 43692.65567		 272.81207			43419.84360		69.19000		324.00000 
 43692.65567		 272.81207			43419.84360		145.70600		875.00000 
 43692.65567		 272.81207			43419.84360		69.19000		324.00000 
 43692.65567		 272.81207			43419.84360		145.70600		875.00000 
 43692.65567		 272.81207			43419.84360		69.19000		324.00000 
 43692.65567		 305.27265			43387.38302		145.70600		875.00000 
 43692.65567		 305.27265			43387.38302		69.19000		324.00000 
 43692.65567		 305.27265			43387.38302		145.70600		875.00000 
 43692.65567		 305.27265			43387.38302		69.19000		324.00000 
 43692.65567		 305.27265			43387.38302		145.70600		875.00000 
 43692.65567		 305.27265			43387.38302		69.19000		324.00000 
 43692.65567		 305.27265			43387.38302		145.70600		875.00000 
 43692.65567		 305.27265			43387.38302		69.19000		324.00000 
 43692.65567		 305.27265			43387.38302		145.70600		875.00000 
 43692.65567		 305.27265			43387.38302		69.19000		324.00000 
 43692.65567		 309.09154			43383.56413		145.70600		875.00000 
 43692.65567		 305.27265			43387.38302		69.19000		324.00000 
 43692.65567		 310.52363			43382.13204		145.70600		875.00000 
 43692.65567		 305.27265			43387.38302		69.19000		324.00000 
 43692.65567		 311.00099			43381.65468		145.70600		875.00000 
 43692.65567		 305.27265			43387.38302		69.19000		324.00000 
 43692.65567		 311.00099			43381.65468		145.70600		875.00000 
 43692.65567		 305.27265			43387.38302		69.19000		324.00000 
 43692.65567		 311.00099			43381.65468		145.70600		875.00000 
 43692.65567		 305.27265			43387.38302		69.19000		324.00000 
 43692.65567		 311.00099			43381.65468		145.70600		875.00000 
 43692.65567		 305.27265			43387.38302		69.19000		324.00000 
 43692.65567		 311.00099			43381.65468		145.70600		875.00000 
 43692.65567		 305.27265			43387.38302		69.19000		324.00000 
 43692.65567		 311.00099			43381.65468		145.70600		875.00000 
 43692.65567		 305.27265			43387.38302		69.19000		324.00000 
 43692.65567		 311.00099			43381.65468		145.70600		875.00000 
 43692.65567		 305.27265			43387.38302		69.19000		324.00000 
 43692.65567		 311.00099			43381.65468		145.70600		875.00000 
 43692.65567		 305.27265			43387.38302		69.19000		324.00000 
 43692.65567		 311.00099			43381.65468		145.70600		875.00000 
 43692.65567		 305.27265			43387.38302		69.19000		324.00000 
 43692.65567		 311.00099			43381.65468		145.70600		875.00000 
 43692.65567		 305.27265			43387.38302		69.19000		324.00000 
 43692.65567		 311.00099			43381.65468		145.70600		875.00000 
 43692.65567		 305.27265			43387.38302		69.19000		324.00000 
 43692.65567		 311.00099			43381.65468		145.70600		875.00000 
 43692.65567		 305.27265			43387.38302		69.19000		324.00000 
 43692.65567		 311.00099			43381.65468		145.70600		875.00000 
 43692.65567		 305.27265			43387.38302		69.19000		324.00000 
 43692.65567		 311.00099			43381.65468		145.70600		875.00000 
 43692.65567		 305.27265			43387.38302		69.19000		324.00000 
 43692.65567		 311.00099			43381.65468		145.70600		875.00000 
 43692.65567		 305.27265			43387.38302		69.19000		324.00000 
 43692.65567		 311.00099			43381.65468		145.70600		875.00000 
 43692.65567		 305.27265			43387.38302		69.19000		324.00000 
 43692.65567		 311.00099			43381.65468		145.70600		875.00000 
 43692.65567		 305.27265			43387.38302		69.19000		324.00000 
 43692.65567		 311.00099			43381.65468		145.70600		875.00000 
 43692.65567		 305.27265			43387.38302		69.19000		324.00000 
 43692.65567		 311.00099			43381.65468		145.70600		875.00000 
 43692.65567		 305.27265			43387.38302		69.19000		324.00000 
 43692.65567		 311.00099			43381.65468		145.70600		875.00000 
 43692.65567		 305.27265			43387.38302		69.19000		324.00000 
 43692.65567		 311.00099			43381.65468		145.70600		875.00000 
 43692.65567		 305.27265			43387.38302		69.19000		324.00000 
 43692.65567		 311.00099			43381.65468		145.70600		875.00000 
 43692.65567		 305.27265			43387.38302		69.19000		324.00000 
 43692.65567		 311.00099			43381.65468		145.70600		875.00000 
 43692.65567		 305.27265			43387.38302		69.19000		324.00000 
 43692.65567		 311.00099			43381.65468		145.70600		875.00000 
 43692.65567		 305.27265			43387.38302		69.19000		324.00000 
 43692.65567		 311.00099			43381.65468		145.70600		875.00000 
 43692.65567		 305.27265			43387.38302		69.19000		324.00000 
 43692.65567		 311.00099			43381.65468		136.53400		875.00000 
 43692.65567		 305.27265			43387.38302		69.19000		324.00000 
 43692.65567		 311.00099			43381.65468		136.53400		875.00000 
 43692.65567		 305.27265			43387.38302		69.19000		324.00000 
 43692.65567		 311.00099			43381.65468		136.53400		875.00000 
 43692.65567		 305.27265			43387.38302		69.19000		324.00000 
 43692.65567		 311.00099			43381.65468		136.53400		875.00000 
 43692.65567		 305.27265			43387.38302		69.19000		324.00000 
 43692.65567		 311.00099			43381.65468		136.53400		875.00000 
 43692.65567		 305.27265			43387.38302		69.19000		324.00000 
 43692.65567		 311.00099			43381.65468		136.53400		875.00000 
 43692.65567		 305.27265			43387.38302		69.19000		324.00000 
 43692.65567		 311.00099			43381.65468		136.53400		875.00000 
 43692.65567		 305.27265			43387.38302		69.19000		324.00000 
 43692.65567		 311.00099			43381.65468		136.53400		875.00000 
 43692.65567		 305.27265			43387.38302		69.19000		324.00000 
 43692.65567		 311.00099			43381.65468		136.53400		875.00000 
 43692.65567		 305.27265			43387.38302		69.19000		324.00000 
 43692.65567		 311.00099			43381.65468		136.53400		875.00000 
 43692.65567		 305.27265			43387.38302		69.19000		324.00000 
 43692.65567		 311.00099			43381.65468		136.53400		875.00000 
 43692.65567		 305.27265			43387.38302		69.19000		324.00000 
 43692.65567		 311.00099			43381.65468		136.53400		875.00000 
 43692.65567		 305.27265			43387.38302		69.19000		324.00000 
 43692.65567		 311.00099			43381.65468		136.53400		875.00000 
 43692.65567		 305.27265			43387.38302		69.19000		324.00000 
 43692.65567		 311.00099			43381.65468		136.53400		875.00000 
 43692.65567		 305.27265			43387.38302		69.19000		324.00000 
 43692.65567		 311.00099			43381.65468		136.53400		875.00000 
 43692.65567		 305.27265			43387.38302		69.19000		324.00000 
 43692.65567		 311.00099			43381.65468		136.53400		875.00000 
 43692.65567		 305.27265			43387.38302		69.19000		324.00000 
 43692.65567		 311.00099			43381.65468		136.53400		875.00000 
 43692.65567		 305.27265			43387.38302		69.19000		324.00000 
 43692.65567		 311.00099			43381.65468		136.53400		875.00000 
 43692.65567		 305.27265			43387.38302		69.19000		324.00000 
 43692.65567		 311.00099			43381.65468		136.53400		875.00000 
 43692.65567		 305.27265			43387.38302		69.19000		324.00000 
 43692.65567		 311.00099			43381.65468		136.53400		875.00000 
 43692.65567		 305.27265			43387.38302		69.19000		324.00000 
 43692.65567		 311.00099			43381.65468		136.53400		875.00000 
 43692.65567		 305.27265			43387.38302		69.19000		324.00000 
 43692.65567		 311.00099			43381.65468		136.53400		875.00000 
 43692.65567		 305.27265			43387.38302		69.19000		324.00000 
 43692.65567		 311.00099			43381.65468		136.53400		875.00000 
 43692.65567		 305.27265			43387.38302		69.19000		324.00000 
 43692.65567		 311.00099			43381.65468		136.53400		875.00000 
 43692.65567		 305.27265			43387.38302		69.19000		324.00000 
 43692.65567		 311.00099			43381.65468		136.53400		875.00000 
 43692.65567		 305.27265			43387.38302		69.19000		324.00000 
 43692.65567		 314.81988			43377.83579		136.53400		875.00000 
 43692.65567		 305.27265			43387.38302		69.19000		324.00000 
 43692.65567		 314.81988			43377.83579		136.53400		875.00000 
 43692.65567		 305.27265			43387.38302		69.19000		324.00000 
 43692.65567		 314.81988			43377.83579		136.53400		875.00000 
 43692.65567		 305.27265			43387.38302		69.19000		324.00000 
 43692.65567		 318.63877			43374.01690		136.53400		875.00000 
 43692.65567		 305.27265			43387.38302		69.19000		324.00000 
 43692.65567		 322.45767			43370.19801		136.53400		875.00000 
 43692.65567		 305.27265			43387.38302		69.19000		324.00000 
 43692.65567		 326.27656			43366.37912		136.53400		875.00000 
 43692.65567		 305.27265			43387.38302		69.19000		324.00000 
 43692.65567		 326.27656			43366.37912		136.53400		875.00000 
 43692.65567		 305.27265			43387.38302		69.19000		324.00000 
 43692.65567		 537.27032			43155.38535		133.48400		875.00000 
 43692.65567		 305.27265			43387.38302		69.19000		324.00000 
 43692.65567		 655.65596			43036.99971		133.48400		875.00000 
 43692.65567		 305.27265			43387.38302		69.19000		324.00000 
 43692.65567		 892.42725			42800.22842		133.48400		875.00000 
 43692.65567		 305.27265			43387.38302		69.19000		324.00000 
 43692.65567		 892.42725			42800.22842		133.48400		875.00000 
 43692.65567		 305.27265			43387.38302		69.19000		324.00000 
 43692.65567		 892.42725			42800.22842		133.48400		875.00000 
 43692.65567		 305.27265			43387.38302		69.19000		324.00000 
 43692.65567		 892.42725			42800.22842		133.48400		875.00000 
 43692.65567		 305.27265			43387.38302		69.19000		324.00000 
 43692.65567		 892.42725			42800.22842		133.48400		875.00000 
 43692.65567		 305.27265			43387.38302		69.19000		324.00000 
 43692.65567		 892.42725			42800.22842		133.48400		875.00000 
 43692.65567		 305.27265			43387.38302		69.19000		324.00000 
 43692.65567		 892.42725			42800.22842		133.48400		875.00000 
 43692.65567		 305.27265			43387.38302		69.19000		324.00000 
 43692.65567		 892.42725			42800.22842		133.48400		875.00000 
 43692.65567		 305.27265			43387.38302		69.19000		324.00000 
 43692.65567		 892.42725			42800.22842		133.48400		875.00000 
 43692.65567		 305.27265			43387.38302		69.19000		324.00000 
 43692.65567		 892.42725			42800.22842		133.48400		875.00000 
 43692.65567		 305.27265			43387.38302		69.19000		324.00000 
 43692.65567		 892.42725			42800.22842		133.48400		875.00000 
 43692.65567		 305.27265			43387.38302		69.19000		324.00000 
 43692.65567		 892.42725			42800.22842		133.48400		875.00000 
 43692.65567		 305.27265			43387.38302		69.19000		324.00000 
 43692.65567		 892.42725			42800.22842		133.48400		875.00000 
 43692.65567		 305.27265			43387.38302		69.19000		324.00000 
 43692.65567		 892.42725			42800.22842		133.48400		875.00000 
 43692.65567		 305.27265			43387.38302		69.19000		324.00000 
 43692.65567		 892.42725			42800.22842		133.48400		875.00000 
 43692.65567		 305.27265			43387.38302		69.19000		324.00000 
 43692.65567		 892.42725			42800.22842		133.48400		875.00000 
 43692.65567		 305.27265			43387.38302		69.19000		324.00000 
 43692.65567		 892.42725			42800.22842		133.48400		875.00000 
 43692.65567		 305.27265			43387.38302		69.19000		324.00000 
 43692.65567		 892.42725			42800.22842		133.48400		875.00000 
 43692.65567		 305.27265			43387.38302		69.19000		324.00000 
 43692.65567		 892.42725			42800.22842		133.48400		875.00000 
 43692.65567		 305.27265			43387.38302		69.19000		324.00000 
 43692.65567		 892.42725			42800.22842		133.48400		875.00000 
 43692.65567		 305.27265			43387.38302		69.19000		324.00000 
 43692.65567		 892.42725			42800.22842		133.48400		875.00000 
 43692.65567		 305.27265			43387.38302		69.19000		324.00000 
 43692.65567		 892.42725			42800.22842		133.48400		875.00000 
 43692.65567		 305.27265			43387.38302		69.19000		324.00000 
 43692.65567		 892.42725			42800.22842		133.48400		875.00000 
 43692.65567		 305.27265			43387.38302		69.19000		324.00000 
 43692.65567		 892.42725			42800.22842		133.48400		875.00000 
 43692.65567		 305.27265			43387.38302		69.19000		324.00000 
 43692.65567		 892.42725			42800.22842		133.48400		875.00000 
 43692.65567		 305.27265			43387.38302		69.19000		324.00000 
 43692.65567		 892.42725			42800.22842		133.48400		875.00000 
 43692.65567		 305.27265			43387.38302		69.19000		324.00000 
 43692.65567		 892.42725			42800.22842		133.48400		875.00000 
 43692.65567		 305.27265			43387.38302		69.19000		324.00000 
 43692.65567		 892.42725			42800.22842		133.48400		875.00000 
 43692.65567		 305.27265			43387.38302		69.19000		324.00000 
 43692.65567		 892.42725			42800.22842		133.48400		875.00000 
 43692.65567		 305.27265			43387.38302		69.19000		324.00000 
 43692.65567		 892.42725			42800.22842		133.48400		875.00000 
 43692.65567		 305.27265			43387.38302		69.19000		324.00000 
 43692.65567		 892.42725			42800.22842		133.48400		875.00000 
 43692.65567		 305.27265			43387.38302		69.19000		324.00000 
 43692.65567		 892.42725			42800.22842		133.48400		875.00000 
 43692.65567		 305.27265			43387.38302		69.19000		324.00000 
 43692.65567		 892.42725			42800.22842		133.48400		875.00000 
 43692.65567		 305.27265			43387.38302		69.19000		324.00000 
 43692.65567		 892.42725			42800.22842		133.48400		875.00000 
 43692.65567		 305.27265			43387.38302		69.19000		324.00000 
 43692.65567		 892.42725			42800.22842		133.48400		875.00000 
 43692.65567		 305.27265			43387.38302		69.19000		324.00000 
 43692.65567		 892.42725			42800.22842		133.48400		875.00000 
 43692.65567		 305.27265			43387.38302		69.19000		324.00000 
 43692.65567		 892.42725			42800.22842		133.48400		875.00000 
 43692.65567		 305.27265			43387.38302		69.19000		324.00000 
 43692.65567		 892.42725			42800.22842		133.48400		875.00000 
 43692.65567		 305.27265			43387.38302		69.19000		324.00000 
 43692.65567		 892.42725			42800.22842		133.48400		875.00000 
 43692.65567		 305.27265			43387.38302		69.19000		324.00000 
 43692.65567		 892.42725			42800.22842		133.48400		875.00000 
 43692.65567		 305.27265			43387.38302		69.19000		324.00000 
 43692.65567		 892.42725			42800.22842		133.48400		875.00000 
 43692.65567		 305.27265			43387.38302		69.19000		324.00000 
 43692.65567		 892.42725			42800.22842		133.48400		875.00000 
 43692.65567		 305.27265			43387.38302		69.19000		324.00000 
 43692.65567		 892.42725			42800.22842		133.48400		875.00000 
 43692.65567		 305.27265			43387.38302		69.19000		324.00000 
 43692.65567		 892.42725			42800.22842		133.48400		875.00000 
 43692.65567		 305.27265			43387.38302		69.19000		324.00000 
 43692.65567		 892.42725			42800.22842		133.48400		875.00000 
 43692.65567		 305.27265			43387.38302		69.19000		324.00000 
 43692.65567		 892.42725			42800.22842		133.48400		875.00000 
 43692.65567		 305.27265			43387.38302		69.19000		324.00000 
 43692.65567		 892.42725			42800.22842		133.48400		875.00000 
 43692.65567		 305.27265			43387.38302		69.19000		324.00000 
 43692.65567		 892.42725			42800.22842		133.48400		875.00000 
 43692.65567		 305.27265			43387.38302		69.19000		324.00000 
 43692.65567		 892.42725			42800.22842		133.48400		875.00000 
 43692.65567		 305.27265			43387.38302		69.19000		324.00000 
 43692.65567		 892.42725			42800.22842		133.48400		875.00000 
 43692.65567		 305.27265			43387.38302		69.19000		324.00000 
 43692.65567		 892.42725			42800.22842		133.48400		875.00000 
 43692.65567		 305.27265			43387.38302		69.19000		324.00000 
 43692.65567		 892.42725			42800.22842		133.48400		875.00000 
 43692.65567		 305.27265			43387.38302		69.19000		324.00000 
 43692.65567		 892.42725			42800.22842		133.48400		875.00000 
 43692.65567		 305.27265			43387.38302		69.19000		324.00000 
 43692.65567		 892.42725			42800.22842		133.48400		875.00000 
 43692.65567		 305.27265			43387.38302		69.19000		324.00000 
 43692.65567		 892.42725			42800.22842		133.48400		875.00000 
 43692.65567		 305.27265			43387.38302		69.19000		324.00000 
 43692.65567		 892.42725			42800.22842		133.48400		875.00000 
 43692.65567		 305.27265			43387.38302		69.19000		324.00000 
 43692.65567		 892.42725			42800.22842		133.48400		875.00000 
 43692.65567		 305.27265			43387.38302		69.19000		324.00000 
 43692.65567		 892.42725			42800.22842		133.48400		875.00000 
 43692.65567		 305.27265			43387.38302		69.19000		324.00000 
 43692.65567		 892.42725			42800.22842		133.48400		875.00000 
 43692.65567		 305.27265			43387.38302		69.19000		324.00000 
 43692.65567		 892.42725			42800.22842		133.48400		875.00000 
 43692.65567		 305.27265			43387.38302		69.19000		324.00000 
 43692.65567		 892.42725			42800.22842		133.48400		875.00000 
 43692.65567		 305.27265			43387.38302		69.19000		324.00000 
 43692.65567		 892.42725			42800.22842		191.89200		875.00000 
 43692.65567		 305.27265			43387.38302		69.19000		324.00000 
 43692.65567		 892.42725			42800.22842		191.89200		875.00000 
 43692.65567		 305.27265			43387.38302		69.19000		324.00000 
 43692.65567		 892.42725			42800.22842		191.89200		875.00000 
 43692.65567		 305.27265			43387.38302		69.19000		324.00000 
 43692.65567		 892.42725			42800.22842		191.89200		875.00000 
 43692.65567		 305.27265			43387.38302		69.19000		324.00000 
 43692.65567		 892.42725			42800.22842		191.89200		875.00000 
 43692.65567		 305.27265			43387.38302		69.19000		324.00000 
 43692.65567		 892.42725			42800.22842		191.89200		875.00000 
 43692.65567		 305.27265			43387.38302		69.19000		324.00000 
 43692.65567		 892.42725			42800.22842		191.89200		875.00000 
 43692.65567		 305.27265			43387.38302		69.19000		324.00000 
 43692.65567		 892.42725			42800.22842		191.89200		875.00000 
 43692.65567		 305.27265			43387.38302		69.19000		324.00000 
 43692.65567		 892.42725			42800.22842		191.89200		875.00000 
 43692.65567		 305.27265			43387.38302		69.19000		324.00000 
 43692.65567		 892.42725			42800.22842		191.89200		875.00000 
 43692.65567		 305.27265			43387.38302		69.19000		324.00000 
 43692.65567		 892.42725			42800.22842		191.89200		875.00000 
 43692.65567		 305.27265			43387.38302		69.19000		324.00000 
 43692.65567		 892.42725			42800.22842		191.89200		875.00000 
 43692.65567		 305.27265			43387.38302		69.19000		324.00000 
 43692.65567		 892.42725			42800.22842		191.89200		875.00000 
 43692.65567		 305.27265			43387.38302		69.19000		324.00000 
 43692.65567		 892.42725			42800.22842		191.89200		875.00000 
 43692.65567		 305.27265			43387.38302		69.19000		324.00000 
 43692.65567		 892.42725			42800.22842		191.89200		875.00000 
 43692.65567		 305.27265			43387.38302		69.19000		324.00000 
 43692.65567		 892.42725			42800.22842		191.89200		875.00000 
 43692.65567		 305.27265			43387.38302		69.19000		324.00000 
 43692.65567		 892.42725			42800.22842		191.89200		875.00000 
 43692.65567		 305.27265			43387.38302		69.19000		324.00000 
 43692.65567		 892.42725			42800.22842		191.89200		875.00000 
 43692.65567		 305.27265			43387.38302		69.19000		324.00000 
 43692.65567		 892.42725			42800.22842		191.89200		875.00000 
 43692.65567		 305.27265			43387.38302		69.19000		324.00000 
 43692.65567		 892.42725			42800.22842		191.89200		875.00000 
 43692.65567		 305.27265			43387.38302		69.19000		324.00000 
 43692.65567		 892.42725			42800.22842		191.89200		875.00000 
 43692.65567		 305.27265			43387.38302		69.19000		324.00000 
 43692.65567		 892.42725			42800.22842		191.89200		875.00000 
 43692.65567		 305.27265			43387.38302		69.19000		324.00000 
 43692.65567		 892.42725			42800.22842		191.89200		875.00000 
 43692.65567		 305.27265			43387.38302		69.19000		324.00000 
 43692.65567		 892.42725			42800.22842		191.89200		875.00000 
 43692.65567		 305.27265			43387.38302		69.19000		324.00000 
 43692.65567		 892.42725			42800.22842		191.89200		875.00000 
 43692.65567		 305.27265			43387.38302		69.19000		324.00000 
 43692.65567		 892.42725			42800.22842		191.89200		875.00000 
 43692.65567		 305.27265			43387.38302		69.19000		324.00000 
 43692.65567		 892.42725			42800.22842		191.89200		875.00000 
 43692.65567		 305.27265			43387.38302		69.19000		324.00000 
 43692.65567		 892.42725			42800.22842		191.89200		875.00000 
 43692.65567		 305.27265			43387.38302		69.19000		324.00000 
 43692.65567		 892.42725			42800.22842		191.89200		875.00000 
 43692.65567		 305.27265			43387.38302		69.19000		324.00000 
 43692.65567		 892.42725			42800.22842		191.89200		875.00000 
 43692.65567		 305.27265			43387.38302		69.19000		324.00000 
 43692.65567		 892.42725			42800.22842		191.89200		875.00000 
 43692.65567		 305.27265			43387.38302		69.19000		324.00000 
 43692.65567		 892.42725			42800.22842		191.89200		875.00000 
 43692.65567		 305.27265			43387.38302		69.19000		324.00000 
 43692.65567		 892.42725			42800.22842		191.89200		875.00000 
 43692.65567		 305.27265			43387.38302		69.19000		324.00000 
 43692.65567		 892.42725			42800.22842		191.89200		875.00000 
 43692.65567		 305.27265			43387.38302		69.19000		324.00000 
 43692.65567		 892.42725			42800.22842		191.89200		875.00000 
 43692.65567		 305.27265			43387.38302		69.19000		324.00000 
 43692.65567		 892.42725			42800.22842		191.89200		875.00000 
 43692.65567		 305.27265			43387.38302		69.19000		324.00000 
 43692.65567		 892.42725			42800.22842		191.89200		875.00000 
 43692.65567		 305.27265			43387.38302		69.19000		324.00000 
 43692.65567		 892.42725			42800.22842		191.89200		875.00000 
 43692.65567		 305.27265			43387.38302		69.19000		324.00000 
 43692.65567		 892.42725			42800.22842		191.89200		875.00000 
 43692.65567		 305.27265			43387.38302		69.19000		324.00000 
 43692.65567		 892.42725			42800.22842		191.89200		875.00000 
 43692.65567		 305.27265			43387.38302		69.19000		324.00000 
 43692.65567		 892.42725			42800.22842		191.89200		875.00000 
 43692.65567		 305.27265			43387.38302		69.19000		324.00000 
 43692.65567		 892.42725			42800.22842		191.89200		875.00000 
 43692.65567		 305.27265			43387.38302		69.19000		324.00000 
 43692.65567		 892.42725			42800.22842		191.89200		875.00000 
 43692.65567		 305.27265			43387.38302		69.19000		324.00000 
 43692.65567		 892.42725			42800.22842		191.89200		875.00000 
 43692.65567		 305.27265			43387.38302		69.19000		324.00000 
 43692.65567		 892.42725			42800.22842		191.89200		875.00000 
 43692.65567		 305.27265			43387.38302		69.19000		324.00000 
 43692.65567		 892.42725			42800.22842		191.89200		875.00000 
 43692.65567		 305.27265			43387.38302		69.19000		324.00000 
 43692.65567		 892.42725			42800.22842		191.89200		875.00000 
 43692.65567		 305.27265			43387.38302		69.19000		324.00000 
 43692.65567		 892.42725			42800.22842		191.89200		875.00000 
 43692.65567		 305.27265			43387.38302		69.19000		324.00000 
 43692.65567		 892.42725			42800.22842		191.89200		875.00000 
 43692.65567		 305.27265			43387.38302		69.19000		324.00000 
 43692.65567		 892.42725			42800.22842		191.89200		875.00000 
 43692.65567		 305.27265			43387.38302		69.19000		324.00000 
 43692.65567		 892.42725			42800.22842		191.89200		875.00000 
 43692.65567		 305.27265			43387.38302		69.19000		324.00000 
 43692.65567		 892.42725			42800.22842		191.89200		875.00000 
 43692.65567		 305.27265			43387.38302		69.19000		324.00000 
 43692.65567		 892.42725			42800.22842		191.89200		875.00000 
 43692.65567		 305.27265			43387.38302		69.19000		324.00000 
 43692.65567		 892.42725			42800.22842		191.89200		875.00000 
 43692.65567		 305.27265			43387.38302		69.19000		324.00000 
 43692.65567		 892.42725			42800.22842		191.89200		875.00000 
 43692.65567		 305.27265			43387.38302		69.19000		324.00000 
 43692.65567		 892.42725			42800.22842		191.89200		875.00000 
 43692.65567		 305.27265			43387.38302		69.19000		324.00000 
 43692.65567		 892.42725			42800.22842		191.89200		875.00000 
 43692.65567		 305.27265			43387.38302		69.19000		324.00000 
 43692.65567		 892.42725			42800.22842		191.89200		875.00000 
 43692.65567		 305.27265			43387.38302		69.19000		324.00000 
 43692.65567		 892.42725			42800.22842		191.89200		875.00000 
 43692.65567		 305.27265			43387.38302		69.19000		324.00000 
 43692.65567		 892.42725			42800.22842		191.89200		875.00000 
 43692.65567		 305.27265			43387.38302		69.19000		324.00000 
 43692.65567		 892.42725			42800.22842		191.89200		875.00000 
 43692.65567		 305.27265			43387.38302		69.19000		324.00000 
 43692.65567		 892.42725			42800.22842		191.89200		875.00000 
 43692.65567		 305.27265			43387.38302		69.19000		324.00000 
 43692.65567		 892.42725			42800.22842		191.89200		875.00000 
 43692.65567		 305.27265			43387.38302		69.19000		324.00000 
 43692.65567		 892.42725			42800.22842		191.89200		875.00000 
 43692.65567		 305.27265			43387.38302		69.19000		324.00000 
 43692.65567		 892.42725			42800.22842		191.89200		875.00000 
 43692.65567		 305.27265			43387.38302		69.19000		324.00000 
 43692.65567		 892.42725			42800.22842		216.24200		875.00000 
 43692.65567		 305.27265			43387.38302		69.19000		324.00000 
 43692.65567		 892.42725			42800.22842		216.24200		875.00000 
 43692.65567		 305.27265			43387.38302		69.19000		324.00000 
 43692.65567		 892.42725			42800.22842		216.24200		875.00000 
 43692.65567		 305.27265			43387.38302		69.19000		324.00000 
 43692.65567		 892.42725			42800.22842		216.24200		875.00000 
 43692.65567		 305.27265			43387.38302		69.19000		324.00000 
 43692.65567		 892.42725			42800.22842		216.24200		875.00000 
 43692.65567		 305.27265			43387.38302		69.19000		324.00000 
 43692.65567		 892.42725			42800.22842		216.24200		875.00000 
 43692.65567		 305.27265			43387.38302		69.19000		324.00000 
 43692.65567		 892.42725			42800.22842		216.24200		875.00000 
 43692.65567		 305.27265			43387.38302		69.19000		324.00000 
 43692.65567		 892.42725			42800.22842		216.24200		875.00000 
 43692.65567		 305.27265			43387.38302		69.19000		324.00000 
 43692.65567		 892.42725			42800.22842		216.24200		875.00000 
 43692.65567		 305.27265			43387.38302		69.19000		324.00000 
 43692.65567		 892.42725			42800.22842		216.24200		875.00000 
 43692.65567		 305.27265			43387.38302		69.19000		324.00000 
 43692.65567		 892.42725			42800.22842		216.24200		875.00000 
 43692.65567		 305.27265			43387.38302		69.19000		324.00000 
 43692.65567		 892.42725			42800.22842		216.24200		875.00000 
 43692.65567		 305.27265			43387.38302		69.19000		324.00000 
 43692.65567		 892.42725			42800.22842		216.24200		875.00000 
 43692.65567		 305.27265			43387.38302		69.19000		324.00000 
 43692.65567		 892.42725			42800.22842		216.24200		875.00000 
 43692.65567		 305.27265			43387.38302		69.19000		324.00000 
 43692.65567		 892.42725			42800.22842		216.24200		875.00000 
 43692.65567		 305.27265			43387.38302		69.19000		324.00000 
 43692.65567		 892.42725			42800.22842		216.24200		875.00000 
 43692.65567		 305.27265			43387.38302		69.19000		324.00000 
 43692.65567		 892.42725			42800.22842		216.24200		875.00000 
 43692.65567		 305.27265			43387.38302		69.19000		324.00000 
 43692.65567		 892.42725			42800.22842		216.24200		875.00000 
 43692.65567		 305.27265			43387.38302		69.19000		324.00000 
 43692.65567		 892.42725			42800.22842		216.24200		875.00000 
 43692.65567		 305.27265			43387.38302		69.19000		324.00000 
 43692.65567		 892.42725			42800.22842		216.24200		875.00000 
 43692.65567		 305.27265			43387.38302		69.19000		324.00000 
 43692.65567		 892.42725			42800.22842		216.24200		875.00000 
 43692.65567		 305.27265			43387.38302		69.19000		324.00000 
 43692.65567		 892.42725			42800.22842		216.24200		875.00000 
 43692.65567		 305.27265			43387.38302		69.19000		324.00000 
 43692.65567		 892.42725			42800.22842		216.24200		875.00000 
 43692.65567		 305.27265			43387.38302		69.19000		324.00000 
 43692.65567		 892.42725			42800.22842		216.24200		875.00000 
 43692.65567		 305.27265			43387.38302		69.19000		324.00000 
 43692.65567		 892.42725			42800.22842		216.24200		875.00000 
 43692.65567		 305.27265			43387.38302		69.19000		324.00000 
 43692.65567		 892.42725			42800.22842		216.24200		875.00000 
 43692.65567		 305.27265			43387.38302		69.19000		324.00000 
 43692.65567		 892.42725			42800.22842		216.24200		875.00000 
 43692.65567		 305.27265			43387.38302		69.19000		324.00000 
 43692.65567		 892.42725			42800.22842		216.24200		875.00000 
 43692.65567		 305.27265			43387.38302		69.19000		324.00000 
 43692.65567		 892.42725			42800.22842		216.24200		875.00000 
 43692.65567		 305.27265			43387.38302		69.19000		324.00000 
 43692.65567		 892.42725			42800.22842		216.24200		875.00000 
 43692.65567		 305.27265			43387.38302		69.19000		324.00000 
 43692.65567		 892.42725			42800.22842		216.24200		875.00000 
 43692.65567		 305.27265			43387.38302		69.19000		324.00000 
 43692.65567		 892.42725			42800.22842		216.24200		875.00000 
 43692.65567		 305.27265			43387.38302		69.19000		324.00000 
 43692.65567		 892.42725			42800.22842		216.24200		875.00000 
 43692.65567		 305.27265			43387.38302		69.19000		324.00000 
 43692.65567		 892.42725			42800.22842		216.24200		875.00000 
 43692.65567		 305.27265			43387.38302		69.19000		324.00000 
 43692.65567		 892.42725			42800.22842		216.24200		875.00000 
 43692.65567		 305.27265			43387.38302		69.19000		324.00000 
 43692.65567		 892.42725			42800.22842		216.24200		875.00000 
 43692.65567		 305.27265			43387.38302		69.19000		324.00000 
 43692.65567		 892.42725			42800.22842		216.24200		875.00000 
 43692.65567		 305.27265			43387.38302		69.19000		324.00000 
 43692.65567		 892.42725			42800.22842		216.24200		875.00000 
 43692.65567		 305.27265			43387.38302		69.19000		324.00000 
 43692.65567		 892.42725			42800.22842		216.24200		875.00000 
 43692.65567		 305.27265			43387.38302		69.19000		324.00000 
 43692.65567		 892.42725			42800.22842		216.24200		875.00000 
 43692.65567		 305.27265			43387.38302		69.19000		324.00000 
 43692.65567		 892.42725			42800.22842		216.24200		875.00000 
 43692.65567		 305.27265			43387.38302		69.19000		324.00000 
 43692.65567		 892.42725			42800.22842		216.24200		875.00000 
 43692.65567		 305.27265			43387.38302		69.19000		324.00000 
 43692.65567		 892.42725			42800.22842		216.24200		875.00000 
 43692.65567		 305.27265			43387.38302		69.19000		324.00000 
 43692.65567		 892.42725			42800.22842		216.24200		875.00000 
 43692.65567		 305.27265			43387.38302		69.19000		324.00000 
 43692.65567		 892.42725			42800.22842		216.24200		875.00000 
 43692.65567		 305.27265			43387.38302		69.19000		324.00000 
 43692.65567		 892.42725			42800.22842		216.24200		875.00000 
 43692.65567		 305.27265			43387.38302		69.19000		324.00000 
 43692.65567		 892.42725			42800.22842		216.24200		875.00000 
 43692.65567		 305.27265			43387.38302		69.19000		324.00000 
 43692.65567		 892.42725			42800.22842		216.24200		875.00000 
 43692.65567		 305.27265			43387.38302		69.19000		324.00000 
 43692.65567		 892.42725			42800.22842		216.24200		875.00000 
 43692.65567		 305.27265			43387.38302		69.19000		324.00000 
 43692.65567		 892.42725			42800.22842		216.24200		875.00000 
 43692.65567		 305.27265			43387.38302		69.19000		324.00000 
 43692.65567		 892.42725			42800.22842		216.24200		875.00000 
 43692.65567		 305.27265			43387.38302		69.19000		324.00000 
 43692.65567		 892.42725			42800.22842		216.24200		875.00000 
 43692.65567		 305.27265			43387.38302		69.19000		324.00000 
 43692.65567		 892.42725			42800.22842		216.24200		875.00000 
 43692.65567		 305.27265			43387.38302		69.19000		324.00000 
 43692.65567		 892.42725			42800.22842		216.24200		875.00000 
 43692.65567		 305.27265			43387.38302		69.19000		324.00000 
 43692.65567		 892.42725			42800.22842		216.24200		875.00000 
 43692.65567		 305.27265			43387.38302		69.19000		324.00000 
 43692.65567		 892.42725			42800.22842		216.24200		875.00000 
 43692.65567		 305.27265			43387.38302		69.19000		324.00000 
 43692.65567		 892.42725			42800.22842		216.24200		875.00000 
 43692.65567		 305.27265			43387.38302		69.19000		324.00000 
 43692.65567		 892.42725			42800.22842		216.24200		875.00000 
 43692.65567		 305.27265			43387.38302		69.19000		324.00000 
 43692.65567		 892.42725			42800.22842		216.24200		875.00000 
 43692.65567		 305.27265			43387.38302		69.19000		324.00000 
 43692.65567		 892.42725			42800.22842		216.24200		875.00000 
 43692.65567		 305.27265			43387.38302		69.19000		324.00000 
 43692.65567		 892.42725			42800.22842		216.24200		875.00000 
 43692.65567		 305.27265			43387.38302		69.19000		324.00000 
 43692.65567		 892.42725			42800.22842		216.24200		875.00000 
 43692.65567		 305.27265			43387.38302		69.19000		324.00000 
 43692.65567		 892.42725			42800.22842		216.24200		875.00000 
 43692.65567		 305.27265			43387.38302		69.19000		324.00000 
 43692.65567		 892.42725			42800.22842		216.24200		875.00000 
 43692.65567		 305.27265			43387.38302		69.19000		324.00000 
 43692.65567		 892.42725			42800.22842		224.17600		875.00000 
 43692.65567		 305.27265			43387.38302		69.19000		324.00000 
 43692.65567		 892.42725			42800.22842		224.17600		875.00000 
 43692.65567		 305.27265			43387.38302		69.19000		324.00000 
 43692.65567		 892.42725			42800.22842		224.17600		875.00000 
 43692.65567		 305.27265			43387.38302		69.19000		324.00000 
 43692.65567		 892.42725			42800.22842		224.17600		875.00000 
 43692.65567		 305.27265			43387.38302		69.19000		324.00000 
 43692.65567		 892.42725			42800.22842		224.17600		875.00000 
 43692.65567		 305.27265			43387.38302		69.19000		324.00000 
 43692.65567		 892.42725			42800.22842		224.17600		875.00000 
 43692.65567		 305.27265			43387.38302		69.19000		324.00000 
 43692.65567		 892.42725			42800.22842		224.17600		875.00000 
 43692.65567		 305.27265			43387.38302		69.19000		324.00000 
 43692.65567		 892.42725			42800.22842		224.17600		875.00000 
 43692.65567		 305.27265			43387.38302		69.19000		324.00000 
 43692.65567		 892.42725			42800.22842		224.17600		875.00000 
 43692.65567		 305.27265			43387.38302		69.19000		324.00000 
 43692.65567		 892.42725			42800.22842		224.17600		875.00000 
 43692.65567		 305.27265			43387.38302		69.19000		324.00000 
 43692.65567		 892.42725			42800.22842		224.17600		875.00000 
 43692.65567		 305.27265			43387.38302		69.19000		324.00000 
 43692.65567		 892.42725			42800.22842		224.17600		875.00000 
 43692.65567		 305.27265			43387.38302		69.19000		324.00000 
 43692.65567		 892.42725			42800.22842		224.17600		875.00000 
 43692.65567		 305.27265			43387.38302		69.19000		324.00000 
 43692.65567		 892.42725			42800.22842		224.17600		875.00000 
 43692.65567		 305.27265			43387.38302		69.19000		324.00000 
 43692.65567		 892.42725			42800.22842		224.17600		875.00000 
 43692.65567		 305.27265			43387.38302		69.19000		324.00000 
 43692.65567		 892.42725			42800.22842		224.17600		875.00000 
 43692.65567		 305.27265			43387.38302		69.19000		324.00000 
 43692.65567		 892.42725			42800.22842		224.17600		875.00000 
 43692.65567		 305.27265			43387.38302		69.19000		324.00000 
 43692.65567		 892.42725			42800.22842		224.17600		875.00000 
 43692.65567		 305.27265			43387.38302		69.19000		324.00000 
 43692.65567		 892.42725			42800.22842		224.17600		875.00000 
 43692.65567		 305.27265			43387.38302		69.19000		324.00000 
 43692.65567		 892.42725			42800.22842		224.17600		875.00000 
 43692.65567		 305.27265			43387.38302		69.19000		324.00000 
 43692.65567		 892.42725			42800.22842		224.17600		875.00000 
 43692.65567		 305.27265			43387.38302		69.19000		324.00000 
 43692.65567		 892.42725			42800.22842		224.17600		875.00000 
 43692.65567		 305.27265			43387.38302		69.19000		324.00000 
 43692.65567		 892.42725			42800.22842		224.17600		875.00000 
 43692.65567		 305.27265			43387.38302		69.19000		324.00000 
 43692.65567		 892.42725			42800.22842		224.17600		875.00000 
 43692.65567		 305.27265			43387.38302		69.19000		324.00000 
 43692.65567		 892.42725			42800.22842		224.17600		875.00000 
 43692.65567		 305.27265			43387.38302		69.19000		324.00000 
 43692.65567		 892.42725			42800.22842		224.17600		875.00000 
 43692.65567		 305.27265			43387.38302		69.19000		324.00000 
 43692.65567		 892.42725			42800.22842		224.17600		875.00000 
 43692.65567		 305.27265			43387.38302		69.19000		324.00000 
 43692.65567		 892.42725			42800.22842		224.17600		875.00000 
 43692.65567		 305.27265			43387.38302		69.19000		324.00000 
 43692.65567		 892.42725			42800.22842		224.17600		875.00000 
 43692.65567		 305.27265			43387.38302		69.19000		324.00000 
 43692.65567		 892.42725			42800.22842		224.17600		875.00000 
 43692.65567		 305.27265			43387.38302		69.19000		324.00000 
 43692.65567		 892.42725			42800.22842		224.17600		875.00000 
 43692.65567		 305.27265			43387.38302		69.19000		324.00000 
 43692.65567		 892.42725			42800.22842		224.17600		875.00000 
 43692.65567		 305.27265			43387.38302		69.19000		324.00000 
 43692.65567		 892.42725			42800.22842		224.17600		875.00000 
 43692.65567		 305.27265			43387.38302		69.19000		324.00000 
 43692.65567		 892.42725			42800.22842		224.17600		875.00000 
 43692.65567		 305.27265			43387.38302		69.19000		324.00000 
 43692.65567		 892.42725			42800.22842		224.17600		875.00000 
 43692.65567		 305.27265			43387.38302		69.19000		324.00000 
 43692.65567		 892.42725			42800.22842		224.17600		875.00000 
 43692.65567		 305.27265			43387.38302		69.19000		324.00000 
 43692.65567		 892.42725			42800.22842		224.17600		875.00000 
 43692.65567		 305.27265			43387.38302		69.19000		324.00000 
 43692.65567		 892.42725			42800.22842		224.17600		875.00000 
 43692.65567		 305.27265			43387.38302		69.19000		324.00000 
 43692.65567		 892.42725			42800.22842		224.17600		875.00000 
 43692.65567		 305.27265			43387.38302		69.19000		324.00000 
 43692.65567		 892.42725			42800.22842		224.17600		875.00000 
 43692.65567		 305.27265			43387.38302		69.19000		324.00000 
 43692.65567		 892.42725			42800.22842		224.17600		875.00000 
 43692.65567		 305.27265			43387.38302		69.19000		324.00000 
 43692.65567		 892.42725			42800.22842		224.17600		875.00000 
 43692.65567		 305.27265			43387.38302		69.19000		324.00000 
 43692.65567		 892.42725			42800.22842		224.17600		875.00000 
 43692.65567		 305.27265			43387.38302		69.19000		324.00000 
 43692.65567		 892.42725			42800.22842		224.17600		875.00000 
 43692.65567		 305.27265			43387.38302		69.19000		324.00000 
 43692.65567		 892.42725			42800.22842		224.17600		875.00000 
 43692.65567		 305.27265			43387.38302		69.19000		324.00000 
 43692.65567		 892.42725			42800.22842		224.17600		875.00000 
 43692.65567		 305.27265			43387.38302		69.19000		324.00000 
 43692.65567		 892.42725			42800.22842		224.17600		875.00000 
 43692.65567		 305.27265			43387.38302		69.19000		324.00000 
 43692.65567		 892.42725			42800.22842		224.17600		875.00000 
 43692.65567		 305.27265			43387.38302		69.19000		324.00000 
 43692.65567		 892.42725			42800.22842		224.17600		875.00000 
 43692.65567		 305.27265			43387.38302		69.19000		324.00000 
 43692.65567		 892.42725			42800.22842		224.17600		875.00000 
 43692.65567		 305.27265			43387.38302		69.19000		324.00000 
 43692.65567		 892.42725			42800.22842		224.17600		875.00000 
 43692.65567		 305.27265			43387.38302		69.19000		324.00000 
 43692.65567		 892.42725			42800.22842		224.17600		875.00000 
 43692.65567		 305.27265			43387.38302		69.19000		324.00000 
 43692.65567		 892.42725			42800.22842		224.17600		875.00000 
 43692.65567		 305.27265			43387.38302		69.19000		324.00000 
 43692.65567		 892.42725			42800.22842		224.17600		875.00000 
 43692.65567		 305.27265			43387.38302		69.19000		324.00000 
 43692.65567		 892.42725			42800.22842		224.17600		875.00000 
 43692.65567		 305.27265			43387.38302		69.19000		324.00000 
 43692.65567		 892.42725			42800.22842		224.17600		875.00000 
 43692.65567		 305.27265			43387.38302		69.19000		324.00000 
 43692.65567		 892.42725			42800.22842		224.17600		875.00000 
 43692.65567		 305.27265			43387.38302		69.19000		324.00000 
 43692.65567		 892.42725			42800.22842		224.17600		875.00000 
 43692.65567		 305.27265			43387.38302		69.19000		324.00000 
 43692.65567		 892.42725			42800.22842		224.17600		875.00000 
 43692.65567		 305.27265			43387.38302		69.19000		324.00000 
 43692.65567		 892.42725			42800.22842		224.17600		875.00000 
 43692.65567		 305.27265			43387.38302		69.19000		324.00000 
 43692.65567		 892.42725			42800.22842		224.17600		875.00000 
 43692.65567		 305.27265			43387.38302		69.19000		324.00000 
 43692.65567		 892.42725			42800.22842		224.17600		875.00000 
 43692.65567		 305.27265			43387.38302		69.19000		324.00000 
 43692.65567		 892.42725			42800.22842		224.17600		875.00000 
 43692.65567		 305.27265			43387.38302		69.19000		324.00000 
 43692.65567		 892.42725			42800.22842		224.17600		875.00000 
 43692.65567		 305.27265			43387.38302		69.19000		324.00000 
 43692.65567		 892.42725			42800.22842		227.74400		875.00000 
 43692.65567		 305.27265			43387.38302		69.19000		324.00000 
 43692.65567		 892.42725			42800.22842		227.74400		875.00000 
 43692.65567		 305.27265			43387.38302		69.19000		324.00000 
 43692.65567		 892.42725			42800.22842		227.74400		875.00000 
 43692.65567		 305.27265			43387.38302		69.19000		324.00000 
 43692.65567		 892.42725			42800.22842		227.74400		875.00000 
 43692.65567		 305.27265			43387.38302		69.19000		324.00000 
 43692.65567		 892.42725			42800.22842		227.74400		875.00000 
 43692.65567		 305.27265			43387.38302		69.19000		324.00000 
 43692.65567		 892.42725			42800.22842		227.74400		875.00000 
 43692.65567		 305.27265			43387.38302		69.19000		324.00000 
 43692.65567		 892.42725			42800.22842		227.74400		875.00000 
 43692.65567		 305.27265			43387.38302		69.19000		324.00000 
 43692.65567		 892.42725			42800.22842		227.74400		875.00000 
 43692.65567		 305.27265			43387.38302		69.19000		324.00000 
 43692.65567		 892.42725			42800.22842		227.74400		875.00000 
 43692.65567		 305.27265			43387.38302		69.19000		324.00000 
 43692.65567		 892.42725			42800.22842		227.74400		875.00000 
 43692.65567		 305.27265			43387.38302		69.19000		324.00000 
 43692.65567		 892.42725			42800.22842		227.74400		875.00000 
 43692.65567		 305.27265			43387.38302		69.19000		324.00000 
 43692.65567		 892.42725			42800.22842		227.74400		875.00000 
 43692.65567		 305.27265			43387.38302		69.19000		324.00000 
 43692.65567		 892.42725			42800.22842		227.74400		875.00000 
 43692.65567		 305.27265			43387.38302		69.19000		324.00000 
 43692.65567		 892.42725			42800.22842		227.74400		875.00000 
 43692.65567		 305.27265			43387.38302		69.19000		324.00000 
 43692.65567		 892.42725			42800.22842		227.74400		875.00000 
 43692.65567		 305.27265			43387.38302		69.19000		324.00000 
 43692.65567		 892.42725			42800.22842		227.74400		875.00000 
 43692.65567		 305.27265			43387.38302		69.19000		324.00000 
 43692.65567		 892.42725			42800.22842		227.74400		875.00000 
 43692.65567		 305.27265			43387.38302		69.19000		324.00000 
 43692.65567		 892.42725			42800.22842		227.74400		875.00000 
 43692.65567		 305.27265			43387.38302		69.19000		324.00000 
 43692.65567		 892.42725			42800.22842		227.74400		875.00000 
 43692.65567		 305.27265			43387.38302		69.19000		324.00000 
 43692.65567		 892.42725			42800.22842		227.74400		875.00000 
 43692.65567		 305.27265			43387.38302		69.19000		324.00000 
 43692.65567		 892.42725			42800.22842		227.74400		875.00000 
 43692.65567		 305.27265			43387.38302		69.19000		324.00000 
 43692.65567		 892.42725			42800.22842		227.74400		875.00000 
 43692.65567		 305.27265			43387.38302		69.19000		324.00000 
 43692.65567		 892.42725			42800.22842		227.74400		875.00000 
 43692.65567		 305.27265			43387.38302		69.19000		324.00000 
 43692.65567		 892.42725			42800.22842		227.74400		875.00000 
 43692.65567		 305.27265			43387.38302		69.19000		324.00000 
 43692.65567		 892.42725			42800.22842		227.74400		875.00000 
 43692.65567		 305.27265			43387.38302		69.19000		324.00000 
 43692.65567		 892.42725			42800.22842		227.74400		875.00000 
 43692.65567		 305.27265			43387.38302		69.19000		324.00000 
 43692.65567		 892.42725			42800.22842		227.74400		875.00000 
 43692.65567		 305.27265			43387.38302		69.19000		324.00000 
 43692.65567		 892.42725			42800.22842		227.74400		875.00000 
 43692.65567		 305.27265			43387.38302		69.19000		324.00000 
 43692.65567		 892.42725			42800.22842		227.74400		875.00000 
 43692.65567		 305.27265			43387.38302		69.19000		324.00000 
 43692.65567		 892.42725			42800.22842		227.74400		875.00000 
 43692.65567		 305.27265			43387.38302		69.19000		324.00000 
 43692.65567		 892.42725			42800.22842		227.74400		875.00000 
 43692.65567		 305.27265			43387.38302		69.19000		324.00000 
 43692.65567		 892.42725			42800.22842		227.74400		875.00000 
 43692.65567		 305.27265			43387.38302		69.19000		324.00000 
 43692.65567		 892.42725			42800.22842		227.74400		875.00000 
 43692.65567		 305.27265			43387.38302		69.19000		324.00000 
 43692.65567		 892.42725			42800.22842		227.74400		875.00000 
 43692.65567		 305.27265			43387.38302		69.19000		324.00000 
 43692.65567		 892.42725			42800.22842		227.74400		875.00000 
 43692.65567		 305.27265			43387.38302		69.19000		324.00000 
 43692.65567		 892.42725			42800.22842		227.74400		875.00000 
 43692.65567		 305.27265			43387.38302		69.19000		324.00000 
 43692.65567		 892.42725			42800.22842		227.74400		875.00000 
 43692.65567		 305.27265			43387.38302		69.19000		324.00000 
 43692.65567		 892.42725			42800.22842		227.74400		875.00000 
 43692.65567		 305.27265			43387.38302		69.19000		324.00000 
 43692.65567		 892.42725			42800.22842		227.74400		875.00000 
 43692.65567		 305.27265			43387.38302		69.19000		324.00000 
 43692.65567		 892.42725			42800.22842		227.74400		875.00000 
 43692.65567		 305.27265			43387.38302		69.19000		324.00000 
 43692.65567		 892.42725			42800.22842		227.74400		875.00000 
 43692.65567		 305.27265			43387.38302		69.19000		324.00000 
 43692.65567		 892.42725			42800.22842		227.74400		875.00000 
 43692.65567		 305.27265			43387.38302		69.19000		324.00000 
 43692.65567		 892.42725			42800.22842		227.74400		875.00000 
 43692.65567		 305.27265			43387.38302		69.19000		324.00000 
 43692.65567		 892.42725			42800.22842		227.74400		875.00000 
 43692.65567		 305.27265			43387.38302		69.19000		324.00000 
 43692.65567		 892.42725			42800.22842		227.74400		875.00000 
 43692.65567		 305.27265			43387.38302		69.19000		324.00000 
 43692.65567		 892.42725			42800.22842		227.74400		875.00000 
 43692.65567		 305.27265			43387.38302		69.19000		324.00000 
 43692.65567		 892.42725			42800.22842		227.74400		875.00000 
 43692.65567		 305.27265			43387.38302		69.19000		324.00000 
 43692.65567		 892.42725			42800.22842		227.74400		875.00000 
 43692.65567		 305.27265			43387.38302		69.19000		324.00000 
 43692.65567		 892.42725			42800.22842		227.74400		875.00000 
 43692.65567		 305.27265			43387.38302		69.19000		324.00000 
 43692.65567		 892.42725			42800.22842		227.74400		875.00000 
 43692.65567		 305.27265			43387.38302		69.19000		324.00000 
 43692.65567		 892.42725			42800.22842		227.74400		875.00000 
 43692.65567		 305.27265			43387.38302		69.19000		324.00000 
 43692.65567		 892.42725			42800.22842		227.74400		875.00000 
 43692.65567		 305.27265			43387.38302		69.19000		324.00000 
 43692.65567		 892.42725			42800.22842		227.74400		875.00000 
 43692.65567		 305.27265			43387.38302		69.19000		324.00000 
 43692.65567		 892.42725			42800.22842		227.74400		875.00000 
 43692.65567		 305.27265			43387.38302		69.19000		324.00000 
 43692.65567		 892.42725			42800.22842		227.74400		875.00000 
 43692.65567		 305.27265			43387.38302		69.19000		324.00000 
 43692.65567		 892.42725			42800.22842		227.74400		875.00000 
 43692.65567		 305.27265			43387.38302		69.19000		324.00000 
 43692.65567		 892.42725			42800.22842		227.74400		875.00000 
 43692.65567		 305.27265			43387.38302		69.19000		324.00000 
 43692.65567		 892.42725			42800.22842		227.74400		875.00000 
 43692.65567		 305.27265			43387.38302		69.19000		324.00000 
 43692.65567		 892.42725			42800.22842		227.74400		875.00000 
 43692.65567		 305.27265			43387.38302		69.19000		324.00000 
 43692.65567		 892.42725			42800.22842		227.74400		875.00000 
 43692.65567		 305.27265			43387.38302		69.19000		324.00000 
 43692.65567		 892.42725			42800.22842		227.74400		875.00000 
 43692.65567		 305.27265			43387.38302		69.19000		324.00000 
 43692.65567		 892.42725			42800.22842		227.74400		875.00000 
 43692.65567		 305.27265			43387.38302		69.19000		324.00000 
 43692.65567		 892.42725			42800.22842		227.74400		875.00000 
 43692.65567		 305.27265			43387.38302		69.19000		324.00000 
 43692.65567		 892.42725			42800.22842		227.74400		875.00000 
 43692.65567		 305.27265			43387.38302		69.19000		324.00000 
 43692.65567		 892.42725			42800.22842		228.94600		875.00000 
 43692.65567		 305.27265			43387.38302		69.19000		324.00000 
 43692.65567		 892.42725			42800.22842		228.94600		875.00000 
 43692.65567		 305.27265			43387.38302		69.19000		324.00000 
 43692.65567		 892.42725			42800.22842		228.94600		875.00000 
 43692.65567		 305.27265			43387.38302		69.19000		324.00000 
 43692.65567		 892.42725			42800.22842		228.94600		875.00000 
 43692.65567		 305.27265			43387.38302		69.19000		324.00000 
 43692.65567		 892.42725			42800.22842		228.94600		875.00000 
 43692.65567		 305.27265			43387.38302		69.19000		324.00000 
 43692.65567		 892.42725			42800.22842		228.94600		875.00000 
 43692.65567		 305.27265			43387.38302		69.19000		324.00000 
 43692.65567		 892.42725			42800.22842		228.94600		875.00000 
 43692.65567		 305.27265			43387.38302		69.19000		324.00000 
 43692.65567		 892.42725			42800.22842		228.94600		875.00000 
 43692.65567		 305.27265			43387.38302		69.19000		324.00000 
 43692.65567		 892.42725			42800.22842		228.94600		875.00000 
 43692.65567		 305.27265			43387.38302		69.19000		324.00000 
 43692.65567		 892.42725			42800.22842		228.94600		875.00000 
 43692.65567		 305.27265			43387.38302		69.19000		324.00000 
 43692.65567		 892.42725			42800.22842		228.94600		875.00000 
 43692.65567		 305.27265			43387.38302		69.19000		324.00000 
 43692.65567		 892.42725			42800.22842		228.94600		875.00000 
 43692.65567		 305.27265			43387.38302		69.19000		324.00000 
 43692.65567		 892.42725			42800.22842		228.94600		875.00000 
 43692.65567		 305.27265			43387.38302		69.19000		324.00000 
 43692.65567		 892.42725			42800.22842		228.94600		875.00000 
 43692.65567		 305.27265			43387.38302		69.19000		324.00000 
 43692.65567		 892.42725			42800.22842		228.94600		875.00000 
 43692.65567		 305.27265			43387.38302		69.19000		324.00000 
 43692.65567		 892.42725			42800.22842		228.94600		875.00000 
 43692.65567		 305.27265			43387.38302		69.19000		324.00000 
 43692.65567		 892.42725			42800.22842		228.94600		875.00000 
 43692.65567		 305.27265			43387.38302		69.19000		324.00000 
 43692.65567		 892.42725			42800.22842		228.94600		875.00000 
 43692.65567		 305.27265			43387.38302		69.19000		324.00000 
 43692.65567		 892.42725			42800.22842		228.94600		875.00000 
 43692.65567		 305.27265			43387.38302		69.19000		324.00000 
 43692.65567		 892.42725			42800.22842		228.94600		875.00000 
 43692.65567		 305.27265			43387.38302		69.19000		324.00000 
 43692.65567		 892.42725			42800.22842		228.94600		875.00000 
 43692.65567		 305.27265			43387.38302		69.19000		324.00000 
 43692.65567		 892.42725			42800.22842		228.94600		875.00000 
 43692.65567		 305.27265			43387.38302		69.19000		324.00000 
 43692.65567		 892.42725			42800.22842		228.94600		875.00000 
 43692.65567		 305.27265			43387.38302		69.19000		324.00000 
 43692.65567		 892.42725			42800.22842		228.94600		875.00000 
 43692.65567		 305.27265			43387.38302		69.19000		324.00000 
 43692.65567		 892.42725			42800.22842		228.94600		875.00000 
 43692.65567		 305.27265			43387.38302		69.19000		324.00000 
 43692.65567		 892.42725			42800.22842		228.94600		875.00000 
 43692.65567		 305.27265			43387.38302		69.19000		324.00000 
 43692.65567		 892.42725			42800.22842		228.94600		875.00000 
 43692.65567		 305.27265			43387.38302		69.19000		324.00000 
 43692.65567		 892.42725			42800.22842		228.94600		875.00000 
 43692.65567		 305.27265			43387.38302		69.19000		324.00000 
 43692.65567		 892.42725			42800.22842		228.94600		875.00000 
 43692.65567		 305.27265			43387.38302		69.19000		324.00000 
 43692.65567		 892.42725			42800.22842		228.94600		875.00000 
 43692.65567		 305.27265			43387.38302		69.19000		324.00000 
 43692.65567		 892.42725			42800.22842		228.94600		875.00000 
 43692.65567		 305.27265			43387.38302		69.19000		324.00000 
 43692.65567		 892.42725			42800.22842		228.94600		875.00000 
 43692.65567		 305.27265			43387.38302		69.19000		324.00000 
 43692.65567		 892.42725			42800.22842		228.94600		875.00000 
 43692.65567		 305.27265			43387.38302		69.19000		324.00000 
 43692.65567		 892.42725			42800.22842		228.94600		875.00000 
 43692.65567		 305.27265			43387.38302		69.19000		324.00000 
 43692.65567		 892.42725			42800.22842		228.94600		875.00000 
 43692.65567		 305.27265			43387.38302		69.19000		324.00000 
 43692.65567		 892.42725			42800.22842		228.94600		875.00000 
 43692.65567		 305.27265			43387.38302		69.19000		324.00000 
 43692.65567		 892.42725			42800.22842		228.94600		875.00000 
 43692.65567		 305.27265			43387.38302		69.19000		324.00000 
 43692.65567		 892.42725			42800.22842		228.94600		875.00000 
 43692.65567		 305.27265			43387.38302		69.19000		324.00000 
 43692.65567		 892.42725			42800.22842		228.94600		875.00000 
 43692.65567		 305.27265			43387.38302		69.19000		324.00000 
 43692.65567		 892.42725			42800.22842		228.94600		875.00000 
 43692.65567		 305.27265			43387.38302		69.19000		324.00000 
 43692.65567		 892.42725			42800.22842		228.94600		875.00000 
 43692.65567		 305.27265			43387.38302		69.19000		324.00000 
 43692.65567		 892.42725			42800.22842		228.94600		875.00000 
 43692.65567		 305.27265			43387.38302		69.19000		324.00000 
 43692.65567		 892.42725			42800.22842		228.94600		875.00000 
 43692.65567		 305.27265			43387.38302		69.19000		324.00000 
 43692.65567		 892.42725			42800.22842		228.94600		875.00000 
 43692.65567		 305.27265			43387.38302		69.19000		324.00000 
 43692.65567		 892.42725			42800.22842		228.94600		875.00000 
 43692.65567		 305.27265			43387.38302		69.19000		324.00000 
 43692.65567		 892.42725			42800.22842		228.94600		875.00000 
 43692.65567		 305.27265			43387.38302		69.19000		324.00000 
 43692.65567		 892.42725			42800.22842		228.94600		875.00000 
 43692.65567		 305.27265			43387.38302		69.19000		324.00000 
 43692.65567		 892.42725			42800.22842		228.94600		875.00000 
 43692.65567		 305.27265			43387.38302		69.19000		324.00000 
 43692.65567		 892.42725			42800.22842		228.94600		875.00000 
 43692.65567		 305.27265			43387.38302		69.19000		324.00000 
 43692.65567		 892.42725			42800.22842		228.94600		875.00000 
 43692.65567		 305.27265			43387.38302		69.19000		324.00000 
 43692.65567		 892.42725			42800.22842		228.94600		875.00000 
 43692.65567		 305.27265			43387.38302		69.19000		324.00000 
 43692.65567		 892.42725			42800.22842		228.94600		875.00000 
 43692.65567		 305.27265			43387.38302		69.19000		324.00000 
 43692.65567		 892.42725			42800.22842		228.94600		875.00000 
 43692.65567		 305.27265			43387.38302		69.19000		324.00000 
 43692.65567		 892.42725			42800.22842		228.94600		875.00000 
 43692.65567		 305.27265			43387.38302		69.19000		324.00000 
 43692.65567		 892.42725			42800.22842		228.94600		875.00000 
 43692.65567		 305.27265			43387.38302		69.19000		324.00000 
 43692.65567		 892.42725			42800.22842		228.94600		875.00000 
 43692.65567		 305.27265			43387.38302		69.19000		324.00000 
 43692.65567		 892.42725			42800.22842		228.94600		875.00000 
 43692.65567		 305.27265			43387.38302		69.19000		324.00000 
 43692.65567		 892.42725			42800.22842		228.94600		875.00000 
 43692.65567		 305.27265			43387.38302		69.19000		324.00000 
 43692.65567		 892.42725			42800.22842		228.94600		875.00000 
 43692.65567		 305.27265			43387.38302		69.19000		324.00000 
 43692.65567		 892.42725			42800.22842		228.94600		875.00000 
 43692.65567		 305.27265			43387.38302		69.19000		324.00000 
 43692.65567		 892.42725			42800.22842		228.94600		875.00000 
 43692.65567		 305.27265			43387.38302		69.19000		324.00000 
 43692.65567		 892.42725			42800.22842		228.94600		875.00000 
 43692.65567		 305.27265			43387.38302		69.19000		324.00000 
 43692.65567		 892.42725			42800.22842		228.94600		875.00000 
 43692.65567		 305.27265			43387.38302		69.19000		324.00000 
 43692.65567		 892.42725			42800.22842		228.94600		875.00000 
 43692.65567		 305.27265			43387.38302		69.19000		324.00000 
 43692.65567		 892.42725			42800.22842		228.94600		875.00000 
 43692.65567		 305.27265			43387.38302		69.19000		324.00000 
 43692.65567		 892.42725			42800.22842		228.94600		875.00000 
 43692.65567		 305.27265			43387.38302		69.19000		324.00000 
 43692.65567		 892.42725			42800.22842		228.94600		875.00000 
 43692.65567		 305.27265			43387.38302		69.19000		324.00000 
 43692.65567		 892.42725			42800.22842		228.94600		875.00000 
 43692.65567		 305.27265			43387.38302		69.19000		324.00000 
 43692.65567		 892.42725			42800.22842		228.94600		875.00000 
 43692.65567		 305.27265			43387.38302		69.19000		324.00000 
 43692.65567		 892.42725			42800.22842		228.94600		875.00000 
 43692.65567		 305.27265			43387.38302		69.19000		324.00000 
 43692.65567		 892.42725			42800.22842		228.94600		875.00000 
 43692.65567		 305.27265			43387.38302		69.19000		324.00000 
 43692.65567		 892.42725			42800.22842		228.94600		875.00000 
 43692.65567		 305.27265			43387.38302		69.19000		324.00000 
 43692.65567		 892.42725			42800.22842		228.94600		875.00000 
 43692.65567		 305.27265			43387.38302		69.19000		324.00000 
 43692.65567		 892.42725			42800.22842		228.94600		875.00000 
 43692.65567		 305.27265			43387.38302		69.19000		324.00000 
 43692.65567		 892.42725			42800.22842		228.94600		875.00000 
 43692.65567		 305.27265			43387.38302		69.19000		324.00000 
 43692.65567		 892.42725			42800.22842		228.94600		875.00000 
 43692.65567		 305.27265			43387.38302		69.19000		324.00000 
 43692.65567		 892.42725			42800.22842		228.94600		875.00000 
 43692.65567		 305.27265			43387.38302		69.19000		324.00000 
 43692.65567		 892.42725			42800.22842		228.94600		875.00000 
 43692.65567		 305.27265			43387.38302		69.19000		324.00000 
 43692.65567		 892.42725			42800.22842		228.94600		875.00000 
 43692.65567		 305.27265			43387.38302		69.19000		324.00000 
 43692.65567		 892.42725			42800.22842		228.94600		875.00000 
 43692.65567		 305.27265			43387.38302		69.19000		324.00000 
 43692.65567		 892.42725			42800.22842		228.94600		875.00000 
 43692.65567		 305.27265			43387.38302		69.19000		324.00000 
 43692.65567		 892.42725			42800.22842		228.94600		875.00000 
 43692.65567		 305.27265			43387.38302		69.19000		324.00000 
 43692.65567		 892.42725			42800.22842		228.94600		875.00000 
 43692.65567		 305.27265			43387.38302		69.19000		324.00000 
 43692.65567		 892.42725			42800.22842		228.94600		875.00000 
 43692.65567		 305.27265			43387.38302		69.19000		324.00000 
 43692.65567		 892.42725			42800.22842		228.94600		875.00000 
 43692.65567		 305.27265			43387.38302		69.19000		324.00000 
 43692.65567		 892.42725			42800.22842		228.94600		875.00000 
 43692.65567		 305.27265			43387.38302		69.19000		324.00000 
 43692.65567		 892.42725			42800.22842		228.94600		875.00000 
 43692.65567		 305.27265			43387.38302		69.19000		324.00000 
 43692.65567		 892.42725			42800.22842		228.94600		875.00000 
 43692.65567		 305.27265			43387.38302		69.19000		324.00000 
 43692.65567		 892.42725			42800.22842		228.94600		875.00000 
 43692.65567		 305.27265			43387.38302		69.19000		324.00000 
 43692.65567		 892.42725			42800.22842		228.94600		875.00000 
 43692.65567		 305.27265			43387.38302		69.19000		324.00000 
 43692.65567		 892.42725			42800.22842		228.94600		875.00000 
 43692.65567		 305.27265			43387.38302		69.19000		324.00000 
 43692.65567		 892.42725			42800.22842		228.94600		875.00000 
 43692.65567		 305.27265			43387.38302		69.19000		324.00000 
 43692.65567		 892.42725			42800.22842		228.94600		875.00000 
 43692.65567		 305.27265			43387.38302		69.19000		324.00000 
 43692.65567		 892.42725			42800.22842		228.94600		875.00000 
 43692.65567		 305.27265			43387.38302		69.19000		324.00000 
 43692.65567		 892.42725			42800.22842		228.94600		875.00000 
 43692.65567		 305.27265			43387.38302		69.19000		324.00000 
 43692.65567		 892.42725			42800.22842		228.94600		875.00000 
 43692.65567		 305.27265			43387.38302		69.19000		324.00000 
 43692.65567		 892.42725			42800.22842		228.94600		875.00000 
 43692.65567		 305.27265			43387.38302		69.19000		324.00000 
 43692.65567		 892.42725			42800.22842		228.94600		875.00000 
 43692.65567		 305.27265			43387.38302		69.19000		324.00000 
 43692.65567		 892.42725			42800.22842		228.94600		875.00000 
 43692.65567		 305.27265			43387.38302		69.19000		324.00000 
 43692.65567		 892.42725			42800.22842		228.94600		875.00000 
 43692.65567		 305.27265			43387.38302		69.19000		324.00000 
 43692.65567		 892.42725			42800.22842		228.94600		875.00000 
 43692.65567		 305.27265			43387.38302		69.19000		324.00000 
 43692.65567		 892.42725			42800.22842		228.94600		875.00000 
 43692.65567		 305.27265			43387.38302		69.19000		324.00000 
 43692.65567		 892.42725			42800.22842		228.94600		875.00000 
 43692.65567		 305.27265			43387.38302		69.19000		324.00000 
 43692.65567		 892.42725			42800.22842		228.94600		875.00000 
 43692.65567		 305.27265			43387.38302		69.19000		324.00000 
 43692.65567		 892.42725			42800.22842		228.94600		875.00000 
 43692.65567		 305.27265			43387.38302		69.19000		324.00000 
 43692.65567		 892.42725			42800.22842		228.94600		875.00000 
 43692.65567		 305.27265			43387.38302		69.19000		324.00000 
 43692.65567		 892.42725			42800.22842		228.94600		875.00000 
 43692.65567		 305.27265			43387.38302		69.19000		324.00000 
 43692.65567		 892.42725			42800.22842		228.94600		875.00000 
 43692.65567		 305.27265			43387.38302		70.72000		324.00000 
 43692.65567		 892.42725			42800.22842		228.94600		875.00000 
 43692.65567		 305.27265			43387.38302		70.72000		324.00000 
 43692.65567		 892.42725			42800.22842		228.94600		875.00000 
 43692.65567		 305.27265			43387.38302		70.72000		324.00000 
 43692.65567		 892.42725			42800.22842		228.94600		875.00000 
 43692.65567		 305.27265			43387.38302		70.72000		324.00000 
 43692.65567		 892.42725			42800.22842		228.94600		875.00000 
 43692.65567		 305.27265			43387.38302		70.72000		324.00000 
 43692.65567		 892.42725			42800.22842		228.94600		875.00000 
 43692.65567		 305.27265			43387.38302		70.72000		324.00000 
 43692.65567		 892.42725			42800.22842		228.94600		875.00000 
 43692.65567		 305.27265			43387.38302		70.72000		324.00000 
 43692.65567		 892.42725			42800.22842		228.94600		875.00000 
 43692.65567		 305.27265			43387.38302		70.72000		324.00000 
 43692.65567		 892.42725			42800.22842		228.94600		875.00000 
 43692.65567		 305.27265			43387.38302		70.72000		324.00000 
 43692.65567		 892.42725			42800.22842		228.94600		875.00000 
 43692.65567		 305.27265			43387.38302		70.72000		324.00000 
 43692.65567		 892.42725			42800.22842		228.94600		875.00000 
 43692.65567		 305.27265			43387.38302		70.72000		324.00000 
 43692.65567		 892.42725			42800.22842		228.94600		875.00000 
 43692.65567		 305.27265			43387.38302		70.72000		324.00000 
 43692.65567		 892.42725			42800.22842		228.94600		875.00000 
 43692.65567		 305.27265			43387.38302		70.72000		324.00000 
 43692.65567		 892.42725			42800.22842		228.94600		875.00000 
 43692.65567		 305.27265			43387.38302		70.72000		324.00000 
 43692.65567		 892.42725			42800.22842		228.94600		875.00000 
 43692.65567		 305.27265			43387.38302		70.72000		324.00000 
 43692.65567		 892.42725			42800.22842		228.94600		875.00000 
 43692.65567		 305.27265			43387.38302		70.72000		324.00000 
 43692.65567		 892.42725			42800.22842		228.94600		875.00000 
 43692.65567		 305.27265			43387.38302		70.72000		324.00000 
 43692.65567		 892.42725			42800.22842		228.94600		875.00000 
 43692.65567		 305.27265			43387.38302		70.72000		324.00000 
 43692.65567		 892.42725			42800.22842		228.94600		875.00000 
 43692.65567		 305.27265			43387.38302		70.72000		324.00000 
 43692.65567		 892.42725			42800.22842		228.94600		875.00000 
 43692.65567		 305.27265			43387.38302		70.72000		324.00000 
 43692.65567		 892.42725			42800.22842		228.94600		875.00000 
 43692.65567		 305.27265			43387.38302		70.72000		324.00000 
 43692.65567		 892.42725			42800.22842		228.94600		875.00000 
 43692.65567		 305.27265			43387.38302		70.72000		324.00000 
 43692.65567		 892.42725			42800.22842		228.94600		875.00000 
 43692.65567		 305.27265			43387.38302		70.72000		324.00000 
 43692.65567		 892.42725			42800.22842		228.94600		875.00000 
 43692.65567		 305.27265			43387.38302		70.72000		324.00000 
 43692.65567		 892.42725			42800.22842		228.94600		875.00000 
 43692.65567		 305.27265			43387.38302		70.72000		324.00000 
 43692.65567		 892.42725			42800.22842		228.94600		875.00000 
 43692.65567		 305.27265			43387.38302		70.72000		324.00000 
 43692.65567		 892.42725			42800.22842		228.94600		875.00000 
 43692.65567		 305.27265			43387.38302		70.72000		324.00000 
 43692.65567		 892.42725			42800.22842		228.94600		875.00000 
 43692.65567		 305.27265			43387.38302		70.72000		324.00000 
 43692.65567		 892.42725			42800.22842		228.94600		875.00000 
 43692.65567		 305.27265			43387.38302		70.72000		324.00000 
 43692.65567		 892.42725			42800.22842		228.94600		875.00000 
 43692.65567		 305.27265			43387.38302		70.72000		324.00000 
 43692.65567		 892.42725			42800.22842		228.94600		875.00000 
 43692.65567		 305.27265			43387.38302		70.72000		324.00000 
 43692.65567		 892.42725			42800.22842		228.94600		875.00000 
 43692.65567		 305.27265			43387.38302		70.72000		324.00000 
 43692.65567		 892.42725			42800.22842		228.94600		875.00000 
 43692.65567		 305.27265			43387.38302		70.72000		324.00000 
 43692.65567		 892.42725			42800.22842		228.94600		875.00000 
 43692.65567		 305.27265			43387.38302		70.72000		324.00000 
 43692.65567		 892.42725			42800.22842		228.94600		875.00000 
 43692.65567		 305.27265			43387.38302		70.72000		324.00000 
 43692.65567		 892.42725			42800.22842		228.94600		875.00000 
 43692.65567		 305.27265			43387.38302		70.72000		324.00000 
 43692.65567		 892.42725			42800.22842		228.94600		875.00000 
 43692.65567		 305.27265			43387.38302		70.72000		324.00000 
 43692.65567		 892.42725			42800.22842		228.94600		875.00000 
 43692.65567		 305.27265			43387.38302		70.72000		324.00000 
 43692.65567		 892.42725			42800.22842		228.94600		875.00000 
 43692.65567		 305.27265			43387.38302		70.72000		324.00000 
 43692.65567		 892.42725			42800.22842		228.94600		875.00000 
 43692.65567		 305.27265			43387.38302		70.72000		324.00000 
 43692.65567		 892.42725			42800.22842		228.94600		875.00000 
 43692.65567		 305.27265			43387.38302		70.72000		324.00000 
 43692.65567		 892.42725			42800.22842		228.94600		875.00000 
 43692.65567		 305.27265			43387.38302		70.72000		324.00000 
 43692.65567		 892.42725			42800.22842		228.94600		875.00000 
 43692.65567		 305.27265			43387.38302		70.72000		324.00000 
 43692.65567		 892.42725			42800.22842		228.94600		875.00000 
 43692.65567		 305.27265			43387.38302		70.72000		324.00000 
 43692.65567		 892.42725			42800.22842		228.94600		875.00000 
 43692.65567		 305.27265			43387.38302		70.72000		324.00000 
 43692.65567		 892.42725			42800.22842		228.94600		875.00000 
 43692.65567		 305.27265			43387.38302		70.72000		324.00000 
 43692.65567		 892.42725			42800.22842		228.94600		875.00000 
 43692.65567		 305.27265			43387.38302		70.72000		324.00000 
 43692.65567		 892.42725			42800.22842		228.94600		875.00000 
 43692.65567		 305.27265			43387.38302		70.72000		324.00000 
 43692.65567		 892.42725			42800.22842		228.94600		875.00000 
 43692.65567		 305.27265			43387.38302		70.72000		324.00000 
 43692.65567		 892.42725			42800.22842		228.94600		875.00000 
 43692.65567		 305.27265			43387.38302		70.72000		324.00000 
 43692.65567		 892.42725			42800.22842		228.94600		875.00000 
 43692.65567		 305.27265			43387.38302		70.72000		324.00000 
 43692.65567		 892.42725			42800.22842		228.94600		875.00000 
 43692.65567		 305.27265			43387.38302		70.72000		324.00000 
 43692.65567		 892.42725			42800.22842		228.94600		875.00000 
 43692.65567		 305.27265			43387.38302		70.72000		324.00000 
 43692.65567		 892.42725			42800.22842		228.94600		875.00000 
 43692.65567		 305.27265			43387.38302		70.72000		324.00000 
 43692.65567		 892.42725			42800.22842		228.94600		875.00000 
 43692.65567		 305.27265			43387.38302		70.72000		324.00000 
 43692.65567		 892.42725			42800.22842		228.94600		875.00000 
 43692.65567		 305.27265			43387.38302		70.72000		324.00000 
 43692.65567		 892.42725			42800.22842		228.94600		875.00000 
 43692.65567		 305.27265			43387.38302		70.72000		324.00000 
 43692.65567		 892.42725			42800.22842		228.94600		875.00000 
 43692.65567		 305.27265			43387.38302		70.72000		324.00000 
 43692.65567		 892.42725			42800.22842		228.94600		875.00000 
 43692.65567		 305.27265			43387.38302		70.72000		324.00000 
 43692.65567		 892.42725			42800.22842		228.94600		875.00000 
 43692.65567		 305.27265			43387.38302		70.72000		324.00000 
 43692.65567		 892.42725			42800.22842		228.94600		875.00000 
 43692.65567		 305.27265			43387.38302		70.72000		324.00000 
 43692.65567		 892.42725			42800.22842		228.94600		875.00000 
 43692.65567		 305.27265			43387.38302		70.72000		324.00000 
 43692.65567		 892.42725			42800.22842		228.94600		875.00000 
 43692.65567		 305.27265			43387.38302		70.72000		324.00000 
 43692.65567		 892.42725			42800.22842		228.94600		875.00000 
 43692.65567		 305.27265			43387.38302		70.72000		324.00000 
 43692.65567		 892.42725			42800.22842		228.94600		875.00000 
 43692.65567		 305.27265			43387.38302		70.72000		324.00000 
 43692.65567		 892.42725			42800.22842		228.94600		875.00000 
 43692.65567		 305.27265			43387.38302		70.72000		324.00000 
 43692.65567		 892.42725			42800.22842		228.94600		875.00000 
 43692.65567		 305.27265			43387.38302		70.72000		324.00000 
 43692.65567		 892.42725			42800.22842		228.94600		875.00000 
 43692.65567		 305.27265			43387.38302		70.72000		324.00000 
 43692.65567		 892.42725			42800.22842		228.94600		875.00000 
 43692.65567		 305.27265			43387.38302		70.72000		324.00000 
 43692.65567		 892.42725			42800.22842		228.94600		875.00000 
 43692.65567		 305.27265			43387.38302		70.72000		324.00000 
 43692.65567		 892.42725			42800.22842		228.94600		875.00000 
 43692.65567		 305.27265			43387.38302		70.72000		324.00000 
 43692.65567		 892.42725			42800.22842		228.94600		875.00000 
 43692.65567		 305.27265			43387.38302		70.72000		324.00000 
 43692.65567		 892.42725			42800.22842		228.94600		875.00000 
 43692.65567		 305.27265			43387.38302		70.72000		324.00000 
 43692.65567		 892.42725			42800.22842		228.94600		875.00000 
 43692.65567		 305.27265			43387.38302		70.72000		324.00000 
 43692.65567		 892.42725			42800.22842		228.94600		875.00000 
 43692.65567		 305.27265			43387.38302		70.72000		324.00000 
 43692.65567		 892.42725			42800.22842		228.94600		875.00000 
 43692.65567		 305.27265			43387.38302		70.72000		324.00000 
 43692.65567		 892.42725			42800.22842		228.94600		875.00000 
 43692.65567		 305.27265			43387.38302		70.72000		324.00000 
 43692.65567		 892.42725			42800.22842		228.94600		875.00000 
 43692.65567		 305.27265			43387.38302		70.72000		324.00000 
 43692.65567		 892.42725			42800.22842		228.94600		875.00000 
 43692.65567		 305.27265			43387.38302		70.72000		324.00000 
 43692.65567		 892.42725			42800.22842		228.94600		875.00000 
 43692.65567		 305.27265			43387.38302		70.72000		324.00000 
 43692.65567		 892.42725			42800.22842		228.94600		875.00000 
 43692.65567		 305.27265			43387.38302		70.72000		324.00000 
 43692.65567		 892.42725			42800.22842		228.94600		875.00000 
 43692.65567		 305.27265			43387.38302		70.72000		324.00000 
 43692.65567		 892.42725			42800.22842		228.94600		875.00000 
 43692.65567		 305.27265			43387.38302		70.72000		324.00000 
 43692.65567		 892.42725			42800.22842		228.94600		875.00000 
 43692.65567		 305.27265			43387.38302		70.72000		324.00000 
 43692.65567		 892.42725			42800.22842		228.94600		875.00000 
 43692.65567		 305.27265			43387.38302		70.72000		324.00000 
 43692.65567		 892.42725			42800.22842		228.94600		875.00000 
 43692.65567		 305.27265			43387.38302		70.72000		324.00000 
 43692.65567		 892.42725			42800.22842		228.94600		875.00000 
 43692.65567		 305.27265			43387.38302		70.72000		324.00000 
 43692.65567		 892.42725			42800.22842		228.94600		875.00000 
 43692.65567		 305.27265			43387.38302		70.72000		324.00000 
 43692.65567		 892.42725			42800.22842		228.94600		875.00000 
 43692.65567		 305.27265			43387.38302		70.72000		324.00000 
 43692.65567		 892.42725			42800.22842		228.94600		875.00000 
 43692.65567		 305.27265			43387.38302		70.72000		324.00000 
 43692.65567		 892.42725			42800.22842		228.94600		875.00000 
 43692.65567		 305.27265			43387.38302		70.72000		324.00000 
 43692.65567		 892.42725			42800.22842		228.94600		875.00000 
 43692.65567		 305.27265			43387.38302		70.72000		324.00000 
 43692.65567		 892.42725			42800.22842		228.94600		875.00000 
 43692.65567		 305.27265			43387.38302		70.72000		324.00000 
 43692.65567		 892.42725			42800.22842		228.94600		875.00000 
 43692.65567		 305.27265			43387.38302		70.72000		324.00000 
 43692.65567		 892.42725			42800.22842		228.94600		875.00000 
 43692.65567		 305.27265			43387.38302		70.72000		324.00000 
 43692.65567		 892.42725			42800.22842		228.94600		875.00000 
 43692.65567		 305.27265			43387.38302		70.72000		324.00000 
 43692.65567		 892.42725			42800.22842		228.94600		875.00000 
 43692.65567		 305.27265			43387.38302		70.72000		324.00000 
 43692.65567		 892.42725			42800.22842		228.94600		875.00000 
 43692.65567		 305.27265			43387.38302		70.72000		324.00000 
 43692.65567		 892.42725			42800.22842		228.94600		875.00000 
 43692.65567		 305.27265			43387.38302		70.72000		324.00000 
 43692.65567		 892.42725			42800.22842		228.94600		875.00000 
 43692.65567		 305.27265			43387.38302		70.72000		324.00000 
 43692.65567		 892.42725			42800.22842		228.94600		875.00000 
 43692.65567		 305.27265			43387.38302		70.72000		324.00000 
 43692.65567		 892.42725			42800.22842		228.94600		875.00000 
 43692.65567		 305.27265			43387.38302		70.72000		324.00000 
 43692.65567		 892.42725			42800.22842		228.94600		875.00000 
 43692.65567		 305.27265			43387.38302		70.72000		324.00000 
 43692.65567		 892.42725			42800.22842		228.94600		875.00000 
 43692.65567		 305.27265			43387.38302		70.72000		324.00000 
 43692.65567		 892.42725			42800.22842		228.94600		875.00000 
 43692.65567		 305.27265			43387.38302		70.72000		324.00000 
 43692.65567		 892.42725			42800.22842		228.94600		875.00000 
 43692.65567		 305.27265			43387.38302		70.72000		324.00000 
 43692.65567		 892.42725			42800.22842		228.94600		875.00000 
 43692.65567		 305.27265			43387.38302		70.72000		324.00000 
 43692.65567		 892.42725			42800.22842		228.94600		875.00000 
 43692.65567		 305.27265			43387.38302		70.72000		324.00000 
 43692.65567		 892.42725			42800.22842		228.94600		875.00000 
 43692.65567		 305.27265			43387.38302		70.72000		324.00000 
 43692.65567		 892.42725			42800.22842		228.94600		875.00000 
 43692.65567		 305.27265			43387.38302		70.72000		324.00000 
 43692.65567		 892.42725			42800.22842		228.94600		875.00000 
 43692.65567		 305.27265			43387.38302		70.72000		324.00000 
 43692.65567		 892.42725			42800.22842		228.94600		875.00000 
 43692.65567		 305.27265			43387.38302		70.72000		324.00000 
 43692.65567		 892.42725			42800.22842		228.94600		875.00000 
 43692.65567		 305.27265			43387.38302		70.72000		324.00000 
 43692.65567		 892.42725			42800.22842		228.94600		875.00000 
 43692.65567		 305.27265			43387.38302		70.72000		324.00000 
 43692.65567		 892.42725			42800.22842		228.94600		875.00000 
 43692.65567		 305.27265			43387.38302		70.72000		324.00000 
 43692.65567		 892.42725			42800.22842		228.94600		875.00000 
 43692.65567		 305.27265			43387.38302		70.72000		324.00000 
 43692.65567		 892.42725			42800.22842		228.94600		875.00000 
 43692.65567		 305.27265			43387.38302		70.72000		324.00000 
 43692.65567		 892.42725			42800.22842		228.94600		875.00000 
 43692.65567		 305.27265			43387.38302		70.72000		324.00000 
 43692.65567		 892.42725			42800.22842		228.94600		875.00000 
 43692.65567		 305.27265			43387.38302		70.72000		324.00000 
 43692.65567		 892.42725			42800.22842		228.94600		875.00000 
 43692.65567		 305.27265			43387.38302		70.72000		324.00000 
 43692.65567		 892.42725			42800.22842		228.94600		875.00000 
 43692.65567		 305.27265			43387.38302		70.72000		324.00000 
 43692.65567		 892.42725			42800.22842		228.94600		875.00000 
 43692.65567		 305.27265			43387.38302		70.72000		324.00000 
 43692.65567		 892.42725			42800.22842		228.94600		875.00000 
 43692.65567		 305.27265			43387.38302		70.72000		324.00000 
 43692.65567		 892.42725			42800.22842		228.94600		875.00000 
 43692.65567		 305.27265			43387.38302		70.72000		324.00000 
 43692.65567		 892.42725			42800.22842		228.94600		875.00000 
 43692.65567		 305.27265			43387.38302		70.72000		324.00000 
 43692.65567		 892.42725			42800.22842		228.94600		875.00000 
 43692.65567		 305.27265			43387.38302		70.72000		324.00000 
 43692.65567		 892.42725			42800.22842		228.94600		875.00000 
 43692.65567		 305.27265			43387.38302		70.72000		324.00000 
 43692.65567		 892.42725			42800.22842		228.94600		875.00000 
 43692.65567		 305.27265			43387.38302		70.72000		324.00000 
 43692.65567		 892.42725			42800.22842		228.94600		875.00000 
 43692.65567		 305.27265			43387.38302		70.72000		324.00000 
 43692.65567		 892.42725			42800.22842		228.94600		875.00000 
 43692.65567		 305.27265			43387.38302		70.72000		324.00000 
 43692.65567		 892.42725			42800.22842		228.94600		875.00000 
 43692.65567		 305.27265			43387.38302		70.72000		324.00000 
 43692.65567		 892.42725			42800.22842		228.94600		875.00000 
 43692.65567		 305.27265			43387.38302		70.72000		324.00000 
 43692.65567		 892.42725			42800.22842		228.94600		875.00000 
 43692.65567		 305.27265			43387.38302		70.72000		324.00000 
 43692.65567		 892.42725			42800.22842		228.94600		875.00000 
 43692.65567		 305.27265			43387.38302		70.72000		324.00000 
 43692.65567		 892.42725			42800.22842		228.94600		875.00000 
 43692.65567		 305.27265			43387.38302		70.72000		324.00000 
 43692.65567		 892.42725			42800.22842		228.94600		875.00000 
 43692.65567		 305.27265			43387.38302		70.72000		324.00000 
 43692.65567		 892.42725			42800.22842		228.94600		875.00000 
 43692.65567		 305.27265			43387.38302		70.72000		324.00000 
 43692.65567		 892.42725			42800.22842		228.94600		875.00000 
 43692.65567		 305.27265			43387.38302		70.72000		324.00000 
 43692.65567		 892.42725			42800.22842		228.94600		875.00000 
 43692.65567		 305.27265			43387.38302		70.72000		324.00000 
 43692.65567		 892.42725			42800.22842		228.94600		875.00000 
 43692.65567		 305.27265			43387.38302		70.72000		324.00000 
 43692.65567		 892.42725			42800.22842		228.94600		875.00000 
 43692.65567		 305.27265			43387.38302		70.72000		324.00000 
 43692.65567		 892.42725			42800.22842		228.94600		875.00000 
 43692.65567		 305.27265			43387.38302		70.72000		324.00000 
 43692.65567		 892.42725			42800.22842		228.94600		875.00000 
 43692.65567		 305.27265			43387.38302		70.72000		324.00000 
 43692.65567		 892.42725			42800.22842		228.94600		875.00000 
 43692.65567		 305.27265			43387.38302		70.72000		324.00000 
 43692.65567		 892.42725			42800.22842		228.94600		875.00000 
 43692.65567		 305.27265			43387.38302		70.72000		324.00000 
 43692.65567		 892.42725			42800.22842		228.94600		875.00000 
 43692.65567		 305.27265			43387.38302		70.72000		324.00000 
 43692.65567		 892.42725			42800.22842		228.94600		875.00000 
 43692.65567		 305.27265			43387.38302		70.72000		324.00000 
 43692.65567		 892.42725			42800.22842		228.94600		875.00000 
 43692.65567		 305.27265			43387.38302		70.72000		324.00000 
 43692.65567		 892.42725			42800.22842		228.94600		875.00000 
 43692.65567		 305.27265			43387.38302		70.72000		324.00000 
 43692.65567		 892.42725			42800.22842		228.94600		875.00000 
 43692.65567		 305.27265			43387.38302		70.72000		324.00000 
 43692.65567		 892.42725			42800.22842		228.94600		875.00000 
 43692.65567		 305.27265			43387.38302		70.72000		324.00000 
 43692.65567		 892.42725			42800.22842		228.94600		875.00000 
 43692.65567		 305.27265			43387.38302		70.72000		324.00000 
 43692.65567		 892.42725			42800.22842		228.94600		875.00000 
 43692.65567		 305.27265			43387.38302		70.72000		324.00000 
 43692.65567		 892.42725			42800.22842		228.94600		875.00000 
 43692.65567		 305.27265			43387.38302		70.72000		324.00000 
 43692.65567		 892.42725			42800.22842		228.94600		875.00000 
 43692.65567		 305.27265			43387.38302		70.72000		324.00000 
 43692.65567		 892.42725			42800.22842		228.94600		875.00000 
 43692.65567		 305.27265			43387.38302		70.72000		324.00000 
 43692.65567		 892.42725			42800.22842		228.94600		875.00000 
 43692.65567		 305.27265			43387.38302		70.72000		324.00000 
 43692.65567		 892.42725			42800.22842		228.94600		875.00000 
 43692.65567		 305.27265			43387.38302		70.72000		324.00000 
 43692.65567		 892.42725			42800.22842		228.94600		875.00000 
 43692.65567		 305.27265			43387.38302		70.72000		324.00000 
 43692.65567		 892.42725			42800.22842		228.94600		875.00000 
 43692.65567		 305.27265			43387.38302		70.72000		324.00000 
 43692.65567		 892.42725			42800.22842		228.94600		875.00000 
 43692.65567		 305.27265			43387.38302		70.72000		324.00000 
 43692.65567		 892.42725			42800.22842		228.94600		875.00000 
 43692.65567		 305.27265			43387.38302		70.72000		324.00000 
 43692.65567		 892.42725			42800.22842		228.94600		875.00000 
 43692.65567		 305.27265			43387.38302		70.72000		324.00000 
 43692.65567		 892.42725			42800.22842		228.94600		875.00000 
 43692.65567		 305.27265			43387.38302		70.72000		324.00000 
 43692.65567		 892.42725			42800.22842		228.94600		875.00000 
 43692.65567		 305.27265			43387.38302		70.72000		324.00000 
 43692.65567		 892.42725			42800.22842		228.94600		875.00000 
 43692.65567		 305.27265			43387.38302		70.72000		324.00000 
 43692.65567		 892.42725			42800.22842		228.94600		875.00000 
 43692.65567		 305.27265			43387.38302		70.72000		324.00000 
 43692.65567		 892.42725			42800.22842		228.94600		875.00000 
 43692.65567		 305.27265			43387.38302		70.72000		324.00000 
 43692.65567		 892.42725			42800.22842		228.94600		875.00000 
 43692.65567		 305.27265			43387.38302		70.72000		324.00000 
 43692.65567		 892.42725			42800.22842		228.94600		875.00000 
 43692.65567		 305.27265			43387.38302		70.72000		324.00000 
 43692.65567		 892.42725			42800.22842		228.94600		875.00000 
 43692.65567		 305.27265			43387.38302		70.72000		324.00000 
 43692.65567		 892.42725			42800.22842		228.94600		875.00000 
 43692.65567		 305.27265			43387.38302		70.72000		324.00000 
 43692.65567		 892.42725			42800.22842		228.94600		875.00000 
 43692.65567		 305.27265			43387.38302		70.72000		324.00000 
 43692.65567		 892.42725			42800.22842		228.94600		875.00000 
 43692.65567		 305.27265			43387.38302		70.72000		324.00000 
 43692.65567		 892.42725			42800.22842		228.94600		875.00000 
 43692.65567		 305.27265			43387.38302		70.72000		324.00000 
 43692.65567		 892.42725			42800.22842		228.94600		875.00000 
 43692.65567		 305.27265			43387.38302		70.72000		324.00000 
 43692.65567		 892.42725			42800.22842		228.94600		875.00000 
 43692.65567		 305.27265			43387.38302		70.72000		324.00000 
 43692.65567		 892.42725			42800.22842		228.94600		875.00000 
 43692.65567		 305.27265			43387.38302		70.72000		324.00000 
 43692.65567		 892.42725			42800.22842		228.94600		875.00000 
 43692.65567		 305.27265			43387.38302		70.72000		324.00000 
 43692.65567		 892.42725			42800.22842		228.94600		875.00000 
 43692.65567		 305.27265			43387.38302		70.72000		324.00000 
 43692.65567		 892.42725			42800.22842		228.94600		875.00000 
 43692.65567		 305.27265			43387.38302		70.72000		324.00000 
 43692.65567		 892.42725			42800.22842		228.94600		875.00000 
 43692.65567		 305.27265			43387.38302		70.72000		324.00000 
 43692.65567		 892.42725			42800.22842		228.94600		875.00000 
 43692.65567		 305.27265			43387.38302		70.72000		324.00000 
 43692.65567		 892.42725			42800.22842		228.94600		875.00000 
 43692.65567		 305.27265			43387.38302		70.72000		324.00000 
 43692.65567		 892.42725			42800.22842		228.94600		875.00000 
 43692.65567		 305.27265			43387.38302		70.72000		324.00000 
 43692.65567		 892.42725			42800.22842		228.94600		875.00000 
 43692.65567		 305.27265			43387.38302		70.72000		324.00000 
 43692.65567		 892.42725			42800.22842		228.94600		875.00000 
 43692.65567		 305.27265			43387.38302		70.72000		324.00000 
 43692.65567		 892.42725			42800.22842		228.94600		875.00000 
 43692.65567		 305.27265			43387.38302		70.72000		324.00000 
 43692.65567		 892.42725			42800.22842		228.94600		875.00000 
 43692.65567		 305.27265			43387.38302		70.72000		324.00000 
 43692.65567		 892.42725			42800.22842		228.94600		875.00000 
 43692.65567		 305.27265			43387.38302		70.72000		324.00000 
 43692.65567		 892.42725			42800.22842		228.94600		875.00000 
 43692.65567		 305.27265			43387.38302		70.72000		324.00000 
 43692.65567		 892.42725			42800.22842		228.94600		875.00000 
 43692.65567		 305.27265			43387.38302		70.72000		324.00000 
 43692.65567		 892.42725			42800.22842		228.94600		875.00000 
 43692.65567		 305.27265			43387.38302		70.72000		324.00000 
 43692.65567		 892.42725			42800.22842		228.94600		875.00000 
 43692.65567		 305.27265			43387.38302		70.72000		324.00000 
 43692.65567		 892.42725			42800.22842		228.94600		875.00000 
 43692.65567		 305.27265			43387.38302		70.72000		324.00000 
 43692.65567		 892.42725			42800.22842		228.94600		875.00000 
 43692.65567		 305.27265			43387.38302		70.72000		324.00000 
 43692.65567		 892.42725			42800.22842		228.94600		875.00000 
 43692.65567		 305.27265			43387.38302		70.72000		324.00000 
 43692.65567		 892.42725			42800.22842		228.94600		875.00000 
 43692.65567		 305.27265			43387.38302		70.72000		324.00000 
 43692.65567		 892.42725			42800.22842		228.94600		875.00000 
 43692.65567		 305.27265			43387.38302		70.72000		324.00000 
 43692.65567		 892.42725			42800.22842		228.94600		875.00000 
 43692.65567		 305.27265			43387.38302		70.72000		324.00000 
 43692.65567		 892.42725			42800.22842		228.94600		875.00000 
 43692.65567		 305.27265			43387.38302		70.72000		324.00000 
 43692.65567		 892.42725			42800.22842		228.94600		875.00000 
 43692.65567		 305.27265			43387.38302		70.72000		324.00000 
 43692.65567		 892.42725			42800.22842		228.94600		875.00000 
 43692.65567		 305.27265			43387.38302		70.72000		324.00000 
 43692.65567		 892.42725			42800.22842		228.94600		875.00000 
 43692.65567		 305.27265			43387.38302		70.72000		324.00000 
 43692.65567		 892.42725			42800.22842		228.94600		875.00000 
 43692.65567		 305.27265			43387.38302		70.72000		324.00000 
 43692.65567		 892.42725			42800.22842		228.94600		875.00000 
 43692.65567		 305.27265			43387.38302		70.72000		324.00000 
 43692.65567		 892.42725			42800.22842		228.94600		875.00000 
 43692.65567		 305.27265			43387.38302		70.72000		324.00000 
 43692.65567		 892.42725			42800.22842		228.94600		875.00000 
 43692.65567		 305.27265			43387.38302		70.72000		324.00000 
 43692.65567		 892.42725			42800.22842		228.94600		875.00000 
 43692.65567		 305.27265			43387.38302		70.72000		324.00000 
 43692.65567		 892.42725			42800.22842		228.94600		875.00000 
 43692.65567		 305.27265			43387.38302		70.72000		324.00000 
 43692.65567		 892.42725			42800.22842		228.94600		875.00000 
 43692.65567		 305.27265			43387.38302		70.72000		324.00000 
 43692.65567		 892.42725			42800.22842		228.94600		875.00000 
 43692.65567		 305.27265			43387.38302		70.72000		324.00000 
 43692.65567		 892.42725			42800.22842		228.94600		875.00000 
 43692.65567		 305.27265			43387.38302		70.72000		324.00000 
 43692.65567		 892.42725			42800.22842		228.94600		875.00000 
 43692.65567		 305.27265			43387.38302		70.72000		324.00000 
 43692.65567		 892.42725			42800.22842		228.94600		875.00000 
 43692.65567		 305.27265			43387.38302		70.72000		324.00000 
 43692.65567		 892.42725			42800.22842		228.94600		875.00000 
 43692.65567		 305.27265			43387.38302		70.72000		324.00000 
 43692.65567		 892.42725			42800.22842		228.94600		875.00000 
 43692.65567		 305.27265			43387.38302		70.72000		324.00000 
 43692.65567		 892.42725			42800.22842		228.94600		875.00000 
 43692.65567		 305.27265			43387.38302		70.72000		324.00000 
 43692.65567		 892.42725			42800.22842		228.94600		875.00000 
 43692.65567		 305.27265			43387.38302		70.72000		324.00000 
 43692.65567		 892.42725			42800.22842		228.94600		875.00000 
 43692.65567		 305.27265			43387.38302		70.72000		324.00000 
 43692.65567		 892.42725			42800.22842		228.94600		875.00000 
 43692.65567		 305.27265			43387.38302		70.72000		324.00000 
 43692.65567		 892.42725			42800.22842		228.94600		875.00000 
 43692.65567		 305.27265			43387.38302		70.72000		324.00000 
 43692.65567		 892.42725			42800.22842		228.94600		875.00000 
 43692.65567		 305.27265			43387.38302		70.72000		324.00000 
 43692.65567		 892.42725			42800.22842		228.94600		875.00000 
 43692.65567		 305.27265			43387.38302		70.72000		324.00000 
 43692.65567		 892.42725			42800.22842		228.94600		875.00000 
 43692.65567		 305.27265			43387.38302		70.72000		324.00000 
 43692.65567		 892.42725			42800.22842		228.94600		875.00000 
 43692.65567		 305.27265			43387.38302		70.72000		324.00000 
 43692.65567		 892.42725			42800.22842		228.94600		875.00000 
 43692.65567		 305.27265			43387.38302		70.72000		324.00000 
 43692.65567		 892.42725			42800.22842		228.94600		875.00000 
 43692.65567		 305.27265			43387.38302		70.72000		324.00000 
 43692.65567		 892.42725			42800.22842		228.94600		875.00000 
 43692.65567		 305.27265			43387.38302		70.72000		324.00000 
 43692.65567		 892.42725			42800.22842		228.94600		875.00000 
 43692.65567		 305.27265			43387.38302		70.72000		324.00000 
 43692.65567		 892.42725			42800.22842		228.94600		875.00000 
 43692.65567		 305.27265			43387.38302		70.72000		324.00000 
 43692.65567		 892.42725			42800.22842		228.94600		875.00000 
 43692.65567		 305.27265			43387.38302		70.72000		324.00000 
 43692.65567		 892.42725			42800.22842		228.94600		875.00000 
 43692.65567		 305.27265			43387.38302		70.72000		324.00000 
 43692.65567		 892.42725			42800.22842		228.94600		875.00000 
 43692.65567		 305.27265			43387.38302		70.72000		324.00000 
 43692.65567		 892.42725			42800.22842		228.94600		875.00000 
 43692.65567		 305.27265			43387.38302		70.72000		324.00000 
 43692.65567		 892.42725			42800.22842		228.94600		875.00000 
 43692.65567		 305.27265			43387.38302		70.72000		324.00000 
 43692.65567		 892.42725			42800.22842		228.94600		875.00000 
 43692.65567		 305.27265			43387.38302		70.72000		324.00000 
 43692.65567		 892.42725			42800.22842		228.94600		875.00000 
 43692.65567		 305.27265			43387.38302		70.72000		324.00000 
 43692.65567		 892.42725			42800.22842		228.94600		875.00000 
 43692.65567		 305.27265			43387.38302		70.72000		324.00000 
 43692.65567		 892.42725			42800.22842		228.94600		875.00000 
 43692.65567		 305.27265			43387.38302		70.72000		324.00000 
 43692.65567		 892.42725			42800.22842		228.94600		875.00000 
 43692.65567		 305.27265			43387.38302		70.72000		324.00000 
 43692.65567		 892.42725			42800.22842		228.94600		875.00000 
 43692.65567		 305.27265			43387.38302		70.72000		324.00000 
 43692.65567		 892.42725			42800.22842		228.94600		875.00000 
 43692.65567		 305.27265			43387.38302		70.72000		324.00000 
 43692.65567		 892.42725			42800.22842		228.94600		875.00000 
 43692.65567		 305.27265			43387.38302		70.72000		324.00000 
 43692.65567		 892.42725			42800.22842		228.94600		875.00000 
 43692.65567		 305.27265			43387.38302		70.72000		324.00000 
 43692.65567		 892.42725			42800.22842		228.94600		875.00000 
 43692.65567		 305.27265			43387.38302		70.72000		324.00000 
 43692.65567		 892.42725			42800.22842		228.94600		875.00000 
 43692.65567		 305.27265			43387.38302		70.72000		324.00000 
 43692.65567		 892.42725			42800.22842		228.94600		875.00000 
 43692.65567		 305.27265			43387.38302		70.72000		324.00000 
 43692.65567		 892.42725			42800.22842		228.94600		875.00000 
 43692.65567		 305.27265			43387.38302		70.72000		324.00000 
 43692.65567		 892.42725			42800.22842		228.94600		875.00000 
 43692.65567		 305.27265			43387.38302		70.72000		324.00000 
 43692.65567		 892.42725			42800.22842		228.94600		875.00000 
 43692.65567		 305.27265			43387.38302		70.72000		324.00000 
 43692.65567		 892.42725			42800.22842		228.94600		875.00000 
 43692.65567		 305.27265			43387.38302		70.72000		324.00000 
 43692.65567		 892.42725			42800.22842		228.94600		875.00000 
 43692.65567		 305.27265			43387.38302		70.72000		324.00000 
 43692.65567		 892.42725			42800.22842		228.94600		875.00000 
 43692.65567		 305.27265			43387.38302		70.72000		324.00000 
 43692.65567		 892.42725			42800.22842		228.94600		875.00000 
 43692.65567		 305.27265			43387.38302		70.72000		324.00000 
 43692.65567		 892.42725			42800.22842		228.94600		875.00000 
 43692.65567		 305.27265			43387.38302		70.72000		324.00000 
 43692.65567		 892.42725			42800.22842		228.94600		875.00000 
 43692.65567		 305.27265			43387.38302		70.72000		324.00000 
 43692.65567		 892.42725			42800.22842		228.94600		875.00000 
 43692.65567		 305.27265			43387.38302		70.72000		324.00000 
 43692.65567		 892.42725			42800.22842		228.94600		875.00000 
 43692.65567		 305.27265			43387.38302		70.72000		324.00000 
 43692.65567		 892.42725			42800.22842		228.94600		875.00000 
 43692.65567		 305.27265			43387.38302		70.72000		324.00000 
 43692.65567		 892.42725			42800.22842		228.94600		875.00000 
 43692.65567		 305.27265			43387.38302		70.72000		324.00000 
 43692.65567		 892.42725			42800.22842		228.94600		875.00000 
 43692.65567		 305.27265			43387.38302		70.72000		324.00000 
 43692.65567		 892.42725			42800.22842		228.94600		875.00000 
 43692.65567		 305.27265			43387.38302		70.72000		324.00000 
 43692.65567		 892.42725			42800.22842		228.94600		875.00000 
 43692.65567		 305.27265			43387.38302		70.72000		324.00000 
 43692.65567		 892.42725			42800.22842		228.94600		875.00000 
 43692.65567		 305.27265			43387.38302		70.72000		324.00000 
 43692.65567		 892.42725			42800.22842		228.94600		875.00000 
 43692.65567		 305.27265			43387.38302		70.72000		324.00000 
 43692.65567		 892.42725			42800.22842		228.94600		875.00000 
 43692.65567		 305.27265			43387.38302		70.72000		324.00000 
 43692.65567		 892.42725			42800.22842		228.94600		875.00000 
 43692.65567		 305.27265			43387.38302		70.72000		324.00000 
 43692.65567		 892.42725			42800.22842		228.94600		875.00000 
 43692.65567		 305.27265			43387.38302		70.72000		324.00000 
 43692.65567		 892.42725			42800.22842		228.94600		875.00000 
 43692.65567		 305.27265			43387.38302		70.72000		324.00000 
 43692.65567		 892.42725			42800.22842		228.94600		875.00000 
 43692.65567		 305.27265			43387.38302		70.72000		324.00000 
 43692.65567		 892.42725			42800.22842		228.94600		875.00000 
 43692.65567		 305.27265			43387.38302		70.72000		324.00000 
 43692.65567		 892.42725			42800.22842		228.94600		875.00000 
 43692.65567		 305.27265			43387.38302		70.72000		324.00000 
 43692.65567		 892.42725			42800.22842		228.94600		875.00000 
 43692.65567		 305.27265			43387.38302		70.72000		324.00000 
 43692.65567		 892.42725			42800.22842		228.94600		875.00000 
 43692.65567		 305.27265			43387.38302		70.72000		324.00000 
 43692.65567		 892.42725			42800.22842		228.94600		875.00000 
 43692.65567		 305.27265			43387.38302		70.72000		324.00000 
 43692.65567		 892.42725			42800.22842		228.94600		875.00000 
 43692.65567		 305.27265			43387.38302		70.72000		324.00000 
 43692.65567		 892.42725			42800.22842		228.94600		875.00000 
 43692.65567		 305.27265			43387.38302		70.72000		324.00000 
 43692.65567		 892.42725			42800.22842		228.94600		875.00000 
 43692.65567		 305.27265			43387.38302		70.72000		324.00000 
 43692.65567		 892.42725			42800.22842		228.94600		875.00000 
 43692.65567		 305.27265			43387.38302		70.72000		324.00000 
 43692.65567		 892.42725			42800.22842		228.94600		875.00000 
 43692.65567		 305.27265			43387.38302		70.72000		324.00000 
 43692.65567		 892.42725			42800.22842		228.94600		875.00000 
 43692.65567		 305.27265			43387.38302		70.72000		324.00000 
 43692.65567		 892.42725			42800.22842		228.94600		875.00000 
 43692.65567		 305.27265			43387.38302		70.72000		324.00000 
 43692.65567		 892.42725			42800.22842		228.94600		875.00000 
 43692.65567		 305.27265			43387.38302		70.72000		324.00000 
 43692.65567		 892.42725			42800.22842		228.94600		875.00000 
 43692.65567		 305.27265			43387.38302		70.72000		324.00000 
 43692.65567		 892.42725			42800.22842		228.94600		875.00000 
 43692.65567		 305.27265			43387.38302		70.72000		324.00000 
 43692.65567		 892.42725			42800.22842		228.94600		875.00000 
 43692.65567		 305.27265			43387.38302		70.72000		324.00000 
 43692.65567		 892.42725			42800.22842		228.94600		875.00000 
 43692.65567		 305.27265			43387.38302		70.72000		324.00000 
 43692.65567		 892.42725			42800.22842		228.94600		875.00000 
 43692.65567		 305.27265			43387.38302		70.72000		324.00000 
 43692.65567		 892.42725			42800.22842		228.94600		875.00000 
 43692.65567		 305.27265			43387.38302		70.72000		324.00000 
 43692.65567		 892.42725			42800.22842		228.94600		875.00000 
 43692.65567		 305.27265			43387.38302		70.72000		324.00000 
 43692.65567		 892.42725			42800.22842		228.94600		875.00000 
 43692.65567		 305.27265			43387.38302		70.72000		324.00000 
 43692.65567		 892.42725			42800.22842		228.94600		875.00000 
 43692.65567		 305.27265			43387.38302		70.72000		324.00000 
 43692.65567		 892.42725			42800.22842		228.94600		875.00000 
 43692.65567		 305.27265			43387.38302		70.72000		324.00000 
 43692.65567		 892.42725			42800.22842		228.94600		875.00000 
 43692.65567		 305.27265			43387.38302		70.72000		324.00000 
 43692.65567		 892.42725			42800.22842		228.94600		875.00000 
 43692.65567		 305.27265			43387.38302		70.72000		324.00000 
 43692.65567		 892.42725			42800.22842		228.94600		875.00000 
 43692.65567		 305.27265			43387.38302		70.72000		324.00000 
 43692.65567		 892.42725			42800.22842		228.94600		875.00000 
 43692.65567		 305.27265			43387.38302		70.72000		324.00000 
 43692.65567		 892.42725			42800.22842		228.94600		875.00000 
 43692.65567		 305.27265			43387.38302		70.72000		324.00000 
 43692.65567		 892.42725			42800.22842		228.94600		875.00000 
 43692.65567		 305.27265			43387.38302		70.72000		324.00000 
 43692.65567		 892.42725			42800.22842		228.94600		875.00000 
 43692.65567		 305.27265			43387.38302		70.72000		324.00000 
 43692.65567		 892.42725			42800.22842		228.94600		875.00000 
 43692.65567		 305.27265			43387.38302		70.72000		324.00000 
 43692.65567		 892.42725			42800.22842		228.94600		875.00000 
 43692.65567		 305.27265			43387.38302		70.72000		324.00000 
 43692.65567		 892.42725			42800.22842		228.94600		875.00000 
 43692.65567		 305.27265			43387.38302		70.72000		324.00000 
 43692.65567		 892.42725			42800.22842		228.94600		875.00000 
 43692.65567		 305.27265			43387.38302		70.72000		324.00000 
 43692.65567		 892.42725			42800.22842		228.94600		875.00000 
 43692.65567		 305.27265			43387.38302		70.72000		324.00000 
 43692.65567		 892.42725			42800.22842		228.94600		875.00000 
 43692.65567		 305.27265			43387.38302		70.72000		324.00000 
 43692.65567		 892.42725			42800.22842		228.94600		875.00000 
 43692.65567		 305.27265			43387.38302		70.72000		324.00000 
 43692.65567		 892.42725			42800.22842		228.94600		875.00000 
 43692.65567		 305.27265			43387.38302		70.72000		324.00000 
 43692.65567		 892.42725			42800.22842		228.94600		875.00000 
 43692.65567		 305.27265			43387.38302		70.72000		324.00000 
 43692.65567		 892.42725			42800.22842		228.94600		875.00000 
 43692.65567		 305.27265			43387.38302		70.72000		324.00000 
 43692.65567		 892.42725			42800.22842		228.94600		875.00000 
 43692.65567		 305.27265			43387.38302		70.72000		324.00000 
 43692.65567		 892.42725			42800.22842		228.94600		875.00000 
 43692.65567		 305.27265			43387.38302		70.72000		324.00000 
 43692.65567		 892.42725			42800.22842		228.94600		875.00000 
 43692.65567		 305.27265			43387.38302		70.72000		324.00000 
 43692.65567		 892.42725			42800.22842		228.94600		875.00000 
 43692.65567		 305.27265			43387.38302		70.72000		324.00000 
 43692.65567		 892.42725			42800.22842		228.94600		875.00000 
 43692.65567		 305.27265			43387.38302		70.72000		324.00000 
 43692.65567		 892.42725			42800.22842		228.94600		875.00000 
 43692.65567		 305.27265			43387.38302		70.72000		324.00000 
 43692.65567		 892.42725			42800.22842		228.94600		875.00000 
 43692.65567		 305.27265			43387.38302		70.72000		324.00000 
 43692.65567		 892.42725			42800.22842		228.94600		875.00000 
 43692.65567		 305.27265			43387.38302		70.72000		324.00000 
 43692.65567		 892.42725			42800.22842		228.94600		875.00000 
 43692.65567		 305.27265			43387.38302		70.72000		324.00000 
 43692.65567		 892.42725			42800.22842		228.94600		875.00000 
 43692.65567		 305.27265			43387.38302		70.72000		324.00000 
 43692.65567		 892.42725			42800.22842		228.94600		875.00000 
 43692.65567		 305.27265			43387.38302		70.72000		324.00000 
 43692.65567		 892.42725			42800.22842		228.94600		875.00000 
 43692.65567		 305.27265			43387.38302		70.72000		324.00000 
 43692.65567		 892.42725			42800.22842		228.94600		875.00000 
 43692.65567		 305.27265			43387.38302		70.72000		324.00000 
 43692.65567		 892.42725			42800.22842		228.94600		875.00000 
 43692.65567		 305.27265			43387.38302		70.72000		324.00000 
 43692.65567		 892.42725			42800.22842		228.94600		875.00000 
 43692.65567		 305.27265			43387.38302		70.72000		324.00000 
 43692.65567		 892.42725			42800.22842		228.94600		875.00000 
 43692.65567		 305.27265			43387.38302		70.72000		324.00000 
 43692.65567		 892.42725			42800.22842		228.94600		875.00000 
 43692.65567		 305.27265			43387.38302		70.72000		324.00000 
 43692.65567		 892.42725			42800.22842		228.94600		875.00000 
 43692.65567		 305.27265			43387.38302		70.72000		324.00000 
 43692.65567		 892.42725			42800.22842		228.94600		875.00000 
 43692.65567		 305.27265			43387.38302		70.72000		324.00000 
 43692.65567		 892.42725			42800.22842		228.94600		875.00000 
 43692.65567		 305.27265			43387.38302		70.72000		324.00000 
 43692.65567		 892.42725			42800.22842		228.94600		875.00000 
 43692.65567		 305.27265			43387.38302		70.72000		324.00000 
 43692.65567		 892.42725			42800.22842		228.94600		875.00000 
 43692.65567		 305.27265			43387.38302		70.72000		324.00000 
 43692.65567		 892.42725			42800.22842		228.94600		875.00000 
 43692.65567		 305.27265			43387.38302		70.72000		324.00000 
 43692.65567		 892.42725			42800.22842		228.94600		875.00000 
 43692.65567		 305.27265			43387.38302		70.72000		324.00000 
 43692.65567		 892.42725			42800.22842		228.94600		875.00000 
 43692.65567		 305.27265			43387.38302		70.72000		324.00000 
 43692.65567		 892.42725			42800.22842		228.94600		875.00000 
 43692.65567		 305.27265			43387.38302		70.72000		324.00000 
 43692.65567		 892.42725			42800.22842		228.94600		875.00000 
 43692.65567		 305.27265			43387.38302		70.72000		324.00000 
 43692.65567		 892.42725			42800.22842		228.94600		875.00000 
 43692.65567		 305.27265			43387.38302		70.72000		324.00000 
 43692.65567		 892.42725			42800.22842		229.54400		875.00000 
 43692.65567		 305.27265			43387.38302		70.72000		324.00000 
 43692.65567		 892.42725			42800.22842		229.54400		875.00000 
 43692.65567		 305.27265			43387.38302		70.72000		324.00000 
 43692.65567		 892.42725			42800.22842		229.54400		875.00000 
 43692.65567		 305.27265			43387.38302		70.72000		324.00000 
 43692.65567		 892.42725			42800.22842		229.54400		875.00000 
 43692.65567		 305.27265			43387.38302		70.72000		324.00000 
 43692.65567		 892.42725			42800.22842		229.54400		875.00000 
 43692.65567		 305.27265			43387.38302		70.72000		324.00000 
 43692.65567		 892.42725			42800.22842		229.54400		875.00000 
 43692.65567		 305.27265			43387.38302		70.72000		324.00000 
 43692.65567		 892.42725			42800.22842		229.54400		875.00000 
 43692.65567		 305.27265			43387.38302		70.72000		324.00000 
 43692.65567		 892.42725			42800.22842		229.54400		875.00000 
 43692.65567		 305.27265			43387.38302		70.72000		324.00000 
 43692.65567		 892.42725			42800.22842		229.54400		875.00000 
 43692.65567		 305.27265			43387.38302		70.72000		324.00000 
 43692.65567		 892.42725			42800.22842		229.54400		875.00000 
 43692.65567		 305.27265			43387.38302		70.72000		324.00000 
 43692.65567		 892.42725			42800.22842		229.54400		875.00000 
 43692.65567		 305.27265			43387.38302		70.72000		324.00000 
 43692.65567		 892.42725			42800.22842		229.54400		875.00000 
 43692.65567		 305.27265			43387.38302		70.72000		324.00000 
 43692.65567		 892.42725			42800.22842		229.54400		875.00000 
 43692.65567		 305.27265			43387.38302		70.72000		324.00000 
 43692.65567		 892.42725			42800.22842		229.54400		875.00000 
 43692.65567		 305.27265			43387.38302		70.72000		324.00000 
 43692.65567		 892.42725			42800.22842		229.54400		875.00000 
 43692.65567		 305.27265			43387.38302		70.72000		324.00000 
 43692.65567		 892.42725			42800.22842		229.54400		875.00000 
 43692.65567		 305.27265			43387.38302		70.72000		324.00000 
 43692.65567		 892.42725			42800.22842		229.54400		875.00000 
 43692.65567		 305.27265			43387.38302		70.72000		324.00000 
 43692.65567		 892.42725			42800.22842		229.54400		875.00000 
 43692.65567		 305.27265			43387.38302		70.72000		324.00000 
 43692.65567		 892.42725			42800.22842		229.54400		875.00000 
 43692.65567		 305.27265			43387.38302		70.72000		324.00000 
 43692.65567		 892.42725			42800.22842		229.54400		875.00000 
 43692.65567		 305.27265			43387.38302		70.72000		324.00000 
 43692.65567		 892.42725			42800.22842		229.54400		875.00000 
 43692.65567		 305.27265			43387.38302		70.72000		324.00000 
 43692.65567		 892.42725			42800.22842		229.54400		875.00000 
 43692.65567		 305.27265			43387.38302		70.72000		324.00000 
 43692.65567		 892.42725			42800.22842		229.54400		875.00000 
 43692.65567		 305.27265			43387.38302		70.72000		324.00000 
 43692.65567		 892.42725			42800.22842		229.54400		875.00000 
 43692.65567		 305.27265			43387.38302		70.72000		324.00000 
 43692.65567		 892.42725			42800.22842		229.54400		875.00000 
 43692.65567		 305.27265			43387.38302		70.72000		324.00000 
 43692.65567		 892.42725			42800.22842		229.54400		875.00000 
 43692.65567		 305.27265			43387.38302		70.72000		324.00000 
 43692.65567		 892.42725			42800.22842		229.54400		875.00000 
 43692.65567		 305.27265			43387.38302		70.72000		324.00000 
 43692.65567		 892.42725			42800.22842		229.54400		875.00000 
 43692.65567		 305.27265			43387.38302		70.72000		324.00000 
 43692.65567		 892.42725			42800.22842		229.54400		875.00000 
 43692.65567		 305.27265			43387.38302		70.72000		324.00000 
 43692.65567		 892.42725			42800.22842		229.54400		875.00000 
 43692.65567		 305.27265			43387.38302		70.72000		324.00000 
 43692.65567		 892.42725			42800.22842		229.54400		875.00000 
 43692.65567		 305.27265			43387.38302		70.72000		324.00000 
 43692.65567		 892.42725			42800.22842		229.54400		875.00000 
 43692.65567		 305.27265			43387.38302		70.72000		324.00000 
 43692.65567		 892.42725			42800.22842		229.54400		875.00000 
 43692.65567		 305.27265			43387.38302		70.72000		324.00000 
 43692.65567		 892.42725			42800.22842		229.54400		875.00000 
 43692.65567		 305.27265			43387.38302		70.72000		324.00000 
 43692.65567		 892.42725			42800.22842		229.54400		875.00000 
 43692.65567		 305.27265			43387.38302		70.72000		324.00000 
 43692.65567		 892.42725			42800.22842		229.54400		875.00000 
 43692.65567		 305.27265			43387.38302		70.72000		324.00000 
 43692.65567		 892.42725			42800.22842		229.54400		875.00000 
 43692.65567		 305.27265			43387.38302		70.72000		324.00000 
 43692.65567		 892.42725			42800.22842		229.54400		875.00000 
 43692.65567		 305.27265			43387.38302		70.72000		324.00000 
 43692.65567		 892.42725			42800.22842		229.54400		875.00000 
 43692.65567		 305.27265			43387.38302		70.72000		324.00000 
 43692.65567		 892.42725			42800.22842		229.54400		875.00000 
 43692.65567		 305.27265			43387.38302		70.72000		324.00000 
 43692.65567		 892.42725			42800.22842		229.54400		875.00000 
 43692.65567		 305.27265			43387.38302		70.72000		324.00000 
 43692.65567		 892.42725			42800.22842		229.54400		875.00000 
 43692.65567		 305.27265			43387.38302		70.72000		324.00000 
 43692.65567		 892.42725			42800.22842		229.54400		875.00000 
 43692.65567		 305.27265			43387.38302		70.72000		324.00000 
 43692.65567		 892.42725			42800.22842		229.54400		875.00000 
 43692.65567		 305.27265			43387.38302		70.72000		324.00000 
 43692.65567		 892.42725			42800.22842		229.54400		875.00000 
 43692.65567		 305.27265			43387.38302		70.72000		324.00000 
 43692.65567		 892.42725			42800.22842		229.54400		875.00000 
 43692.65567		 305.27265			43387.38302		70.72000		324.00000 
 43692.65567		 892.42725			42800.22842		229.54400		875.00000 
 43692.65567		 305.27265			43387.38302		70.72000		324.00000 
 43692.65567		 892.42725			42800.22842		229.54400		875.00000 
 43692.65567		 305.27265			43387.38302		70.72000		324.00000 
 43692.65567		 892.42725			42800.22842		229.54400		875.00000 
 43692.65567		 305.27265			43387.38302		70.72000		324.00000 
 43692.65567		 892.42725			42800.22842		229.54400		875.00000 
 43692.65567		 305.27265			43387.38302		70.72000		324.00000 
 43692.65567		 892.42725			42800.22842		229.54400		875.00000 
 43692.65567		 305.27265			43387.38302		70.72000		324.00000 
 43692.65567		 892.42725			42800.22842		229.54400		875.00000 
 43692.65567		 305.27265			43387.38302		70.72000		324.00000 
 43692.65567		 892.42725			42800.22842		229.54400		875.00000 
 43692.65567		 305.27265			43387.38302		70.72000		324.00000 
 43692.65567		 892.42725			42800.22842		229.54400		875.00000 
 43692.65567		 305.27265			43387.38302		70.72000		324.00000 
 43692.65567		 892.42725			42800.22842		229.54400		875.00000 
 43692.65567		 305.27265			43387.38302		70.72000		324.00000 
 43692.65567		 892.42725			42800.22842		229.54400		875.00000 
 43692.65567		 305.27265			43387.38302		70.72000		324.00000 
 43692.65567		 892.42725			42800.22842		229.54400		875.00000 
 43692.65567		 305.27265			43387.38302		70.72000		324.00000 
 43692.65567		 892.42725			42800.22842		229.54400		875.00000 
 43692.65567		 305.27265			43387.38302		70.72000		324.00000 
 43692.65567		 892.42725			42800.22842		229.54400		875.00000 
 43692.65567		 305.27265			43387.38302		70.72000		324.00000 
 43692.65567		 892.42725			42800.22842		229.54400		875.00000 
 43692.65567		 305.27265			43387.38302		70.72000		324.00000 
 43692.65567		 892.42725			42800.22842		229.54400		875.00000 
 43692.65567		 305.27265			43387.38302		70.72000		324.00000 
 43692.65567		 892.42725			42800.22842		229.54400		875.00000 
 43692.65567		 305.27265			43387.38302		70.72000		324.00000 
 43692.65567		 892.42725			42800.22842		229.54400		875.00000 
 43692.65567		 305.27265			43387.38302		70.72000		324.00000 
 43692.65567		 892.42725			42800.22842		229.54400		875.00000 
 43692.65567		 305.27265			43387.38302		70.72000		324.00000 
 43692.65567		 892.42725			42800.22842		228.94600		875.00000 
 43692.65567		 305.27265			43387.38302		70.72000		324.00000 
 43692.65567		 892.42725			42800.22842		228.94600		875.00000 
 43692.65567		 305.27265			43387.38302		70.72000		324.00000 
 43692.65567		 892.42725			42800.22842		228.94600		875.00000 
 43692.65567		 305.27265			43387.38302		70.72000		324.00000 
 43692.65567		 892.42725			42800.22842		228.94600		875.00000 
 43692.65567		 305.27265			43387.38302		70.72000		324.00000 
 43692.65567		 892.42725			42800.22842		228.94600		875.00000 
 43692.65567		 305.27265			43387.38302		70.72000		324.00000 
 43692.65567		 892.42725			42800.22842		228.94600		875.00000 
 43692.65567		 305.27265			43387.38302		70.72000		324.00000 
 43692.65567		 892.42725			42800.22842		228.94600		875.00000 
 43692.65567		 305.27265			43387.38302		70.72000		324.00000 
 43692.65567		 892.42725			42800.22842		228.94600		875.00000 
 43692.65567		 305.27265			43387.38302		70.72000		324.00000 
 43692.65567		 892.42725			42800.22842		228.94600		875.00000 
 43692.65567		 305.27265			43387.38302		70.72000		324.00000 
 43692.65567		 892.42725			42800.22842		228.94600		875.00000 
 43692.65567		 305.27265			43387.38302		70.72000		324.00000 
 43692.65567		 892.42725			42800.22842		228.94600		875.00000 
 43692.65567		 305.27265			43387.38302		70.72000		324.00000 
 43692.65567		 892.42725			42800.22842		228.94600		875.00000 
 43692.65567		 305.27265			43387.38302		70.72000		324.00000 
 43692.65567		 892.42725			42800.22842		228.94600		875.00000 
 43692.65567		 305.27265			43387.38302		70.72000		324.00000 
 43692.65567		 892.42725			42800.22842		228.94600		875.00000 
 43692.65567		 305.27265			43387.38302		70.72000		324.00000 
 43692.65567		 892.42725			42800.22842		228.94600		875.00000 
 43692.65567		 305.27265			43387.38302		70.72000		324.00000 
 43692.65567		 892.42725			42800.22842		228.94600		875.00000 
 43692.65567		 305.27265			43387.38302		70.72000		324.00000 
 43692.65567		 892.42725			42800.22842		228.94600		875.00000 
 43692.65567		 305.27265			43387.38302		70.72000		324.00000 
 43692.65567		 892.42725			42800.22842		228.94600		875.00000 
 43692.65567		 305.27265			43387.38302		70.72000		324.00000 
 43692.65567		 892.42725			42800.22842		228.94600		875.00000 
 43692.65567		 305.27265			43387.38302		70.72000		324.00000 
 43692.65567		 892.42725			42800.22842		228.94600		875.00000 
 43692.65567		 305.27265			43387.38302		70.72000		324.00000 
 43692.65567		 892.42725			42800.22842		228.94600		875.00000 
 43692.65567		 305.27265			43387.38302		70.72000		324.00000 
 43692.65567		 892.42725			42800.22842		228.94600		875.00000 
 43692.65567		 305.27265			43387.38302		70.72000		324.00000 
 43692.65567		 892.42725			42800.22842		228.94600		875.00000 
 43692.65567		 305.27265			43387.38302		70.72000		324.00000 
 43692.65567		 892.42725			42800.22842		228.94600		875.00000 
 43692.65567		 305.27265			43387.38302		70.72000		324.00000 
 43692.65567		 892.42725			42800.22842		228.94600		875.00000 
 43692.65567		 305.27265			43387.38302		70.72000		324.00000 
 43692.65567		 892.42725			42800.22842		228.94600		875.00000 
 43692.65567		 305.27265			43387.38302		70.72000		324.00000 
 43692.65567		 892.42725			42800.22842		228.94600		875.00000 
 43692.65567		 305.27265			43387.38302		70.72000		324.00000 
 43692.65567		 892.42725			42800.22842		228.94600		875.00000 
 43692.65567		 305.27265			43387.38302		70.72000		324.00000 
 43692.65567		 892.42725			42800.22842		228.94600		875.00000 
 43692.65567		 305.27265			43387.38302		70.72000		324.00000 
 43692.65567		 892.42725			42800.22842		228.94600		875.00000 
 43692.65567		 305.27265			43387.38302		70.72000		324.00000 
 43692.65567		 892.42725			42800.22842		228.94600		875.00000 
 43692.65567		 305.27265			43387.38302		70.72000		324.00000 
 43692.65567		 892.42725			42800.22842		228.94600		875.00000 
 43692.65567		 305.27265			43387.38302		70.72000		324.00000 
 43692.65567		 892.42725			42800.22842		228.94600		875.00000 
 43692.65567		 305.27265			43387.38302		70.72000		324.00000 
 43692.65567		 892.42725			42800.22842		228.94600		875.00000 
 43692.65567		 305.27265			43387.38302		70.72000		324.00000 
 43692.65567		 892.42725			42800.22842		228.94600		875.00000 
 43692.65567		 305.27265			43387.38302		70.72000		324.00000 
 43692.65567		 892.42725			42800.22842		228.94600		875.00000 
 43692.65567		 305.27265			43387.38302		70.72000		324.00000 
 43692.65567		 892.42725			42800.22842		228.94600		875.00000 
 43692.65567		 305.27265			43387.38302		70.72000		324.00000 
 43692.65567		 892.42725			42800.22842		228.94600		875.00000 
 43692.65567		 305.27265			43387.38302		70.72000		324.00000 
 43692.65567		 892.42725			42800.22842		228.94600		875.00000 
 43692.65567		 305.27265			43387.38302		70.72000		324.00000 
 43692.65567		 892.42725			42800.22842		228.94600		875.00000 
 43692.65567		 305.27265			43387.38302		70.72000		324.00000 
 43692.65567		 892.42725			42800.22842		228.94600		875.00000 
 43692.65567		 305.27265			43387.38302		70.72000		324.00000 
 43692.65567		 892.42725			42800.22842		228.94600		875.00000 
 43692.65567		 305.27265			43387.38302		70.72000		324.00000 
 43692.65567		 892.42725			42800.22842		228.94600		875.00000 
 43692.65567		 305.27265			43387.38302		70.72000		324.00000 
 43692.65567		 892.42725			42800.22842		228.94600		875.00000 
 43692.65567		 305.27265			43387.38302		70.72000		324.00000 
 43692.65567		 892.42725			42800.22842		228.94600		875.00000 
 43692.65567		 305.27265			43387.38302		70.72000		324.00000 
 43692.65567		 892.42725			42800.22842		228.94600		875.00000 
 43692.65567		 305.27265			43387.38302		70.72000		324.00000 
 43692.65567		 892.42725			42800.22842		228.94600		875.00000 
 43692.65567		 305.27265			43387.38302		70.72000		324.00000 
 43692.65567		 892.42725			42800.22842		228.94600		875.00000 
 43692.65567		 305.27265			43387.38302		70.72000		324.00000 
 43692.65567		 892.42725			42800.22842		228.94600		875.00000 
 43692.65567		 305.27265			43387.38302		70.72000		324.00000 
 43692.65567		 892.42725			42800.22842		228.94600		875.00000 
 43692.65567		 305.27265			43387.38302		70.72000		324.00000 
 43692.65567		 892.42725			42800.22842		228.94600		875.00000 
 43692.65567		 305.27265			43387.38302		70.72000		324.00000 
 43692.65567		 892.42725			42800.22842		228.94600		875.00000 
 43692.65567		 305.27265			43387.38302		70.72000		324.00000 
 43692.65567		 892.42725			42800.22842		228.94600		875.00000 
 43692.65567		 305.27265			43387.38302		70.72000		324.00000 
 43692.65567		 892.42725			42800.22842		228.94600		875.00000 
 43692.65567		 305.27265			43387.38302		70.72000		324.00000 
 43692.65567		 892.42725			42800.22842		228.94600		875.00000 
 43692.65567		 305.27265			43387.38302		70.72000		324.00000 
 43692.65567		 892.42725			42800.22842		228.94600		875.00000 
 43692.65567		 305.27265			43387.38302		70.72000		324.00000 
 43692.65567		 892.42725			42800.22842		228.94600		875.00000 
 43692.65567		 305.27265			43387.38302		70.72000		324.00000 
 43692.65567		 892.42725			42800.22842		228.94600		875.00000 
 43692.65567		 305.27265			43387.38302		70.72000		324.00000 
 43692.65567		 892.42725			42800.22842		228.94600		875.00000 
 43692.65567		 305.27265			43387.38302		70.72000		324.00000 
 43692.65567		 892.42725			42800.22842		228.94600		875.00000 
 43692.65567		 305.27265			43387.38302		70.72000		324.00000 
 43692.65567		 892.42725			42800.22842		228.94600		875.00000 
 43692.65567		 305.27265			43387.38302		70.72000		324.00000 
 43692.65567		 892.42725			42800.22842		228.94600		875.00000 
 43692.65567		 305.27265			43387.38302		70.72000		324.00000 
 43692.65567		 892.42725			42800.22842		228.94600		875.00000 
 43692.65567		 305.27265			43387.38302		70.72000		324.00000 
 43692.65567		 892.42725			42800.22842		228.94600		875.00000 
 43692.65567		 305.27265			43387.38302		70.72000		324.00000 
 43692.65567		 892.42725			42800.22842		228.94600		875.00000 
 43692.65567		 305.27265			43387.38302		70.72000		324.00000 
 43692.65567		 892.42725			42800.22842		228.94600		875.00000 
 43692.65567		 305.27265			43387.38302		70.72000		324.00000 
 43692.65567		 892.42725			42800.22842		228.94600		875.00000 
 43692.65567		 305.27265			43387.38302		70.72000		324.00000 
 43692.65567		 892.42725			42800.22842		228.94600		875.00000 
 43692.65567		 305.27265			43387.38302		70.72000		324.00000 
 43692.65567		 892.42725			42800.22842		228.94600		875.00000 
 43692.65567		 305.27265			43387.38302		70.72000		324.00000 
 43692.65567		 892.42725			42800.22842		228.94600		875.00000 
 43692.65567		 305.27265			43387.38302		70.72000		324.00000 
 43692.65567		 892.42725			42800.22842		228.94600		875.00000 
 43692.65567		 305.27265			43387.38302		70.72000		324.00000 
 43692.65567		 892.42725			42800.22842		228.94600		875.00000 
 43692.65567		 305.27265			43387.38302		70.72000		324.00000 
 43692.65567		 892.42725			42800.22842		228.94600		875.00000 
 43692.65567		 305.27265			43387.38302		70.72000		324.00000 
 43692.65567		 892.42725			42800.22842		228.94600		875.00000 
 43692.65567		 305.27265			43387.38302		70.72000		324.00000 
 43692.65567		 892.42725			42800.22842		228.94600		875.00000 
 43692.65567		 305.27265			43387.38302		70.72000		324.00000 
 43692.65567		 892.42725			42800.22842		228.94600		875.00000 
 43692.65567		 305.27265			43387.38302		70.72000		324.00000 
 43692.65567		 892.42725			42800.22842		228.94600		875.00000 
 43692.65567		 305.27265			43387.38302		70.72000		324.00000 
 43692.65567		 892.42725			42800.22842		228.94600		875.00000 
 43692.65567		 305.27265			43387.38302		70.72000		324.00000 
 43692.65567		 892.42725			42800.22842		228.94600		875.00000 
 43692.65567		 305.27265			43387.38302		70.72000		324.00000 
 43692.65567		 892.42725			42800.22842		228.94600		875.00000 
 43692.65567		 305.27265			43387.38302		70.72000		324.00000 
 43692.65567		 892.42725			42800.22842		228.94600		875.00000 
 43692.65567		 305.27265			43387.38302		70.72000		324.00000 
 43692.65567		 892.42725			42800.22842		228.94600		875.00000 
 43692.65567		 305.27265			43387.38302		70.72000		324.00000 
 43692.65567		 892.42725			42800.22842		228.94600		875.00000 
 43692.65567		 305.27265			43387.38302		70.72000		324.00000 
 43692.65567		 892.42725			42800.22842		228.94600		875.00000 
 43692.65567		 305.27265			43387.38302		70.72000		324.00000 
 43692.65567		 892.42725			42800.22842		228.94600		875.00000 
 43692.65567		 305.27265			43387.38302		70.72000		324.00000 
 43692.65567		 892.42725			42800.22842		228.94600		875.00000 
 43692.65567		 305.27265			43387.38302		70.72000		324.00000 
 43692.65567		 892.42725			42800.22842		228.94600		875.00000 
 43692.65567		 305.27265			43387.38302		70.72000		324.00000 
 43692.65567		 892.42725			42800.22842		228.94600		875.00000 
 43692.65567		 305.27265			43387.38302		70.72000		324.00000 
 43692.65567		 892.42725			42800.22842		228.94600		875.00000 
 43692.65567		 305.27265			43387.38302		70.72000		324.00000 
 43692.65567		 892.42725			42800.22842		228.94600		875.00000 
 43692.65567		 305.27265			43387.38302		70.72000		324.00000 
 43692.65567		 892.42725			42800.22842		228.94600		875.00000 
 43692.65567		 305.27265			43387.38302		70.72000		324.00000 
 43692.65567		 892.42725			42800.22842		228.94600		875.00000 
 43692.65567		 305.27265			43387.38302		70.72000		324.00000 
 43692.65567		 892.42725			42800.22842		228.94600		875.00000 
 43692.65567		 305.27265			43387.38302		70.72000		324.00000 
 43692.65567		 892.42725			42800.22842		228.94600		875.00000 
 43692.65567		 305.27265			43387.38302		70.72000		324.00000 
 43692.65567		 892.42725			42800.22842		228.94600		875.00000 
 43692.65567		 305.27265			43387.38302		70.72000		324.00000 
 43692.65567		 892.42725			42800.22842		228.94600		875.00000 
 43692.65567		 305.27265			43387.38302		70.72000		324.00000 
 43692.65567		 892.42725			42800.22842		228.94600		875.00000 
 43692.65567		 305.27265			43387.38302		70.72000		324.00000 
 43692.65567		 892.42725			42800.22842		228.94600		875.00000 
 43692.65567		 305.27265			43387.38302		70.72000		324.00000 
 43692.65567		 892.42725			42800.22842		228.94600		875.00000 
 43692.65567		 305.27265			43387.38302		70.72000		324.00000 
 43692.65567		 892.42725			42800.22842		228.94600		875.00000 
 43692.65567		 305.27265			43387.38302		70.72000		324.00000 
 43692.65567		 892.42725			42800.22842		228.94600		875.00000 
 43692.65567		 305.27265			43387.38302		70.72000		324.00000 
 43692.65567		 892.42725			42800.22842		228.94600		875.00000 
 43692.65567		 305.27265			43387.38302		70.72000		324.00000 
 43692.65567		 892.42725			42800.22842		228.94600		875.00000 
 43692.65567		 305.27265			43387.38302		70.72000		324.00000 
 43692.65567		 892.42725			42800.22842		228.94600		875.00000 
 43692.65567		 305.27265			43387.38302		70.72000		324.00000 
 43692.65567		 892.42725			42800.22842		228.94600		875.00000 
 43692.65567		 305.27265			43387.38302		70.72000		324.00000 
 43692.65567		 892.42725			42800.22842		228.94600		875.00000 
 43692.65567		 305.27265			43387.38302		70.72000		324.00000 
 43692.65567		 892.42725			42800.22842		228.94600		875.00000 
 43692.65567		 305.27265			43387.38302		70.72000		324.00000 
 43692.65567		 892.42725			42800.22842		228.94600		875.00000 
 43692.65567		 305.27265			43387.38302		70.72000		324.00000 
 43692.65567		 892.42725			42800.22842		228.94600		875.00000 
 43692.65567		 305.27265			43387.38302		70.72000		324.00000 
 43692.65567		 892.42725			42800.22842		228.94600		875.00000 
 43692.65567		 305.27265			43387.38302		70.72000		324.00000 
 43692.65567		 892.42725			42800.22842		228.94600		875.00000 
 43692.65567		 305.27265			43387.38302		70.72000		324.00000 
 43692.65567		 892.42725			42800.22842		228.94600		875.00000 
 43692.65567		 305.27265			43387.38302		70.72000		324.00000 
 43692.65567		 892.42725			42800.22842		228.94600		875.00000 
 43692.65567		 305.27265			43387.38302		70.72000		324.00000 
 43692.65567		 892.42725			42800.22842		228.94600		875.00000 
 43692.65567		 305.27265			43387.38302		70.72000		324.00000 
 43692.65567		 892.42725			42800.22842		228.94600		875.00000 
 43692.65567		 305.27265			43387.38302		70.72000		324.00000 
 43692.65567		 892.42725			42800.22842		228.94600		875.00000 
 43692.65567		 305.27265			43387.38302		70.72000		324.00000 
 43692.65567		 892.42725			42800.22842		228.94600		875.00000 
 43692.65567		 305.27265			43387.38302		70.72000		324.00000 
 43692.65567		 892.42725			42800.22842		228.94600		875.00000 
 43692.65567		 305.27265			43387.38302		70.72000		324.00000 
 43692.65567		 892.42725			42800.22842		228.94600		875.00000 
 43692.65567		 305.27265			43387.38302		70.72000		324.00000 
 43692.65567		 892.42725			42800.22842		228.94600		875.00000 
 43692.65567		 305.27265			43387.38302		70.72000		324.00000 
 43692.65567		 892.42725			42800.22842		228.94600		875.00000 
 43692.65567		 305.27265			43387.38302		70.72000		324.00000 
 43692.65567		 892.42725			42800.22842		228.94600		875.00000 
 43692.65567		 305.27265			43387.38302		70.72000		324.00000 
 43692.65567		 892.42725			42800.22842		228.94600		875.00000 
 43692.65567		 305.27265			43387.38302		70.72000		324.00000 
 43692.65567		 892.42725			42800.22842		228.94600		875.00000 
 43692.65567		 305.27265			43387.38302		70.72000		324.00000 
 43692.65567		 892.42725			42800.22842		228.94600		875.00000 
 43692.65567		 305.27265			43387.38302		70.72000		324.00000 
 43692.65567		 892.42725			42800.22842		228.94600		875.00000 
 43692.65567		 305.27265			43387.38302		70.72000		324.00000 
 43692.65567		 892.42725			42800.22842		228.94600		875.00000 
 43692.65567		 305.27265			43387.38302		70.72000		324.00000 
 43692.65567		 892.42725			42800.22842		228.94600		875.00000 
 43692.65567		 305.27265			43387.38302		70.72000		324.00000 
 43692.65567		 892.42725			42800.22842		228.94600		875.00000 
 43692.65567		 305.27265			43387.38302		70.72000		324.00000 
 43692.65567		 892.42725			42800.22842		228.94600		875.00000 
 43692.65567		 305.27265			43387.38302		70.72000		324.00000 
 43692.65567		 892.42725			42800.22842		228.94600		875.00000 
 43692.65567		 305.27265			43387.38302		70.72000		324.00000 
 43692.65567		 892.42725			42800.22842		228.94600		875.00000 
 43692.65567		 305.27265			43387.38302		70.72000		324.00000 
 43692.65567		 892.42725			42800.22842		228.94600		875.00000 
 43692.65567		 305.27265			43387.38302		70.72000		324.00000 
 43692.65567		 892.42725			42800.22842		228.94600		875.00000 
 43692.65567		 305.27265			43387.38302		70.72000		324.00000 
 43692.65567		 892.42725			42800.22842		228.94600		875.00000 
 43692.65567		 305.27265			43387.38302		70.72000		324.00000 
 43692.65567		 892.42725			42800.22842		228.94600		875.00000 
 43692.65567		 305.27265			43387.38302		70.72000		324.00000 
 43692.65567		 892.42725			42800.22842		228.94600		875.00000 
 43692.65567		 305.27265			43387.38302		70.72000		324.00000 
 43692.65567		 892.42725			42800.22842		228.94600		875.00000 
 43692.65567		 305.27265			43387.38302		70.72000		324.00000 
 43692.65567		 892.42725			42800.22842		228.94600		875.00000 
 43692.65567		 305.27265			43387.38302		70.72000		324.00000 
 43692.65567		 892.42725			42800.22842		228.94600		875.00000 
 43692.65567		 305.27265			43387.38302		70.72000		324.00000 
 43692.65567		 892.42725			42800.22842		228.94600		875.00000 
 43692.65567		 305.27265			43387.38302		70.72000		324.00000 
 43692.65567		 892.42725			42800.22842		228.94600		875.00000 
 43692.65567		 305.27265			43387.38302		70.72000		324.00000 
 43692.65567		 892.42725			42800.22842		228.94600		875.00000 
 43692.65567		 305.27265			43387.38302		70.72000		324.00000 
 43692.65567		 892.42725			42800.22842		228.94600		875.00000 
 43692.65567		 305.27265			43387.38302		70.72000		324.00000 
 43692.65567		 892.42725			42800.22842		228.94600		875.00000 
 43692.65567		 305.27265			43387.38302		70.72000		324.00000 
 43692.65567		 892.42725			42800.22842		228.94600		875.00000 
 43692.65567		 305.27265			43387.38302		70.72000		324.00000 
 43692.65567		 892.42725			42800.22842		228.94600		875.00000 
 43692.65567		 305.27265			43387.38302		70.72000		324.00000 
 43692.65567		 892.42725			42800.22842		228.94600		875.00000 
 43692.65567		 305.27265			43387.38302		70.72000		324.00000 
 43692.65567		 892.42725			42800.22842		228.94600		875.00000 
 43692.65567		 305.27265			43387.38302		70.72000		324.00000 
 43692.65567		 892.42725			42800.22842		228.94600		875.00000 
 43692.65567		 305.27265			43387.38302		70.72000		324.00000 
 43692.65567		 892.42725			42800.22842		228.94600		875.00000 
 43692.65567		 305.27265			43387.38302		70.72000		324.00000 
 43692.65567		 892.42725			42800.22842		228.94600		875.00000 
 43692.65567		 305.27265			43387.38302		70.72000		324.00000 
 43692.65567		 892.42725			42800.22842		228.94600		875.00000 
 43692.65567		 305.27265			43387.38302		70.72000		324.00000 
 43692.65567		 892.42725			42800.22842		228.94600		875.00000 
 43692.65567		 305.27265			43387.38302		70.72000		324.00000 
 43692.65567		 892.42725			42800.22842		228.94600		875.00000 
 43692.65567		 305.27265			43387.38302		70.72000		324.00000 
 43692.65567		 892.42725			42800.22842		228.94600		875.00000 
 43692.65567		 305.27265			43387.38302		70.72000		324.00000 
 43692.65567		 892.42725			42800.22842		228.94600		875.00000 
 43692.65567		 305.27265			43387.38302		70.72000		324.00000 
 43692.65567		 892.42725			42800.22842		228.94600		875.00000 
 43692.65567		 305.27265			43387.38302		70.72000		324.00000 
 43692.65567		 892.42725			42800.22842		228.94600		875.00000 
 43692.65567		 305.27265			43387.38302		70.72000		324.00000 
 43692.65567		 892.42725			42800.22842		228.94600		875.00000 
 43692.65567		 305.27265			43387.38302		70.72000		324.00000 
 43692.65567		 892.42725			42800.22842		228.94600		875.00000 
 43692.65567		 305.27265			43387.38302		70.72000		324.00000 
 43692.65567		 892.42725			42800.22842		228.94600		875.00000 
 43692.65567		 305.27265			43387.38302		70.72000		324.00000 
 43692.65567		 892.42725			42800.22842		228.94600		875.00000 
 43692.65567		 305.27265			43387.38302		70.72000		324.00000 
 43692.65567		 892.42725			42800.22842		228.94600		875.00000 
 43692.65567		 305.27265			43387.38302		70.72000		324.00000 
 43692.65567		 892.42725			42800.22842		228.94600		875.00000 
 43692.65567		 305.27265			43387.38302		70.72000		324.00000 
 43692.65567		 892.42725			42800.22842		228.94600		875.00000 
 43692.65567		 305.27265			43387.38302		70.72000		324.00000 
 43692.65567		 892.42725			42800.22842		228.94600		875.00000 
 43692.65567		 305.27265			43387.38302		70.72000		324.00000 
 43692.65567		 892.42725			42800.22842		228.94600		875.00000 
 43692.65567		 305.27265			43387.38302		70.72000		324.00000 
 43692.65567		 892.42725			42800.22842		228.94600		875.00000 
 43692.65567		 305.27265			43387.38302		70.72000		324.00000 
 43692.65567		 892.42725			42800.22842		228.94600		875.00000 
 43692.65567		 305.27265			43387.38302		70.72000		324.00000 
 43692.65567		 892.42725			42800.22842		228.94600		875.00000 
 43692.65567		 305.27265			43387.38302		70.72000		324.00000 
 43692.65567		 892.42725			42800.22842		228.94600		875.00000 
 43692.65567		 305.27265			43387.38302		70.72000		324.00000 
 43692.65567		 892.42725			42800.22842		228.94600		875.00000 
 43692.65567		 305.27265			43387.38302		70.72000		324.00000 
 43692.65567		 892.42725			42800.22842		228.94600		875.00000 
 43692.65567		 305.27265			43387.38302		70.72000		324.00000 
 43692.65567		 892.42725			42800.22842		228.94600		875.00000 
 43692.65567		 305.27265			43387.38302		70.72000		324.00000 
 43692.65567		 892.42725			42800.22842		228.94600		875.00000 
 43692.65567		 305.27265			43387.38302		70.72000		324.00000 
 43692.65567		 892.42725			42800.22842		228.94600		875.00000 
 43692.65567		 305.27265			43387.38302		70.72000		324.00000 
 43692.65567		 892.42725			42800.22842		228.94600		875.00000 
 43692.65567		 305.27265			43387.38302		70.72000		324.00000 
 43692.65567		 892.42725			42800.22842		228.94600		875.00000 
 43692.65567		 305.27265			43387.38302		70.72000		324.00000 
 43692.65567		 892.42725			42800.22842		228.94600		875.00000 
 43692.65567		 305.27265			43387.38302		70.72000		324.00000 
 43692.65567		 892.42725			42800.22842		228.94600		875.00000 
 43692.65567		 305.27265			43387.38302		70.72000		324.00000 
 43692.65567		 892.42725			42800.22842		228.94600		875.00000 
 43692.65567		 305.27265			43387.38302		70.72000		324.00000 
 43692.65567		 892.42725			42800.22842		228.94600		875.00000 
 43692.65567		 305.27265			43387.38302		70.72000		324.00000 
 43692.65567		 892.42725			42800.22842		228.94600		875.00000 
 43692.65567		 305.27265			43387.38302		70.72000		324.00000 
 43692.65567		 892.42725			42800.22842		228.94600		875.00000 
 43692.65567		 305.27265			43387.38302		70.72000		324.00000 
 43692.65567		 892.42725			42800.22842		228.94600		875.00000 
 43692.65567		 305.27265			43387.38302		70.72000		324.00000 
 43692.65567		 892.42725			42800.22842		228.94600		875.00000 
 43692.65567		 305.27265			43387.38302		70.72000		324.00000 
 43692.65567		 892.42725			42800.22842		228.94600		875.00000 
 43692.65567		 305.27265			43387.38302		70.72000		324.00000 
 43692.65567		 892.42725			42800.22842		228.94600		875.00000 
 43692.65567		 305.27265			43387.38302		70.72000		324.00000 
 43692.65567		 892.42725			42800.22842		228.94600		875.00000 
 43692.65567		 305.27265			43387.38302		70.72000		324.00000 
 43692.65567		 892.42725			42800.22842		228.94600		875.00000 
 43692.65567		 305.27265			43387.38302		70.72000		324.00000 
 43692.65567		 892.42725			42800.22842		228.94600		875.00000 
 43692.65567		 305.27265			43387.38302		70.72000		324.00000 
 43692.65567		 892.42725			42800.22842		228.94600		875.00000 
 43692.65567		 305.27265			43387.38302		70.72000		324.00000 
 43692.65567		 892.42725			42800.22842		228.94600		875.00000 
 43692.65567		 305.27265			43387.38302		70.72000		324.00000 
 43692.65567		 892.42725			42800.22842		228.94600		875.00000 
 43692.65567		 305.27265			43387.38302		70.72000		324.00000 
 43692.65567		 892.42725			42800.22842		228.94600		875.00000 
 43692.65567		 305.27265			43387.38302		70.72000		324.00000 
 43692.65567		 892.42725			42800.22842		228.94600		875.00000 
 43692.65567		 305.27265			43387.38302		70.72000		324.00000 
 43692.65567		 892.42725			42800.22842		228.94600		875.00000 
 43692.65567		 305.27265			43387.38302		70.72000		324.00000 
 43692.65567		 892.42725			42800.22842		228.94600		875.00000 
 43692.65567		 305.27265			43387.38302		70.72000		324.00000 
 43692.65567		 892.42725			42800.22842		228.94600		875.00000 
 43692.65567		 305.27265			43387.38302		70.72000		324.00000 
 43692.65567		 892.42725			42800.22842		228.94600		875.00000 
 43692.65567		 305.27265			43387.38302		70.72000		324.00000 
 43692.65567		 892.42725			42800.22842		228.94600		875.00000 
 43692.65567		 305.27265			43387.38302		70.72000		324.00000 
 43692.65567		 892.42725			42800.22842		228.94600		875.00000 
 43692.65567		 305.27265			43387.38302		70.72000		324.00000 
 43692.65567		 892.42725			42800.22842		228.94600		875.00000 
 43692.65567		 305.27265			43387.38302		70.72000		324.00000 
 43692.65567		 892.42725			42800.22842		228.94600		875.00000 
 43692.65567		 305.27265			43387.38302		70.72000		324.00000 
 43692.65567		 892.42725			42800.22842		228.94600		875.00000 
 43692.65567		 305.27265			43387.38302		70.72000		324.00000 
 43692.65567		 892.42725			42800.22842		228.94600		875.00000 
 43692.65567		 305.27265			43387.38302		70.72000		324.00000 
 43692.65567		 892.42725			42800.22842		228.94600		875.00000 
 43692.65567		 305.27265			43387.38302		70.72000		324.00000 
 43692.65567		 892.42725			42800.22842		228.94600		875.00000 
 43692.65567		 305.27265			43387.38302		70.72000		324.00000 
 43692.65567		 892.42725			42800.22842		228.94600		875.00000 
 43692.65567		 305.27265			43387.38302		70.72000		324.00000 
 43692.65567		 892.42725			42800.22842		228.94600		875.00000 
 43692.65567		 305.27265			43387.38302		70.72000		324.00000 
 43692.65567		 892.42725			42800.22842		228.94600		875.00000 
 43692.65567		 305.27265			43387.38302		70.72000		324.00000 
 43692.65567		 892.42725			42800.22842		228.94600		875.00000 
 43692.65567		 305.27265			43387.38302		70.72000		324.00000 
 43692.65567		 892.42725			42800.22842		228.94600		875.00000 
 43692.65567		 305.27265			43387.38302		70.72000		324.00000 
 43692.65567		 892.42725			42800.22842		228.94600		875.00000 
 43692.65567		 305.27265			43387.38302		70.72000		324.00000 
 43692.65567		 892.42725			42800.22842		228.94600		875.00000 
 43692.65567		 305.27265			43387.38302		70.72000		324.00000 
 43692.65567		 892.42725			42800.22842		228.94600		875.00000 
 43692.65567		 305.27265			43387.38302		70.72000		324.00000 
 43692.65567		 892.42725			42800.22842		228.94600		875.00000 
 43692.65567		 305.27265			43387.38302		70.72000		324.00000 
 43692.65567		 892.42725			42800.22842		228.94600		875.00000 
 43692.65567		 305.27265			43387.38302		70.72000		324.00000 
 43692.65567		 892.42725			42800.22842		228.94600		875.00000 
 43692.65567		 305.27265			43387.38302		70.72000		324.00000 
 43692.65567		 892.42725			42800.22842		228.94600		875.00000 
 43692.65567		 305.27265			43387.38302		70.72000		324.00000 
 43692.65567		 892.42725			42800.22842		228.94600		875.00000 
 43692.65567		 305.27265			43387.38302		70.72000		324.00000 
 43692.65567		 892.42725			42800.22842		228.94600		875.00000 
 43692.65567		 305.27265			43387.38302		70.72000		324.00000 
 43692.65567		 892.42725			42800.22842		228.94600		875.00000 
 43692.65567		 305.27265			43387.38302		70.72000		324.00000 
 43692.65567		 892.42725			42800.22842		228.94600		875.00000 
 43692.65567		 305.27265			43387.38302		70.72000		324.00000 
 43692.65567		 892.42725			42800.22842		228.94600		875.00000 
 43692.65567		 305.27265			43387.38302		70.72000		324.00000 
 43692.65567		 892.42725			42800.22842		228.94600		875.00000 
 43692.65567		 305.27265			43387.38302		70.72000		324.00000 
 43692.65567		 892.42725			42800.22842		228.94600		875.00000 
 43692.65567		 305.27265			43387.38302		70.72000		324.00000 
 43692.65567		 892.42725			42800.22842		228.94600		875.00000 
 43692.65567		 305.27265			43387.38302		70.72000		324.00000 
 43692.65567		 892.42725			42800.22842		228.94600		875.00000 
 43692.65567		 305.27265			43387.38302		70.72000		324.00000 
 43692.65567		 892.42725			42800.22842		228.94600		875.00000 
 43692.65567		 305.27265			43387.38302		70.72000		324.00000 
 43692.65567		 892.42725			42800.22842		228.94600		875.00000 
 43692.65567		 305.27265			43387.38302		70.72000		324.00000 
 43692.65567		 892.42725			42800.22842		228.94600		875.00000 
 43692.65567		 305.27265			43387.38302		70.72000		324.00000 
 43692.65567		 892.42725			42800.22842		228.94600		875.00000 
 43692.65567		 305.27265			43387.38302		70.72000		324.00000 
 43692.65567		 892.42725			42800.22842		228.94600		875.00000 
 43692.65567		 305.27265			43387.38302		70.72000		324.00000 
 43692.65567		 892.42725			42800.22842		228.94600		875.00000 
 43692.65567		 305.27265			43387.38302		70.72000		324.00000 
 43692.65567		 892.42725			42800.22842		228.94600		875.00000 
 43692.65567		 305.27265			43387.38302		70.72000		324.00000 
 43692.65567		 892.42725			42800.22842		228.94600		875.00000 
 43692.65567		 305.27265			43387.38302		70.72000		324.00000 
 43692.65567		 892.42725			42800.22842		228.94600		875.00000 
 43692.65567		 305.27265			43387.38302		70.72000		324.00000 
 43692.65567		 892.42725			42800.22842		228.94600		875.00000 
 43692.65567		 305.27265			43387.38302		70.72000		324.00000 
 43692.65567		 892.42725			42800.22842		228.94600		875.00000 
 43692.65567		 305.27265			43387.38302		70.72000		324.00000 
 43692.65567		 892.42725			42800.22842		228.94600		875.00000 
 43692.65567		 305.27265			43387.38302		70.72000		324.00000 
 43692.65567		 892.42725			42800.22842		228.94600		875.00000 
 43692.65567		 305.27265			43387.38302		70.72000		324.00000 
 43692.65567		 892.42725			42800.22842		228.94600		875.00000 
 43692.65567		 305.27265			43387.38302		70.72000		324.00000 
 43692.65567		 892.42725			42800.22842		228.94600		875.00000 
 43692.65567		 305.27265			43387.38302		70.72000		324.00000 
 43692.65567		 892.42725			42800.22842		228.94600		875.00000 
 43692.65567		 305.27265			43387.38302		70.72000		324.00000 
 43692.65567		 892.42725			42800.22842		228.94600		875.00000 
 43692.65567		 305.27265			43387.38302		70.72000		324.00000 
 43692.65567		 892.42725			42800.22842		228.94600		875.00000 
 43692.65567		 305.27265			43387.38302		70.72000		324.00000 
 43692.65567		 892.42725			42800.22842		228.94600		875.00000 
 43692.65567		 305.27265			43387.38302		70.72000		324.00000 
 43692.65567		 892.42725			42800.22842		228.94600		875.00000 
 43692.65567		 305.27265			43387.38302		69.76400		324.00000 
 43692.65567		 892.42725			42800.22842		228.94600		875.00000 
 43692.65567		 305.27265			43387.38302		69.76400		324.00000 
 43692.65567		 892.42725			42800.22842		228.94600		875.00000 
 43692.65567		 305.27265			43387.38302		69.76400		324.00000 
 43692.65567		 892.42725			42800.22842		228.94600		875.00000 
 43692.65567		 305.27265			43387.38302		69.76400		324.00000 
 43692.65567		 892.42725			42800.22842		228.94600		875.00000 
 43692.65567		 305.27265			43387.38302		69.76400		324.00000 
 43692.65567		 892.42725			42800.22842		228.94600		875.00000 
 43692.65567		 305.27265			43387.38302		69.76400		324.00000 
 43692.65567		 892.42725			42800.22842		228.94600		875.00000 
 43692.65567		 305.27265			43387.38302		69.76400		324.00000 
 43692.65567		 892.42725			42800.22842		228.94600		875.00000 
 43692.65567		 305.27265			43387.38302		69.76400		324.00000 
 43692.65567		 892.42725			42800.22842		228.94600		875.00000 
 43692.65567		 305.27265			43387.38302		69.76400		324.00000 
 43692.65567		 892.42725			42800.22842		228.94600		875.00000 
 43692.65567		 305.27265			43387.38302		69.76400		324.00000 
 43692.65567		 892.42725			42800.22842		228.94600		875.00000 
 43692.65567		 305.27265			43387.38302		69.76400		324.00000 
 43692.65567		 892.42725			42800.22842		228.94600		875.00000 
 43692.65567		 305.27265			43387.38302		69.76400		324.00000 
 43692.65567		 892.42725			42800.22842		228.94600		875.00000 
 43692.65567		 305.27265			43387.38302		69.76400		324.00000 
 43692.65567		 892.42725			42800.22842		228.94600		875.00000 
 43692.65567		 305.27265			43387.38302		69.76400		324.00000 
 43692.65567		 892.42725			42800.22842		228.94600		875.00000 
 43692.65567		 305.27265			43387.38302		69.76400		324.00000 
 43692.65567		 892.42725			42800.22842		228.94600		875.00000 
 43692.65567		 305.27265			43387.38302		69.76400		324.00000 
 43692.65567		 892.42725			42800.22842		228.94600		875.00000 
 43692.65567		 305.27265			43387.38302		69.76400		324.00000 
 43692.65567		 892.42725			42800.22842		228.94600		875.00000 
 43692.65567		 305.27265			43387.38302		69.76400		324.00000 
 43692.65567		 892.42725			42800.22842		228.94600		875.00000 
 43692.65567		 305.27265			43387.38302		69.76400		324.00000 
 43692.65567		 892.42725			42800.22842		228.94600		875.00000 
 43692.65567		 305.27265			43387.38302		69.76400		324.00000 
 43692.65567		 892.42725			42800.22842		228.94600		875.00000 
 43692.65567		 305.27265			43387.38302		69.76400		324.00000 
 43692.65567		 892.42725			42800.22842		228.94600		875.00000 
 43692.65567		 305.27265			43387.38302		69.76400		324.00000 
 43692.65567		 892.42725			42800.22842		228.94600		875.00000 
 43692.65567		 305.27265			43387.38302		69.76400		324.00000 
 43692.65567		 892.42725			42800.22842		228.94600		875.00000 
 43692.65567		 305.27265			43387.38302		69.76400		324.00000 
 43692.65567		 892.42725			42800.22842		228.94600		875.00000 
 43692.65567		 305.27265			43387.38302		69.76400		324.00000 
 43692.65567		 892.42725			42800.22842		228.94600		875.00000 
 43692.65567		 305.27265			43387.38302		69.76400		324.00000 
 43692.65567		 892.42725			42800.22842		228.94600		875.00000 
 43692.65567		 305.27265			43387.38302		69.76400		324.00000 
 43692.65567		 892.42725			42800.22842		228.94600		875.00000 
 43692.65567		 305.27265			43387.38302		69.76400		324.00000 
 43692.65567		 892.42725			42800.22842		228.94600		875.00000 
 43692.65567		 305.27265			43387.38302		69.76400		324.00000 
 43692.65567		 892.42725			42800.22842		228.94600		875.00000 
 43692.65567		 305.27265			43387.38302		69.76400		324.00000 
 43692.65567		 892.42725			42800.22842		228.94600		875.00000 
 43692.65567		 305.27265			43387.38302		69.76400		324.00000 
 43692.65567		 892.42725			42800.22842		228.94600		875.00000 
 43692.65567		 305.27265			43387.38302		69.76400		324.00000 
 43692.65567		 892.42725			42800.22842		228.94600		875.00000 
 43692.65567		 305.27265			43387.38302		69.76400		324.00000 
 43692.65567		 892.42725			42800.22842		228.94600		875.00000 
 43692.65567		 305.27265			43387.38302		69.76400		324.00000 
 43692.65567		 892.42725			42800.22842		228.94600		875.00000 
 43692.65567		 305.27265			43387.38302		69.76400		324.00000 
 43692.65567		 892.42725			42800.22842		228.94600		875.00000 
 43692.65567		 305.27265			43387.38302		69.76400		324.00000 
 43692.65567		 892.42725			42800.22842		228.94600		875.00000 
 43692.65567		 305.27265			43387.38302		69.76400		324.00000 
 43692.65567		 892.42725			42800.22842		228.94600		875.00000 
 43692.65567		 305.27265			43387.38302		69.76400		324.00000 
 43692.65567		 892.42725			42800.22842		228.94600		875.00000 
 43692.65567		 305.27265			43387.38302		69.76400		324.00000 
 43692.65567		 892.42725			42800.22842		228.94600		875.00000 
 43692.65567		 305.27265			43387.38302		69.76400		324.00000 
 43692.65567		 892.42725			42800.22842		228.94600		875.00000 
 43692.65567		 305.27265			43387.38302		69.76400		324.00000 
 43692.65567		 892.42725			42800.22842		228.94600		875.00000 
 43692.65567		 305.27265			43387.38302		69.76400		324.00000 
 43692.65567		 892.42725			42800.22842		228.94600		875.00000 
 43692.65567		 305.27265			43387.38302		69.76400		324.00000 
 43692.65567		 892.42725			42800.22842		228.94600		875.00000 
 43692.65567		 305.27265			43387.38302		69.76400		324.00000 
 43692.65567		 892.42725			42800.22842		228.94600		875.00000 
 43692.65567		 305.27265			43387.38302		69.76400		324.00000 
 43692.65567		 892.42725			42800.22842		228.94600		875.00000 
 43692.65567		 305.27265			43387.38302		69.76400		324.00000 
 43692.65567		 892.42725			42800.22842		228.94600		875.00000 
 43692.65567		 305.27265			43387.38302		69.76400		324.00000 
 43692.65567		 892.42725			42800.22842		228.94600		875.00000 
 43692.65567		 305.27265			43387.38302		69.76400		324.00000 
 43692.65567		 892.42725			42800.22842		228.94600		875.00000 
 43692.65567		 305.27265			43387.38302		69.76400		324.00000 
 43692.65567		 892.42725			42800.22842		228.94600		875.00000 
 43692.65567		 305.27265			43387.38302		69.76400		324.00000 
 43692.65567		 892.42725			42800.22842		228.94600		875.00000 
 43692.65567		 305.27265			43387.38302		69.76400		324.00000 
 43692.65567		 892.42725			42800.22842		228.94600		875.00000 
 43692.65567		 305.27265			43387.38302		69.76400		324.00000 
 43692.65567		 892.42725			42800.22842		228.94600		875.00000 
 43692.65567		 305.27265			43387.38302		69.76400		324.00000 
 43692.65567		 892.42725			42800.22842		228.94600		875.00000 
 43692.65567		 305.27265			43387.38302		69.76400		324.00000 
 43692.65567		 892.42725			42800.22842		228.94600		875.00000 
 43692.65567		 305.27265			43387.38302		69.76400		324.00000 
 43692.65567		 892.42725			42800.22842		228.94600		875.00000 
 43692.65567		 305.27265			43387.38302		69.76400		324.00000 
 43692.65567		 892.42725			42800.22842		228.94600		875.00000 
 43692.65567		 305.27265			43387.38302		69.76400		324.00000 
 43692.65567		 892.42725			42800.22842		228.94600		875.00000 
 43692.65567		 305.27265			43387.38302		69.76400		324.00000 
 43692.65567		 892.42725			42800.22842		228.94600		875.00000 
 43692.65567		 305.27265			43387.38302		69.76400		324.00000 
 43692.65567		 892.42725			42800.22842		228.94600		875.00000 
 43692.65567		 305.27265			43387.38302		69.76400		324.00000 
 43692.65567		 892.42725			42800.22842		228.94600		875.00000 
 43692.65567		 305.27265			43387.38302		69.76400		324.00000 
 43692.65567		 892.42725			42800.22842		228.94600		875.00000 
 43692.65567		 305.27265			43387.38302		69.76400		324.00000 
 43692.65567		 892.42725			42800.22842		228.94600		875.00000 
 43692.65567		 305.27265			43387.38302		69.76400		324.00000 
 43692.65567		 892.42725			42800.22842		228.94600		875.00000 
 43692.65567		 305.27265			43387.38302		69.76400		324.00000 
 43692.65567		 892.42725			42800.22842		228.94600		875.00000 
 43692.65567		 305.27265			43387.38302		69.76400		324.00000 
 43692.65567		 892.42725			42800.22842		228.94600		875.00000 
 43692.65567		 305.27265			43387.38302		69.76400		324.00000 
 43692.65567		 892.42725			42800.22842		228.94600		875.00000 
 43692.65567		 305.27265			43387.38302		69.76400		324.00000 
 43692.65567		 892.42725			42800.22842		228.94600		875.00000 
 43692.65567		 305.27265			43387.38302		69.76400		324.00000 
 43692.65567		 892.42725			42800.22842		228.94600		875.00000 
 43692.65567		 305.27265			43387.38302		69.76400		324.00000 
 43692.65567		 892.42725			42800.22842		228.94600		875.00000 
 43692.65567		 305.27265			43387.38302		69.76400		324.00000 
 43692.65567		 892.42725			42800.22842		228.94600		875.00000 
 43692.65567		 305.27265			43387.38302		69.76400		324.00000 
 43692.65567		 892.42725			42800.22842		228.94600		875.00000 
 43692.65567		 305.27265			43387.38302		69.76400		324.00000 
 43692.65567		 892.42725			42800.22842		228.94600		875.00000 
 43692.65567		 305.27265			43387.38302		69.76400		324.00000 
 43692.65567		 892.42725			42800.22842		228.94600		875.00000 
 43692.65567		 305.27265			43387.38302		69.76400		324.00000 
 43692.65567		 892.42725			42800.22842		228.94600		875.00000 
 43692.65567		 305.27265			43387.38302		69.76400		324.00000 
 43692.65567		 892.42725			42800.22842		228.94600		875.00000 
 43692.65567		 305.27265			43387.38302		69.76400		324.00000 
 43692.65567		 892.42725			42800.22842		228.94600		875.00000 
 43692.65567		 305.27265			43387.38302		69.76400		324.00000 
 43692.65567		 892.42725			42800.22842		228.94600		875.00000 
 43692.65567		 305.27265			43387.38302		69.76400		324.00000 
 43692.65567		 892.42725			42800.22842		228.94600		875.00000 
 43692.65567		 305.27265			43387.38302		69.76400		324.00000 
 43692.65567		 892.42725			42800.22842		228.94600		875.00000 
 43692.65567		 305.27265			43387.38302		69.76400		324.00000 
 43692.65567		 892.42725			42800.22842		228.94600		875.00000 
 43692.65567		 305.27265			43387.38302		69.76400		324.00000 
 43692.65567		 892.42725			42800.22842		228.94600		875.00000 
 43692.65567		 305.27265			43387.38302		69.76400		324.00000 
 43692.65567		 892.42725			42800.22842		228.94600		875.00000 
 43692.65567		 305.27265			43387.38302		69.76400		324.00000 
 43692.65567		 892.42725			42800.22842		228.94600		875.00000 
 43692.65567		 305.27265			43387.38302		69.76400		324.00000 
 43692.65567		 892.42725			42800.22842		228.94600		875.00000 
 43692.65567		 305.27265			43387.38302		69.76400		324.00000 
 43692.65567		 892.42725			42800.22842		228.94600		875.00000 
 43692.65567		 305.27265			43387.38302		69.76400		324.00000 
 43692.65567		 892.42725			42800.22842		228.94600		875.00000 
 43692.65567		 305.27265			43387.38302		69.76400		324.00000 
 43692.65567		 892.42725			42800.22842		228.94600		875.00000 
 43692.65567		 305.27265			43387.38302		69.76400		324.00000 
 43692.65567		 892.42725			42800.22842		228.94600		875.00000 
 43692.65567		 305.27265			43387.38302		69.76400		324.00000 
 43692.65567		 892.42725			42800.22842		228.94600		875.00000 
 43692.65567		 305.27265			43387.38302		69.76400		324.00000 
 43692.65567		 892.42725			42800.22842		228.94600		875.00000 
 43692.65567		 305.27265			43387.38302		69.76400		324.00000 
 43692.65567		 892.42725			42800.22842		228.94600		875.00000 
 43692.65567		 305.27265			43387.38302		69.76400		324.00000 
 43692.65567		 892.42725			42800.22842		228.94600		875.00000 
 43692.65567		 305.27265			43387.38302		69.76400		324.00000 
 43692.65567		 892.42725			42800.22842		228.94600		875.00000 
 43692.65567		 305.27265			43387.38302		69.76400		324.00000 
 43692.65567		 892.42725			42800.22842		228.94600		875.00000 
 43692.65567		 305.27265			43387.38302		69.76400		324.00000 
 43692.65567		 892.42725			42800.22842		228.94600		875.00000 
 43692.65567		 305.27265			43387.38302		69.76400		324.00000 
 43692.65567		 892.42725			42800.22842		228.94600		875.00000 
 43692.65567		 305.27265			43387.38302		69.76400		324.00000 
 43692.65567		 892.42725			42800.22842		228.94600		875.00000 
 43692.65567		 305.27265			43387.38302		69.76400		324.00000 
 43692.65567		 892.42725			42800.22842		228.94600		875.00000 
 43692.65567		 305.27265			43387.38302		69.76400		324.00000 
 43692.65567		 892.42725			42800.22842		228.94600		875.00000 
 43692.65567		 305.27265			43387.38302		69.76400		324.00000 
 43692.65567		 892.42725			42800.22842		228.94600		875.00000 
 43692.65567		 305.27265			43387.38302		69.76400		324.00000 
 43692.65567		 892.42725			42800.22842		228.94600		875.00000 
 43692.65567		 305.27265			43387.38302		69.76400		324.00000 
 43692.65567		 892.42725			42800.22842		228.94600		875.00000 
 43692.65567		 305.27265			43387.38302		69.76400		324.00000 
 43692.65567		 892.42725			42800.22842		228.94600		875.00000 
 43692.65567		 305.27265			43387.38302		69.76400		324.00000 
 43692.65567		 892.42725			42800.22842		228.94600		875.00000 
 43692.65567		 305.27265			43387.38302		69.76400		324.00000 
 43692.65567		 892.42725			42800.22842		228.94600		875.00000 
 43692.65567		 305.27265			43387.38302		69.76400		324.00000 
 43692.65567		 892.42725			42800.22842		228.94600		875.00000 
 43692.65567		 305.27265			43387.38302		69.76400		324.00000 
 43692.65567		 892.42725			42800.22842		228.94600		875.00000 
 43692.65567		 305.27265			43387.38302		69.76400		324.00000 
 43692.65567		 892.42725			42800.22842		228.94600		875.00000 
 43692.65567		 305.27265			43387.38302		69.76400		324.00000 
 43692.65567		 892.42725			42800.22842		228.94600		875.00000 
 43692.65567		 305.27265			43387.38302		69.76400		324.00000 
 43692.65567		 892.42725			42800.22842		228.94600		875.00000 
 43692.65567		 305.27265			43387.38302		69.76400		324.00000 
 43692.65567		 892.42725			42800.22842		228.94600		875.00000 
 43692.65567		 305.27265			43387.38302		69.76400		324.00000 
 43692.65567		 892.42725			42800.22842		228.94600		875.00000 
 43692.65567		 305.27265			43387.38302		69.76400		324.00000 
 43692.65567		 892.42725			42800.22842		228.94600		875.00000 
 43692.65567		 305.27265			43387.38302		69.76400		324.00000 
 43692.65567		 892.42725			42800.22842		228.94600		875.00000 
 43692.65567		 305.27265			43387.38302		69.76400		324.00000 
 43692.65567		 892.42725			42800.22842		228.94600		875.00000 
 43692.65567		 305.27265			43387.38302		69.76400		324.00000 
 43692.65567		 892.42725			42800.22842		228.94600		875.00000 
 43692.65567		 305.27265			43387.38302		69.76400		324.00000 
 43692.65567		 892.42725			42800.22842		228.94600		875.00000 
 43692.65567		 305.27265			43387.38302		69.76400		324.00000 
 43692.65567		 892.42725			42800.22842		228.94600		875.00000 
 43692.65567		 305.27265			43387.38302		69.76400		324.00000 
 43692.65567		 892.42725			42800.22842		228.94600		875.00000 
 43692.65567		 305.27265			43387.38302		69.76400		324.00000 
 43692.65567		 892.42725			42800.22842		228.94600		875.00000 
 43692.65567		 305.27265			43387.38302		69.76400		324.00000 
 43692.65567		 892.42725			42800.22842		228.94600		875.00000 
 43692.65567		 305.27265			43387.38302		69.76400		324.00000 
 43692.65567		 892.42725			42800.22842		228.94600		875.00000 
 43692.65567		 305.27265			43387.38302		69.76400		324.00000 
 43692.65567		 892.42725			42800.22842		228.94600		875.00000 
 43692.65567		 305.27265			43387.38302		69.76400		324.00000 
 43692.65567		 892.42725			42800.22842		228.94600		875.00000 
 43692.65567		 305.27265			43387.38302		69.76400		324.00000 
 43692.65567		 892.42725			42800.22842		228.94600		875.00000 
 43692.65567		 305.27265			43387.38302		69.76400		324.00000 
 43692.65567		 892.42725			42800.22842		228.94600		875.00000 
 43692.65567		 305.27265			43387.38302		69.76400		324.00000 
 43692.65567		 892.42725			42800.22842		228.94600		875.00000 
 43692.65567		 305.27265			43387.38302		69.76400		324.00000 
 43692.65567		 892.42725			42800.22842		228.94600		875.00000 
 43692.65567		 305.27265			43387.38302		69.76400		324.00000 
 43692.65567		 892.42725			42800.22842		228.94600		875.00000 
 43692.65567		 305.27265			43387.38302		69.76400		324.00000 
 43692.65567		 892.42725			42800.22842		228.94600		875.00000 
 43692.65567		 305.27265			43387.38302		69.76400		324.00000 
 43692.65567		 892.42725			42800.22842		228.94600		875.00000 
 43692.65567		 305.27265			43387.38302		69.76400		324.00000 
 43692.65567		 892.42725			42800.22842		228.94600		875.00000 
 43692.65567		 305.27265			43387.38302		69.76400		324.00000 
 43692.65567		 892.42725			42800.22842		228.94600		875.00000 
 43692.65567		 305.27265			43387.38302		69.76400		324.00000 
 43692.65567		 892.42725			42800.22842		228.94600		875.00000 
 43692.65567		 305.27265			43387.38302		69.76400		324.00000 
 43692.65567		 892.42725			42800.22842		228.94600		875.00000 
 43692.65567		 305.27265			43387.38302		69.76400		324.00000 
 43692.65567		 892.42725			42800.22842		228.94600		875.00000 
 43692.65567		 305.27265			43387.38302		69.76400		324.00000 
 43692.65567		 892.42725			42800.22842		228.94600		875.00000 
 43692.65567		 305.27265			43387.38302		69.76400		324.00000 
 43692.65567		 892.42725			42800.22842		228.94600		875.00000 
 43692.65567		 305.27265			43387.38302		69.76400		324.00000 
 43692.65567		 892.42725			42800.22842		228.94600		875.00000 
 43692.65567		 305.27265			43387.38302		69.76400		324.00000 
 43692.65567		 892.42725			42800.22842		228.94600		875.00000 
 43692.65567		 305.27265			43387.38302		69.76400		324.00000 
 43692.65567		 892.42725			42800.22842		228.94600		875.00000 
 43692.65567		 305.27265			43387.38302		69.76400		324.00000 
 43692.65567		 892.42725			42800.22842		228.94600		875.00000 
 43692.65567		 305.27265			43387.38302		69.76400		324.00000 
 43692.65567		 774.04161			42918.61407		228.94600		875.00000 
 43692.65567		 305.27265			43387.38302		69.76400		324.00000 
 43692.65567		 774.04161			42918.61407		228.94600		875.00000 
 43692.65567		 305.27265			43387.38302		69.76400		324.00000 
 43692.65567		 655.65596			43036.99971		228.94600		875.00000 
 43692.65567		 305.27265			43387.38302		69.76400		324.00000 
 43692.65567		 655.65596			43036.99971		228.94600		875.00000 
 43692.65567		 305.27265			43387.38302		69.76400		324.00000 
 43692.65567		 537.27032			43155.38535		228.94600		875.00000 
 43692.65567		 305.27265			43387.38302		69.76400		324.00000 
 43692.65567		 537.27032			43155.38535		228.94600		875.00000 
 43692.65567		 305.27265			43387.38302		69.76400		324.00000 
 43692.65567		 537.27032			43155.38535		228.94600		875.00000 
 43692.65567		 305.27265			43387.38302		69.76400		324.00000 
 43692.65567		 537.27032			43155.38535		228.94600		875.00000 
 43692.65567		 305.27265			43387.38302		69.76400		324.00000 
 43692.65567		 537.27032			43155.38535		228.94600		875.00000 
 43692.65567		 305.27265			43387.38302		69.76400		324.00000 
 43692.65567		 537.27032			43155.38535		228.94600		875.00000 
 43692.65567		 305.27265			43387.38302		69.76400		324.00000 
 43692.65567		 537.27032			43155.38535		228.94600		875.00000 
 43692.65567		 305.27265			43387.38302		69.76400		324.00000 
 43692.65567		 537.27032			43155.38535		228.94600		875.00000 
 43692.65567		 305.27265			43387.38302		69.76400		324.00000 
 43692.65567		 537.27032			43155.38535		228.94600		875.00000 
 43692.65567		 305.27265			43387.38302		69.76400		324.00000 
 43692.65567		 537.27032			43155.38535		228.94600		875.00000 
 43692.65567		 305.27265			43387.38302		69.76400		324.00000 
 43692.65567		 537.27032			43155.38535		228.94600		875.00000 
 43692.65567		 305.27265			43387.38302		69.76400		324.00000 
 43692.65567		 537.27032			43155.38535		228.94600		875.00000 
 43692.65567		 305.27265			43387.38302		69.76400		324.00000 
 43692.65567		 537.27032			43155.38535		228.94600		875.00000 
 43692.65567		 305.27265			43387.38302		69.76400		324.00000 
 43692.65567		 537.27032			43155.38535		228.94600		875.00000 
 43692.65567		 305.27265			43387.38302		69.76400		324.00000 
 43692.65567		 537.27032			43155.38535		228.94600		875.00000 
 43692.65567		 305.27265			43387.38302		69.76400		324.00000 
 43692.65567		 537.27032			43155.38535		228.94600		875.00000 
 43692.65567		 305.27265			43387.38302		69.76400		324.00000 
 43692.65567		 537.27032			43155.38535		228.94600		875.00000 
 43692.65567		 305.27265			43387.38302		69.76400		324.00000 
 43692.65567		 537.27032			43155.38535		228.94600		875.00000 
 43692.65567		 305.27265			43387.38302		69.76400		324.00000 
 43692.65567		 537.27032			43155.38535		228.94600		875.00000 
 43692.65567		 305.27265			43387.38302		69.76400		324.00000 
 43692.65567		 537.27032			43155.38535		228.94600		875.00000 
 43692.65567		 305.27265			43387.38302		69.76400		324.00000 
 43692.65567		 529.63254			43163.02313		228.94600		875.00000 
 43692.65567		 305.27265			43387.38302		69.76400		324.00000 
 43692.65567		 525.81365			43166.84203		228.94600		875.00000 
 43692.65567		 305.27265			43387.38302		69.76400		324.00000 
 43692.65567		 525.81365			43166.84203		186.64400		875.00000 
 43692.65567		 261.35540			43431.30027		69.76400		324.00000 
