Memory Total (MiB) 	 Memory Used (MiB) 	    Memory Free (MiB) 	 Power Drawed (W) 	 Clocks (Mhz) 	 
 43692.65567		 261.35540			43431.30027		170.95800		875.00000 
 43692.65567		 261.35540			43431.30027		69.19000		324.00000 
 43692.65567		 261.35540			43431.30027		170.95800		875.00000 
 43692.65567		 261.35540			43431.30027		69.19000		324.00000 
 43692.65567		 261.35540			43431.30027		170.95800		875.00000 
 43692.65567		 261.35540			43431.30027		69.19000		324.00000 
 43692.65567		 261.35540			43431.30027		170.95800		875.00000 
 43692.65567		 261.35540			43431.30027		69.19000		324.00000 
 43692.65567		 261.35540			43431.30027		170.95800		875.00000 
 43692.65567		 261.35540			43431.30027		69.19000		324.00000 
 43692.65567		 261.35540			43431.30027		170.95800		875.00000 
 43692.65567		 261.35540			43431.30027		69.19000		324.00000 
 43692.65567		 261.35540			43431.30027		170.95800		875.00000 
 43692.65567		 261.35540			43431.30027		69.19000		324.00000 
 43692.65567		 261.35540			43431.30027		170.95800		875.00000 
 43692.65567		 261.35540			43431.30027		69.19000		324.00000 
 43692.65567		 261.35540			43431.30027		170.95800		875.00000 
 43692.65567		 261.35540			43431.30027		69.19000		324.00000 
 43692.65567		 261.35540			43431.30027		170.95800		875.00000 
 43692.65567		 261.35540			43431.30027		69.19000		324.00000 
 43692.65567		 261.35540			43431.30027		170.95800		875.00000 
 43692.65567		 261.35540			43431.30027		69.19000		324.00000 
 43692.65567		 261.35540			43431.30027		170.95800		875.00000 
 43692.65567		 261.35540			43431.30027		69.19000		324.00000 
 43692.65567		 261.35540			43431.30027		170.95800		875.00000 
 43692.65567		 261.35540			43431.30027		69.19000		324.00000 
 43692.65567		 261.35540			43431.30027		170.95800		875.00000 
 43692.65567		 261.35540			43431.30027		69.19000		324.00000 
 43692.65567		 261.35540			43431.30027		170.95800		875.00000 
 43692.65567		 261.35540			43431.30027		69.19000		324.00000 
 43692.65567		 261.35540			43431.30027		170.95800		875.00000 
 43692.65567		 261.35540			43431.30027		69.19000		324.00000 
 43692.65567		 261.35540			43431.30027		170.95800		875.00000 
 43692.65567		 261.35540			43431.30027		69.19000		324.00000 
 43692.65567		 261.35540			43431.30027		170.95800		875.00000 
 43692.65567		 261.35540			43431.30027		69.19000		324.00000 
 43692.65567		 265.17429			43427.48138		170.95800		875.00000 
 43692.65567		 261.35540			43431.30027		69.19000		324.00000 
 43692.65567		 272.81207			43419.84360		170.95800		875.00000 
 43692.65567		 261.35540			43431.30027		69.19000		324.00000 
 43692.65567		 272.81207			43419.84360		170.95800		875.00000 
 43692.65567		 261.35540			43431.30027		69.19000		324.00000 
 43692.65567		 272.81207			43419.84360		170.95800		875.00000 
 43692.65567		 265.17429			43427.48138		69.19000		324.00000 
 43692.65567		 272.81207			43419.84360		170.95800		875.00000 
 43692.65567		 265.17429			43427.48138		69.19000		324.00000 
 43692.65567		 272.81207			43419.84360		170.95800		875.00000 
 43692.65567		 265.17429			43427.48138		69.19000		324.00000 
 43692.65567		 272.81207			43419.84360		170.95800		875.00000 
 43692.65567		 272.81207			43419.84360		69.19000		324.00000 
 43692.65567		 272.81207			43419.84360		170.95800		875.00000 
 43692.65567		 272.81207			43419.84360		69.19000		324.00000 
 43692.65567		 272.81207			43419.84360		170.95800		875.00000 
 43692.65567		 272.81207			43419.84360		69.19000		324.00000 
 43692.65567		 305.27265			43387.38302		170.95800		875.00000 
 43692.65567		 305.27265			43387.38302		69.19000		324.00000 
 43692.65567		 305.27265			43387.38302		170.95800		875.00000 
 43692.65567		 305.27265			43387.38302		69.19000		324.00000 
 43692.65567		 305.27265			43387.38302		170.95800		875.00000 
 43692.65567		 305.27265			43387.38302		69.19000		324.00000 
 43692.65567		 305.27265			43387.38302		170.95800		875.00000 
 43692.65567		 305.27265			43387.38302		69.19000		324.00000 
 43692.65567		 305.27265			43387.38302		170.95800		875.00000 
 43692.65567		 305.27265			43387.38302		69.19000		324.00000 
 43692.65567		 309.56891			43383.08677		170.95800		875.00000 
 43692.65567		 305.27265			43387.38302		69.19000		324.00000 
 43692.65567		 311.00099			43381.65468		170.95800		875.00000 
 43692.65567		 305.27265			43387.38302		69.19000		324.00000 
 43692.65567		 311.00099			43381.65468		170.95800		875.00000 
 43692.65567		 305.27265			43387.38302		69.19000		324.00000 
 43692.65567		 311.00099			43381.65468		170.95800		875.00000 
 43692.65567		 305.27265			43387.38302		69.19000		324.00000 
 43692.65567		 311.00099			43381.65468		170.95800		875.00000 
 43692.65567		 305.27265			43387.38302		69.19000		324.00000 
 43692.65567		 311.00099			43381.65468		146.90200		875.00000 
 43692.65567		 305.27265			43387.38302		69.19000		324.00000 
 43692.65567		 311.00099			43381.65468		146.90200		875.00000 
 43692.65567		 305.27265			43387.38302		69.19000		324.00000 
 43692.65567		 311.00099			43381.65468		146.90200		875.00000 
 43692.65567		 305.27265			43387.38302		69.19000		324.00000 
 43692.65567		 311.00099			43381.65468		146.90200		875.00000 
 43692.65567		 305.27265			43387.38302		69.19000		324.00000 
 43692.65567		 311.00099			43381.65468		146.90200		875.00000 
 43692.65567		 305.27265			43387.38302		69.19000		324.00000 
 43692.65567		 311.00099			43381.65468		146.90200		875.00000 
 43692.65567		 305.27265			43387.38302		69.19000		324.00000 
 43692.65567		 311.00099			43381.65468		146.90200		875.00000 
 43692.65567		 305.27265			43387.38302		69.19000		324.00000 
 43692.65567		 311.00099			43381.65468		146.90200		875.00000 
 43692.65567		 305.27265			43387.38302		69.19000		324.00000 
 43692.65567		 311.00099			43381.65468		146.90200		875.00000 
 43692.65567		 305.27265			43387.38302		69.19000		324.00000 
 43692.65567		 311.00099			43381.65468		146.90200		875.00000 
 43692.65567		 305.27265			43387.38302		69.19000		324.00000 
 43692.65567		 311.00099			43381.65468		146.90200		875.00000 
 43692.65567		 305.27265			43387.38302		69.19000		324.00000 
 43692.65567		 311.00099			43381.65468		146.90200		875.00000 
 43692.65567		 305.27265			43387.38302		69.19000		324.00000 
 43692.65567		 311.00099			43381.65468		146.90200		875.00000 
 43692.65567		 305.27265			43387.38302		69.19000		324.00000 
 43692.65567		 311.00099			43381.65468		146.90200		875.00000 
 43692.65567		 305.27265			43387.38302		69.19000		324.00000 
 43692.65567		 311.00099			43381.65468		146.90200		875.00000 
 43692.65567		 305.27265			43387.38302		69.19000		324.00000 
 43692.65567		 311.00099			43381.65468		146.90200		875.00000 
 43692.65567		 305.27265			43387.38302		69.19000		324.00000 
 43692.65567		 311.00099			43381.65468		146.90200		875.00000 
 43692.65567		 305.27265			43387.38302		69.19000		324.00000 
 43692.65567		 311.00099			43381.65468		146.90200		875.00000 
 43692.65567		 305.27265			43387.38302		69.19000		324.00000 
 43692.65567		 311.00099			43381.65468		146.90200		875.00000 
 43692.65567		 305.27265			43387.38302		69.19000		324.00000 
 43692.65567		 311.00099			43381.65468		146.90200		875.00000 
 43692.65567		 305.27265			43387.38302		69.19000		324.00000 
 43692.65567		 311.00099			43381.65468		146.90200		875.00000 
 43692.65567		 305.27265			43387.38302		69.19000		324.00000 
 43692.65567		 311.00099			43381.65468		146.90200		875.00000 
 43692.65567		 305.27265			43387.38302		69.19000		324.00000 
 43692.65567		 311.00099			43381.65468		146.90200		875.00000 
 43692.65567		 305.27265			43387.38302		69.19000		324.00000 
 43692.65567		 311.00099			43381.65468		146.90200		875.00000 
 43692.65567		 305.27265			43387.38302		69.19000		324.00000 
 43692.65567		 311.00099			43381.65468		146.90200		875.00000 
 43692.65567		 305.27265			43387.38302		69.19000		324.00000 
 43692.65567		 311.00099			43381.65468		146.90200		875.00000 
 43692.65567		 305.27265			43387.38302		69.19000		324.00000 
 43692.65567		 311.00099			43381.65468		146.90200		875.00000 
 43692.65567		 305.27265			43387.38302		69.19000		324.00000 
 43692.65567		 311.00099			43381.65468		146.90200		875.00000 
 43692.65567		 305.27265			43387.38302		69.19000		324.00000 
 43692.65567		 311.00099			43381.65468		146.90200		875.00000 
 43692.65567		 305.27265			43387.38302		69.19000		324.00000 
 43692.65567		 311.00099			43381.65468		146.90200		875.00000 
 43692.65567		 305.27265			43387.38302		69.19000		324.00000 
 43692.65567		 311.00099			43381.65468		146.90200		875.00000 
 43692.65567		 305.27265			43387.38302		69.19000		324.00000 
 43692.65567		 311.00099			43381.65468		137.12600		875.00000 
 43692.65567		 305.27265			43387.38302		69.19000		324.00000 
 43692.65567		 311.00099			43381.65468		137.12600		875.00000 
 43692.65567		 305.27265			43387.38302		69.19000		324.00000 
 43692.65567		 311.00099			43381.65468		137.12600		875.00000 
 43692.65567		 305.27265			43387.38302		69.19000		324.00000 
 43692.65567		 311.00099			43381.65468		137.12600		875.00000 
 43692.65567		 305.27265			43387.38302		69.19000		324.00000 
 43692.65567		 311.00099			43381.65468		137.12600		875.00000 
 43692.65567		 305.27265			43387.38302		69.19000		324.00000 
 43692.65567		 311.00099			43381.65468		137.12600		875.00000 
 43692.65567		 305.27265			43387.38302		69.19000		324.00000 
 43692.65567		 311.00099			43381.65468		137.12600		875.00000 
 43692.65567		 305.27265			43387.38302		69.19000		324.00000 
 43692.65567		 311.00099			43381.65468		137.12600		875.00000 
 43692.65567		 305.27265			43387.38302		69.19000		324.00000 
 43692.65567		 311.00099			43381.65468		137.12600		875.00000 
 43692.65567		 305.27265			43387.38302		69.19000		324.00000 
 43692.65567		 311.00099			43381.65468		137.12600		875.00000 
 43692.65567		 305.27265			43387.38302		69.19000		324.00000 
 43692.65567		 311.00099			43381.65468		137.12600		875.00000 
 43692.65567		 305.27265			43387.38302		69.19000		324.00000 
 43692.65567		 311.00099			43381.65468		137.12600		875.00000 
 43692.65567		 305.27265			43387.38302		69.19000		324.00000 
 43692.65567		 311.00099			43381.65468		137.12600		875.00000 
 43692.65567		 305.27265			43387.38302		69.19000		324.00000 
 43692.65567		 311.00099			43381.65468		137.12600		875.00000 
 43692.65567		 305.27265			43387.38302		69.19000		324.00000 
 43692.65567		 311.00099			43381.65468		137.12600		875.00000 
 43692.65567		 305.27265			43387.38302		69.19000		324.00000 
 43692.65567		 311.00099			43381.65468		137.12600		875.00000 
 43692.65567		 305.27265			43387.38302		69.19000		324.00000 
 43692.65567		 314.81988			43377.83579		137.12600		875.00000 
 43692.65567		 305.27265			43387.38302		69.19000		324.00000 
 43692.65567		 314.81988			43377.83579		137.12600		875.00000 
 43692.65567		 305.27265			43387.38302		69.19000		324.00000 
 43692.65567		 314.81988			43377.83579		137.12600		875.00000 
 43692.65567		 305.27265			43387.38302		69.19000		324.00000 
 43692.65567		 322.45767			43370.19801		137.12600		875.00000 
 43692.65567		 305.27265			43387.38302		69.19000		324.00000 
 43692.65567		 326.27656			43366.37912		137.12600		875.00000 
 43692.65567		 305.27265			43387.38302		69.19000		324.00000 
 43692.65567		 326.27656			43366.37912		137.12600		875.00000 
 43692.65567		 305.27265			43387.38302		69.19000		324.00000 
 43692.65567		 326.27656			43366.37912		137.12600		875.00000 
 43692.65567		 305.27265			43387.38302		69.19000		324.00000 
 43692.65567		 326.27656			43366.37912		137.12600		875.00000 
 43692.65567		 305.27265			43387.38302		69.19000		324.00000 
 43692.65567		 537.27032			43155.38535		137.12600		875.00000 
 43692.65567		 305.27265			43387.38302		69.19000		324.00000 
 43692.65567		 599.80467			43092.85100		137.12600		875.00000 
 43692.65567		 305.27265			43387.38302		69.19000		324.00000 
 43692.65567		 724.87338			42967.78230		137.12600		875.00000 
 43692.65567		 305.27265			43387.38302		69.19000		324.00000 
 43692.65567		 724.87338			42967.78230		137.12600		875.00000 
 43692.65567		 305.27265			43387.38302		69.19000		324.00000 
 43692.65567		 724.87338			42967.78230		137.12600		875.00000 
 43692.65567		 305.27265			43387.38302		69.19000		324.00000 
 43692.65567		 724.87338			42967.78230		137.12600		875.00000 
 43692.65567		 305.27265			43387.38302		69.19000		324.00000 
 43692.65567		 724.87338			42967.78230		137.12600		875.00000 
 43692.65567		 305.27265			43387.38302		69.19000		324.00000 
 43692.65567		 724.87338			42967.78230		137.12600		875.00000 
 43692.65567		 305.27265			43387.38302		69.19000		324.00000 
 43692.65567		 724.87338			42967.78230		137.12600		875.00000 
 43692.65567		 305.27265			43387.38302		69.19000		324.00000 
 43692.65567		 724.87338			42967.78230		137.12600		875.00000 
 43692.65567		 305.27265			43387.38302		69.19000		324.00000 
 43692.65567		 724.87338			42967.78230		137.12600		875.00000 
 43692.65567		 305.27265			43387.38302		69.19000		324.00000 
 43692.65567		 724.87338			42967.78230		137.12600		875.00000 
 43692.65567		 305.27265			43387.38302		69.19000		324.00000 
 43692.65567		 724.87338			42967.78230		137.12600		875.00000 
 43692.65567		 305.27265			43387.38302		69.19000		324.00000 
 43692.65567		 724.87338			42967.78230		137.12600		875.00000 
 43692.65567		 305.27265			43387.38302		69.19000		324.00000 
 43692.65567		 724.87338			42967.78230		137.12600		875.00000 
 43692.65567		 305.27265			43387.38302		69.19000		324.00000 
 43692.65567		 724.87338			42967.78230		137.12600		875.00000 
 43692.65567		 305.27265			43387.38302		69.19000		324.00000 
 43692.65567		 724.87338			42967.78230		137.12600		875.00000 
 43692.65567		 305.27265			43387.38302		69.19000		324.00000 
 43692.65567		 724.87338			42967.78230		137.12600		875.00000 
 43692.65567		 305.27265			43387.38302		69.19000		324.00000 
 43692.65567		 724.87338			42967.78230		137.12600		875.00000 
 43692.65567		 305.27265			43387.38302		69.19000		324.00000 
 43692.65567		 724.87338			42967.78230		137.12600		875.00000 
 43692.65567		 305.27265			43387.38302		69.19000		324.00000 
 43692.65567		 724.87338			42967.78230		156.57600		875.00000 
 43692.65567		 305.27265			43387.38302		69.19000		324.00000 
 43692.65567		 724.87338			42967.78230		156.57600		875.00000 
 43692.65567		 305.27265			43387.38302		69.19000		324.00000 
 43692.65567		 724.87338			42967.78230		156.57600		875.00000 
 43692.65567		 305.27265			43387.38302		69.19000		324.00000 
 43692.65567		 724.87338			42967.78230		156.57600		875.00000 
 43692.65567		 305.27265			43387.38302		69.19000		324.00000 
 43692.65567		 724.87338			42967.78230		156.57600		875.00000 
 43692.65567		 305.27265			43387.38302		69.19000		324.00000 
 43692.65567		 724.87338			42967.78230		156.57600		875.00000 
 43692.65567		 305.27265			43387.38302		69.19000		324.00000 
 43692.65567		 724.87338			42967.78230		156.57600		875.00000 
 43692.65567		 305.27265			43387.38302		69.19000		324.00000 
 43692.65567		 724.87338			42967.78230		156.57600		875.00000 
 43692.65567		 305.27265			43387.38302		69.19000		324.00000 
 43692.65567		 724.87338			42967.78230		156.57600		875.00000 
 43692.65567		 305.27265			43387.38302		69.19000		324.00000 
 43692.65567		 724.87338			42967.78230		156.57600		875.00000 
 43692.65567		 305.27265			43387.38302		69.19000		324.00000 
 43692.65567		 724.87338			42967.78230		156.57600		875.00000 
 43692.65567		 305.27265			43387.38302		69.19000		324.00000 
 43692.65567		 724.87338			42967.78230		156.57600		875.00000 
 43692.65567		 305.27265			43387.38302		69.19000		324.00000 
 43692.65567		 724.87338			42967.78230		156.57600		875.00000 
 43692.65567		 305.27265			43387.38302		69.19000		324.00000 
 43692.65567		 724.87338			42967.78230		156.57600		875.00000 
 43692.65567		 305.27265			43387.38302		69.19000		324.00000 
 43692.65567		 724.87338			42967.78230		156.57600		875.00000 
 43692.65567		 305.27265			43387.38302		69.19000		324.00000 
 43692.65567		 724.87338			42967.78230		156.57600		875.00000 
 43692.65567		 305.27265			43387.38302		69.19000		324.00000 
 43692.65567		 724.87338			42967.78230		156.57600		875.00000 
 43692.65567		 305.27265			43387.38302		69.19000		324.00000 
 43692.65567		 724.87338			42967.78230		156.57600		875.00000 
 43692.65567		 305.27265			43387.38302		69.19000		324.00000 
 43692.65567		 724.87338			42967.78230		156.57600		875.00000 
 43692.65567		 305.27265			43387.38302		69.19000		324.00000 
 43692.65567		 724.87338			42967.78230		156.57600		875.00000 
 43692.65567		 305.27265			43387.38302		69.19000		324.00000 
 43692.65567		 724.87338			42967.78230		156.57600		875.00000 
 43692.65567		 305.27265			43387.38302		69.19000		324.00000 
 43692.65567		 724.87338			42967.78230		156.57600		875.00000 
 43692.65567		 305.27265			43387.38302		69.19000		324.00000 
 43692.65567		 724.87338			42967.78230		156.57600		875.00000 
 43692.65567		 305.27265			43387.38302		69.19000		324.00000 
 43692.65567		 724.87338			42967.78230		156.57600		875.00000 
 43692.65567		 305.27265			43387.38302		69.19000		324.00000 
 43692.65567		 724.87338			42967.78230		156.57600		875.00000 
 43692.65567		 305.27265			43387.38302		69.19000		324.00000 
 43692.65567		 724.87338			42967.78230		156.57600		875.00000 
 43692.65567		 305.27265			43387.38302		69.19000		324.00000 
 43692.65567		 724.87338			42967.78230		156.57600		875.00000 
 43692.65567		 305.27265			43387.38302		69.19000		324.00000 
 43692.65567		 724.87338			42967.78230		156.57600		875.00000 
 43692.65567		 305.27265			43387.38302		69.19000		324.00000 
 43692.65567		 724.87338			42967.78230		156.57600		875.00000 
 43692.65567		 305.27265			43387.38302		69.19000		324.00000 
 43692.65567		 724.87338			42967.78230		156.57600		875.00000 
 43692.65567		 305.27265			43387.38302		69.19000		324.00000 
 43692.65567		 724.87338			42967.78230		156.57600		875.00000 
 43692.65567		 305.27265			43387.38302		69.19000		324.00000 
 43692.65567		 724.87338			42967.78230		156.57600		875.00000 
 43692.65567		 305.27265			43387.38302		69.19000		324.00000 
 43692.65567		 724.87338			42967.78230		156.57600		875.00000 
 43692.65567		 305.27265			43387.38302		69.19000		324.00000 
 43692.65567		 724.87338			42967.78230		156.57600		875.00000 
 43692.65567		 305.27265			43387.38302		69.19000		324.00000 
 43692.65567		 724.87338			42967.78230		156.57600		875.00000 
 43692.65567		 305.27265			43387.38302		69.19000		324.00000 
 43692.65567		 724.87338			42967.78230		156.57600		875.00000 
 43692.65567		 305.27265			43387.38302		69.19000		324.00000 
 43692.65567		 724.87338			42967.78230		156.57600		875.00000 
 43692.65567		 305.27265			43387.38302		69.19000		324.00000 
 43692.65567		 724.87338			42967.78230		156.57600		875.00000 
 43692.65567		 305.27265			43387.38302		69.19000		324.00000 
 43692.65567		 724.87338			42967.78230		156.57600		875.00000 
 43692.65567		 305.27265			43387.38302		69.19000		324.00000 
 43692.65567		 724.87338			42967.78230		156.57600		875.00000 
 43692.65567		 305.27265			43387.38302		69.19000		324.00000 
 43692.65567		 724.87338			42967.78230		156.57600		875.00000 
 43692.65567		 305.27265			43387.38302		69.19000		324.00000 
 43692.65567		 724.87338			42967.78230		156.57600		875.00000 
 43692.65567		 305.27265			43387.38302		69.19000		324.00000 
 43692.65567		 724.87338			42967.78230		156.57600		875.00000 
 43692.65567		 305.27265			43387.38302		69.19000		324.00000 
 43692.65567		 724.87338			42967.78230		156.57600		875.00000 
 43692.65567		 305.27265			43387.38302		69.19000		324.00000 
 43692.65567		 724.87338			42967.78230		156.57600		875.00000 
 43692.65567		 305.27265			43387.38302		69.19000		324.00000 
 43692.65567		 724.87338			42967.78230		156.57600		875.00000 
 43692.65567		 305.27265			43387.38302		69.19000		324.00000 
 43692.65567		 724.87338			42967.78230		156.57600		875.00000 
 43692.65567		 305.27265			43387.38302		69.19000		324.00000 
 43692.65567		 724.87338			42967.78230		156.57600		875.00000 
 43692.65567		 305.27265			43387.38302		69.19000		324.00000 
 43692.65567		 724.87338			42967.78230		156.57600		875.00000 
 43692.65567		 305.27265			43387.38302		69.19000		324.00000 
 43692.65567		 724.87338			42967.78230		156.57600		875.00000 
 43692.65567		 305.27265			43387.38302		69.19000		324.00000 
 43692.65567		 724.87338			42967.78230		156.57600		875.00000 
 43692.65567		 305.27265			43387.38302		69.19000		324.00000 
 43692.65567		 724.87338			42967.78230		156.57600		875.00000 
 43692.65567		 305.27265			43387.38302		69.19000		324.00000 
 43692.65567		 724.87338			42967.78230		156.57600		875.00000 
 43692.65567		 305.27265			43387.38302		69.19000		324.00000 
 43692.65567		 724.87338			42967.78230		156.57600		875.00000 
 43692.65567		 305.27265			43387.38302		69.19000		324.00000 
 43692.65567		 724.87338			42967.78230		156.57600		875.00000 
 43692.65567		 305.27265			43387.38302		69.19000		324.00000 
 43692.65567		 724.87338			42967.78230		156.57600		875.00000 
 43692.65567		 305.27265			43387.38302		69.19000		324.00000 
 43692.65567		 724.87338			42967.78230		156.57600		875.00000 
 43692.65567		 305.27265			43387.38302		69.19000		324.00000 
 43692.65567		 724.87338			42967.78230		156.57600		875.00000 
 43692.65567		 305.27265			43387.38302		69.19000		324.00000 
 43692.65567		 724.87338			42967.78230		156.57600		875.00000 
 43692.65567		 305.27265			43387.38302		69.19000		324.00000 
 43692.65567		 724.87338			42967.78230		156.57600		875.00000 
 43692.65567		 305.27265			43387.38302		69.19000		324.00000 
 43692.65567		 724.87338			42967.78230		156.57600		875.00000 
 43692.65567		 305.27265			43387.38302		69.19000		324.00000 
 43692.65567		 724.87338			42967.78230		156.57600		875.00000 
 43692.65567		 305.27265			43387.38302		69.19000		324.00000 
 43692.65567		 724.87338			42967.78230		156.57600		875.00000 
 43692.65567		 305.27265			43387.38302		69.19000		324.00000 
 43692.65567		 724.87338			42967.78230		156.57600		875.00000 
 43692.65567		 305.27265			43387.38302		69.19000		324.00000 
 43692.65567		 724.87338			42967.78230		199.06600		875.00000 
 43692.65567		 305.27265			43387.38302		69.19000		324.00000 
 43692.65567		 724.87338			42967.78230		199.06600		875.00000 
 43692.65567		 305.27265			43387.38302		69.19000		324.00000 
 43692.65567		 724.87338			42967.78230		199.06600		875.00000 
 43692.65567		 305.27265			43387.38302		69.19000		324.00000 
 43692.65567		 724.87338			42967.78230		199.06600		875.00000 
 43692.65567		 305.27265			43387.38302		69.19000		324.00000 
 43692.65567		 724.87338			42967.78230		199.06600		875.00000 
 43692.65567		 305.27265			43387.38302		69.19000		324.00000 
 43692.65567		 724.87338			42967.78230		199.06600		875.00000 
 43692.65567		 305.27265			43387.38302		69.19000		324.00000 
 43692.65567		 724.87338			42967.78230		199.06600		875.00000 
 43692.65567		 305.27265			43387.38302		69.19000		324.00000 
 43692.65567		 724.87338			42967.78230		199.06600		875.00000 
 43692.65567		 305.27265			43387.38302		69.19000		324.00000 
 43692.65567		 724.87338			42967.78230		199.06600		875.00000 
 43692.65567		 305.27265			43387.38302		69.19000		324.00000 
 43692.65567		 724.87338			42967.78230		199.06600		875.00000 
 43692.65567		 305.27265			43387.38302		69.19000		324.00000 
 43692.65567		 724.87338			42967.78230		199.06600		875.00000 
 43692.65567		 305.27265			43387.38302		69.19000		324.00000 
 43692.65567		 724.87338			42967.78230		199.06600		875.00000 
 43692.65567		 305.27265			43387.38302		69.19000		324.00000 
 43692.65567		 724.87338			42967.78230		199.06600		875.00000 
 43692.65567		 305.27265			43387.38302		69.19000		324.00000 
 43692.65567		 724.87338			42967.78230		199.06600		875.00000 
 43692.65567		 305.27265			43387.38302		69.19000		324.00000 
 43692.65567		 724.87338			42967.78230		199.06600		875.00000 
 43692.65567		 305.27265			43387.38302		69.19000		324.00000 
 43692.65567		 724.87338			42967.78230		199.06600		875.00000 
 43692.65567		 305.27265			43387.38302		69.19000		324.00000 
 43692.65567		 724.87338			42967.78230		199.06600		875.00000 
 43692.65567		 305.27265			43387.38302		69.19000		324.00000 
 43692.65567		 724.87338			42967.78230		199.06600		875.00000 
 43692.65567		 305.27265			43387.38302		69.19000		324.00000 
 43692.65567		 724.87338			42967.78230		199.06600		875.00000 
 43692.65567		 305.27265			43387.38302		69.19000		324.00000 
 43692.65567		 724.87338			42967.78230		199.06600		875.00000 
 43692.65567		 305.27265			43387.38302		69.19000		324.00000 
 43692.65567		 724.87338			42967.78230		199.06600		875.00000 
 43692.65567		 305.27265			43387.38302		69.19000		324.00000 
 43692.65567		 724.87338			42967.78230		199.06600		875.00000 
 43692.65567		 305.27265			43387.38302		69.19000		324.00000 
 43692.65567		 724.87338			42967.78230		199.06600		875.00000 
 43692.65567		 305.27265			43387.38302		69.19000		324.00000 
 43692.65567		 724.87338			42967.78230		199.06600		875.00000 
 43692.65567		 305.27265			43387.38302		69.19000		324.00000 
 43692.65567		 724.87338			42967.78230		199.06600		875.00000 
 43692.65567		 305.27265			43387.38302		69.19000		324.00000 
 43692.65567		 724.87338			42967.78230		199.06600		875.00000 
 43692.65567		 305.27265			43387.38302		69.19000		324.00000 
 43692.65567		 724.87338			42967.78230		199.06600		875.00000 
 43692.65567		 305.27265			43387.38302		69.19000		324.00000 
 43692.65567		 724.87338			42967.78230		199.06600		875.00000 
 43692.65567		 305.27265			43387.38302		69.19000		324.00000 
 43692.65567		 724.87338			42967.78230		199.06600		875.00000 
 43692.65567		 305.27265			43387.38302		69.19000		324.00000 
 43692.65567		 724.87338			42967.78230		199.06600		875.00000 
 43692.65567		 305.27265			43387.38302		69.19000		324.00000 
 43692.65567		 724.87338			42967.78230		199.06600		875.00000 
 43692.65567		 305.27265			43387.38302		69.19000		324.00000 
 43692.65567		 724.87338			42967.78230		199.06600		875.00000 
 43692.65567		 305.27265			43387.38302		69.19000		324.00000 
 43692.65567		 724.87338			42967.78230		199.06600		875.00000 
 43692.65567		 305.27265			43387.38302		69.19000		324.00000 
 43692.65567		 724.87338			42967.78230		199.06600		875.00000 
 43692.65567		 305.27265			43387.38302		69.19000		324.00000 
 43692.65567		 724.87338			42967.78230		199.06600		875.00000 
 43692.65567		 305.27265			43387.38302		69.19000		324.00000 
 43692.65567		 724.87338			42967.78230		199.06600		875.00000 
 43692.65567		 305.27265			43387.38302		69.19000		324.00000 
 43692.65567		 724.87338			42967.78230		199.06600		875.00000 
 43692.65567		 305.27265			43387.38302		69.19000		324.00000 
 43692.65567		 724.87338			42967.78230		199.06600		875.00000 
 43692.65567		 305.27265			43387.38302		69.19000		324.00000 
 43692.65567		 724.87338			42967.78230		199.06600		875.00000 
 43692.65567		 305.27265			43387.38302		69.19000		324.00000 
 43692.65567		 724.87338			42967.78230		199.06600		875.00000 
 43692.65567		 305.27265			43387.38302		69.19000		324.00000 
 43692.65567		 724.87338			42967.78230		199.06600		875.00000 
 43692.65567		 305.27265			43387.38302		69.19000		324.00000 
 43692.65567		 724.87338			42967.78230		199.06600		875.00000 
 43692.65567		 305.27265			43387.38302		69.19000		324.00000 
 43692.65567		 724.87338			42967.78230		199.06600		875.00000 
 43692.65567		 305.27265			43387.38302		69.19000		324.00000 
 43692.65567		 724.87338			42967.78230		199.06600		875.00000 
 43692.65567		 305.27265			43387.38302		69.19000		324.00000 
 43692.65567		 724.87338			42967.78230		199.06600		875.00000 
 43692.65567		 305.27265			43387.38302		69.19000		324.00000 
 43692.65567		 724.87338			42967.78230		199.06600		875.00000 
 43692.65567		 305.27265			43387.38302		69.19000		324.00000 
 43692.65567		 724.87338			42967.78230		199.06600		875.00000 
 43692.65567		 305.27265			43387.38302		69.19000		324.00000 
 43692.65567		 724.87338			42967.78230		199.06600		875.00000 
 43692.65567		 305.27265			43387.38302		69.19000		324.00000 
 43692.65567		 724.87338			42967.78230		199.06600		875.00000 
 43692.65567		 305.27265			43387.38302		69.19000		324.00000 
 43692.65567		 724.87338			42967.78230		199.06600		875.00000 
 43692.65567		 305.27265			43387.38302		69.19000		324.00000 
 43692.65567		 724.87338			42967.78230		199.06600		875.00000 
 43692.65567		 305.27265			43387.38302		69.19000		324.00000 
 43692.65567		 724.87338			42967.78230		199.06600		875.00000 
 43692.65567		 305.27265			43387.38302		69.19000		324.00000 
 43692.65567		 724.87338			42967.78230		199.06600		875.00000 
 43692.65567		 305.27265			43387.38302		69.19000		324.00000 
 43692.65567		 724.87338			42967.78230		199.06600		875.00000 
 43692.65567		 305.27265			43387.38302		69.19000		324.00000 
 43692.65567		 724.87338			42967.78230		199.06600		875.00000 
 43692.65567		 305.27265			43387.38302		69.19000		324.00000 
 43692.65567		 724.87338			42967.78230		199.06600		875.00000 
 43692.65567		 305.27265			43387.38302		69.19000		324.00000 
 43692.65567		 724.87338			42967.78230		199.06600		875.00000 
 43692.65567		 305.27265			43387.38302		69.19000		324.00000 
 43692.65567		 724.87338			42967.78230		199.06600		875.00000 
 43692.65567		 305.27265			43387.38302		69.19000		324.00000 
 43692.65567		 724.87338			42967.78230		199.06600		875.00000 
 43692.65567		 305.27265			43387.38302		69.19000		324.00000 
 43692.65567		 724.87338			42967.78230		199.06600		875.00000 
 43692.65567		 305.27265			43387.38302		69.19000		324.00000 
 43692.65567		 724.87338			42967.78230		199.06600		875.00000 
 43692.65567		 305.27265			43387.38302		69.19000		324.00000 
 43692.65567		 724.87338			42967.78230		199.06600		875.00000 
 43692.65567		 305.27265			43387.38302		69.19000		324.00000 
 43692.65567		 724.87338			42967.78230		199.06600		875.00000 
 43692.65567		 305.27265			43387.38302		69.19000		324.00000 
 43692.65567		 724.87338			42967.78230		199.06600		875.00000 
 43692.65567		 305.27265			43387.38302		69.19000		324.00000 
 43692.65567		 724.87338			42967.78230		215.07200		875.00000 
 43692.65567		 305.27265			43387.38302		69.19000		324.00000 
 43692.65567		 724.87338			42967.78230		215.07200		875.00000 
 43692.65567		 305.27265			43387.38302		69.19000		324.00000 
 43692.65567		 724.87338			42967.78230		215.07200		875.00000 
 43692.65567		 305.27265			43387.38302		69.19000		324.00000 
 43692.65567		 724.87338			42967.78230		215.07200		875.00000 
 43692.65567		 305.27265			43387.38302		69.19000		324.00000 
 43692.65567		 724.87338			42967.78230		215.07200		875.00000 
 43692.65567		 305.27265			43387.38302		69.19000		324.00000 
 43692.65567		 724.87338			42967.78230		215.07200		875.00000 
 43692.65567		 305.27265			43387.38302		69.19000		324.00000 
 43692.65567		 724.87338			42967.78230		215.07200		875.00000 
 43692.65567		 305.27265			43387.38302		69.19000		324.00000 
 43692.65567		 724.87338			42967.78230		215.07200		875.00000 
 43692.65567		 305.27265			43387.38302		69.19000		324.00000 
 43692.65567		 724.87338			42967.78230		215.07200		875.00000 
 43692.65567		 305.27265			43387.38302		69.19000		324.00000 
 43692.65567		 724.87338			42967.78230		215.07200		875.00000 
 43692.65567		 305.27265			43387.38302		69.19000		324.00000 
 43692.65567		 724.87338			42967.78230		215.07200		875.00000 
 43692.65567		 305.27265			43387.38302		69.19000		324.00000 
 43692.65567		 724.87338			42967.78230		215.07200		875.00000 
 43692.65567		 305.27265			43387.38302		69.19000		324.00000 
 43692.65567		 724.87338			42967.78230		215.07200		875.00000 
 43692.65567		 305.27265			43387.38302		69.19000		324.00000 
 43692.65567		 724.87338			42967.78230		215.07200		875.00000 
 43692.65567		 305.27265			43387.38302		69.19000		324.00000 
 43692.65567		 724.87338			42967.78230		215.07200		875.00000 
 43692.65567		 305.27265			43387.38302		69.19000		324.00000 
 43692.65567		 724.87338			42967.78230		215.07200		875.00000 
 43692.65567		 305.27265			43387.38302		69.19000		324.00000 
 43692.65567		 724.87338			42967.78230		215.07200		875.00000 
 43692.65567		 305.27265			43387.38302		69.19000		324.00000 
 43692.65567		 724.87338			42967.78230		215.07200		875.00000 
 43692.65567		 305.27265			43387.38302		69.19000		324.00000 
 43692.65567		 724.87338			42967.78230		215.07200		875.00000 
 43692.65567		 305.27265			43387.38302		69.19000		324.00000 
 43692.65567		 724.87338			42967.78230		215.07200		875.00000 
 43692.65567		 305.27265			43387.38302		69.19000		324.00000 
 43692.65567		 724.87338			42967.78230		215.07200		875.00000 
 43692.65567		 305.27265			43387.38302		69.19000		324.00000 
 43692.65567		 724.87338			42967.78230		215.07200		875.00000 
 43692.65567		 305.27265			43387.38302		69.19000		324.00000 
 43692.65567		 724.87338			42967.78230		215.07200		875.00000 
 43692.65567		 305.27265			43387.38302		69.19000		324.00000 
 43692.65567		 724.87338			42967.78230		215.07200		875.00000 
 43692.65567		 305.27265			43387.38302		69.19000		324.00000 
 43692.65567		 724.87338			42967.78230		215.07200		875.00000 
 43692.65567		 305.27265			43387.38302		69.19000		324.00000 
 43692.65567		 724.87338			42967.78230		215.07200		875.00000 
 43692.65567		 305.27265			43387.38302		69.19000		324.00000 
 43692.65567		 724.87338			42967.78230		215.07200		875.00000 
 43692.65567		 305.27265			43387.38302		69.19000		324.00000 
 43692.65567		 724.87338			42967.78230		215.07200		875.00000 
 43692.65567		 305.27265			43387.38302		69.19000		324.00000 
 43692.65567		 724.87338			42967.78230		215.07200		875.00000 
 43692.65567		 305.27265			43387.38302		69.19000		324.00000 
 43692.65567		 724.87338			42967.78230		215.07200		875.00000 
 43692.65567		 305.27265			43387.38302		69.19000		324.00000 
 43692.65567		 724.87338			42967.78230		215.07200		875.00000 
 43692.65567		 305.27265			43387.38302		69.19000		324.00000 
 43692.65567		 724.87338			42967.78230		215.07200		875.00000 
 43692.65567		 305.27265			43387.38302		69.19000		324.00000 
 43692.65567		 724.87338			42967.78230		215.07200		875.00000 
 43692.65567		 305.27265			43387.38302		69.19000		324.00000 
 43692.65567		 724.87338			42967.78230		215.07200		875.00000 
 43692.65567		 305.27265			43387.38302		69.19000		324.00000 
 43692.65567		 724.87338			42967.78230		215.07200		875.00000 
 43692.65567		 305.27265			43387.38302		69.19000		324.00000 
 43692.65567		 724.87338			42967.78230		215.07200		875.00000 
 43692.65567		 305.27265			43387.38302		69.19000		324.00000 
 43692.65567		 724.87338			42967.78230		215.07200		875.00000 
 43692.65567		 305.27265			43387.38302		69.19000		324.00000 
 43692.65567		 724.87338			42967.78230		215.07200		875.00000 
 43692.65567		 305.27265			43387.38302		69.19000		324.00000 
 43692.65567		 724.87338			42967.78230		215.07200		875.00000 
 43692.65567		 305.27265			43387.38302		69.19000		324.00000 
 43692.65567		 724.87338			42967.78230		215.07200		875.00000 
 43692.65567		 305.27265			43387.38302		69.19000		324.00000 
 43692.65567		 724.87338			42967.78230		215.07200		875.00000 
 43692.65567		 305.27265			43387.38302		69.19000		324.00000 
 43692.65567		 724.87338			42967.78230		215.07200		875.00000 
 43692.65567		 305.27265			43387.38302		69.19000		324.00000 
 43692.65567		 724.87338			42967.78230		215.07200		875.00000 
 43692.65567		 305.27265			43387.38302		69.19000		324.00000 
 43692.65567		 724.87338			42967.78230		215.07200		875.00000 
 43692.65567		 305.27265			43387.38302		69.19000		324.00000 
 43692.65567		 724.87338			42967.78230		215.07200		875.00000 
 43692.65567		 305.27265			43387.38302		69.19000		324.00000 
 43692.65567		 724.87338			42967.78230		215.07200		875.00000 
 43692.65567		 305.27265			43387.38302		69.19000		324.00000 
 43692.65567		 724.87338			42967.78230		215.07200		875.00000 
 43692.65567		 305.27265			43387.38302		69.19000		324.00000 
 43692.65567		 724.87338			42967.78230		215.07200		875.00000 
 43692.65567		 305.27265			43387.38302		69.19000		324.00000 
 43692.65567		 724.87338			42967.78230		215.07200		875.00000 
 43692.65567		 305.27265			43387.38302		69.19000		324.00000 
 43692.65567		 724.87338			42967.78230		215.07200		875.00000 
 43692.65567		 305.27265			43387.38302		69.19000		324.00000 
 43692.65567		 724.87338			42967.78230		215.07200		875.00000 
 43692.65567		 305.27265			43387.38302		69.19000		324.00000 
 43692.65567		 724.87338			42967.78230		215.07200		875.00000 
 43692.65567		 305.27265			43387.38302		69.19000		324.00000 
 43692.65567		 724.87338			42967.78230		215.07200		875.00000 
 43692.65567		 305.27265			43387.38302		69.19000		324.00000 
 43692.65567		 724.87338			42967.78230		215.07200		875.00000 
 43692.65567		 305.27265			43387.38302		69.19000		324.00000 
 43692.65567		 724.87338			42967.78230		215.07200		875.00000 
 43692.65567		 305.27265			43387.38302		69.19000		324.00000 
 43692.65567		 724.87338			42967.78230		215.07200		875.00000 
 43692.65567		 305.27265			43387.38302		69.19000		324.00000 
 43692.65567		 724.87338			42967.78230		215.07200		875.00000 
 43692.65567		 305.27265			43387.38302		69.19000		324.00000 
 43692.65567		 724.87338			42967.78230		215.07200		875.00000 
 43692.65567		 305.27265			43387.38302		69.19000		324.00000 
 43692.65567		 724.87338			42967.78230		215.07200		875.00000 
 43692.65567		 305.27265			43387.38302		69.19000		324.00000 
 43692.65567		 724.87338			42967.78230		215.07200		875.00000 
 43692.65567		 305.27265			43387.38302		69.19000		324.00000 
 43692.65567		 724.87338			42967.78230		215.07200		875.00000 
 43692.65567		 305.27265			43387.38302		69.19000		324.00000 
 43692.65567		 724.87338			42967.78230		215.07200		875.00000 
 43692.65567		 305.27265			43387.38302		69.19000		324.00000 
 43692.65567		 724.87338			42967.78230		215.07200		875.00000 
 43692.65567		 305.27265			43387.38302		69.19000		324.00000 
 43692.65567		 724.87338			42967.78230		215.07200		875.00000 
 43692.65567		 305.27265			43387.38302		69.19000		324.00000 
 43692.65567		 724.87338			42967.78230		221.22600		875.00000 
 43692.65567		 305.27265			43387.38302		69.19000		324.00000 
 43692.65567		 724.87338			42967.78230		221.22600		875.00000 
 43692.65567		 305.27265			43387.38302		69.19000		324.00000 
 43692.65567		 724.87338			42967.78230		221.22600		875.00000 
 43692.65567		 305.27265			43387.38302		69.19000		324.00000 
 43692.65567		 724.87338			42967.78230		221.22600		875.00000 
 43692.65567		 305.27265			43387.38302		69.19000		324.00000 
 43692.65567		 724.87338			42967.78230		221.22600		875.00000 
 43692.65567		 305.27265			43387.38302		69.19000		324.00000 
 43692.65567		 724.87338			42967.78230		221.22600		875.00000 
 43692.65567		 305.27265			43387.38302		69.19000		324.00000 
 43692.65567		 724.87338			42967.78230		221.22600		875.00000 
 43692.65567		 305.27265			43387.38302		69.19000		324.00000 
 43692.65567		 724.87338			42967.78230		221.22600		875.00000 
 43692.65567		 305.27265			43387.38302		69.19000		324.00000 
 43692.65567		 724.87338			42967.78230		221.22600		875.00000 
 43692.65567		 305.27265			43387.38302		69.19000		324.00000 
 43692.65567		 724.87338			42967.78230		221.22600		875.00000 
 43692.65567		 305.27265			43387.38302		69.19000		324.00000 
 43692.65567		 724.87338			42967.78230		221.22600		875.00000 
 43692.65567		 305.27265			43387.38302		69.19000		324.00000 
 43692.65567		 724.87338			42967.78230		221.22600		875.00000 
 43692.65567		 305.27265			43387.38302		69.19000		324.00000 
 43692.65567		 724.87338			42967.78230		221.22600		875.00000 
 43692.65567		 305.27265			43387.38302		69.19000		324.00000 
 43692.65567		 724.87338			42967.78230		221.22600		875.00000 
 43692.65567		 305.27265			43387.38302		69.19000		324.00000 
 43692.65567		 724.87338			42967.78230		221.22600		875.00000 
 43692.65567		 305.27265			43387.38302		69.19000		324.00000 
 43692.65567		 724.87338			42967.78230		221.22600		875.00000 
 43692.65567		 305.27265			43387.38302		69.19000		324.00000 
 43692.65567		 724.87338			42967.78230		221.22600		875.00000 
 43692.65567		 305.27265			43387.38302		69.19000		324.00000 
 43692.65567		 724.87338			42967.78230		221.22600		875.00000 
 43692.65567		 305.27265			43387.38302		69.19000		324.00000 
 43692.65567		 724.87338			42967.78230		221.22600		875.00000 
 43692.65567		 305.27265			43387.38302		69.19000		324.00000 
 43692.65567		 724.87338			42967.78230		221.22600		875.00000 
 43692.65567		 305.27265			43387.38302		69.19000		324.00000 
 43692.65567		 724.87338			42967.78230		221.22600		875.00000 
 43692.65567		 305.27265			43387.38302		69.19000		324.00000 
 43692.65567		 724.87338			42967.78230		221.22600		875.00000 
 43692.65567		 305.27265			43387.38302		69.19000		324.00000 
 43692.65567		 724.87338			42967.78230		221.22600		875.00000 
 43692.65567		 305.27265			43387.38302		69.19000		324.00000 
 43692.65567		 724.87338			42967.78230		221.22600		875.00000 
 43692.65567		 305.27265			43387.38302		69.19000		324.00000 
 43692.65567		 724.87338			42967.78230		221.22600		875.00000 
 43692.65567		 305.27265			43387.38302		69.19000		324.00000 
 43692.65567		 724.87338			42967.78230		221.22600		875.00000 
 43692.65567		 305.27265			43387.38302		69.19000		324.00000 
 43692.65567		 724.87338			42967.78230		221.22600		875.00000 
 43692.65567		 305.27265			43387.38302		69.19000		324.00000 
 43692.65567		 724.87338			42967.78230		221.22600		875.00000 
 43692.65567		 305.27265			43387.38302		69.19000		324.00000 
 43692.65567		 724.87338			42967.78230		221.22600		875.00000 
 43692.65567		 305.27265			43387.38302		69.19000		324.00000 
 43692.65567		 724.87338			42967.78230		221.22600		875.00000 
 43692.65567		 305.27265			43387.38302		69.19000		324.00000 
 43692.65567		 724.87338			42967.78230		221.22600		875.00000 
 43692.65567		 305.27265			43387.38302		69.19000		324.00000 
 43692.65567		 724.87338			42967.78230		221.22600		875.00000 
 43692.65567		 305.27265			43387.38302		69.19000		324.00000 
 43692.65567		 724.87338			42967.78230		221.22600		875.00000 
 43692.65567		 305.27265			43387.38302		69.19000		324.00000 
 43692.65567		 724.87338			42967.78230		221.22600		875.00000 
 43692.65567		 305.27265			43387.38302		69.19000		324.00000 
 43692.65567		 724.87338			42967.78230		221.22600		875.00000 
 43692.65567		 305.27265			43387.38302		69.19000		324.00000 
 43692.65567		 724.87338			42967.78230		221.22600		875.00000 
 43692.65567		 305.27265			43387.38302		69.19000		324.00000 
 43692.65567		 724.87338			42967.78230		221.22600		875.00000 
 43692.65567		 305.27265			43387.38302		69.19000		324.00000 
 43692.65567		 724.87338			42967.78230		221.22600		875.00000 
 43692.65567		 305.27265			43387.38302		69.19000		324.00000 
 43692.65567		 724.87338			42967.78230		221.22600		875.00000 
 43692.65567		 305.27265			43387.38302		69.19000		324.00000 
 43692.65567		 724.87338			42967.78230		221.22600		875.00000 
 43692.65567		 305.27265			43387.38302		69.19000		324.00000 
 43692.65567		 724.87338			42967.78230		221.22600		875.00000 
 43692.65567		 305.27265			43387.38302		69.19000		324.00000 
 43692.65567		 724.87338			42967.78230		221.22600		875.00000 
 43692.65567		 305.27265			43387.38302		69.19000		324.00000 
 43692.65567		 724.87338			42967.78230		221.22600		875.00000 
 43692.65567		 305.27265			43387.38302		69.19000		324.00000 
 43692.65567		 724.87338			42967.78230		221.22600		875.00000 
 43692.65567		 305.27265			43387.38302		69.19000		324.00000 
 43692.65567		 724.87338			42967.78230		221.22600		875.00000 
 43692.65567		 305.27265			43387.38302		69.19000		324.00000 
 43692.65567		 724.87338			42967.78230		221.22600		875.00000 
 43692.65567		 305.27265			43387.38302		69.19000		324.00000 
 43692.65567		 724.87338			42967.78230		221.22600		875.00000 
 43692.65567		 305.27265			43387.38302		69.19000		324.00000 
 43692.65567		 724.87338			42967.78230		221.22600		875.00000 
 43692.65567		 305.27265			43387.38302		69.19000		324.00000 
 43692.65567		 724.87338			42967.78230		221.22600		875.00000 
 43692.65567		 305.27265			43387.38302		69.19000		324.00000 
 43692.65567		 724.87338			42967.78230		221.22600		875.00000 
 43692.65567		 305.27265			43387.38302		69.19000		324.00000 
 43692.65567		 724.87338			42967.78230		221.22600		875.00000 
 43692.65567		 305.27265			43387.38302		69.19000		324.00000 
 43692.65567		 724.87338			42967.78230		221.22600		875.00000 
 43692.65567		 305.27265			43387.38302		69.19000		324.00000 
 43692.65567		 724.87338			42967.78230		221.22600		875.00000 
 43692.65567		 305.27265			43387.38302		69.19000		324.00000 
 43692.65567		 724.87338			42967.78230		221.22600		875.00000 
 43692.65567		 305.27265			43387.38302		69.19000		324.00000 
 43692.65567		 724.87338			42967.78230		221.22600		875.00000 
 43692.65567		 305.27265			43387.38302		69.19000		324.00000 
 43692.65567		 724.87338			42967.78230		221.22600		875.00000 
 43692.65567		 305.27265			43387.38302		69.19000		324.00000 
 43692.65567		 724.87338			42967.78230		221.22600		875.00000 
 43692.65567		 305.27265			43387.38302		69.19000		324.00000 
 43692.65567		 724.87338			42967.78230		221.22600		875.00000 
 43692.65567		 305.27265			43387.38302		69.19000		324.00000 
 43692.65567		 724.87338			42967.78230		221.22600		875.00000 
 43692.65567		 305.27265			43387.38302		69.19000		324.00000 
 43692.65567		 724.87338			42967.78230		221.22600		875.00000 
 43692.65567		 305.27265			43387.38302		69.19000		324.00000 
 43692.65567		 724.87338			42967.78230		221.22600		875.00000 
 43692.65567		 305.27265			43387.38302		69.19000		324.00000 
 43692.65567		 724.87338			42967.78230		221.22600		875.00000 
 43692.65567		 305.27265			43387.38302		69.19000		324.00000 
 43692.65567		 724.87338			42967.78230		221.22600		875.00000 
 43692.65567		 305.27265			43387.38302		69.19000		324.00000 
 43692.65567		 724.87338			42967.78230		221.22600		875.00000 
 43692.65567		 305.27265			43387.38302		69.19000		324.00000 
 43692.65567		 724.87338			42967.78230		224.17600		875.00000 
 43692.65567		 305.27265			43387.38302		69.19000		324.00000 
 43692.65567		 724.87338			42967.78230		224.17600		875.00000 
 43692.65567		 305.27265			43387.38302		69.19000		324.00000 
 43692.65567		 724.87338			42967.78230		224.17600		875.00000 
 43692.65567		 305.27265			43387.38302		69.19000		324.00000 
 43692.65567		 724.87338			42967.78230		224.17600		875.00000 
 43692.65567		 305.27265			43387.38302		69.19000		324.00000 
 43692.65567		 724.87338			42967.78230		224.17600		875.00000 
 43692.65567		 305.27265			43387.38302		69.19000		324.00000 
 43692.65567		 724.87338			42967.78230		224.17600		875.00000 
 43692.65567		 305.27265			43387.38302		69.19000		324.00000 
 43692.65567		 724.87338			42967.78230		224.17600		875.00000 
 43692.65567		 305.27265			43387.38302		69.19000		324.00000 
 43692.65567		 724.87338			42967.78230		224.17600		875.00000 
 43692.65567		 305.27265			43387.38302		69.19000		324.00000 
 43692.65567		 724.87338			42967.78230		224.17600		875.00000 
 43692.65567		 305.27265			43387.38302		69.19000		324.00000 
 43692.65567		 724.87338			42967.78230		224.17600		875.00000 
 43692.65567		 305.27265			43387.38302		69.19000		324.00000 
 43692.65567		 724.87338			42967.78230		224.17600		875.00000 
 43692.65567		 305.27265			43387.38302		69.19000		324.00000 
 43692.65567		 724.87338			42967.78230		224.17600		875.00000 
 43692.65567		 305.27265			43387.38302		69.19000		324.00000 
 43692.65567		 724.87338			42967.78230		224.17600		875.00000 
 43692.65567		 305.27265			43387.38302		69.19000		324.00000 
 43692.65567		 724.87338			42967.78230		224.17600		875.00000 
 43692.65567		 305.27265			43387.38302		69.19000		324.00000 
 43692.65567		 724.87338			42967.78230		224.17600		875.00000 
 43692.65567		 305.27265			43387.38302		69.19000		324.00000 
 43692.65567		 724.87338			42967.78230		224.17600		875.00000 
 43692.65567		 305.27265			43387.38302		69.19000		324.00000 
 43692.65567		 724.87338			42967.78230		224.17600		875.00000 
 43692.65567		 305.27265			43387.38302		69.19000		324.00000 
 43692.65567		 724.87338			42967.78230		224.17600		875.00000 
 43692.65567		 305.27265			43387.38302		69.19000		324.00000 
 43692.65567		 724.87338			42967.78230		224.17600		875.00000 
 43692.65567		 305.27265			43387.38302		69.19000		324.00000 
 43692.65567		 724.87338			42967.78230		224.17600		875.00000 
 43692.65567		 305.27265			43387.38302		69.19000		324.00000 
 43692.65567		 724.87338			42967.78230		224.17600		875.00000 
 43692.65567		 305.27265			43387.38302		69.19000		324.00000 
 43692.65567		 724.87338			42967.78230		224.17600		875.00000 
 43692.65567		 305.27265			43387.38302		69.19000		324.00000 
 43692.65567		 724.87338			42967.78230		224.17600		875.00000 
 43692.65567		 305.27265			43387.38302		69.19000		324.00000 
 43692.65567		 724.87338			42967.78230		224.17600		875.00000 
 43692.65567		 305.27265			43387.38302		69.19000		324.00000 
 43692.65567		 724.87338			42967.78230		224.17600		875.00000 
 43692.65567		 305.27265			43387.38302		69.19000		324.00000 
 43692.65567		 724.87338			42967.78230		224.17600		875.00000 
 43692.65567		 305.27265			43387.38302		69.19000		324.00000 
 43692.65567		 724.87338			42967.78230		224.17600		875.00000 
 43692.65567		 305.27265			43387.38302		69.19000		324.00000 
 43692.65567		 724.87338			42967.78230		224.17600		875.00000 
 43692.65567		 305.27265			43387.38302		69.19000		324.00000 
 43692.65567		 724.87338			42967.78230		224.17600		875.00000 
 43692.65567		 305.27265			43387.38302		69.19000		324.00000 
 43692.65567		 724.87338			42967.78230		224.17600		875.00000 
 43692.65567		 305.27265			43387.38302		69.19000		324.00000 
 43692.65567		 724.87338			42967.78230		224.17600		875.00000 
 43692.65567		 305.27265			43387.38302		69.19000		324.00000 
 43692.65567		 724.87338			42967.78230		224.17600		875.00000 
 43692.65567		 305.27265			43387.38302		69.19000		324.00000 
 43692.65567		 724.87338			42967.78230		224.17600		875.00000 
 43692.65567		 305.27265			43387.38302		69.19000		324.00000 
 43692.65567		 724.87338			42967.78230		224.17600		875.00000 
 43692.65567		 305.27265			43387.38302		69.19000		324.00000 
 43692.65567		 724.87338			42967.78230		224.17600		875.00000 
 43692.65567		 305.27265			43387.38302		69.19000		324.00000 
 43692.65567		 724.87338			42967.78230		224.17600		875.00000 
 43692.65567		 305.27265			43387.38302		69.19000		324.00000 
 43692.65567		 724.87338			42967.78230		224.17600		875.00000 
 43692.65567		 305.27265			43387.38302		69.19000		324.00000 
 43692.65567		 724.87338			42967.78230		224.17600		875.00000 
 43692.65567		 305.27265			43387.38302		69.19000		324.00000 
 43692.65567		 724.87338			42967.78230		224.17600		875.00000 
 43692.65567		 305.27265			43387.38302		69.19000		324.00000 
 43692.65567		 724.87338			42967.78230		224.17600		875.00000 
 43692.65567		 305.27265			43387.38302		69.19000		324.00000 
 43692.65567		 724.87338			42967.78230		224.17600		875.00000 
 43692.65567		 305.27265			43387.38302		69.19000		324.00000 
 43692.65567		 724.87338			42967.78230		224.17600		875.00000 
 43692.65567		 305.27265			43387.38302		69.19000		324.00000 
 43692.65567		 724.87338			42967.78230		224.17600		875.00000 
 43692.65567		 305.27265			43387.38302		69.19000		324.00000 
 43692.65567		 724.87338			42967.78230		224.17600		875.00000 
 43692.65567		 305.27265			43387.38302		69.19000		324.00000 
 43692.65567		 724.87338			42967.78230		224.17600		875.00000 
 43692.65567		 305.27265			43387.38302		69.19000		324.00000 
 43692.65567		 724.87338			42967.78230		224.17600		875.00000 
 43692.65567		 305.27265			43387.38302		69.19000		324.00000 
 43692.65567		 724.87338			42967.78230		224.17600		875.00000 
 43692.65567		 305.27265			43387.38302		69.19000		324.00000 
 43692.65567		 724.87338			42967.78230		224.17600		875.00000 
 43692.65567		 305.27265			43387.38302		69.19000		324.00000 
 43692.65567		 724.87338			42967.78230		224.17600		875.00000 
 43692.65567		 305.27265			43387.38302		69.19000		324.00000 
 43692.65567		 724.87338			42967.78230		224.17600		875.00000 
 43692.65567		 305.27265			43387.38302		69.19000		324.00000 
 43692.65567		 724.87338			42967.78230		224.17600		875.00000 
 43692.65567		 305.27265			43387.38302		69.19000		324.00000 
 43692.65567		 724.87338			42967.78230		224.17600		875.00000 
 43692.65567		 305.27265			43387.38302		69.19000		324.00000 
 43692.65567		 724.87338			42967.78230		224.17600		875.00000 
 43692.65567		 305.27265			43387.38302		69.19000		324.00000 
 43692.65567		 724.87338			42967.78230		224.17600		875.00000 
 43692.65567		 305.27265			43387.38302		69.19000		324.00000 
 43692.65567		 724.87338			42967.78230		224.17600		875.00000 
 43692.65567		 305.27265			43387.38302		69.19000		324.00000 
 43692.65567		 724.87338			42967.78230		224.17600		875.00000 
 43692.65567		 305.27265			43387.38302		69.19000		324.00000 
 43692.65567		 724.87338			42967.78230		224.17600		875.00000 
 43692.65567		 305.27265			43387.38302		69.19000		324.00000 
 43692.65567		 724.87338			42967.78230		224.17600		875.00000 
 43692.65567		 305.27265			43387.38302		69.19000		324.00000 
 43692.65567		 724.87338			42967.78230		224.17600		875.00000 
 43692.65567		 305.27265			43387.38302		69.19000		324.00000 
 43692.65567		 724.87338			42967.78230		224.17600		875.00000 
 43692.65567		 305.27265			43387.38302		69.19000		324.00000 
 43692.65567		 724.87338			42967.78230		224.17600		875.00000 
 43692.65567		 305.27265			43387.38302		69.19000		324.00000 
 43692.65567		 724.87338			42967.78230		224.17600		875.00000 
 43692.65567		 305.27265			43387.38302		69.19000		324.00000 
 43692.65567		 724.87338			42967.78230		224.17600		875.00000 
 43692.65567		 305.27265			43387.38302		69.19000		324.00000 
 43692.65567		 724.87338			42967.78230		224.17600		875.00000 
 43692.65567		 305.27265			43387.38302		69.19000		324.00000 
 43692.65567		 724.87338			42967.78230		224.17600		875.00000 
 43692.65567		 305.27265			43387.38302		69.19000		324.00000 
 43692.65567		 724.87338			42967.78230		224.38800		875.00000 
 43692.65567		 305.27265			43387.38302		69.19000		324.00000 
 43692.65567		 724.87338			42967.78230		224.38800		875.00000 
 43692.65567		 305.27265			43387.38302		69.19000		324.00000 
 43692.65567		 724.87338			42967.78230		224.38800		875.00000 
 43692.65567		 305.27265			43387.38302		69.19000		324.00000 
 43692.65567		 724.87338			42967.78230		224.38800		875.00000 
 43692.65567		 305.27265			43387.38302		69.19000		324.00000 
 43692.65567		 724.87338			42967.78230		224.38800		875.00000 
 43692.65567		 305.27265			43387.38302		69.19000		324.00000 
 43692.65567		 724.87338			42967.78230		224.38800		875.00000 
 43692.65567		 305.27265			43387.38302		69.19000		324.00000 
 43692.65567		 724.87338			42967.78230		224.38800		875.00000 
 43692.65567		 305.27265			43387.38302		69.19000		324.00000 
 43692.65567		 724.87338			42967.78230		224.38800		875.00000 
 43692.65567		 305.27265			43387.38302		69.19000		324.00000 
 43692.65567		 724.87338			42967.78230		224.38800		875.00000 
 43692.65567		 305.27265			43387.38302		69.19000		324.00000 
 43692.65567		 724.87338			42967.78230		224.38800		875.00000 
 43692.65567		 305.27265			43387.38302		69.19000		324.00000 
 43692.65567		 724.87338			42967.78230		224.38800		875.00000 
 43692.65567		 305.27265			43387.38302		69.19000		324.00000 
 43692.65567		 724.87338			42967.78230		224.38800		875.00000 
 43692.65567		 305.27265			43387.38302		69.19000		324.00000 
 43692.65567		 724.87338			42967.78230		224.38800		875.00000 
 43692.65567		 305.27265			43387.38302		69.19000		324.00000 
 43692.65567		 724.87338			42967.78230		224.38800		875.00000 
 43692.65567		 305.27265			43387.38302		69.19000		324.00000 
 43692.65567		 724.87338			42967.78230		224.38800		875.00000 
 43692.65567		 305.27265			43387.38302		69.19000		324.00000 
 43692.65567		 724.87338			42967.78230		224.38800		875.00000 
 43692.65567		 305.27265			43387.38302		69.19000		324.00000 
 43692.65567		 724.87338			42967.78230		224.38800		875.00000 
 43692.65567		 305.27265			43387.38302		69.19000		324.00000 
 43692.65567		 724.87338			42967.78230		224.38800		875.00000 
 43692.65567		 305.27265			43387.38302		69.19000		324.00000 
 43692.65567		 724.87338			42967.78230		224.38800		875.00000 
 43692.65567		 305.27265			43387.38302		69.19000		324.00000 
 43692.65567		 724.87338			42967.78230		224.38800		875.00000 
 43692.65567		 305.27265			43387.38302		69.19000		324.00000 
 43692.65567		 724.87338			42967.78230		224.38800		875.00000 
 43692.65567		 305.27265			43387.38302		69.19000		324.00000 
 43692.65567		 724.87338			42967.78230		224.38800		875.00000 
 43692.65567		 305.27265			43387.38302		69.19000		324.00000 
 43692.65567		 724.87338			42967.78230		224.38800		875.00000 
 43692.65567		 305.27265			43387.38302		69.19000		324.00000 
 43692.65567		 724.87338			42967.78230		224.38800		875.00000 
 43692.65567		 305.27265			43387.38302		69.19000		324.00000 
 43692.65567		 724.87338			42967.78230		224.38800		875.00000 
 43692.65567		 305.27265			43387.38302		69.19000		324.00000 
 43692.65567		 724.87338			42967.78230		224.38800		875.00000 
 43692.65567		 305.27265			43387.38302		69.19000		324.00000 
 43692.65567		 724.87338			42967.78230		224.38800		875.00000 
 43692.65567		 305.27265			43387.38302		69.19000		324.00000 
 43692.65567		 724.87338			42967.78230		224.38800		875.00000 
 43692.65567		 305.27265			43387.38302		69.19000		324.00000 
 43692.65567		 724.87338			42967.78230		224.38800		875.00000 
 43692.65567		 305.27265			43387.38302		69.19000		324.00000 
 43692.65567		 724.87338			42967.78230		224.38800		875.00000 
 43692.65567		 305.27265			43387.38302		69.19000		324.00000 
 43692.65567		 724.87338			42967.78230		224.38800		875.00000 
 43692.65567		 305.27265			43387.38302		69.19000		324.00000 
 43692.65567		 724.87338			42967.78230		224.38800		875.00000 
 43692.65567		 305.27265			43387.38302		69.19000		324.00000 
 43692.65567		 724.87338			42967.78230		224.38800		875.00000 
 43692.65567		 305.27265			43387.38302		69.19000		324.00000 
 43692.65567		 724.87338			42967.78230		224.38800		875.00000 
 43692.65567		 305.27265			43387.38302		69.19000		324.00000 
 43692.65567		 724.87338			42967.78230		224.38800		875.00000 
 43692.65567		 305.27265			43387.38302		69.19000		324.00000 
 43692.65567		 724.87338			42967.78230		224.38800		875.00000 
 43692.65567		 305.27265			43387.38302		69.19000		324.00000 
 43692.65567		 724.87338			42967.78230		224.38800		875.00000 
 43692.65567		 305.27265			43387.38302		69.19000		324.00000 
 43692.65567		 724.87338			42967.78230		224.38800		875.00000 
 43692.65567		 305.27265			43387.38302		69.19000		324.00000 
 43692.65567		 724.87338			42967.78230		224.38800		875.00000 
 43692.65567		 305.27265			43387.38302		69.19000		324.00000 
 43692.65567		 724.87338			42967.78230		224.38800		875.00000 
 43692.65567		 305.27265			43387.38302		69.19000		324.00000 
 43692.65567		 724.87338			42967.78230		224.38800		875.00000 
 43692.65567		 305.27265			43387.38302		69.19000		324.00000 
 43692.65567		 724.87338			42967.78230		224.38800		875.00000 
 43692.65567		 305.27265			43387.38302		69.19000		324.00000 
 43692.65567		 724.87338			42967.78230		224.38800		875.00000 
 43692.65567		 305.27265			43387.38302		69.19000		324.00000 
 43692.65567		 724.87338			42967.78230		224.38800		875.00000 
 43692.65567		 305.27265			43387.38302		69.19000		324.00000 
 43692.65567		 724.87338			42967.78230		224.38800		875.00000 
 43692.65567		 305.27265			43387.38302		69.19000		324.00000 
 43692.65567		 724.87338			42967.78230		224.38800		875.00000 
 43692.65567		 305.27265			43387.38302		69.19000		324.00000 
 43692.65567		 724.87338			42967.78230		224.38800		875.00000 
 43692.65567		 305.27265			43387.38302		69.19000		324.00000 
 43692.65567		 724.87338			42967.78230		224.38800		875.00000 
 43692.65567		 305.27265			43387.38302		69.19000		324.00000 
 43692.65567		 724.87338			42967.78230		224.38800		875.00000 
 43692.65567		 305.27265			43387.38302		69.19000		324.00000 
 43692.65567		 724.87338			42967.78230		224.38800		875.00000 
 43692.65567		 305.27265			43387.38302		69.19000		324.00000 
 43692.65567		 724.87338			42967.78230		224.38800		875.00000 
 43692.65567		 305.27265			43387.38302		69.19000		324.00000 
 43692.65567		 724.87338			42967.78230		224.38800		875.00000 
 43692.65567		 305.27265			43387.38302		69.19000		324.00000 
 43692.65567		 724.87338			42967.78230		224.38800		875.00000 
 43692.65567		 305.27265			43387.38302		69.19000		324.00000 
 43692.65567		 724.87338			42967.78230		224.38800		875.00000 
 43692.65567		 305.27265			43387.38302		69.19000		324.00000 
 43692.65567		 724.87338			42967.78230		224.38800		875.00000 
 43692.65567		 305.27265			43387.38302		69.19000		324.00000 
 43692.65567		 724.87338			42967.78230		224.38800		875.00000 
 43692.65567		 305.27265			43387.38302		69.19000		324.00000 
 43692.65567		 724.87338			42967.78230		224.38800		875.00000 
 43692.65567		 305.27265			43387.38302		69.19000		324.00000 
 43692.65567		 724.87338			42967.78230		224.38800		875.00000 
 43692.65567		 305.27265			43387.38302		69.19000		324.00000 
 43692.65567		 724.87338			42967.78230		224.38800		875.00000 
 43692.65567		 305.27265			43387.38302		69.19000		324.00000 
 43692.65567		 724.87338			42967.78230		224.38800		875.00000 
 43692.65567		 305.27265			43387.38302		69.19000		324.00000 
 43692.65567		 724.87338			42967.78230		224.38800		875.00000 
 43692.65567		 305.27265			43387.38302		69.19000		324.00000 
 43692.65567		 724.87338			42967.78230		224.38800		875.00000 
 43692.65567		 305.27265			43387.38302		69.19000		324.00000 
 43692.65567		 724.87338			42967.78230		224.38800		875.00000 
 43692.65567		 305.27265			43387.38302		69.19000		324.00000 
 43692.65567		 724.87338			42967.78230		224.38800		875.00000 
 43692.65567		 305.27265			43387.38302		69.19000		324.00000 
 43692.65567		 724.87338			42967.78230		223.78800		875.00000 
 43692.65567		 305.27265			43387.38302		69.19000		324.00000 
 43692.65567		 724.87338			42967.78230		223.78800		875.00000 
 43692.65567		 305.27265			43387.38302		69.19000		324.00000 
 43692.65567		 724.87338			42967.78230		223.78800		875.00000 
 43692.65567		 305.27265			43387.38302		69.19000		324.00000 
 43692.65567		 724.87338			42967.78230		223.78800		875.00000 
 43692.65567		 305.27265			43387.38302		69.19000		324.00000 
 43692.65567		 724.87338			42967.78230		223.78800		875.00000 
 43692.65567		 305.27265			43387.38302		69.19000		324.00000 
 43692.65567		 724.87338			42967.78230		223.78800		875.00000 
 43692.65567		 305.27265			43387.38302		69.19000		324.00000 
 43692.65567		 724.87338			42967.78230		223.78800		875.00000 
 43692.65567		 305.27265			43387.38302		69.19000		324.00000 
 43692.65567		 724.87338			42967.78230		223.78800		875.00000 
 43692.65567		 305.27265			43387.38302		69.19000		324.00000 
 43692.65567		 724.87338			42967.78230		223.78800		875.00000 
 43692.65567		 305.27265			43387.38302		69.19000		324.00000 
 43692.65567		 724.87338			42967.78230		223.78800		875.00000 
 43692.65567		 305.27265			43387.38302		69.19000		324.00000 
 43692.65567		 724.87338			42967.78230		223.78800		875.00000 
 43692.65567		 305.27265			43387.38302		69.19000		324.00000 
 43692.65567		 724.87338			42967.78230		223.78800		875.00000 
 43692.65567		 305.27265			43387.38302		69.19000		324.00000 
 43692.65567		 724.87338			42967.78230		223.78800		875.00000 
 43692.65567		 305.27265			43387.38302		69.19000		324.00000 
 43692.65567		 724.87338			42967.78230		223.78800		875.00000 
 43692.65567		 305.27265			43387.38302		69.19000		324.00000 
 43692.65567		 724.87338			42967.78230		223.78800		875.00000 
 43692.65567		 305.27265			43387.38302		69.19000		324.00000 
 43692.65567		 724.87338			42967.78230		223.78800		875.00000 
 43692.65567		 305.27265			43387.38302		69.19000		324.00000 
 43692.65567		 724.87338			42967.78230		223.78800		875.00000 
 43692.65567		 305.27265			43387.38302		69.19000		324.00000 
 43692.65567		 724.87338			42967.78230		223.78800		875.00000 
 43692.65567		 305.27265			43387.38302		69.19000		324.00000 
 43692.65567		 724.87338			42967.78230		223.78800		875.00000 
 43692.65567		 305.27265			43387.38302		69.19000		324.00000 
 43692.65567		 724.87338			42967.78230		223.78800		875.00000 
 43692.65567		 305.27265			43387.38302		69.19000		324.00000 
 43692.65567		 724.87338			42967.78230		223.78800		875.00000 
 43692.65567		 305.27265			43387.38302		69.19000		324.00000 
 43692.65567		 724.87338			42967.78230		223.78800		875.00000 
 43692.65567		 305.27265			43387.38302		69.19000		324.00000 
 43692.65567		 724.87338			42967.78230		223.78800		875.00000 
 43692.65567		 305.27265			43387.38302		69.19000		324.00000 
 43692.65567		 724.87338			42967.78230		223.78800		875.00000 
 43692.65567		 305.27265			43387.38302		69.19000		324.00000 
 43692.65567		 724.87338			42967.78230		223.78800		875.00000 
 43692.65567		 305.27265			43387.38302		69.19000		324.00000 
 43692.65567		 724.87338			42967.78230		223.78800		875.00000 
 43692.65567		 305.27265			43387.38302		69.19000		324.00000 
 43692.65567		 724.87338			42967.78230		223.78800		875.00000 
 43692.65567		 305.27265			43387.38302		69.19000		324.00000 
 43692.65567		 724.87338			42967.78230		223.78800		875.00000 
 43692.65567		 305.27265			43387.38302		69.19000		324.00000 
 43692.65567		 724.87338			42967.78230		223.78800		875.00000 
 43692.65567		 305.27265			43387.38302		69.19000		324.00000 
 43692.65567		 724.87338			42967.78230		223.78800		875.00000 
 43692.65567		 305.27265			43387.38302		69.19000		324.00000 
 43692.65567		 724.87338			42967.78230		223.78800		875.00000 
 43692.65567		 305.27265			43387.38302		69.19000		324.00000 
 43692.65567		 724.87338			42967.78230		223.78800		875.00000 
 43692.65567		 305.27265			43387.38302		69.19000		324.00000 
 43692.65567		 724.87338			42967.78230		223.78800		875.00000 
 43692.65567		 305.27265			43387.38302		69.19000		324.00000 
 43692.65567		 724.87338			42967.78230		223.78800		875.00000 
 43692.65567		 305.27265			43387.38302		69.19000		324.00000 
 43692.65567		 724.87338			42967.78230		223.78800		875.00000 
 43692.65567		 305.27265			43387.38302		69.19000		324.00000 
 43692.65567		 724.87338			42967.78230		223.78800		875.00000 
 43692.65567		 305.27265			43387.38302		69.19000		324.00000 
 43692.65567		 724.87338			42967.78230		223.78800		875.00000 
 43692.65567		 305.27265			43387.38302		69.19000		324.00000 
 43692.65567		 724.87338			42967.78230		223.78800		875.00000 
 43692.65567		 305.27265			43387.38302		69.19000		324.00000 
 43692.65567		 724.87338			42967.78230		223.78800		875.00000 
 43692.65567		 305.27265			43387.38302		69.19000		324.00000 
 43692.65567		 724.87338			42967.78230		223.78800		875.00000 
 43692.65567		 305.27265			43387.38302		69.19000		324.00000 
 43692.65567		 724.87338			42967.78230		223.78800		875.00000 
 43692.65567		 305.27265			43387.38302		69.19000		324.00000 
 43692.65567		 724.87338			42967.78230		223.78800		875.00000 
 43692.65567		 305.27265			43387.38302		69.19000		324.00000 
 43692.65567		 724.87338			42967.78230		223.78800		875.00000 
 43692.65567		 305.27265			43387.38302		69.19000		324.00000 
 43692.65567		 724.87338			42967.78230		223.78800		875.00000 
 43692.65567		 305.27265			43387.38302		69.19000		324.00000 
 43692.65567		 724.87338			42967.78230		223.78800		875.00000 
 43692.65567		 305.27265			43387.38302		69.19000		324.00000 
 43692.65567		 724.87338			42967.78230		223.78800		875.00000 
 43692.65567		 305.27265			43387.38302		69.16200		324.00000 
 43692.65567		 724.87338			42967.78230		223.78800		875.00000 
 43692.65567		 305.27265			43387.38302		69.16200		324.00000 
 43692.65567		 724.87338			42967.78230		223.78800		875.00000 
 43692.65567		 305.27265			43387.38302		69.16200		324.00000 
 43692.65567		 724.87338			42967.78230		223.78800		875.00000 
 43692.65567		 305.27265			43387.38302		69.16200		324.00000 
 43692.65567		 724.87338			42967.78230		223.78800		875.00000 
 43692.65567		 305.27265			43387.38302		69.16200		324.00000 
 43692.65567		 724.87338			42967.78230		223.78800		875.00000 
 43692.65567		 305.27265			43387.38302		69.16200		324.00000 
 43692.65567		 724.87338			42967.78230		223.78800		875.00000 
 43692.65567		 305.27265			43387.38302		69.16200		324.00000 
 43692.65567		 724.87338			42967.78230		223.78800		875.00000 
 43692.65567		 305.27265			43387.38302		69.16200		324.00000 
 43692.65567		 724.87338			42967.78230		223.78800		875.00000 
 43692.65567		 305.27265			43387.38302		69.16200		324.00000 
 43692.65567		 724.87338			42967.78230		223.78800		875.00000 
 43692.65567		 305.27265			43387.38302		69.16200		324.00000 
 43692.65567		 724.87338			42967.78230		223.78800		875.00000 
 43692.65567		 305.27265			43387.38302		69.16200		324.00000 
 43692.65567		 724.87338			42967.78230		223.78800		875.00000 
 43692.65567		 305.27265			43387.38302		69.16200		324.00000 
 43692.65567		 724.87338			42967.78230		223.78800		875.00000 
 43692.65567		 305.27265			43387.38302		69.16200		324.00000 
 43692.65567		 724.87338			42967.78230		223.78800		875.00000 
 43692.65567		 305.27265			43387.38302		69.16200		324.00000 
 43692.65567		 724.87338			42967.78230		223.78800		875.00000 
 43692.65567		 305.27265			43387.38302		69.16200		324.00000 
 43692.65567		 724.87338			42967.78230		223.78800		875.00000 
 43692.65567		 305.27265			43387.38302		69.16200		324.00000 
 43692.65567		 724.87338			42967.78230		223.78800		875.00000 
 43692.65567		 305.27265			43387.38302		69.16200		324.00000 
 43692.65567		 724.87338			42967.78230		224.38800		875.00000 
 43692.65567		 305.27265			43387.38302		69.16200		324.00000 
 43692.65567		 724.87338			42967.78230		224.38800		875.00000 
 43692.65567		 305.27265			43387.38302		69.16200		324.00000 
 43692.65567		 724.87338			42967.78230		224.38800		875.00000 
 43692.65567		 305.27265			43387.38302		69.16200		324.00000 
 43692.65567		 724.87338			42967.78230		224.38800		875.00000 
 43692.65567		 305.27265			43387.38302		69.16200		324.00000 
 43692.65567		 724.87338			42967.78230		224.38800		875.00000 
 43692.65567		 305.27265			43387.38302		69.16200		324.00000 
 43692.65567		 724.87338			42967.78230		224.38800		875.00000 
 43692.65567		 305.27265			43387.38302		69.16200		324.00000 
 43692.65567		 724.87338			42967.78230		224.38800		875.00000 
 43692.65567		 305.27265			43387.38302		69.16200		324.00000 
 43692.65567		 724.87338			42967.78230		224.38800		875.00000 
 43692.65567		 305.27265			43387.38302		69.16200		324.00000 
 43692.65567		 724.87338			42967.78230		224.38800		875.00000 
 43692.65567		 305.27265			43387.38302		69.16200		324.00000 
 43692.65567		 724.87338			42967.78230		224.38800		875.00000 
 43692.65567		 305.27265			43387.38302		69.16200		324.00000 
 43692.65567		 724.87338			42967.78230		224.38800		875.00000 
 43692.65567		 305.27265			43387.38302		69.16200		324.00000 
 43692.65567		 724.87338			42967.78230		224.38800		875.00000 
 43692.65567		 305.27265			43387.38302		69.16200		324.00000 
 43692.65567		 724.87338			42967.78230		224.38800		875.00000 
 43692.65567		 305.27265			43387.38302		69.16200		324.00000 
 43692.65567		 724.87338			42967.78230		224.38800		875.00000 
 43692.65567		 305.27265			43387.38302		69.16200		324.00000 
 43692.65567		 724.87338			42967.78230		224.38800		875.00000 
 43692.65567		 305.27265			43387.38302		69.16200		324.00000 
 43692.65567		 724.87338			42967.78230		224.38800		875.00000 
 43692.65567		 305.27265			43387.38302		69.16200		324.00000 
 43692.65567		 724.87338			42967.78230		224.38800		875.00000 
 43692.65567		 305.27265			43387.38302		69.16200		324.00000 
 43692.65567		 724.87338			42967.78230		224.38800		875.00000 
 43692.65567		 305.27265			43387.38302		69.16200		324.00000 
 43692.65567		 724.87338			42967.78230		224.38800		875.00000 
 43692.65567		 305.27265			43387.38302		69.16200		324.00000 
 43692.65567		 724.87338			42967.78230		224.38800		875.00000 
 43692.65567		 305.27265			43387.38302		69.16200		324.00000 
 43692.65567		 724.87338			42967.78230		224.38800		875.00000 
 43692.65567		 305.27265			43387.38302		69.16200		324.00000 
 43692.65567		 724.87338			42967.78230		224.38800		875.00000 
 43692.65567		 305.27265			43387.38302		69.16200		324.00000 
 43692.65567		 724.87338			42967.78230		224.38800		875.00000 
 43692.65567		 305.27265			43387.38302		69.16200		324.00000 
 43692.65567		 724.87338			42967.78230		224.38800		875.00000 
 43692.65567		 305.27265			43387.38302		69.16200		324.00000 
 43692.65567		 724.87338			42967.78230		224.38800		875.00000 
 43692.65567		 305.27265			43387.38302		69.16200		324.00000 
 43692.65567		 724.87338			42967.78230		224.38800		875.00000 
 43692.65567		 305.27265			43387.38302		69.16200		324.00000 
 43692.65567		 724.87338			42967.78230		224.38800		875.00000 
 43692.65567		 305.27265			43387.38302		69.16200		324.00000 
 43692.65567		 724.87338			42967.78230		224.38800		875.00000 
 43692.65567		 305.27265			43387.38302		69.16200		324.00000 
 43692.65567		 724.87338			42967.78230		224.38800		875.00000 
 43692.65567		 305.27265			43387.38302		69.16200		324.00000 
 43692.65567		 724.87338			42967.78230		224.38800		875.00000 
 43692.65567		 305.27265			43387.38302		69.16200		324.00000 
 43692.65567		 724.87338			42967.78230		224.38800		875.00000 
 43692.65567		 305.27265			43387.38302		69.16200		324.00000 
 43692.65567		 724.87338			42967.78230		224.38800		875.00000 
 43692.65567		 305.27265			43387.38302		69.16200		324.00000 
 43692.65567		 724.87338			42967.78230		224.38800		875.00000 
 43692.65567		 305.27265			43387.38302		69.16200		324.00000 
 43692.65567		 724.87338			42967.78230		224.38800		875.00000 
 43692.65567		 305.27265			43387.38302		69.16200		324.00000 
 43692.65567		 724.87338			42967.78230		224.38800		875.00000 
 43692.65567		 305.27265			43387.38302		69.16200		324.00000 
 43692.65567		 724.87338			42967.78230		224.38800		875.00000 
 43692.65567		 305.27265			43387.38302		69.16200		324.00000 
 43692.65567		 724.87338			42967.78230		224.38800		875.00000 
 43692.65567		 305.27265			43387.38302		69.16200		324.00000 
 43692.65567		 724.87338			42967.78230		224.38800		875.00000 
 43692.65567		 305.27265			43387.38302		69.16200		324.00000 
 43692.65567		 724.87338			42967.78230		224.38800		875.00000 
 43692.65567		 305.27265			43387.38302		69.16200		324.00000 
 43692.65567		 724.87338			42967.78230		224.38800		875.00000 
 43692.65567		 305.27265			43387.38302		69.16200		324.00000 
 43692.65567		 724.87338			42967.78230		224.38800		875.00000 
 43692.65567		 305.27265			43387.38302		69.16200		324.00000 
 43692.65567		 724.87338			42967.78230		224.38800		875.00000 
 43692.65567		 305.27265			43387.38302		69.16200		324.00000 
 43692.65567		 724.87338			42967.78230		224.38800		875.00000 
 43692.65567		 305.27265			43387.38302		69.16200		324.00000 
 43692.65567		 724.87338			42967.78230		224.38800		875.00000 
 43692.65567		 305.27265			43387.38302		69.16200		324.00000 
 43692.65567		 724.87338			42967.78230		224.38800		875.00000 
 43692.65567		 305.27265			43387.38302		69.16200		324.00000 
 43692.65567		 724.87338			42967.78230		224.38800		875.00000 
 43692.65567		 305.27265			43387.38302		69.16200		324.00000 
 43692.65567		 724.87338			42967.78230		224.38800		875.00000 
 43692.65567		 305.27265			43387.38302		69.16200		324.00000 
 43692.65567		 724.87338			42967.78230		224.38800		875.00000 
 43692.65567		 305.27265			43387.38302		69.16200		324.00000 
 43692.65567		 724.87338			42967.78230		224.38800		875.00000 
 43692.65567		 305.27265			43387.38302		69.16200		324.00000 
 43692.65567		 724.87338			42967.78230		224.38800		875.00000 
 43692.65567		 305.27265			43387.38302		69.16200		324.00000 
 43692.65567		 724.87338			42967.78230		224.38800		875.00000 
 43692.65567		 305.27265			43387.38302		69.16200		324.00000 
 43692.65567		 724.87338			42967.78230		224.38800		875.00000 
 43692.65567		 305.27265			43387.38302		69.16200		324.00000 
 43692.65567		 724.87338			42967.78230		224.38800		875.00000 
 43692.65567		 305.27265			43387.38302		69.16200		324.00000 
 43692.65567		 724.87338			42967.78230		224.38800		875.00000 
 43692.65567		 305.27265			43387.38302		69.16200		324.00000 
 43692.65567		 724.87338			42967.78230		224.38800		875.00000 
 43692.65567		 305.27265			43387.38302		69.16200		324.00000 
 43692.65567		 724.87338			42967.78230		224.38800		875.00000 
 43692.65567		 305.27265			43387.38302		69.16200		324.00000 
 43692.65567		 724.87338			42967.78230		224.38800		875.00000 
 43692.65567		 305.27265			43387.38302		69.16200		324.00000 
 43692.65567		 724.87338			42967.78230		224.38800		875.00000 
 43692.65567		 305.27265			43387.38302		69.16200		324.00000 
 43692.65567		 724.87338			42967.78230		224.38800		875.00000 
 43692.65567		 305.27265			43387.38302		69.16200		324.00000 
 43692.65567		 724.87338			42967.78230		224.38800		875.00000 
 43692.65567		 305.27265			43387.38302		69.16200		324.00000 
 43692.65567		 724.87338			42967.78230		224.38800		875.00000 
 43692.65567		 305.27265			43387.38302		69.16200		324.00000 
 43692.65567		 724.87338			42967.78230		224.38800		875.00000 
 43692.65567		 305.27265			43387.38302		69.16200		324.00000 
 43692.65567		 724.87338			42967.78230		224.38800		875.00000 
 43692.65567		 305.27265			43387.38302		69.16200		324.00000 
 43692.65567		 724.87338			42967.78230		223.78800		875.00000 
 43692.65567		 305.27265			43387.38302		69.16200		324.00000 
 43692.65567		 724.87338			42967.78230		223.78800		875.00000 
 43692.65567		 305.27265			43387.38302		69.16200		324.00000 
 43692.65567		 724.87338			42967.78230		223.78800		875.00000 
 43692.65567		 305.27265			43387.38302		69.16200		324.00000 
 43692.65567		 724.87338			42967.78230		223.78800		875.00000 
 43692.65567		 305.27265			43387.38302		69.16200		324.00000 
 43692.65567		 724.87338			42967.78230		223.78800		875.00000 
 43692.65567		 305.27265			43387.38302		69.16200		324.00000 
 43692.65567		 724.87338			42967.78230		223.78800		875.00000 
 43692.65567		 305.27265			43387.38302		69.16200		324.00000 
 43692.65567		 724.87338			42967.78230		223.78800		875.00000 
 43692.65567		 305.27265			43387.38302		69.16200		324.00000 
 43692.65567		 724.87338			42967.78230		223.78800		875.00000 
 43692.65567		 305.27265			43387.38302		69.16200		324.00000 
 43692.65567		 724.87338			42967.78230		223.78800		875.00000 
 43692.65567		 305.27265			43387.38302		69.16200		324.00000 
 43692.65567		 724.87338			42967.78230		223.78800		875.00000 
 43692.65567		 305.27265			43387.38302		69.16200		324.00000 
 43692.65567		 724.87338			42967.78230		223.78800		875.00000 
 43692.65567		 305.27265			43387.38302		69.16200		324.00000 
 43692.65567		 724.87338			42967.78230		223.78800		875.00000 
 43692.65567		 305.27265			43387.38302		69.16200		324.00000 
 43692.65567		 724.87338			42967.78230		223.78800		875.00000 
 43692.65567		 305.27265			43387.38302		69.16200		324.00000 
 43692.65567		 724.87338			42967.78230		223.78800		875.00000 
 43692.65567		 305.27265			43387.38302		69.16200		324.00000 
 43692.65567		 724.87338			42967.78230		223.78800		875.00000 
 43692.65567		 305.27265			43387.38302		69.16200		324.00000 
 43692.65567		 724.87338			42967.78230		223.78800		875.00000 
 43692.65567		 305.27265			43387.38302		69.16200		324.00000 
 43692.65567		 724.87338			42967.78230		223.78800		875.00000 
 43692.65567		 305.27265			43387.38302		69.16200		324.00000 
 43692.65567		 724.87338			42967.78230		223.78800		875.00000 
 43692.65567		 305.27265			43387.38302		69.16200		324.00000 
 43692.65567		 724.87338			42967.78230		223.78800		875.00000 
 43692.65567		 305.27265			43387.38302		69.16200		324.00000 
 43692.65567		 724.87338			42967.78230		223.78800		875.00000 
 43692.65567		 305.27265			43387.38302		69.16200		324.00000 
 43692.65567		 724.87338			42967.78230		223.78800		875.00000 
 43692.65567		 305.27265			43387.38302		69.16200		324.00000 
 43692.65567		 724.87338			42967.78230		223.78800		875.00000 
 43692.65567		 305.27265			43387.38302		69.16200		324.00000 
 43692.65567		 724.87338			42967.78230		223.78800		875.00000 
 43692.65567		 305.27265			43387.38302		69.16200		324.00000 
 43692.65567		 724.87338			42967.78230		223.78800		875.00000 
 43692.65567		 305.27265			43387.38302		69.16200		324.00000 
 43692.65567		 724.87338			42967.78230		223.78800		875.00000 
 43692.65567		 305.27265			43387.38302		69.16200		324.00000 
 43692.65567		 724.87338			42967.78230		223.78800		875.00000 
 43692.65567		 305.27265			43387.38302		69.16200		324.00000 
 43692.65567		 724.87338			42967.78230		223.78800		875.00000 
 43692.65567		 305.27265			43387.38302		69.16200		324.00000 
 43692.65567		 724.87338			42967.78230		223.78800		875.00000 
 43692.65567		 305.27265			43387.38302		69.16200		324.00000 
 43692.65567		 724.87338			42967.78230		223.78800		875.00000 
 43692.65567		 305.27265			43387.38302		69.16200		324.00000 
 43692.65567		 724.87338			42967.78230		223.78800		875.00000 
 43692.65567		 305.27265			43387.38302		69.16200		324.00000 
 43692.65567		 724.87338			42967.78230		223.78800		875.00000 
 43692.65567		 305.27265			43387.38302		69.16200		324.00000 
 43692.65567		 724.87338			42967.78230		223.78800		875.00000 
 43692.65567		 305.27265			43387.38302		69.16200		324.00000 
 43692.65567		 724.87338			42967.78230		223.78800		875.00000 
 43692.65567		 305.27265			43387.38302		69.16200		324.00000 
 43692.65567		 724.87338			42967.78230		223.78800		875.00000 
 43692.65567		 305.27265			43387.38302		69.16200		324.00000 
 43692.65567		 724.87338			42967.78230		223.78800		875.00000 
 43692.65567		 305.27265			43387.38302		69.16200		324.00000 
 43692.65567		 724.87338			42967.78230		223.78800		875.00000 
 43692.65567		 305.27265			43387.38302		69.16200		324.00000 
 43692.65567		 724.87338			42967.78230		223.78800		875.00000 
 43692.65567		 305.27265			43387.38302		69.16200		324.00000 
 43692.65567		 724.87338			42967.78230		223.78800		875.00000 
 43692.65567		 305.27265			43387.38302		69.16200		324.00000 
 43692.65567		 724.87338			42967.78230		223.78800		875.00000 
 43692.65567		 305.27265			43387.38302		69.16200		324.00000 
 43692.65567		 724.87338			42967.78230		223.78800		875.00000 
 43692.65567		 305.27265			43387.38302		69.16200		324.00000 
 43692.65567		 724.87338			42967.78230		223.78800		875.00000 
 43692.65567		 305.27265			43387.38302		69.16200		324.00000 
 43692.65567		 724.87338			42967.78230		223.78800		875.00000 
 43692.65567		 305.27265			43387.38302		69.16200		324.00000 
 43692.65567		 724.87338			42967.78230		223.78800		875.00000 
 43692.65567		 305.27265			43387.38302		69.16200		324.00000 
 43692.65567		 724.87338			42967.78230		223.78800		875.00000 
 43692.65567		 305.27265			43387.38302		69.16200		324.00000 
 43692.65567		 724.87338			42967.78230		223.78800		875.00000 
 43692.65567		 305.27265			43387.38302		69.16200		324.00000 
 43692.65567		 724.87338			42967.78230		223.78800		875.00000 
 43692.65567		 305.27265			43387.38302		69.16200		324.00000 
 43692.65567		 724.87338			42967.78230		223.78800		875.00000 
 43692.65567		 305.27265			43387.38302		69.16200		324.00000 
 43692.65567		 724.87338			42967.78230		223.78800		875.00000 
 43692.65567		 305.27265			43387.38302		69.16200		324.00000 
 43692.65567		 724.87338			42967.78230		223.78800		875.00000 
 43692.65567		 305.27265			43387.38302		69.16200		324.00000 
 43692.65567		 724.87338			42967.78230		223.78800		875.00000 
 43692.65567		 305.27265			43387.38302		69.16200		324.00000 
 43692.65567		 724.87338			42967.78230		223.78800		875.00000 
 43692.65567		 305.27265			43387.38302		69.16200		324.00000 
 43692.65567		 724.87338			42967.78230		223.78800		875.00000 
 43692.65567		 305.27265			43387.38302		69.16200		324.00000 
 43692.65567		 724.87338			42967.78230		223.78800		875.00000 
 43692.65567		 305.27265			43387.38302		69.16200		324.00000 
 43692.65567		 724.87338			42967.78230		223.78800		875.00000 
 43692.65567		 305.27265			43387.38302		69.16200		324.00000 
 43692.65567		 724.87338			42967.78230		223.78800		875.00000 
 43692.65567		 305.27265			43387.38302		69.16200		324.00000 
 43692.65567		 724.87338			42967.78230		223.78800		875.00000 
 43692.65567		 305.27265			43387.38302		69.16200		324.00000 
 43692.65567		 724.87338			42967.78230		223.78800		875.00000 
 43692.65567		 305.27265			43387.38302		69.16200		324.00000 
 43692.65567		 724.87338			42967.78230		223.78800		875.00000 
 43692.65567		 305.27265			43387.38302		69.16200		324.00000 
 43692.65567		 724.87338			42967.78230		223.78800		875.00000 
 43692.65567		 305.27265			43387.38302		69.16200		324.00000 
 43692.65567		 724.87338			42967.78230		223.78800		875.00000 
 43692.65567		 305.27265			43387.38302		69.16200		324.00000 
 43692.65567		 724.87338			42967.78230		223.78800		875.00000 
 43692.65567		 305.27265			43387.38302		69.16200		324.00000 
 43692.65567		 724.87338			42967.78230		223.78800		875.00000 
 43692.65567		 305.27265			43387.38302		69.16200		324.00000 
 43692.65567		 724.87338			42967.78230		223.78800		875.00000 
 43692.65567		 305.27265			43387.38302		69.16200		324.00000 
 43692.65567		 724.87338			42967.78230		223.78800		875.00000 
 43692.65567		 305.27265			43387.38302		69.16200		324.00000 
 43692.65567		 724.87338			42967.78230		223.78800		875.00000 
 43692.65567		 305.27265			43387.38302		69.16200		324.00000 
 43692.65567		 724.87338			42967.78230		223.78800		875.00000 
 43692.65567		 305.27265			43387.38302		69.16200		324.00000 
 43692.65567		 724.87338			42967.78230		223.78800		875.00000 
 43692.65567		 305.27265			43387.38302		69.16200		324.00000 
 43692.65567		 724.87338			42967.78230		223.78800		875.00000 
 43692.65567		 305.27265			43387.38302		69.16200		324.00000 
 43692.65567		 724.87338			42967.78230		223.78800		875.00000 
 43692.65567		 305.27265			43387.38302		69.16200		324.00000 
 43692.65567		 724.87338			42967.78230		223.78800		875.00000 
 43692.65567		 305.27265			43387.38302		69.16200		324.00000 
 43692.65567		 724.87338			42967.78230		223.78800		875.00000 
 43692.65567		 305.27265			43387.38302		69.16200		324.00000 
 43692.65567		 724.87338			42967.78230		223.78800		875.00000 
 43692.65567		 305.27265			43387.38302		69.16200		324.00000 
 43692.65567		 724.87338			42967.78230		223.78800		875.00000 
 43692.65567		 305.27265			43387.38302		69.16200		324.00000 
 43692.65567		 724.87338			42967.78230		223.78800		875.00000 
 43692.65567		 305.27265			43387.38302		69.16200		324.00000 
 43692.65567		 724.87338			42967.78230		223.78800		875.00000 
 43692.65567		 305.27265			43387.38302		69.16200		324.00000 
 43692.65567		 724.87338			42967.78230		223.78800		875.00000 
 43692.65567		 305.27265			43387.38302		69.16200		324.00000 
 43692.65567		 724.87338			42967.78230		223.78800		875.00000 
 43692.65567		 305.27265			43387.38302		69.16200		324.00000 
 43692.65567		 724.87338			42967.78230		223.78800		875.00000 
 43692.65567		 305.27265			43387.38302		69.16200		324.00000 
 43692.65567		 724.87338			42967.78230		223.78800		875.00000 
 43692.65567		 305.27265			43387.38302		69.16200		324.00000 
 43692.65567		 724.87338			42967.78230		223.78800		875.00000 
 43692.65567		 305.27265			43387.38302		69.16200		324.00000 
 43692.65567		 724.87338			42967.78230		223.78800		875.00000 
 43692.65567		 305.27265			43387.38302		69.16200		324.00000 
 43692.65567		 724.87338			42967.78230		223.78800		875.00000 
 43692.65567		 305.27265			43387.38302		69.16200		324.00000 
 43692.65567		 724.87338			42967.78230		223.78800		875.00000 
 43692.65567		 305.27265			43387.38302		69.16200		324.00000 
 43692.65567		 724.87338			42967.78230		223.78800		875.00000 
 43692.65567		 305.27265			43387.38302		69.16200		324.00000 
 43692.65567		 724.87338			42967.78230		223.78800		875.00000 
 43692.65567		 305.27265			43387.38302		69.16200		324.00000 
 43692.65567		 724.87338			42967.78230		223.78800		875.00000 
 43692.65567		 305.27265			43387.38302		69.16200		324.00000 
 43692.65567		 724.87338			42967.78230		223.78800		875.00000 
 43692.65567		 305.27265			43387.38302		69.16200		324.00000 
 43692.65567		 724.87338			42967.78230		223.78800		875.00000 
 43692.65567		 305.27265			43387.38302		69.16200		324.00000 
 43692.65567		 724.87338			42967.78230		223.78800		875.00000 
 43692.65567		 305.27265			43387.38302		69.16200		324.00000 
 43692.65567		 724.87338			42967.78230		223.78800		875.00000 
 43692.65567		 305.27265			43387.38302		69.16200		324.00000 
 43692.65567		 724.87338			42967.78230		223.78800		875.00000 
 43692.65567		 305.27265			43387.38302		69.16200		324.00000 
 43692.65567		 724.87338			42967.78230		223.78800		875.00000 
 43692.65567		 305.27265			43387.38302		69.16200		324.00000 
 43692.65567		 724.87338			42967.78230		223.78800		875.00000 
 43692.65567		 305.27265			43387.38302		69.16200		324.00000 
 43692.65567		 724.87338			42967.78230		223.78800		875.00000 
 43692.65567		 305.27265			43387.38302		69.16200		324.00000 
 43692.65567		 724.87338			42967.78230		223.78800		875.00000 
 43692.65567		 305.27265			43387.38302		69.16200		324.00000 
 43692.65567		 724.87338			42967.78230		223.78800		875.00000 
 43692.65567		 305.27265			43387.38302		69.16200		324.00000 
 43692.65567		 724.87338			42967.78230		223.78800		875.00000 
 43692.65567		 305.27265			43387.38302		69.16200		324.00000 
 43692.65567		 724.87338			42967.78230		223.78800		875.00000 
 43692.65567		 305.27265			43387.38302		69.16200		324.00000 
 43692.65567		 724.87338			42967.78230		223.78800		875.00000 
 43692.65567		 305.27265			43387.38302		69.16200		324.00000 
 43692.65567		 724.87338			42967.78230		223.78800		875.00000 
 43692.65567		 305.27265			43387.38302		69.16200		324.00000 
 43692.65567		 724.87338			42967.78230		223.78800		875.00000 
 43692.65567		 305.27265			43387.38302		69.16200		324.00000 
 43692.65567		 724.87338			42967.78230		223.78800		875.00000 
 43692.65567		 305.27265			43387.38302		69.16200		324.00000 
 43692.65567		 724.87338			42967.78230		223.78800		875.00000 
 43692.65567		 305.27265			43387.38302		69.16200		324.00000 
 43692.65567		 724.87338			42967.78230		223.78800		875.00000 
 43692.65567		 305.27265			43387.38302		69.16200		324.00000 
 43692.65567		 724.87338			42967.78230		223.78800		875.00000 
 43692.65567		 305.27265			43387.38302		69.16200		324.00000 
 43692.65567		 724.87338			42967.78230		223.78800		875.00000 
 43692.65567		 305.27265			43387.38302		69.16200		324.00000 
 43692.65567		 724.87338			42967.78230		223.78800		875.00000 
 43692.65567		 305.27265			43387.38302		69.16200		324.00000 
 43692.65567		 724.87338			42967.78230		223.78800		875.00000 
 43692.65567		 305.27265			43387.38302		69.16200		324.00000 
 43692.65567		 724.87338			42967.78230		223.78800		875.00000 
 43692.65567		 305.27265			43387.38302		69.16200		324.00000 
 43692.65567		 724.87338			42967.78230		223.78800		875.00000 
 43692.65567		 305.27265			43387.38302		69.16200		324.00000 
 43692.65567		 724.87338			42967.78230		223.78800		875.00000 
 43692.65567		 305.27265			43387.38302		69.16200		324.00000 
 43692.65567		 724.87338			42967.78230		223.78800		875.00000 
 43692.65567		 305.27265			43387.38302		69.16200		324.00000 
 43692.65567		 724.87338			42967.78230		223.78800		875.00000 
 43692.65567		 305.27265			43387.38302		69.16200		324.00000 
 43692.65567		 724.87338			42967.78230		223.78800		875.00000 
 43692.65567		 305.27265			43387.38302		69.16200		324.00000 
 43692.65567		 724.87338			42967.78230		223.78800		875.00000 
 43692.65567		 305.27265			43387.38302		69.16200		324.00000 
 43692.65567		 724.87338			42967.78230		223.78800		875.00000 
 43692.65567		 305.27265			43387.38302		69.16200		324.00000 
 43692.65567		 724.87338			42967.78230		223.78800		875.00000 
 43692.65567		 305.27265			43387.38302		69.16200		324.00000 
 43692.65567		 724.87338			42967.78230		223.78800		875.00000 
 43692.65567		 305.27265			43387.38302		69.16200		324.00000 
 43692.65567		 724.87338			42967.78230		223.78800		875.00000 
 43692.65567		 305.27265			43387.38302		69.16200		324.00000 
 43692.65567		 724.87338			42967.78230		223.78800		875.00000 
 43692.65567		 305.27265			43387.38302		69.16200		324.00000 
 43692.65567		 724.87338			42967.78230		223.78800		875.00000 
 43692.65567		 305.27265			43387.38302		69.16200		324.00000 
 43692.65567		 724.87338			42967.78230		223.78800		875.00000 
 43692.65567		 305.27265			43387.38302		69.16200		324.00000 
 43692.65567		 724.87338			42967.78230		223.78800		875.00000 
 43692.65567		 305.27265			43387.38302		69.16200		324.00000 
 43692.65567		 724.87338			42967.78230		223.78800		875.00000 
 43692.65567		 305.27265			43387.38302		69.16200		324.00000 
 43692.65567		 724.87338			42967.78230		223.78800		875.00000 
 43692.65567		 305.27265			43387.38302		69.16200		324.00000 
 43692.65567		 724.87338			42967.78230		223.78800		875.00000 
 43692.65567		 305.27265			43387.38302		69.16200		324.00000 
 43692.65567		 724.87338			42967.78230		223.78800		875.00000 
 43692.65567		 305.27265			43387.38302		69.16200		324.00000 
 43692.65567		 724.87338			42967.78230		223.78800		875.00000 
 43692.65567		 305.27265			43387.38302		69.16200		324.00000 
 43692.65567		 724.87338			42967.78230		223.78800		875.00000 
 43692.65567		 305.27265			43387.38302		69.16200		324.00000 
 43692.65567		 724.87338			42967.78230		223.78800		875.00000 
 43692.65567		 305.27265			43387.38302		69.16200		324.00000 
 43692.65567		 724.87338			42967.78230		223.78800		875.00000 
 43692.65567		 305.27265			43387.38302		69.16200		324.00000 
 43692.65567		 724.87338			42967.78230		223.78800		875.00000 
 43692.65567		 305.27265			43387.38302		69.16200		324.00000 
 43692.65567		 724.87338			42967.78230		223.78800		875.00000 
 43692.65567		 305.27265			43387.38302		69.16200		324.00000 
 43692.65567		 724.87338			42967.78230		223.78800		875.00000 
 43692.65567		 305.27265			43387.38302		69.16200		324.00000 
 43692.65567		 724.87338			42967.78230		223.78800		875.00000 
 43692.65567		 305.27265			43387.38302		69.16200		324.00000 
 43692.65567		 724.87338			42967.78230		223.78800		875.00000 
 43692.65567		 305.27265			43387.38302		69.16200		324.00000 
 43692.65567		 724.87338			42967.78230		223.78800		875.00000 
 43692.65567		 305.27265			43387.38302		69.16200		324.00000 
 43692.65567		 724.87338			42967.78230		223.78800		875.00000 
 43692.65567		 305.27265			43387.38302		69.16200		324.00000 
 43692.65567		 724.87338			42967.78230		223.78800		875.00000 
 43692.65567		 305.27265			43387.38302		69.16200		324.00000 
 43692.65567		 662.33902			43030.31665		223.78800		875.00000 
 43692.65567		 305.27265			43387.38302		69.16200		324.00000 
 43692.65567		 599.80467			43092.85100		223.78800		875.00000 
 43692.65567		 305.27265			43387.38302		69.16200		324.00000 
 43692.65567		 537.27032			43155.38535		223.78800		875.00000 
 43692.65567		 305.27265			43387.38302		69.16200		324.00000 
 43692.65567		 537.27032			43155.38535		223.78800		875.00000 
 43692.65567		 305.27265			43387.38302		69.16200		324.00000 
 43692.65567		 537.27032			43155.38535		223.78800		875.00000 
 43692.65567		 305.27265			43387.38302		69.16200		324.00000 
 43692.65567		 537.27032			43155.38535		223.78800		875.00000 
 43692.65567		 305.27265			43387.38302		69.16200		324.00000 
 43692.65567		 537.27032			43155.38535		223.78800		875.00000 
 43692.65567		 305.27265			43387.38302		69.16200		324.00000 
 43692.65567		 537.27032			43155.38535		223.78800		875.00000 
 43692.65567		 305.27265			43387.38302		69.16200		324.00000 
 43692.65567		 537.27032			43155.38535		223.78800		875.00000 
 43692.65567		 305.27265			43387.38302		69.16200		324.00000 
 43692.65567		 537.27032			43155.38535		223.78800		875.00000 
 43692.65567		 305.27265			43387.38302		69.16200		324.00000 
 43692.65567		 537.27032			43155.38535		223.78800		875.00000 
 43692.65567		 305.27265			43387.38302		69.16200		324.00000 
 43692.65567		 537.27032			43155.38535		223.78800		875.00000 
 43692.65567		 305.27265			43387.38302		69.16200		324.00000 
 43692.65567		 537.27032			43155.38535		223.78800		875.00000 
 43692.65567		 305.27265			43387.38302		69.16200		324.00000 
 43692.65567		 537.27032			43155.38535		223.78800		875.00000 
 43692.65567		 305.27265			43387.38302		69.16200		324.00000 
 43692.65567		 537.27032			43155.38535		223.78800		875.00000 
 43692.65567		 305.27265			43387.38302		69.16200		324.00000 
 43692.65567		 537.27032			43155.38535		223.78800		875.00000 
 43692.65567		 305.27265			43387.38302		69.16200		324.00000 
 43692.65567		 537.27032			43155.38535		223.78800		875.00000 
 43692.65567		 305.27265			43387.38302		69.16200		324.00000 
 43692.65567		 537.27032			43155.38535		223.78800		875.00000 
 43692.65567		 305.27265			43387.38302		69.16200		324.00000 
 43692.65567		 537.27032			43155.38535		223.78800		875.00000 
 43692.65567		 305.27265			43387.38302		69.16200		324.00000 
 43692.65567		 537.27032			43155.38535		223.78800		875.00000 
 43692.65567		 305.27265			43387.38302		69.16200		324.00000 
 43692.65567		 537.27032			43155.38535		223.78800		875.00000 
 43692.65567		 305.27265			43387.38302		69.16200		324.00000 
 43692.65567		 537.27032			43155.38535		223.78800		875.00000 
 43692.65567		 305.27265			43387.38302		69.16200		324.00000 
 43692.65567		 529.63254			43163.02313		223.78800		875.00000 
 43692.65567		 305.27265			43387.38302		69.16200		324.00000 
 43692.65567		 525.81365			43166.84203		223.78800		875.00000 
 43692.65567		 297.63487			43395.02080		69.16200		324.00000 
 43692.65567		 261.35540			43431.30027		223.78800		875.00000 
 43692.65567		 261.35540			43431.30027		69.16200		324.00000 
