Memory Total (MiB) 	 Memory Used (MiB) 	    Memory Free (MiB) 	 Power Drawed (W) 	 Clocks (Mhz) 	 
 43692.65567		 261.35540			43431.30027		202.05600		875.00000 
 43692.65567		 261.35540			43431.30027		66.66200		324.00000 
 43692.65567		 261.35540			43431.30027		202.05600		875.00000 
 43692.65567		 261.35540			43431.30027		66.66200		324.00000 
 43692.65567		 261.35540			43431.30027		202.05600		875.00000 
 43692.65567		 261.35540			43431.30027		66.66200		324.00000 
 43692.65567		 261.35540			43431.30027		202.05600		875.00000 
 43692.65567		 261.35540			43431.30027		66.66200		324.00000 
 43692.65567		 261.35540			43431.30027		202.05600		875.00000 
 43692.65567		 261.35540			43431.30027		66.66200		324.00000 
 43692.65567		 261.35540			43431.30027		202.05600		875.00000 
 43692.65567		 261.35540			43431.30027		66.66200		324.00000 
 43692.65567		 261.35540			43431.30027		202.05600		875.00000 
 43692.65567		 261.35540			43431.30027		66.66200		324.00000 
 43692.65567		 261.35540			43431.30027		202.05600		875.00000 
 43692.65567		 261.35540			43431.30027		66.66200		324.00000 
 43692.65567		 261.35540			43431.30027		202.05600		875.00000 
 43692.65567		 261.35540			43431.30027		66.66200		324.00000 
 43692.65567		 261.35540			43431.30027		202.05600		875.00000 
 43692.65567		 261.35540			43431.30027		66.66200		324.00000 
 43692.65567		 261.35540			43431.30027		202.05600		875.00000 
 43692.65567		 261.35540			43431.30027		66.66200		324.00000 
 43692.65567		 261.35540			43431.30027		202.05600		875.00000 
 43692.65567		 261.35540			43431.30027		66.66200		324.00000 
 43692.65567		 261.35540			43431.30027		202.05600		875.00000 
 43692.65567		 261.35540			43431.30027		66.66200		324.00000 
 43692.65567		 261.35540			43431.30027		202.05600		875.00000 
 43692.65567		 261.35540			43431.30027		66.66200		324.00000 
 43692.65567		 261.35540			43431.30027		202.05600		875.00000 
 43692.65567		 261.35540			43431.30027		66.66200		324.00000 
 43692.65567		 261.35540			43431.30027		158.04000		875.00000 
 43692.65567		 261.35540			43431.30027		66.66200		324.00000 
 43692.65567		 261.35540			43431.30027		158.04000		875.00000 
 43692.65567		 261.35540			43431.30027		66.66200		324.00000 
 43692.65567		 261.35540			43431.30027		158.04000		875.00000 
 43692.65567		 261.35540			43431.30027		66.66200		324.00000 
 43692.65567		 265.17429			43427.48138		158.04000		875.00000 
 43692.65567		 261.35540			43431.30027		66.66200		324.00000 
 43692.65567		 265.17429			43427.48138		158.04000		875.00000 
 43692.65567		 261.35540			43431.30027		66.66200		324.00000 
 43692.65567		 272.81207			43419.84360		158.04000		875.00000 
 43692.65567		 261.35540			43431.30027		66.66200		324.00000 
 43692.65567		 272.81207			43419.84360		158.04000		875.00000 
 43692.65567		 261.35540			43431.30027		66.66200		324.00000 
 43692.65567		 272.81207			43419.84360		158.04000		875.00000 
 43692.65567		 265.17429			43427.48138		66.66200		324.00000 
 43692.65567		 272.81207			43419.84360		158.04000		875.00000 
 43692.65567		 265.17429			43427.48138		66.66200		324.00000 
 43692.65567		 272.81207			43419.84360		158.04000		875.00000 
 43692.65567		 272.81207			43419.84360		66.66200		324.00000 
 43692.65567		 272.81207			43419.84360		158.04000		875.00000 
 43692.65567		 272.81207			43419.84360		66.66200		324.00000 
 43692.65567		 272.81207			43419.84360		158.04000		875.00000 
 43692.65567		 272.81207			43419.84360		66.66200		324.00000 
 43692.65567		 305.27265			43387.38302		158.04000		875.00000 
 43692.65567		 305.27265			43387.38302		66.66200		324.00000 
 43692.65567		 305.27265			43387.38302		158.04000		875.00000 
 43692.65567		 305.27265			43387.38302		66.66200		324.00000 
 43692.65567		 305.27265			43387.38302		158.04000		875.00000 
 43692.65567		 305.27265			43387.38302		66.66200		324.00000 
 43692.65567		 305.27265			43387.38302		158.04000		875.00000 
 43692.65567		 305.27265			43387.38302		66.66200		324.00000 
 43692.65567		 305.27265			43387.38302		158.04000		875.00000 
 43692.65567		 305.27265			43387.38302		66.66200		324.00000 
 43692.65567		 310.04627			43382.60941		158.04000		875.00000 
 43692.65567		 305.27265			43387.38302		66.66200		324.00000 
 43692.65567		 311.00099			43381.65468		158.04000		875.00000 
 43692.65567		 305.27265			43387.38302		66.66200		324.00000 
 43692.65567		 311.00099			43381.65468		158.04000		875.00000 
 43692.65567		 305.27265			43387.38302		66.66200		324.00000 
 43692.65567		 311.00099			43381.65468		158.04000		875.00000 
 43692.65567		 305.27265			43387.38302		66.66200		324.00000 
 43692.65567		 311.00099			43381.65468		158.04000		875.00000 
 43692.65567		 305.27265			43387.38302		66.66200		324.00000 
 43692.65567		 311.00099			43381.65468		158.04000		875.00000 
 43692.65567		 305.27265			43387.38302		66.66200		324.00000 
 43692.65567		 311.00099			43381.65468		158.04000		875.00000 
 43692.65567		 305.27265			43387.38302		66.66200		324.00000 
 43692.65567		 311.00099			43381.65468		158.04000		875.00000 
 43692.65567		 305.27265			43387.38302		66.66200		324.00000 
 43692.65567		 311.00099			43381.65468		158.04000		875.00000 
 43692.65567		 305.27265			43387.38302		66.66200		324.00000 
 43692.65567		 311.00099			43381.65468		158.04000		875.00000 
 43692.65567		 305.27265			43387.38302		66.66200		324.00000 
 43692.65567		 311.00099			43381.65468		158.04000		875.00000 
 43692.65567		 305.27265			43387.38302		66.66200		324.00000 
 43692.65567		 311.00099			43381.65468		158.04000		875.00000 
 43692.65567		 305.27265			43387.38302		66.66200		324.00000 
 43692.65567		 311.00099			43381.65468		158.04000		875.00000 
 43692.65567		 305.27265			43387.38302		66.66200		324.00000 
 43692.65567		 311.00099			43381.65468		141.99800		875.00000 
 43692.65567		 305.27265			43387.38302		66.66200		324.00000 
 43692.65567		 311.00099			43381.65468		141.99800		875.00000 
 43692.65567		 305.27265			43387.38302		66.66200		324.00000 
 43692.65567		 311.00099			43381.65468		141.99800		875.00000 
 43692.65567		 305.27265			43387.38302		66.66200		324.00000 
 43692.65567		 311.00099			43381.65468		141.99800		875.00000 
 43692.65567		 305.27265			43387.38302		66.66200		324.00000 
 43692.65567		 311.00099			43381.65468		141.99800		875.00000 
 43692.65567		 305.27265			43387.38302		66.66200		324.00000 
 43692.65567		 311.00099			43381.65468		141.99800		875.00000 
 43692.65567		 305.27265			43387.38302		66.66200		324.00000 
 43692.65567		 311.00099			43381.65468		141.99800		875.00000 
 43692.65567		 305.27265			43387.38302		66.66200		324.00000 
 43692.65567		 311.00099			43381.65468		141.99800		875.00000 
 43692.65567		 305.27265			43387.38302		66.66200		324.00000 
 43692.65567		 311.00099			43381.65468		141.99800		875.00000 
 43692.65567		 305.27265			43387.38302		66.66200		324.00000 
 43692.65567		 311.00099			43381.65468		141.99800		875.00000 
 43692.65567		 305.27265			43387.38302		66.66200		324.00000 
 43692.65567		 311.00099			43381.65468		141.99800		875.00000 
 43692.65567		 305.27265			43387.38302		66.66200		324.00000 
 43692.65567		 311.00099			43381.65468		141.99800		875.00000 
 43692.65567		 305.27265			43387.38302		66.66200		324.00000 
 43692.65567		 311.00099			43381.65468		141.99800		875.00000 
 43692.65567		 305.27265			43387.38302		66.66200		324.00000 
 43692.65567		 311.00099			43381.65468		141.99800		875.00000 
 43692.65567		 305.27265			43387.38302		66.66200		324.00000 
 43692.65567		 311.00099			43381.65468		141.99800		875.00000 
 43692.65567		 305.27265			43387.38302		66.66200		324.00000 
 43692.65567		 311.00099			43381.65468		141.99800		875.00000 
 43692.65567		 305.27265			43387.38302		66.66200		324.00000 
 43692.65567		 311.00099			43381.65468		141.99800		875.00000 
 43692.65567		 305.27265			43387.38302		66.22000		324.00000 
 43692.65567		 311.00099			43381.65468		141.99800		875.00000 
 43692.65567		 305.27265			43387.38302		66.22000		324.00000 
 43692.65567		 311.00099			43381.65468		141.99800		875.00000 
 43692.65567		 305.27265			43387.38302		66.22000		324.00000 
 43692.65567		 311.00099			43381.65468		141.99800		875.00000 
 43692.65567		 305.27265			43387.38302		66.22000		324.00000 
 43692.65567		 311.00099			43381.65468		141.99800		875.00000 
 43692.65567		 305.27265			43387.38302		66.22000		324.00000 
 43692.65567		 311.00099			43381.65468		141.99800		875.00000 
 43692.65567		 305.27265			43387.38302		66.22000		324.00000 
 43692.65567		 311.00099			43381.65468		141.99800		875.00000 
 43692.65567		 305.27265			43387.38302		66.22000		324.00000 
 43692.65567		 311.00099			43381.65468		141.99800		875.00000 
 43692.65567		 305.27265			43387.38302		66.22000		324.00000 
 43692.65567		 311.00099			43381.65468		141.99800		875.00000 
 43692.65567		 305.27265			43387.38302		66.22000		324.00000 
 43692.65567		 311.00099			43381.65468		141.99800		875.00000 
 43692.65567		 305.27265			43387.38302		66.22000		324.00000 
 43692.65567		 311.00099			43381.65468		141.99800		875.00000 
 43692.65567		 305.27265			43387.38302		66.22000		324.00000 
 43692.65567		 311.00099			43381.65468		141.99800		875.00000 
 43692.65567		 305.27265			43387.38302		66.22000		324.00000 
 43692.65567		 311.00099			43381.65468		141.99800		875.00000 
 43692.65567		 305.27265			43387.38302		66.22000		324.00000 
 43692.65567		 311.00099			43381.65468		141.99800		875.00000 
 43692.65567		 305.27265			43387.38302		66.22000		324.00000 
 43692.65567		 311.00099			43381.65468		135.62600		875.00000 
 43692.65567		 305.27265			43387.38302		66.22000		324.00000 
 43692.65567		 311.00099			43381.65468		135.62600		875.00000 
 43692.65567		 305.27265			43387.38302		66.22000		324.00000 
 43692.65567		 311.00099			43381.65468		135.62600		875.00000 
 43692.65567		 305.27265			43387.38302		66.22000		324.00000 
 43692.65567		 311.00099			43381.65468		135.62600		875.00000 
 43692.65567		 305.27265			43387.38302		66.22000		324.00000 
 43692.65567		 311.00099			43381.65468		135.62600		875.00000 
 43692.65567		 305.27265			43387.38302		66.22000		324.00000 
 43692.65567		 311.00099			43381.65468		135.62600		875.00000 
 43692.65567		 305.27265			43387.38302		66.22000		324.00000 
 43692.65567		 311.00099			43381.65468		135.62600		875.00000 
 43692.65567		 305.27265			43387.38302		66.22000		324.00000 
 43692.65567		 311.00099			43381.65468		135.62600		875.00000 
 43692.65567		 305.27265			43387.38302		66.22000		324.00000 
 43692.65567		 311.00099			43381.65468		135.62600		875.00000 
 43692.65567		 305.27265			43387.38302		66.22000		324.00000 
 43692.65567		 314.81988			43377.83579		135.62600		875.00000 
 43692.65567		 305.27265			43387.38302		66.22000		324.00000 
 43692.65567		 314.81988			43377.83579		135.62600		875.00000 
 43692.65567		 305.27265			43387.38302		66.22000		324.00000 
 43692.65567		 314.81988			43377.83579		135.62600		875.00000 
 43692.65567		 305.27265			43387.38302		66.22000		324.00000 
 43692.65567		 318.63877			43374.01690		135.62600		875.00000 
 43692.65567		 305.27265			43387.38302		66.22000		324.00000 
 43692.65567		 322.45767			43370.19801		135.62600		875.00000 
 43692.65567		 305.27265			43387.38302		66.22000		324.00000 
 43692.65567		 326.27656			43366.37912		135.62600		875.00000 
 43692.65567		 305.27265			43387.38302		66.22000		324.00000 
 43692.65567		 326.27656			43366.37912		135.62600		875.00000 
 43692.65567		 305.27265			43387.38302		66.22000		324.00000 
 43692.65567		 326.27656			43366.37912		135.62600		875.00000 
 43692.65567		 305.27265			43387.38302		66.22000		324.00000 
 43692.65567		 537.27032			43155.38535		135.62600		875.00000 
 43692.65567		 305.27265			43387.38302		66.22000		324.00000 
 43692.65567		 631.78789			43060.86778		135.62600		875.00000 
 43692.65567		 305.27265			43387.38302		66.22000		324.00000 
 43692.65567		 679.04668			43013.60900		135.62600		875.00000 
 43692.65567		 305.27265			43387.38302		66.22000		324.00000 
 43692.65567		 679.04668			43013.60900		135.62600		875.00000 
 43692.65567		 305.27265			43387.38302		66.22000		324.00000 
 43692.65567		 679.04668			43013.60900		135.62600		875.00000 
 43692.65567		 305.27265			43387.38302		66.22000		324.00000 
 43692.65567		 679.04668			43013.60900		135.62600		875.00000 
 43692.65567		 305.27265			43387.38302		66.22000		324.00000 
 43692.65567		 679.04668			43013.60900		135.62600		875.00000 
 43692.65567		 305.27265			43387.38302		66.22000		324.00000 
 43692.65567		 679.04668			43013.60900		135.62600		875.00000 
 43692.65567		 305.27265			43387.38302		66.22000		324.00000 
 43692.65567		 679.04668			43013.60900		135.62600		875.00000 
 43692.65567		 305.27265			43387.38302		66.22000		324.00000 
 43692.65567		 679.04668			43013.60900		135.62600		875.00000 
 43692.65567		 305.27265			43387.38302		66.22000		324.00000 
 43692.65567		 679.04668			43013.60900		135.62600		875.00000 
 43692.65567		 305.27265			43387.38302		66.22000		324.00000 
 43692.65567		 679.04668			43013.60900		135.62600		875.00000 
 43692.65567		 305.27265			43387.38302		66.22000		324.00000 
 43692.65567		 679.04668			43013.60900		135.62600		875.00000 
 43692.65567		 305.27265			43387.38302		66.22000		324.00000 
 43692.65567		 679.04668			43013.60900		135.62600		875.00000 
 43692.65567		 305.27265			43387.38302		66.22000		324.00000 
 43692.65567		 679.04668			43013.60900		135.62600		875.00000 
 43692.65567		 305.27265			43387.38302		66.22000		324.00000 
 43692.65567		 679.04668			43013.60900		135.62600		875.00000 
 43692.65567		 305.27265			43387.38302		66.22000		324.00000 
 43692.65567		 679.04668			43013.60900		135.62600		875.00000 
 43692.65567		 305.27265			43387.38302		66.22000		324.00000 
 43692.65567		 679.04668			43013.60900		135.62600		875.00000 
 43692.65567		 305.27265			43387.38302		66.22000		324.00000 
 43692.65567		 679.04668			43013.60900		135.62600		875.00000 
 43692.65567		 305.27265			43387.38302		66.22000		324.00000 
 43692.65567		 679.04668			43013.60900		135.62600		875.00000 
 43692.65567		 305.27265			43387.38302		66.22000		324.00000 
 43692.65567		 679.04668			43013.60900		135.62600		875.00000 
 43692.65567		 305.27265			43387.38302		66.22000		324.00000 
 43692.65567		 679.04668			43013.60900		135.62600		875.00000 
 43692.65567		 305.27265			43387.38302		66.22000		324.00000 
 43692.65567		 679.04668			43013.60900		135.62600		875.00000 
 43692.65567		 305.27265			43387.38302		66.22000		324.00000 
 43692.65567		 679.04668			43013.60900		135.62600		875.00000 
 43692.65567		 305.27265			43387.38302		66.22000		324.00000 
 43692.65567		 679.04668			43013.60900		135.62600		875.00000 
 43692.65567		 305.27265			43387.38302		66.22000		324.00000 
 43692.65567		 679.04668			43013.60900		135.62600		875.00000 
 43692.65567		 305.27265			43387.38302		66.22000		324.00000 
 43692.65567		 679.04668			43013.60900		135.62600		875.00000 
 43692.65567		 305.27265			43387.38302		66.22000		324.00000 
 43692.65567		 679.04668			43013.60900		135.62600		875.00000 
 43692.65567		 305.27265			43387.38302		66.22000		324.00000 
 43692.65567		 679.04668			43013.60900		135.62600		875.00000 
 43692.65567		 305.27265			43387.38302		66.22000		324.00000 
 43692.65567		 679.04668			43013.60900		135.62600		875.00000 
 43692.65567		 305.27265			43387.38302		66.22000		324.00000 
 43692.65567		 679.04668			43013.60900		135.62600		875.00000 
 43692.65567		 305.27265			43387.38302		66.22000		324.00000 
 43692.65567		 679.04668			43013.60900		135.62600		875.00000 
 43692.65567		 305.27265			43387.38302		66.22000		324.00000 
 43692.65567		 679.04668			43013.60900		135.62600		875.00000 
 43692.65567		 305.27265			43387.38302		66.22000		324.00000 
 43692.65567		 679.04668			43013.60900		135.62600		875.00000 
 43692.65567		 305.27265			43387.38302		66.22000		324.00000 
 43692.65567		 679.04668			43013.60900		166.61000		875.00000 
 43692.65567		 305.27265			43387.38302		66.22000		324.00000 
 43692.65567		 679.04668			43013.60900		166.61000		875.00000 
 43692.65567		 305.27265			43387.38302		66.22000		324.00000 
 43692.65567		 679.04668			43013.60900		166.61000		875.00000 
 43692.65567		 305.27265			43387.38302		66.22000		324.00000 
 43692.65567		 679.04668			43013.60900		166.61000		875.00000 
 43692.65567		 305.27265			43387.38302		66.22000		324.00000 
 43692.65567		 679.04668			43013.60900		166.61000		875.00000 
 43692.65567		 305.27265			43387.38302		66.22000		324.00000 
 43692.65567		 679.04668			43013.60900		166.61000		875.00000 
 43692.65567		 305.27265			43387.38302		66.22000		324.00000 
 43692.65567		 679.04668			43013.60900		166.61000		875.00000 
 43692.65567		 305.27265			43387.38302		66.22000		324.00000 
 43692.65567		 679.04668			43013.60900		166.61000		875.00000 
 43692.65567		 305.27265			43387.38302		66.22000		324.00000 
 43692.65567		 679.04668			43013.60900		166.61000		875.00000 
 43692.65567		 305.27265			43387.38302		66.22000		324.00000 
 43692.65567		 679.04668			43013.60900		166.61000		875.00000 
 43692.65567		 305.27265			43387.38302		66.22000		324.00000 
 43692.65567		 679.04668			43013.60900		166.61000		875.00000 
 43692.65567		 305.27265			43387.38302		66.22000		324.00000 
 43692.65567		 679.04668			43013.60900		166.61000		875.00000 
 43692.65567		 305.27265			43387.38302		66.22000		324.00000 
 43692.65567		 679.04668			43013.60900		166.61000		875.00000 
 43692.65567		 305.27265			43387.38302		66.22000		324.00000 
 43692.65567		 679.04668			43013.60900		166.61000		875.00000 
 43692.65567		 305.27265			43387.38302		66.22000		324.00000 
 43692.65567		 679.04668			43013.60900		166.61000		875.00000 
 43692.65567		 305.27265			43387.38302		66.22000		324.00000 
 43692.65567		 679.04668			43013.60900		166.61000		875.00000 
 43692.65567		 305.27265			43387.38302		66.22000		324.00000 
 43692.65567		 679.04668			43013.60900		166.61000		875.00000 
 43692.65567		 305.27265			43387.38302		66.22000		324.00000 
 43692.65567		 679.04668			43013.60900		166.61000		875.00000 
 43692.65567		 305.27265			43387.38302		66.22000		324.00000 
 43692.65567		 679.04668			43013.60900		166.61000		875.00000 
 43692.65567		 305.27265			43387.38302		66.22000		324.00000 
 43692.65567		 679.04668			43013.60900		166.61000		875.00000 
 43692.65567		 305.27265			43387.38302		66.22000		324.00000 
 43692.65567		 679.04668			43013.60900		166.61000		875.00000 
 43692.65567		 305.27265			43387.38302		66.22000		324.00000 
 43692.65567		 679.04668			43013.60900		166.61000		875.00000 
 43692.65567		 305.27265			43387.38302		66.22000		324.00000 
 43692.65567		 679.04668			43013.60900		166.61000		875.00000 
 43692.65567		 305.27265			43387.38302		66.22000		324.00000 
 43692.65567		 679.04668			43013.60900		166.61000		875.00000 
 43692.65567		 305.27265			43387.38302		66.22000		324.00000 
 43692.65567		 679.04668			43013.60900		166.61000		875.00000 
 43692.65567		 305.27265			43387.38302		66.22000		324.00000 
 43692.65567		 679.04668			43013.60900		166.61000		875.00000 
 43692.65567		 305.27265			43387.38302		66.22000		324.00000 
 43692.65567		 679.04668			43013.60900		166.61000		875.00000 
 43692.65567		 305.27265			43387.38302		66.22000		324.00000 
 43692.65567		 679.04668			43013.60900		166.61000		875.00000 
 43692.65567		 305.27265			43387.38302		66.22000		324.00000 
 43692.65567		 679.04668			43013.60900		166.61000		875.00000 
 43692.65567		 305.27265			43387.38302		66.22000		324.00000 
 43692.65567		 679.04668			43013.60900		166.61000		875.00000 
 43692.65567		 305.27265			43387.38302		66.22000		324.00000 
 43692.65567		 679.04668			43013.60900		166.61000		875.00000 
 43692.65567		 305.27265			43387.38302		66.22000		324.00000 
 43692.65567		 679.04668			43013.60900		166.61000		875.00000 
 43692.65567		 305.27265			43387.38302		66.22000		324.00000 
 43692.65567		 679.04668			43013.60900		166.61000		875.00000 
 43692.65567		 305.27265			43387.38302		66.22000		324.00000 
 43692.65567		 679.04668			43013.60900		166.61000		875.00000 
 43692.65567		 305.27265			43387.38302		66.22000		324.00000 
 43692.65567		 679.04668			43013.60900		166.61000		875.00000 
 43692.65567		 305.27265			43387.38302		66.22000		324.00000 
 43692.65567		 679.04668			43013.60900		166.61000		875.00000 
 43692.65567		 305.27265			43387.38302		66.22000		324.00000 
 43692.65567		 679.04668			43013.60900		166.61000		875.00000 
 43692.65567		 305.27265			43387.38302		66.22000		324.00000 
 43692.65567		 679.04668			43013.60900		166.61000		875.00000 
 43692.65567		 305.27265			43387.38302		66.22000		324.00000 
 43692.65567		 679.04668			43013.60900		166.61000		875.00000 
 43692.65567		 305.27265			43387.38302		66.22000		324.00000 
 43692.65567		 679.04668			43013.60900		166.61000		875.00000 
 43692.65567		 305.27265			43387.38302		66.22000		324.00000 
 43692.65567		 679.04668			43013.60900		166.61000		875.00000 
 43692.65567		 305.27265			43387.38302		66.22000		324.00000 
 43692.65567		 679.04668			43013.60900		166.61000		875.00000 
 43692.65567		 305.27265			43387.38302		66.22000		324.00000 
 43692.65567		 679.04668			43013.60900		166.61000		875.00000 
 43692.65567		 305.27265			43387.38302		66.22000		324.00000 
 43692.65567		 679.04668			43013.60900		166.61000		875.00000 
 43692.65567		 305.27265			43387.38302		66.22000		324.00000 
 43692.65567		 679.04668			43013.60900		166.61000		875.00000 
 43692.65567		 305.27265			43387.38302		66.22000		324.00000 
 43692.65567		 679.04668			43013.60900		166.61000		875.00000 
 43692.65567		 305.27265			43387.38302		66.22000		324.00000 
 43692.65567		 679.04668			43013.60900		166.61000		875.00000 
 43692.65567		 305.27265			43387.38302		66.22000		324.00000 
 43692.65567		 679.04668			43013.60900		166.61000		875.00000 
 43692.65567		 305.27265			43387.38302		66.22000		324.00000 
 43692.65567		 679.04668			43013.60900		166.61000		875.00000 
 43692.65567		 305.27265			43387.38302		66.22000		324.00000 
 43692.65567		 679.04668			43013.60900		166.61000		875.00000 
 43692.65567		 305.27265			43387.38302		66.22000		324.00000 
 43692.65567		 679.04668			43013.60900		166.61000		875.00000 
 43692.65567		 305.27265			43387.38302		66.22000		324.00000 
 43692.65567		 679.04668			43013.60900		166.61000		875.00000 
 43692.65567		 305.27265			43387.38302		66.22000		324.00000 
 43692.65567		 679.04668			43013.60900		166.61000		875.00000 
 43692.65567		 305.27265			43387.38302		66.22000		324.00000 
 43692.65567		 679.04668			43013.60900		166.61000		875.00000 
 43692.65567		 305.27265			43387.38302		66.22000		324.00000 
 43692.65567		 679.04668			43013.60900		166.61000		875.00000 
 43692.65567		 305.27265			43387.38302		66.22000		324.00000 
 43692.65567		 679.04668			43013.60900		166.61000		875.00000 
 43692.65567		 305.27265			43387.38302		66.22000		324.00000 
 43692.65567		 679.04668			43013.60900		166.61000		875.00000 
 43692.65567		 305.27265			43387.38302		66.22000		324.00000 
 43692.65567		 679.04668			43013.60900		166.61000		875.00000 
 43692.65567		 305.27265			43387.38302		66.22000		324.00000 
 43692.65567		 679.04668			43013.60900		166.61000		875.00000 
 43692.65567		 305.27265			43387.38302		66.22000		324.00000 
 43692.65567		 679.04668			43013.60900		166.61000		875.00000 
 43692.65567		 305.27265			43387.38302		66.22000		324.00000 
 43692.65567		 679.04668			43013.60900		166.61000		875.00000 
 43692.65567		 305.27265			43387.38302		66.22000		324.00000 
 43692.65567		 679.04668			43013.60900		166.61000		875.00000 
 43692.65567		 305.27265			43387.38302		66.22000		324.00000 
 43692.65567		 679.04668			43013.60900		166.61000		875.00000 
 43692.65567		 305.27265			43387.38302		66.22000		324.00000 
 43692.65567		 679.04668			43013.60900		166.61000		875.00000 
 43692.65567		 305.27265			43387.38302		66.22000		324.00000 
 43692.65567		 679.04668			43013.60900		198.21800		875.00000 
 43692.65567		 305.27265			43387.38302		66.22000		324.00000 
 43692.65567		 679.04668			43013.60900		198.21800		875.00000 
 43692.65567		 305.27265			43387.38302		66.22000		324.00000 
 43692.65567		 679.04668			43013.60900		198.21800		875.00000 
 43692.65567		 305.27265			43387.38302		66.22000		324.00000 
 43692.65567		 679.04668			43013.60900		198.21800		875.00000 
 43692.65567		 305.27265			43387.38302		66.22000		324.00000 
 43692.65567		 679.04668			43013.60900		198.21800		875.00000 
 43692.65567		 305.27265			43387.38302		66.22000		324.00000 
 43692.65567		 679.04668			43013.60900		198.21800		875.00000 
 43692.65567		 305.27265			43387.38302		66.22000		324.00000 
 43692.65567		 679.04668			43013.60900		198.21800		875.00000 
 43692.65567		 305.27265			43387.38302		66.22000		324.00000 
 43692.65567		 679.04668			43013.60900		198.21800		875.00000 
 43692.65567		 305.27265			43387.38302		66.22000		324.00000 
 43692.65567		 679.04668			43013.60900		198.21800		875.00000 
 43692.65567		 305.27265			43387.38302		66.22000		324.00000 
 43692.65567		 679.04668			43013.60900		198.21800		875.00000 
 43692.65567		 305.27265			43387.38302		66.22000		324.00000 
 43692.65567		 679.04668			43013.60900		198.21800		875.00000 
 43692.65567		 305.27265			43387.38302		66.22000		324.00000 
 43692.65567		 679.04668			43013.60900		198.21800		875.00000 
 43692.65567		 305.27265			43387.38302		66.22000		324.00000 
 43692.65567		 679.04668			43013.60900		198.21800		875.00000 
 43692.65567		 305.27265			43387.38302		66.22000		324.00000 
 43692.65567		 679.04668			43013.60900		198.21800		875.00000 
 43692.65567		 305.27265			43387.38302		66.22000		324.00000 
 43692.65567		 679.04668			43013.60900		198.21800		875.00000 
 43692.65567		 305.27265			43387.38302		66.22000		324.00000 
 43692.65567		 679.04668			43013.60900		198.21800		875.00000 
 43692.65567		 305.27265			43387.38302		66.22000		324.00000 
 43692.65567		 679.04668			43013.60900		198.21800		875.00000 
 43692.65567		 305.27265			43387.38302		66.22000		324.00000 
 43692.65567		 679.04668			43013.60900		198.21800		875.00000 
 43692.65567		 305.27265			43387.38302		66.22000		324.00000 
 43692.65567		 679.04668			43013.60900		198.21800		875.00000 
 43692.65567		 305.27265			43387.38302		66.22000		324.00000 
 43692.65567		 679.04668			43013.60900		198.21800		875.00000 
 43692.65567		 305.27265			43387.38302		66.22000		324.00000 
 43692.65567		 679.04668			43013.60900		198.21800		875.00000 
 43692.65567		 305.27265			43387.38302		66.22000		324.00000 
 43692.65567		 679.04668			43013.60900		198.21800		875.00000 
 43692.65567		 305.27265			43387.38302		66.22000		324.00000 
 43692.65567		 679.04668			43013.60900		198.21800		875.00000 
 43692.65567		 305.27265			43387.38302		66.22000		324.00000 
 43692.65567		 679.04668			43013.60900		198.21800		875.00000 
 43692.65567		 305.27265			43387.38302		66.22000		324.00000 
 43692.65567		 679.04668			43013.60900		198.21800		875.00000 
 43692.65567		 305.27265			43387.38302		66.22000		324.00000 
 43692.65567		 679.04668			43013.60900		198.21800		875.00000 
 43692.65567		 305.27265			43387.38302		66.22000		324.00000 
 43692.65567		 679.04668			43013.60900		198.21800		875.00000 
 43692.65567		 305.27265			43387.38302		66.22000		324.00000 
 43692.65567		 679.04668			43013.60900		198.21800		875.00000 
 43692.65567		 305.27265			43387.38302		66.22000		324.00000 
 43692.65567		 679.04668			43013.60900		198.21800		875.00000 
 43692.65567		 305.27265			43387.38302		66.22000		324.00000 
 43692.65567		 679.04668			43013.60900		198.21800		875.00000 
 43692.65567		 305.27265			43387.38302		66.22000		324.00000 
 43692.65567		 679.04668			43013.60900		198.21800		875.00000 
 43692.65567		 305.27265			43387.38302		66.22000		324.00000 
 43692.65567		 679.04668			43013.60900		198.21800		875.00000 
 43692.65567		 305.27265			43387.38302		66.22000		324.00000 
 43692.65567		 679.04668			43013.60900		198.21800		875.00000 
 43692.65567		 305.27265			43387.38302		66.22000		324.00000 
 43692.65567		 679.04668			43013.60900		198.21800		875.00000 
 43692.65567		 305.27265			43387.38302		66.22000		324.00000 
 43692.65567		 679.04668			43013.60900		198.21800		875.00000 
 43692.65567		 305.27265			43387.38302		66.22000		324.00000 
 43692.65567		 679.04668			43013.60900		198.21800		875.00000 
 43692.65567		 305.27265			43387.38302		66.22000		324.00000 
 43692.65567		 679.04668			43013.60900		198.21800		875.00000 
 43692.65567		 305.27265			43387.38302		66.22000		324.00000 
 43692.65567		 679.04668			43013.60900		198.21800		875.00000 
 43692.65567		 305.27265			43387.38302		66.22000		324.00000 
 43692.65567		 679.04668			43013.60900		198.21800		875.00000 
 43692.65567		 305.27265			43387.38302		66.22000		324.00000 
 43692.65567		 679.04668			43013.60900		198.21800		875.00000 
 43692.65567		 305.27265			43387.38302		66.22000		324.00000 
 43692.65567		 679.04668			43013.60900		198.21800		875.00000 
 43692.65567		 305.27265			43387.38302		66.22000		324.00000 
 43692.65567		 679.04668			43013.60900		198.21800		875.00000 
 43692.65567		 305.27265			43387.38302		66.22000		324.00000 
 43692.65567		 679.04668			43013.60900		198.21800		875.00000 
 43692.65567		 305.27265			43387.38302		66.22000		324.00000 
 43692.65567		 679.04668			43013.60900		198.21800		875.00000 
 43692.65567		 305.27265			43387.38302		66.22000		324.00000 
 43692.65567		 679.04668			43013.60900		198.21800		875.00000 
 43692.65567		 305.27265			43387.38302		66.22000		324.00000 
 43692.65567		 679.04668			43013.60900		198.21800		875.00000 
 43692.65567		 305.27265			43387.38302		66.22000		324.00000 
 43692.65567		 679.04668			43013.60900		198.21800		875.00000 
 43692.65567		 305.27265			43387.38302		66.22000		324.00000 
 43692.65567		 679.04668			43013.60900		198.21800		875.00000 
 43692.65567		 305.27265			43387.38302		66.22000		324.00000 
 43692.65567		 679.04668			43013.60900		198.21800		875.00000 
 43692.65567		 305.27265			43387.38302		66.22000		324.00000 
 43692.65567		 679.04668			43013.60900		198.21800		875.00000 
 43692.65567		 305.27265			43387.38302		66.22000		324.00000 
 43692.65567		 679.04668			43013.60900		198.21800		875.00000 
 43692.65567		 305.27265			43387.38302		66.22000		324.00000 
 43692.65567		 679.04668			43013.60900		198.21800		875.00000 
 43692.65567		 305.27265			43387.38302		66.22000		324.00000 
 43692.65567		 679.04668			43013.60900		198.21800		875.00000 
 43692.65567		 305.27265			43387.38302		66.22000		324.00000 
 43692.65567		 679.04668			43013.60900		198.21800		875.00000 
 43692.65567		 305.27265			43387.38302		66.22000		324.00000 
 43692.65567		 679.04668			43013.60900		198.21800		875.00000 
 43692.65567		 305.27265			43387.38302		66.22000		324.00000 
 43692.65567		 679.04668			43013.60900		198.21800		875.00000 
 43692.65567		 305.27265			43387.38302		66.22000		324.00000 
 43692.65567		 679.04668			43013.60900		198.21800		875.00000 
 43692.65567		 305.27265			43387.38302		66.22000		324.00000 
 43692.65567		 679.04668			43013.60900		198.21800		875.00000 
 43692.65567		 305.27265			43387.38302		66.22000		324.00000 
 43692.65567		 679.04668			43013.60900		198.21800		875.00000 
 43692.65567		 305.27265			43387.38302		66.22000		324.00000 
 43692.65567		 679.04668			43013.60900		198.21800		875.00000 
 43692.65567		 305.27265			43387.38302		66.22000		324.00000 
 43692.65567		 679.04668			43013.60900		198.21800		875.00000 
 43692.65567		 305.27265			43387.38302		66.22000		324.00000 
 43692.65567		 679.04668			43013.60900		198.21800		875.00000 
 43692.65567		 305.27265			43387.38302		66.22000		324.00000 
 43692.65567		 679.04668			43013.60900		198.21800		875.00000 
 43692.65567		 305.27265			43387.38302		66.22000		324.00000 
 43692.65567		 679.04668			43013.60900		198.21800		875.00000 
 43692.65567		 305.27265			43387.38302		66.22000		324.00000 
 43692.65567		 679.04668			43013.60900		210.36600		875.00000 
 43692.65567		 305.27265			43387.38302		66.22000		324.00000 
 43692.65567		 679.04668			43013.60900		210.36600		875.00000 
 43692.65567		 305.27265			43387.38302		66.22000		324.00000 
 43692.65567		 679.04668			43013.60900		210.36600		875.00000 
 43692.65567		 305.27265			43387.38302		66.22000		324.00000 
 43692.65567		 679.04668			43013.60900		210.36600		875.00000 
 43692.65567		 305.27265			43387.38302		66.22000		324.00000 
 43692.65567		 679.04668			43013.60900		210.36600		875.00000 
 43692.65567		 305.27265			43387.38302		66.22000		324.00000 
 43692.65567		 679.04668			43013.60900		210.36600		875.00000 
 43692.65567		 305.27265			43387.38302		66.22000		324.00000 
 43692.65567		 679.04668			43013.60900		210.36600		875.00000 
 43692.65567		 305.27265			43387.38302		66.22000		324.00000 
 43692.65567		 679.04668			43013.60900		210.36600		875.00000 
 43692.65567		 305.27265			43387.38302		66.22000		324.00000 
 43692.65567		 679.04668			43013.60900		210.36600		875.00000 
 43692.65567		 305.27265			43387.38302		66.22000		324.00000 
 43692.65567		 679.04668			43013.60900		210.36600		875.00000 
 43692.65567		 305.27265			43387.38302		66.22000		324.00000 
 43692.65567		 679.04668			43013.60900		210.36600		875.00000 
 43692.65567		 305.27265			43387.38302		66.22000		324.00000 
 43692.65567		 679.04668			43013.60900		210.36600		875.00000 
 43692.65567		 305.27265			43387.38302		66.22000		324.00000 
 43692.65567		 679.04668			43013.60900		210.36600		875.00000 
 43692.65567		 305.27265			43387.38302		66.22000		324.00000 
 43692.65567		 679.04668			43013.60900		210.36600		875.00000 
 43692.65567		 305.27265			43387.38302		66.22000		324.00000 
 43692.65567		 679.04668			43013.60900		210.36600		875.00000 
 43692.65567		 305.27265			43387.38302		66.22000		324.00000 
 43692.65567		 679.04668			43013.60900		210.36600		875.00000 
 43692.65567		 305.27265			43387.38302		66.22000		324.00000 
 43692.65567		 679.04668			43013.60900		210.36600		875.00000 
 43692.65567		 305.27265			43387.38302		66.22000		324.00000 
 43692.65567		 679.04668			43013.60900		210.36600		875.00000 
 43692.65567		 305.27265			43387.38302		66.22000		324.00000 
 43692.65567		 679.04668			43013.60900		210.36600		875.00000 
 43692.65567		 305.27265			43387.38302		66.22000		324.00000 
 43692.65567		 679.04668			43013.60900		210.36600		875.00000 
 43692.65567		 305.27265			43387.38302		66.22000		324.00000 
 43692.65567		 679.04668			43013.60900		210.36600		875.00000 
 43692.65567		 305.27265			43387.38302		66.22000		324.00000 
 43692.65567		 679.04668			43013.60900		210.36600		875.00000 
 43692.65567		 305.27265			43387.38302		66.22000		324.00000 
 43692.65567		 679.04668			43013.60900		210.36600		875.00000 
 43692.65567		 305.27265			43387.38302		66.22000		324.00000 
 43692.65567		 679.04668			43013.60900		210.36600		875.00000 
 43692.65567		 305.27265			43387.38302		66.22000		324.00000 
 43692.65567		 679.04668			43013.60900		210.36600		875.00000 
 43692.65567		 305.27265			43387.38302		66.22000		324.00000 
 43692.65567		 679.04668			43013.60900		210.36600		875.00000 
 43692.65567		 305.27265			43387.38302		66.22000		324.00000 
 43692.65567		 679.04668			43013.60900		210.36600		875.00000 
 43692.65567		 305.27265			43387.38302		66.22000		324.00000 
 43692.65567		 679.04668			43013.60900		210.36600		875.00000 
 43692.65567		 305.27265			43387.38302		66.22000		324.00000 
 43692.65567		 679.04668			43013.60900		210.36600		875.00000 
 43692.65567		 305.27265			43387.38302		66.22000		324.00000 
 43692.65567		 679.04668			43013.60900		210.36600		875.00000 
 43692.65567		 305.27265			43387.38302		66.22000		324.00000 
 43692.65567		 679.04668			43013.60900		210.36600		875.00000 
 43692.65567		 305.27265			43387.38302		66.22000		324.00000 
 43692.65567		 679.04668			43013.60900		210.36600		875.00000 
 43692.65567		 305.27265			43387.38302		66.22000		324.00000 
 43692.65567		 679.04668			43013.60900		210.36600		875.00000 
 43692.65567		 305.27265			43387.38302		66.22000		324.00000 
 43692.65567		 679.04668			43013.60900		210.36600		875.00000 
 43692.65567		 305.27265			43387.38302		66.22000		324.00000 
 43692.65567		 679.04668			43013.60900		210.36600		875.00000 
 43692.65567		 305.27265			43387.38302		66.22000		324.00000 
 43692.65567		 679.04668			43013.60900		210.36600		875.00000 
 43692.65567		 305.27265			43387.38302		66.22000		324.00000 
 43692.65567		 679.04668			43013.60900		210.36600		875.00000 
 43692.65567		 305.27265			43387.38302		66.22000		324.00000 
 43692.65567		 679.04668			43013.60900		210.36600		875.00000 
 43692.65567		 305.27265			43387.38302		66.22000		324.00000 
 43692.65567		 679.04668			43013.60900		210.36600		875.00000 
 43692.65567		 305.27265			43387.38302		66.22000		324.00000 
 43692.65567		 679.04668			43013.60900		210.36600		875.00000 
 43692.65567		 305.27265			43387.38302		66.22000		324.00000 
 43692.65567		 679.04668			43013.60900		210.36600		875.00000 
 43692.65567		 305.27265			43387.38302		66.22000		324.00000 
 43692.65567		 679.04668			43013.60900		210.36600		875.00000 
 43692.65567		 305.27265			43387.38302		66.22000		324.00000 
 43692.65567		 679.04668			43013.60900		210.36600		875.00000 
 43692.65567		 305.27265			43387.38302		66.22000		324.00000 
 43692.65567		 679.04668			43013.60900		210.36600		875.00000 
 43692.65567		 305.27265			43387.38302		66.22000		324.00000 
 43692.65567		 679.04668			43013.60900		210.36600		875.00000 
 43692.65567		 305.27265			43387.38302		66.22000		324.00000 
 43692.65567		 679.04668			43013.60900		210.36600		875.00000 
 43692.65567		 305.27265			43387.38302		66.22000		324.00000 
 43692.65567		 679.04668			43013.60900		210.36600		875.00000 
 43692.65567		 305.27265			43387.38302		66.22000		324.00000 
 43692.65567		 679.04668			43013.60900		210.36600		875.00000 
 43692.65567		 305.27265			43387.38302		66.22000		324.00000 
 43692.65567		 679.04668			43013.60900		210.36600		875.00000 
 43692.65567		 305.27265			43387.38302		66.22000		324.00000 
 43692.65567		 679.04668			43013.60900		210.36600		875.00000 
 43692.65567		 305.27265			43387.38302		66.22000		324.00000 
 43692.65567		 679.04668			43013.60900		210.36600		875.00000 
 43692.65567		 305.27265			43387.38302		66.22000		324.00000 
 43692.65567		 679.04668			43013.60900		210.36600		875.00000 
 43692.65567		 305.27265			43387.38302		66.22000		324.00000 
 43692.65567		 679.04668			43013.60900		210.36600		875.00000 
 43692.65567		 305.27265			43387.38302		66.22000		324.00000 
 43692.65567		 679.04668			43013.60900		210.36600		875.00000 
 43692.65567		 305.27265			43387.38302		66.22000		324.00000 
 43692.65567		 679.04668			43013.60900		210.36600		875.00000 
 43692.65567		 305.27265			43387.38302		66.22000		324.00000 
 43692.65567		 679.04668			43013.60900		210.36600		875.00000 
 43692.65567		 305.27265			43387.38302		66.22000		324.00000 
 43692.65567		 679.04668			43013.60900		210.36600		875.00000 
 43692.65567		 305.27265			43387.38302		66.22000		324.00000 
 43692.65567		 679.04668			43013.60900		210.36600		875.00000 
 43692.65567		 305.27265			43387.38302		66.22000		324.00000 
 43692.65567		 679.04668			43013.60900		210.36600		875.00000 
 43692.65567		 305.27265			43387.38302		66.22000		324.00000 
 43692.65567		 679.04668			43013.60900		210.36600		875.00000 
 43692.65567		 305.27265			43387.38302		66.22000		324.00000 
 43692.65567		 679.04668			43013.60900		210.36600		875.00000 
 43692.65567		 305.27265			43387.38302		66.22000		324.00000 
 43692.65567		 679.04668			43013.60900		210.36600		875.00000 
 43692.65567		 305.27265			43387.38302		66.22000		324.00000 
 43692.65567		 679.04668			43013.60900		210.36600		875.00000 
 43692.65567		 305.27265			43387.38302		66.22000		324.00000 
 43692.65567		 679.04668			43013.60900		210.36600		875.00000 
 43692.65567		 305.27265			43387.38302		66.22000		324.00000 
 43692.65567		 679.04668			43013.60900		215.82600		875.00000 
 43692.65567		 305.27265			43387.38302		66.22000		324.00000 
 43692.65567		 679.04668			43013.60900		215.82600		875.00000 
 43692.65567		 305.27265			43387.38302		66.22000		324.00000 
 43692.65567		 679.04668			43013.60900		215.82600		875.00000 
 43692.65567		 305.27265			43387.38302		66.22000		324.00000 
 43692.65567		 679.04668			43013.60900		215.82600		875.00000 
 43692.65567		 305.27265			43387.38302		66.22000		324.00000 
 43692.65567		 679.04668			43013.60900		215.82600		875.00000 
 43692.65567		 305.27265			43387.38302		66.22000		324.00000 
 43692.65567		 679.04668			43013.60900		215.82600		875.00000 
 43692.65567		 305.27265			43387.38302		66.22000		324.00000 
 43692.65567		 679.04668			43013.60900		215.82600		875.00000 
 43692.65567		 305.27265			43387.38302		66.22000		324.00000 
 43692.65567		 679.04668			43013.60900		215.82600		875.00000 
 43692.65567		 305.27265			43387.38302		66.22000		324.00000 
 43692.65567		 679.04668			43013.60900		215.82600		875.00000 
 43692.65567		 305.27265			43387.38302		66.22000		324.00000 
 43692.65567		 679.04668			43013.60900		215.82600		875.00000 
 43692.65567		 305.27265			43387.38302		66.22000		324.00000 
 43692.65567		 679.04668			43013.60900		215.82600		875.00000 
 43692.65567		 305.27265			43387.38302		66.22000		324.00000 
 43692.65567		 679.04668			43013.60900		215.82600		875.00000 
 43692.65567		 305.27265			43387.38302		66.22000		324.00000 
 43692.65567		 679.04668			43013.60900		215.82600		875.00000 
 43692.65567		 305.27265			43387.38302		66.22000		324.00000 
 43692.65567		 679.04668			43013.60900		215.82600		875.00000 
 43692.65567		 305.27265			43387.38302		66.22000		324.00000 
 43692.65567		 679.04668			43013.60900		215.82600		875.00000 
 43692.65567		 305.27265			43387.38302		66.22000		324.00000 
 43692.65567		 679.04668			43013.60900		215.82600		875.00000 
 43692.65567		 305.27265			43387.38302		66.22000		324.00000 
 43692.65567		 679.04668			43013.60900		215.82600		875.00000 
 43692.65567		 305.27265			43387.38302		66.22000		324.00000 
 43692.65567		 679.04668			43013.60900		215.82600		875.00000 
 43692.65567		 305.27265			43387.38302		66.22000		324.00000 
 43692.65567		 679.04668			43013.60900		215.82600		875.00000 
 43692.65567		 305.27265			43387.38302		66.22000		324.00000 
 43692.65567		 679.04668			43013.60900		215.82600		875.00000 
 43692.65567		 305.27265			43387.38302		66.22000		324.00000 
 43692.65567		 679.04668			43013.60900		215.82600		875.00000 
 43692.65567		 305.27265			43387.38302		66.22000		324.00000 
 43692.65567		 679.04668			43013.60900		215.82600		875.00000 
 43692.65567		 305.27265			43387.38302		66.22000		324.00000 
 43692.65567		 679.04668			43013.60900		215.82600		875.00000 
 43692.65567		 305.27265			43387.38302		66.22000		324.00000 
 43692.65567		 679.04668			43013.60900		215.82600		875.00000 
 43692.65567		 305.27265			43387.38302		66.22000		324.00000 
 43692.65567		 679.04668			43013.60900		215.82600		875.00000 
 43692.65567		 305.27265			43387.38302		66.22000		324.00000 
 43692.65567		 679.04668			43013.60900		215.82600		875.00000 
 43692.65567		 305.27265			43387.38302		66.22000		324.00000 
 43692.65567		 679.04668			43013.60900		215.82600		875.00000 
 43692.65567		 305.27265			43387.38302		66.22000		324.00000 
 43692.65567		 679.04668			43013.60900		215.82600		875.00000 
 43692.65567		 305.27265			43387.38302		66.22000		324.00000 
 43692.65567		 679.04668			43013.60900		215.82600		875.00000 
 43692.65567		 305.27265			43387.38302		66.22000		324.00000 
 43692.65567		 679.04668			43013.60900		215.82600		875.00000 
 43692.65567		 305.27265			43387.38302		66.22000		324.00000 
 43692.65567		 679.04668			43013.60900		215.82600		875.00000 
 43692.65567		 305.27265			43387.38302		66.22000		324.00000 
 43692.65567		 679.04668			43013.60900		215.82600		875.00000 
 43692.65567		 305.27265			43387.38302		66.22000		324.00000 
 43692.65567		 679.04668			43013.60900		215.82600		875.00000 
 43692.65567		 305.27265			43387.38302		66.22000		324.00000 
 43692.65567		 679.04668			43013.60900		215.82600		875.00000 
 43692.65567		 305.27265			43387.38302		66.22000		324.00000 
 43692.65567		 679.04668			43013.60900		215.82600		875.00000 
 43692.65567		 305.27265			43387.38302		66.22000		324.00000 
 43692.65567		 679.04668			43013.60900		215.82600		875.00000 
 43692.65567		 305.27265			43387.38302		66.22000		324.00000 
 43692.65567		 679.04668			43013.60900		215.82600		875.00000 
 43692.65567		 305.27265			43387.38302		66.22000		324.00000 
 43692.65567		 679.04668			43013.60900		215.82600		875.00000 
 43692.65567		 305.27265			43387.38302		66.22000		324.00000 
 43692.65567		 679.04668			43013.60900		215.82600		875.00000 
 43692.65567		 305.27265			43387.38302		66.22000		324.00000 
 43692.65567		 679.04668			43013.60900		215.82600		875.00000 
 43692.65567		 305.27265			43387.38302		66.22000		324.00000 
 43692.65567		 679.04668			43013.60900		215.82600		875.00000 
 43692.65567		 305.27265			43387.38302		66.22000		324.00000 
 43692.65567		 679.04668			43013.60900		215.82600		875.00000 
 43692.65567		 305.27265			43387.38302		66.22000		324.00000 
 43692.65567		 679.04668			43013.60900		215.82600		875.00000 
 43692.65567		 305.27265			43387.38302		66.22000		324.00000 
 43692.65567		 679.04668			43013.60900		215.82600		875.00000 
 43692.65567		 305.27265			43387.38302		66.22000		324.00000 
 43692.65567		 679.04668			43013.60900		215.82600		875.00000 
 43692.65567		 305.27265			43387.38302		66.22000		324.00000 
 43692.65567		 679.04668			43013.60900		215.82600		875.00000 
 43692.65567		 305.27265			43387.38302		66.22000		324.00000 
 43692.65567		 679.04668			43013.60900		215.82600		875.00000 
 43692.65567		 305.27265			43387.38302		66.22000		324.00000 
 43692.65567		 679.04668			43013.60900		215.82600		875.00000 
 43692.65567		 305.27265			43387.38302		66.22000		324.00000 
 43692.65567		 679.04668			43013.60900		215.82600		875.00000 
 43692.65567		 305.27265			43387.38302		66.22000		324.00000 
 43692.65567		 679.04668			43013.60900		215.82600		875.00000 
 43692.65567		 305.27265			43387.38302		66.22000		324.00000 
 43692.65567		 679.04668			43013.60900		215.82600		875.00000 
 43692.65567		 305.27265			43387.38302		66.22000		324.00000 
 43692.65567		 679.04668			43013.60900		215.82600		875.00000 
 43692.65567		 305.27265			43387.38302		66.22000		324.00000 
 43692.65567		 679.04668			43013.60900		215.82600		875.00000 
 43692.65567		 305.27265			43387.38302		66.22000		324.00000 
 43692.65567		 679.04668			43013.60900		215.82600		875.00000 
 43692.65567		 305.27265			43387.38302		66.22000		324.00000 
 43692.65567		 679.04668			43013.60900		215.82600		875.00000 
 43692.65567		 305.27265			43387.38302		66.22000		324.00000 
 43692.65567		 679.04668			43013.60900		215.82600		875.00000 
 43692.65567		 305.27265			43387.38302		66.22000		324.00000 
 43692.65567		 679.04668			43013.60900		215.82600		875.00000 
 43692.65567		 305.27265			43387.38302		66.22000		324.00000 
 43692.65567		 679.04668			43013.60900		215.82600		875.00000 
 43692.65567		 305.27265			43387.38302		66.22000		324.00000 
 43692.65567		 679.04668			43013.60900		215.82600		875.00000 
 43692.65567		 305.27265			43387.38302		66.22000		324.00000 
 43692.65567		 679.04668			43013.60900		215.82600		875.00000 
 43692.65567		 305.27265			43387.38302		66.22000		324.00000 
 43692.65567		 679.04668			43013.60900		215.82600		875.00000 
 43692.65567		 305.27265			43387.38302		66.22000		324.00000 
 43692.65567		 679.04668			43013.60900		215.82600		875.00000 
 43692.65567		 305.27265			43387.38302		66.22000		324.00000 
 43692.65567		 679.04668			43013.60900		215.82600		875.00000 
 43692.65567		 305.27265			43387.38302		66.22000		324.00000 
 43692.65567		 679.04668			43013.60900		215.82600		875.00000 
 43692.65567		 305.27265			43387.38302		66.22000		324.00000 
 43692.65567		 679.04668			43013.60900		217.16200		875.00000 
 43692.65567		 305.27265			43387.38302		66.22000		324.00000 
 43692.65567		 679.04668			43013.60900		217.16200		875.00000 
 43692.65567		 305.27265			43387.38302		66.22000		324.00000 
 43692.65567		 679.04668			43013.60900		217.16200		875.00000 
 43692.65567		 305.27265			43387.38302		66.22000		324.00000 
 43692.65567		 679.04668			43013.60900		217.16200		875.00000 
 43692.65567		 305.27265			43387.38302		66.22000		324.00000 
 43692.65567		 679.04668			43013.60900		217.16200		875.00000 
 43692.65567		 305.27265			43387.38302		66.22000		324.00000 
 43692.65567		 679.04668			43013.60900		217.16200		875.00000 
 43692.65567		 305.27265			43387.38302		66.22000		324.00000 
 43692.65567		 679.04668			43013.60900		217.16200		875.00000 
 43692.65567		 305.27265			43387.38302		66.22000		324.00000 
 43692.65567		 679.04668			43013.60900		217.16200		875.00000 
 43692.65567		 305.27265			43387.38302		66.22000		324.00000 
 43692.65567		 679.04668			43013.60900		217.16200		875.00000 
 43692.65567		 305.27265			43387.38302		66.22000		324.00000 
 43692.65567		 679.04668			43013.60900		217.16200		875.00000 
 43692.65567		 305.27265			43387.38302		66.22000		324.00000 
 43692.65567		 679.04668			43013.60900		217.16200		875.00000 
 43692.65567		 305.27265			43387.38302		66.22000		324.00000 
 43692.65567		 679.04668			43013.60900		217.16200		875.00000 
 43692.65567		 305.27265			43387.38302		66.22000		324.00000 
 43692.65567		 679.04668			43013.60900		217.16200		875.00000 
 43692.65567		 305.27265			43387.38302		66.22000		324.00000 
 43692.65567		 679.04668			43013.60900		217.16200		875.00000 
 43692.65567		 305.27265			43387.38302		66.22000		324.00000 
 43692.65567		 679.04668			43013.60900		217.16200		875.00000 
 43692.65567		 305.27265			43387.38302		66.22000		324.00000 
 43692.65567		 679.04668			43013.60900		217.16200		875.00000 
 43692.65567		 305.27265			43387.38302		66.22000		324.00000 
 43692.65567		 679.04668			43013.60900		217.16200		875.00000 
 43692.65567		 305.27265			43387.38302		66.22000		324.00000 
 43692.65567		 679.04668			43013.60900		217.16200		875.00000 
 43692.65567		 305.27265			43387.38302		66.22000		324.00000 
 43692.65567		 679.04668			43013.60900		217.16200		875.00000 
 43692.65567		 305.27265			43387.38302		66.22000		324.00000 
 43692.65567		 679.04668			43013.60900		217.16200		875.00000 
 43692.65567		 305.27265			43387.38302		66.22000		324.00000 
 43692.65567		 679.04668			43013.60900		217.16200		875.00000 
 43692.65567		 305.27265			43387.38302		66.22000		324.00000 
 43692.65567		 679.04668			43013.60900		217.16200		875.00000 
 43692.65567		 305.27265			43387.38302		66.22000		324.00000 
 43692.65567		 679.04668			43013.60900		217.16200		875.00000 
 43692.65567		 305.27265			43387.38302		66.22000		324.00000 
 43692.65567		 679.04668			43013.60900		217.16200		875.00000 
 43692.65567		 305.27265			43387.38302		66.22000		324.00000 
 43692.65567		 679.04668			43013.60900		217.16200		875.00000 
 43692.65567		 305.27265			43387.38302		66.22000		324.00000 
 43692.65567		 679.04668			43013.60900		217.16200		875.00000 
 43692.65567		 305.27265			43387.38302		66.22000		324.00000 
 43692.65567		 679.04668			43013.60900		217.16200		875.00000 
 43692.65567		 305.27265			43387.38302		66.22000		324.00000 
 43692.65567		 679.04668			43013.60900		217.16200		875.00000 
 43692.65567		 305.27265			43387.38302		66.22000		324.00000 
 43692.65567		 679.04668			43013.60900		217.16200		875.00000 
 43692.65567		 305.27265			43387.38302		66.22000		324.00000 
 43692.65567		 679.04668			43013.60900		217.16200		875.00000 
 43692.65567		 305.27265			43387.38302		66.22000		324.00000 
 43692.65567		 679.04668			43013.60900		217.16200		875.00000 
 43692.65567		 305.27265			43387.38302		66.22000		324.00000 
 43692.65567		 679.04668			43013.60900		217.16200		875.00000 
 43692.65567		 305.27265			43387.38302		66.22000		324.00000 
 43692.65567		 679.04668			43013.60900		217.16200		875.00000 
 43692.65567		 305.27265			43387.38302		66.22000		324.00000 
 43692.65567		 679.04668			43013.60900		217.16200		875.00000 
 43692.65567		 305.27265			43387.38302		66.22000		324.00000 
 43692.65567		 679.04668			43013.60900		217.16200		875.00000 
 43692.65567		 305.27265			43387.38302		66.22000		324.00000 
 43692.65567		 679.04668			43013.60900		217.16200		875.00000 
 43692.65567		 305.27265			43387.38302		66.22000		324.00000 
 43692.65567		 679.04668			43013.60900		217.16200		875.00000 
 43692.65567		 305.27265			43387.38302		66.22000		324.00000 
 43692.65567		 679.04668			43013.60900		217.16200		875.00000 
 43692.65567		 305.27265			43387.38302		66.22000		324.00000 
 43692.65567		 679.04668			43013.60900		217.16200		875.00000 
 43692.65567		 305.27265			43387.38302		66.22000		324.00000 
 43692.65567		 679.04668			43013.60900		217.16200		875.00000 
 43692.65567		 305.27265			43387.38302		66.22000		324.00000 
 43692.65567		 679.04668			43013.60900		217.16200		875.00000 
 43692.65567		 305.27265			43387.38302		66.22000		324.00000 
 43692.65567		 679.04668			43013.60900		217.16200		875.00000 
 43692.65567		 305.27265			43387.38302		66.22000		324.00000 
 43692.65567		 679.04668			43013.60900		217.16200		875.00000 
 43692.65567		 305.27265			43387.38302		66.22000		324.00000 
 43692.65567		 679.04668			43013.60900		217.16200		875.00000 
 43692.65567		 305.27265			43387.38302		66.22000		324.00000 
 43692.65567		 679.04668			43013.60900		217.16200		875.00000 
 43692.65567		 305.27265			43387.38302		66.22000		324.00000 
 43692.65567		 679.04668			43013.60900		217.16200		875.00000 
 43692.65567		 305.27265			43387.38302		66.22000		324.00000 
 43692.65567		 679.04668			43013.60900		217.16200		875.00000 
 43692.65567		 305.27265			43387.38302		66.22000		324.00000 
 43692.65567		 679.04668			43013.60900		217.16200		875.00000 
 43692.65567		 305.27265			43387.38302		66.22000		324.00000 
 43692.65567		 679.04668			43013.60900		217.16200		875.00000 
 43692.65567		 305.27265			43387.38302		66.22000		324.00000 
 43692.65567		 679.04668			43013.60900		217.16200		875.00000 
 43692.65567		 305.27265			43387.38302		66.22000		324.00000 
 43692.65567		 679.04668			43013.60900		217.16200		875.00000 
 43692.65567		 305.27265			43387.38302		66.22000		324.00000 
 43692.65567		 679.04668			43013.60900		217.16200		875.00000 
 43692.65567		 305.27265			43387.38302		66.22000		324.00000 
 43692.65567		 679.04668			43013.60900		217.16200		875.00000 
 43692.65567		 305.27265			43387.38302		66.22000		324.00000 
 43692.65567		 679.04668			43013.60900		217.16200		875.00000 
 43692.65567		 305.27265			43387.38302		66.22000		324.00000 
 43692.65567		 679.04668			43013.60900		217.16200		875.00000 
 43692.65567		 305.27265			43387.38302		66.22000		324.00000 
 43692.65567		 679.04668			43013.60900		217.16200		875.00000 
 43692.65567		 305.27265			43387.38302		66.22000		324.00000 
 43692.65567		 679.04668			43013.60900		217.16200		875.00000 
 43692.65567		 305.27265			43387.38302		66.22000		324.00000 
 43692.65567		 679.04668			43013.60900		217.16200		875.00000 
 43692.65567		 305.27265			43387.38302		66.22000		324.00000 
 43692.65567		 679.04668			43013.60900		217.16200		875.00000 
 43692.65567		 305.27265			43387.38302		66.22000		324.00000 
 43692.65567		 679.04668			43013.60900		217.16200		875.00000 
 43692.65567		 305.27265			43387.38302		66.22000		324.00000 
 43692.65567		 679.04668			43013.60900		217.16200		875.00000 
 43692.65567		 305.27265			43387.38302		66.22000		324.00000 
 43692.65567		 679.04668			43013.60900		217.16200		875.00000 
 43692.65567		 305.27265			43387.38302		66.22000		324.00000 
 43692.65567		 679.04668			43013.60900		217.16200		875.00000 
 43692.65567		 305.27265			43387.38302		66.22000		324.00000 
 43692.65567		 679.04668			43013.60900		217.16200		875.00000 
 43692.65567		 305.27265			43387.38302		66.22000		324.00000 
 43692.65567		 679.04668			43013.60900		217.16200		875.00000 
 43692.65567		 305.27265			43387.38302		66.22000		324.00000 
 43692.65567		 679.04668			43013.60900		217.33600		875.00000 
 43692.65567		 305.27265			43387.38302		66.22000		324.00000 
 43692.65567		 679.04668			43013.60900		217.33600		875.00000 
 43692.65567		 305.27265			43387.38302		66.22000		324.00000 
 43692.65567		 679.04668			43013.60900		217.33600		875.00000 
 43692.65567		 305.27265			43387.38302		66.22000		324.00000 
 43692.65567		 679.04668			43013.60900		217.33600		875.00000 
 43692.65567		 305.27265			43387.38302		66.22000		324.00000 
 43692.65567		 679.04668			43013.60900		217.33600		875.00000 
 43692.65567		 305.27265			43387.38302		66.22000		324.00000 
 43692.65567		 679.04668			43013.60900		217.33600		875.00000 
 43692.65567		 305.27265			43387.38302		66.22000		324.00000 
 43692.65567		 679.04668			43013.60900		217.33600		875.00000 
 43692.65567		 305.27265			43387.38302		66.22000		324.00000 
 43692.65567		 679.04668			43013.60900		217.33600		875.00000 
 43692.65567		 305.27265			43387.38302		66.22000		324.00000 
 43692.65567		 679.04668			43013.60900		217.33600		875.00000 
 43692.65567		 305.27265			43387.38302		66.22000		324.00000 
 43692.65567		 679.04668			43013.60900		217.33600		875.00000 
 43692.65567		 305.27265			43387.38302		66.22000		324.00000 
 43692.65567		 679.04668			43013.60900		217.33600		875.00000 
 43692.65567		 305.27265			43387.38302		66.22000		324.00000 
 43692.65567		 679.04668			43013.60900		217.33600		875.00000 
 43692.65567		 305.27265			43387.38302		66.22000		324.00000 
 43692.65567		 679.04668			43013.60900		217.33600		875.00000 
 43692.65567		 305.27265			43387.38302		66.22000		324.00000 
 43692.65567		 679.04668			43013.60900		217.33600		875.00000 
 43692.65567		 305.27265			43387.38302		66.22000		324.00000 
 43692.65567		 679.04668			43013.60900		217.33600		875.00000 
 43692.65567		 305.27265			43387.38302		66.22000		324.00000 
 43692.65567		 679.04668			43013.60900		217.33600		875.00000 
 43692.65567		 305.27265			43387.38302		66.22000		324.00000 
 43692.65567		 679.04668			43013.60900		217.33600		875.00000 
 43692.65567		 305.27265			43387.38302		66.22000		324.00000 
 43692.65567		 679.04668			43013.60900		217.33600		875.00000 
 43692.65567		 305.27265			43387.38302		66.22000		324.00000 
 43692.65567		 679.04668			43013.60900		217.33600		875.00000 
 43692.65567		 305.27265			43387.38302		66.22000		324.00000 
 43692.65567		 679.04668			43013.60900		217.33600		875.00000 
 43692.65567		 305.27265			43387.38302		66.22000		324.00000 
 43692.65567		 679.04668			43013.60900		217.33600		875.00000 
 43692.65567		 305.27265			43387.38302		66.22000		324.00000 
 43692.65567		 679.04668			43013.60900		217.33600		875.00000 
 43692.65567		 305.27265			43387.38302		66.22000		324.00000 
 43692.65567		 679.04668			43013.60900		217.33600		875.00000 
 43692.65567		 305.27265			43387.38302		66.22000		324.00000 
 43692.65567		 679.04668			43013.60900		217.33600		875.00000 
 43692.65567		 305.27265			43387.38302		66.22000		324.00000 
 43692.65567		 679.04668			43013.60900		217.33600		875.00000 
 43692.65567		 305.27265			43387.38302		66.22000		324.00000 
 43692.65567		 679.04668			43013.60900		217.33600		875.00000 
 43692.65567		 305.27265			43387.38302		66.22000		324.00000 
 43692.65567		 679.04668			43013.60900		217.33600		875.00000 
 43692.65567		 305.27265			43387.38302		66.22000		324.00000 
 43692.65567		 679.04668			43013.60900		217.33600		875.00000 
 43692.65567		 305.27265			43387.38302		66.22000		324.00000 
 43692.65567		 679.04668			43013.60900		217.33600		875.00000 
 43692.65567		 305.27265			43387.38302		66.22000		324.00000 
 43692.65567		 679.04668			43013.60900		217.33600		875.00000 
 43692.65567		 305.27265			43387.38302		66.22000		324.00000 
 43692.65567		 679.04668			43013.60900		217.33600		875.00000 
 43692.65567		 305.27265			43387.38302		66.22000		324.00000 
 43692.65567		 679.04668			43013.60900		217.33600		875.00000 
 43692.65567		 305.27265			43387.38302		66.22000		324.00000 
 43692.65567		 679.04668			43013.60900		217.33600		875.00000 
 43692.65567		 305.27265			43387.38302		66.22000		324.00000 
 43692.65567		 679.04668			43013.60900		217.33600		875.00000 
 43692.65567		 305.27265			43387.38302		66.22000		324.00000 
 43692.65567		 679.04668			43013.60900		217.33600		875.00000 
 43692.65567		 305.27265			43387.38302		66.22000		324.00000 
 43692.65567		 679.04668			43013.60900		217.33600		875.00000 
 43692.65567		 305.27265			43387.38302		66.22000		324.00000 
 43692.65567		 679.04668			43013.60900		217.33600		875.00000 
 43692.65567		 305.27265			43387.38302		66.22000		324.00000 
 43692.65567		 679.04668			43013.60900		217.33600		875.00000 
 43692.65567		 305.27265			43387.38302		66.22000		324.00000 
 43692.65567		 679.04668			43013.60900		217.33600		875.00000 
 43692.65567		 305.27265			43387.38302		66.22000		324.00000 
 43692.65567		 679.04668			43013.60900		217.33600		875.00000 
 43692.65567		 305.27265			43387.38302		66.22000		324.00000 
 43692.65567		 679.04668			43013.60900		217.33600		875.00000 
 43692.65567		 305.27265			43387.38302		66.22000		324.00000 
 43692.65567		 679.04668			43013.60900		217.33600		875.00000 
 43692.65567		 305.27265			43387.38302		66.22000		324.00000 
 43692.65567		 679.04668			43013.60900		217.33600		875.00000 
 43692.65567		 305.27265			43387.38302		66.22000		324.00000 
 43692.65567		 679.04668			43013.60900		217.33600		875.00000 
 43692.65567		 305.27265			43387.38302		66.22000		324.00000 
 43692.65567		 679.04668			43013.60900		217.33600		875.00000 
 43692.65567		 305.27265			43387.38302		66.22000		324.00000 
 43692.65567		 679.04668			43013.60900		217.33600		875.00000 
 43692.65567		 305.27265			43387.38302		66.22000		324.00000 
 43692.65567		 679.04668			43013.60900		217.33600		875.00000 
 43692.65567		 305.27265			43387.38302		66.22000		324.00000 
 43692.65567		 679.04668			43013.60900		217.33600		875.00000 
 43692.65567		 305.27265			43387.38302		66.22000		324.00000 
 43692.65567		 679.04668			43013.60900		217.33600		875.00000 
 43692.65567		 305.27265			43387.38302		66.22000		324.00000 
 43692.65567		 679.04668			43013.60900		217.33600		875.00000 
 43692.65567		 305.27265			43387.38302		66.22000		324.00000 
 43692.65567		 679.04668			43013.60900		217.33600		875.00000 
 43692.65567		 305.27265			43387.38302		66.22000		324.00000 
 43692.65567		 679.04668			43013.60900		217.33600		875.00000 
 43692.65567		 305.27265			43387.38302		66.22000		324.00000 
 43692.65567		 679.04668			43013.60900		217.33600		875.00000 
 43692.65567		 305.27265			43387.38302		66.22000		324.00000 
 43692.65567		 679.04668			43013.60900		217.33600		875.00000 
 43692.65567		 305.27265			43387.38302		66.22000		324.00000 
 43692.65567		 679.04668			43013.60900		217.33600		875.00000 
 43692.65567		 305.27265			43387.38302		66.22000		324.00000 
 43692.65567		 679.04668			43013.60900		217.33600		875.00000 
 43692.65567		 305.27265			43387.38302		66.22000		324.00000 
 43692.65567		 679.04668			43013.60900		217.33600		875.00000 
 43692.65567		 305.27265			43387.38302		66.22000		324.00000 
 43692.65567		 679.04668			43013.60900		217.33600		875.00000 
 43692.65567		 305.27265			43387.38302		66.22000		324.00000 
 43692.65567		 679.04668			43013.60900		217.33600		875.00000 
 43692.65567		 305.27265			43387.38302		66.22000		324.00000 
 43692.65567		 679.04668			43013.60900		217.33600		875.00000 
 43692.65567		 305.27265			43387.38302		66.22000		324.00000 
 43692.65567		 679.04668			43013.60900		217.33600		875.00000 
 43692.65567		 305.27265			43387.38302		66.22000		324.00000 
 43692.65567		 679.04668			43013.60900		217.33600		875.00000 
 43692.65567		 305.27265			43387.38302		66.22000		324.00000 
 43692.65567		 679.04668			43013.60900		216.90200		875.00000 
 43692.65567		 305.27265			43387.38302		66.22000		324.00000 
 43692.65567		 679.04668			43013.60900		216.90200		875.00000 
 43692.65567		 305.27265			43387.38302		66.22000		324.00000 
 43692.65567		 679.04668			43013.60900		216.90200		875.00000 
 43692.65567		 305.27265			43387.38302		66.22000		324.00000 
 43692.65567		 679.04668			43013.60900		216.90200		875.00000 
 43692.65567		 305.27265			43387.38302		66.22000		324.00000 
 43692.65567		 679.04668			43013.60900		216.90200		875.00000 
 43692.65567		 305.27265			43387.38302		66.22000		324.00000 
 43692.65567		 679.04668			43013.60900		216.90200		875.00000 
 43692.65567		 305.27265			43387.38302		66.22000		324.00000 
 43692.65567		 679.04668			43013.60900		216.90200		875.00000 
 43692.65567		 305.27265			43387.38302		66.22000		324.00000 
 43692.65567		 679.04668			43013.60900		216.90200		875.00000 
 43692.65567		 305.27265			43387.38302		66.22000		324.00000 
 43692.65567		 679.04668			43013.60900		216.90200		875.00000 
 43692.65567		 305.27265			43387.38302		66.22000		324.00000 
 43692.65567		 679.04668			43013.60900		216.90200		875.00000 
 43692.65567		 305.27265			43387.38302		66.22000		324.00000 
 43692.65567		 679.04668			43013.60900		216.90200		875.00000 
 43692.65567		 305.27265			43387.38302		66.22000		324.00000 
 43692.65567		 679.04668			43013.60900		216.90200		875.00000 
 43692.65567		 305.27265			43387.38302		66.22000		324.00000 
 43692.65567		 679.04668			43013.60900		216.90200		875.00000 
 43692.65567		 305.27265			43387.38302		66.22000		324.00000 
 43692.65567		 679.04668			43013.60900		216.90200		875.00000 
 43692.65567		 305.27265			43387.38302		66.22000		324.00000 
 43692.65567		 679.04668			43013.60900		216.90200		875.00000 
 43692.65567		 305.27265			43387.38302		66.22000		324.00000 
 43692.65567		 679.04668			43013.60900		216.90200		875.00000 
 43692.65567		 305.27265			43387.38302		66.22000		324.00000 
 43692.65567		 679.04668			43013.60900		216.90200		875.00000 
 43692.65567		 305.27265			43387.38302		66.22000		324.00000 
 43692.65567		 679.04668			43013.60900		216.90200		875.00000 
 43692.65567		 305.27265			43387.38302		66.22000		324.00000 
 43692.65567		 679.04668			43013.60900		216.90200		875.00000 
 43692.65567		 305.27265			43387.38302		66.22000		324.00000 
 43692.65567		 679.04668			43013.60900		216.90200		875.00000 
 43692.65567		 305.27265			43387.38302		66.22000		324.00000 
 43692.65567		 679.04668			43013.60900		216.90200		875.00000 
 43692.65567		 305.27265			43387.38302		66.22000		324.00000 
 43692.65567		 679.04668			43013.60900		216.90200		875.00000 
 43692.65567		 305.27265			43387.38302		66.22000		324.00000 
 43692.65567		 679.04668			43013.60900		216.90200		875.00000 
 43692.65567		 305.27265			43387.38302		66.22000		324.00000 
 43692.65567		 679.04668			43013.60900		216.90200		875.00000 
 43692.65567		 305.27265			43387.38302		66.22000		324.00000 
 43692.65567		 679.04668			43013.60900		216.90200		875.00000 
 43692.65567		 305.27265			43387.38302		66.22000		324.00000 
 43692.65567		 679.04668			43013.60900		216.90200		875.00000 
 43692.65567		 305.27265			43387.38302		66.22000		324.00000 
 43692.65567		 679.04668			43013.60900		216.90200		875.00000 
 43692.65567		 305.27265			43387.38302		66.22000		324.00000 
 43692.65567		 679.04668			43013.60900		216.90200		875.00000 
 43692.65567		 305.27265			43387.38302		66.22000		324.00000 
 43692.65567		 679.04668			43013.60900		216.90200		875.00000 
 43692.65567		 305.27265			43387.38302		66.22000		324.00000 
 43692.65567		 679.04668			43013.60900		216.90200		875.00000 
 43692.65567		 305.27265			43387.38302		66.22000		324.00000 
 43692.65567		 679.04668			43013.60900		216.90200		875.00000 
 43692.65567		 305.27265			43387.38302		66.22000		324.00000 
 43692.65567		 679.04668			43013.60900		216.90200		875.00000 
 43692.65567		 305.27265			43387.38302		66.22000		324.00000 
 43692.65567		 679.04668			43013.60900		216.90200		875.00000 
 43692.65567		 305.27265			43387.38302		66.22000		324.00000 
 43692.65567		 679.04668			43013.60900		216.90200		875.00000 
 43692.65567		 305.27265			43387.38302		66.22000		324.00000 
 43692.65567		 679.04668			43013.60900		216.90200		875.00000 
 43692.65567		 305.27265			43387.38302		66.22000		324.00000 
 43692.65567		 679.04668			43013.60900		216.90200		875.00000 
 43692.65567		 305.27265			43387.38302		66.22000		324.00000 
 43692.65567		 679.04668			43013.60900		216.90200		875.00000 
 43692.65567		 305.27265			43387.38302		66.22000		324.00000 
 43692.65567		 679.04668			43013.60900		216.90200		875.00000 
 43692.65567		 305.27265			43387.38302		66.22000		324.00000 
 43692.65567		 679.04668			43013.60900		216.90200		875.00000 
 43692.65567		 305.27265			43387.38302		66.22000		324.00000 
 43692.65567		 679.04668			43013.60900		216.90200		875.00000 
 43692.65567		 305.27265			43387.38302		66.22000		324.00000 
 43692.65567		 679.04668			43013.60900		216.90200		875.00000 
 43692.65567		 305.27265			43387.38302		66.22000		324.00000 
 43692.65567		 679.04668			43013.60900		216.90200		875.00000 
 43692.65567		 305.27265			43387.38302		66.22000		324.00000 
 43692.65567		 679.04668			43013.60900		216.90200		875.00000 
 43692.65567		 305.27265			43387.38302		66.22000		324.00000 
 43692.65567		 679.04668			43013.60900		216.90200		875.00000 
 43692.65567		 305.27265			43387.38302		66.22000		324.00000 
 43692.65567		 679.04668			43013.60900		216.90200		875.00000 
 43692.65567		 305.27265			43387.38302		66.22000		324.00000 
 43692.65567		 679.04668			43013.60900		216.90200		875.00000 
 43692.65567		 305.27265			43387.38302		66.22000		324.00000 
 43692.65567		 679.04668			43013.60900		216.90200		875.00000 
 43692.65567		 305.27265			43387.38302		66.22000		324.00000 
 43692.65567		 679.04668			43013.60900		216.90200		875.00000 
 43692.65567		 305.27265			43387.38302		66.22000		324.00000 
 43692.65567		 679.04668			43013.60900		216.90200		875.00000 
 43692.65567		 305.27265			43387.38302		66.22000		324.00000 
 43692.65567		 679.04668			43013.60900		216.90200		875.00000 
 43692.65567		 305.27265			43387.38302		66.22000		324.00000 
 43692.65567		 679.04668			43013.60900		216.90200		875.00000 
 43692.65567		 305.27265			43387.38302		66.22000		324.00000 
 43692.65567		 679.04668			43013.60900		216.90200		875.00000 
 43692.65567		 305.27265			43387.38302		66.22000		324.00000 
 43692.65567		 679.04668			43013.60900		216.90200		875.00000 
 43692.65567		 305.27265			43387.38302		66.22000		324.00000 
 43692.65567		 679.04668			43013.60900		216.90200		875.00000 
 43692.65567		 305.27265			43387.38302		66.22000		324.00000 
 43692.65567		 679.04668			43013.60900		216.90200		875.00000 
 43692.65567		 305.27265			43387.38302		66.22000		324.00000 
 43692.65567		 679.04668			43013.60900		216.90200		875.00000 
 43692.65567		 305.27265			43387.38302		66.22000		324.00000 
 43692.65567		 679.04668			43013.60900		216.90200		875.00000 
 43692.65567		 305.27265			43387.38302		66.22000		324.00000 
 43692.65567		 679.04668			43013.60900		216.90200		875.00000 
 43692.65567		 305.27265			43387.38302		66.22000		324.00000 
 43692.65567		 679.04668			43013.60900		216.90200		875.00000 
 43692.65567		 305.27265			43387.38302		66.22000		324.00000 
 43692.65567		 679.04668			43013.60900		216.90200		875.00000 
 43692.65567		 305.27265			43387.38302		66.22000		324.00000 
 43692.65567		 679.04668			43013.60900		216.90200		875.00000 
 43692.65567		 305.27265			43387.38302		66.22000		324.00000 
 43692.65567		 679.04668			43013.60900		216.90200		875.00000 
 43692.65567		 305.27265			43387.38302		66.22000		324.00000 
 43692.65567		 679.04668			43013.60900		216.90200		875.00000 
 43692.65567		 305.27265			43387.38302		66.22000		324.00000 
 43692.65567		 679.04668			43013.60900		216.90200		875.00000 
 43692.65567		 305.27265			43387.38302		66.22000		324.00000 
 43692.65567		 679.04668			43013.60900		216.90200		875.00000 
 43692.65567		 305.27265			43387.38302		66.22000		324.00000 
 43692.65567		 679.04668			43013.60900		216.90200		875.00000 
 43692.65567		 305.27265			43387.38302		66.22000		324.00000 
 43692.65567		 679.04668			43013.60900		216.90200		875.00000 
 43692.65567		 305.27265			43387.38302		66.22000		324.00000 
 43692.65567		 679.04668			43013.60900		216.90200		875.00000 
 43692.65567		 305.27265			43387.38302		66.22000		324.00000 
 43692.65567		 679.04668			43013.60900		216.90200		875.00000 
 43692.65567		 305.27265			43387.38302		66.22000		324.00000 
 43692.65567		 679.04668			43013.60900		216.90200		875.00000 
 43692.65567		 305.27265			43387.38302		66.22000		324.00000 
 43692.65567		 679.04668			43013.60900		216.90200		875.00000 
 43692.65567		 305.27265			43387.38302		66.22000		324.00000 
 43692.65567		 679.04668			43013.60900		216.90200		875.00000 
 43692.65567		 305.27265			43387.38302		66.22000		324.00000 
 43692.65567		 679.04668			43013.60900		216.90200		875.00000 
 43692.65567		 305.27265			43387.38302		66.22000		324.00000 
 43692.65567		 679.04668			43013.60900		216.90200		875.00000 
 43692.65567		 305.27265			43387.38302		66.22000		324.00000 
 43692.65567		 679.04668			43013.60900		216.90200		875.00000 
 43692.65567		 305.27265			43387.38302		66.22000		324.00000 
 43692.65567		 679.04668			43013.60900		216.90200		875.00000 
 43692.65567		 305.27265			43387.38302		66.22000		324.00000 
 43692.65567		 679.04668			43013.60900		216.90200		875.00000 
 43692.65567		 305.27265			43387.38302		66.22000		324.00000 
 43692.65567		 679.04668			43013.60900		216.90200		875.00000 
 43692.65567		 305.27265			43387.38302		66.22000		324.00000 
 43692.65567		 679.04668			43013.60900		216.90200		875.00000 
 43692.65567		 305.27265			43387.38302		66.22000		324.00000 
 43692.65567		 679.04668			43013.60900		216.90200		875.00000 
 43692.65567		 305.27265			43387.38302		66.22000		324.00000 
 43692.65567		 679.04668			43013.60900		216.90200		875.00000 
 43692.65567		 305.27265			43387.38302		66.22000		324.00000 
 43692.65567		 679.04668			43013.60900		216.90200		875.00000 
 43692.65567		 305.27265			43387.38302		66.22000		324.00000 
 43692.65567		 679.04668			43013.60900		216.90200		875.00000 
 43692.65567		 305.27265			43387.38302		66.22000		324.00000 
 43692.65567		 679.04668			43013.60900		216.90200		875.00000 
 43692.65567		 305.27265			43387.38302		66.22000		324.00000 
 43692.65567		 679.04668			43013.60900		216.90200		875.00000 
 43692.65567		 305.27265			43387.38302		66.22000		324.00000 
 43692.65567		 679.04668			43013.60900		216.90200		875.00000 
 43692.65567		 305.27265			43387.38302		66.22000		324.00000 
 43692.65567		 679.04668			43013.60900		216.90200		875.00000 
 43692.65567		 305.27265			43387.38302		66.22000		324.00000 
 43692.65567		 679.04668			43013.60900		216.90200		875.00000 
 43692.65567		 305.27265			43387.38302		66.22000		324.00000 
 43692.65567		 679.04668			43013.60900		216.90200		875.00000 
 43692.65567		 305.27265			43387.38302		66.22000		324.00000 
 43692.65567		 679.04668			43013.60900		216.90200		875.00000 
 43692.65567		 305.27265			43387.38302		66.22000		324.00000 
 43692.65567		 679.04668			43013.60900		216.90200		875.00000 
 43692.65567		 305.27265			43387.38302		66.22000		324.00000 
 43692.65567		 679.04668			43013.60900		216.90200		875.00000 
 43692.65567		 305.27265			43387.38302		66.22000		324.00000 
 43692.65567		 679.04668			43013.60900		216.90200		875.00000 
 43692.65567		 305.27265			43387.38302		66.22000		324.00000 
 43692.65567		 679.04668			43013.60900		216.90200		875.00000 
 43692.65567		 305.27265			43387.38302		66.22000		324.00000 
 43692.65567		 679.04668			43013.60900		216.90200		875.00000 
 43692.65567		 305.27265			43387.38302		66.22000		324.00000 
 43692.65567		 679.04668			43013.60900		216.90200		875.00000 
 43692.65567		 305.27265			43387.38302		66.22000		324.00000 
 43692.65567		 679.04668			43013.60900		216.90200		875.00000 
 43692.65567		 305.27265			43387.38302		66.22000		324.00000 
 43692.65567		 679.04668			43013.60900		216.90200		875.00000 
 43692.65567		 305.27265			43387.38302		66.22000		324.00000 
 43692.65567		 679.04668			43013.60900		216.90200		875.00000 
 43692.65567		 305.27265			43387.38302		66.22000		324.00000 
 43692.65567		 679.04668			43013.60900		216.90200		875.00000 
 43692.65567		 305.27265			43387.38302		66.22000		324.00000 
 43692.65567		 679.04668			43013.60900		216.90200		875.00000 
 43692.65567		 305.27265			43387.38302		66.22000		324.00000 
 43692.65567		 679.04668			43013.60900		216.90200		875.00000 
 43692.65567		 305.27265			43387.38302		66.22000		324.00000 
 43692.65567		 679.04668			43013.60900		216.90200		875.00000 
 43692.65567		 305.27265			43387.38302		66.22000		324.00000 
 43692.65567		 679.04668			43013.60900		216.90200		875.00000 
 43692.65567		 305.27265			43387.38302		66.22000		324.00000 
 43692.65567		 679.04668			43013.60900		216.90200		875.00000 
 43692.65567		 305.27265			43387.38302		66.22000		324.00000 
 43692.65567		 679.04668			43013.60900		216.90200		875.00000 
 43692.65567		 305.27265			43387.38302		66.22000		324.00000 
 43692.65567		 679.04668			43013.60900		216.90200		875.00000 
 43692.65567		 305.27265			43387.38302		66.22000		324.00000 
 43692.65567		 679.04668			43013.60900		216.90200		875.00000 
 43692.65567		 305.27265			43387.38302		66.22000		324.00000 
 43692.65567		 679.04668			43013.60900		216.90200		875.00000 
 43692.65567		 305.27265			43387.38302		66.22000		324.00000 
 43692.65567		 679.04668			43013.60900		216.90200		875.00000 
 43692.65567		 305.27265			43387.38302		66.22000		324.00000 
 43692.65567		 679.04668			43013.60900		216.90200		875.00000 
 43692.65567		 305.27265			43387.38302		66.22000		324.00000 
 43692.65567		 679.04668			43013.60900		216.90200		875.00000 
 43692.65567		 305.27265			43387.38302		66.22000		324.00000 
 43692.65567		 679.04668			43013.60900		216.90200		875.00000 
 43692.65567		 305.27265			43387.38302		66.22000		324.00000 
 43692.65567		 679.04668			43013.60900		216.90200		875.00000 
 43692.65567		 305.27265			43387.38302		66.22000		324.00000 
 43692.65567		 679.04668			43013.60900		216.90200		875.00000 
 43692.65567		 305.27265			43387.38302		66.22000		324.00000 
 43692.65567		 679.04668			43013.60900		216.90200		875.00000 
 43692.65567		 305.27265			43387.38302		66.22000		324.00000 
 43692.65567		 679.04668			43013.60900		216.90200		875.00000 
 43692.65567		 305.27265			43387.38302		66.22000		324.00000 
 43692.65567		 679.04668			43013.60900		216.90200		875.00000 
 43692.65567		 305.27265			43387.38302		66.22000		324.00000 
 43692.65567		 679.04668			43013.60900		216.90200		875.00000 
 43692.65567		 305.27265			43387.38302		66.22000		324.00000 
 43692.65567		 631.78789			43060.86778		216.90200		875.00000 
 43692.65567		 305.27265			43387.38302		66.22000		324.00000 
 43692.65567		 584.52911			43108.12657		216.90200		875.00000 
 43692.65567		 305.27265			43387.38302		66.22000		324.00000 
 43692.65567		 537.27032			43155.38535		216.90200		875.00000 
 43692.65567		 305.27265			43387.38302		66.22000		324.00000 
 43692.65567		 537.27032			43155.38535		216.90200		875.00000 
 43692.65567		 305.27265			43387.38302		66.22000		324.00000 
 43692.65567		 537.27032			43155.38535		216.90200		875.00000 
 43692.65567		 305.27265			43387.38302		66.22000		324.00000 
 43692.65567		 537.27032			43155.38535		216.90200		875.00000 
 43692.65567		 305.27265			43387.38302		66.22000		324.00000 
 43692.65567		 537.27032			43155.38535		216.90200		875.00000 
 43692.65567		 305.27265			43387.38302		66.22000		324.00000 
 43692.65567		 537.27032			43155.38535		206.38400		875.00000 
 43692.65567		 305.27265			43387.38302		66.22000		324.00000 
 43692.65567		 537.27032			43155.38535		206.38400		875.00000 
 43692.65567		 305.27265			43387.38302		66.22000		324.00000 
 43692.65567		 537.27032			43155.38535		206.38400		875.00000 
 43692.65567		 305.27265			43387.38302		66.22000		324.00000 
 43692.65567		 537.27032			43155.38535		206.38400		875.00000 
 43692.65567		 305.27265			43387.38302		66.22000		324.00000 
 43692.65567		 537.27032			43155.38535		206.38400		875.00000 
 43692.65567		 305.27265			43387.38302		66.22000		324.00000 
 43692.65567		 537.27032			43155.38535		206.38400		875.00000 
 43692.65567		 305.27265			43387.38302		66.22000		324.00000 
 43692.65567		 537.27032			43155.38535		206.38400		875.00000 
 43692.65567		 305.27265			43387.38302		66.22000		324.00000 
 43692.65567		 537.27032			43155.38535		206.38400		875.00000 
 43692.65567		 305.27265			43387.38302		66.22000		324.00000 
 43692.65567		 537.27032			43155.38535		206.38400		875.00000 
 43692.65567		 305.27265			43387.38302		66.22000		324.00000 
 43692.65567		 537.27032			43155.38535		206.38400		875.00000 
 43692.65567		 305.27265			43387.38302		66.22000		324.00000 
 43692.65567		 537.27032			43155.38535		206.38400		875.00000 
 43692.65567		 305.27265			43387.38302		66.22000		324.00000 
 43692.65567		 537.27032			43155.38535		206.38400		875.00000 
 43692.65567		 305.27265			43387.38302		66.22000		324.00000 
 43692.65567		 537.27032			43155.38535		206.38400		875.00000 
 43692.65567		 305.27265			43387.38302		66.22000		324.00000 
 43692.65567		 537.27032			43155.38535		206.38400		875.00000 
 43692.65567		 305.27265			43387.38302		66.22000		324.00000 
 43692.65567		 537.27032			43155.38535		206.38400		875.00000 
 43692.65567		 305.27265			43387.38302		66.22000		324.00000 
 43692.65567		 529.63254			43163.02313		206.38400		875.00000 
 43692.65567		 305.27265			43387.38302		66.22000		324.00000 
 43692.65567		 525.81365			43166.84203		206.38400		875.00000 
 43692.65567		 305.27265			43387.38302		66.22000		324.00000 
 43692.65567		 525.81365			43166.84203		206.38400		875.00000 
 43692.65567		 261.35540			43431.30027		66.22000		324.00000 
