Memory Total (MiB) 	 Memory Used (MiB) 	    Memory Free (MiB) 	 Power Drawed (W) 	 Clocks (Mhz) 	 
 43692.65567		 261.35540			43431.30027		176.41200		875.00000 
 43692.65567		 261.35540			43431.30027		69.17800		324.00000 
 43692.65567		 261.35540			43431.30027		176.41200		875.00000 
 43692.65567		 261.35540			43431.30027		69.17800		324.00000 
 43692.65567		 261.35540			43431.30027		176.41200		875.00000 
 43692.65567		 261.35540			43431.30027		69.17800		324.00000 
 43692.65567		 261.35540			43431.30027		176.41200		875.00000 
 43692.65567		 261.35540			43431.30027		69.17800		324.00000 
 43692.65567		 261.35540			43431.30027		176.41200		875.00000 
 43692.65567		 261.35540			43431.30027		69.17800		324.00000 
 43692.65567		 261.35540			43431.30027		176.41200		875.00000 
 43692.65567		 261.35540			43431.30027		69.17800		324.00000 
 43692.65567		 261.35540			43431.30027		176.41200		875.00000 
 43692.65567		 261.35540			43431.30027		69.17800		324.00000 
 43692.65567		 261.35540			43431.30027		176.41200		875.00000 
 43692.65567		 261.35540			43431.30027		69.17800		324.00000 
 43692.65567		 261.35540			43431.30027		176.41200		875.00000 
 43692.65567		 261.35540			43431.30027		69.17800		324.00000 
 43692.65567		 261.35540			43431.30027		176.41200		875.00000 
 43692.65567		 261.35540			43431.30027		69.17800		324.00000 
 43692.65567		 261.35540			43431.30027		176.41200		875.00000 
 43692.65567		 261.35540			43431.30027		69.17800		324.00000 
 43692.65567		 261.35540			43431.30027		176.41200		875.00000 
 43692.65567		 261.35540			43431.30027		69.17800		324.00000 
 43692.65567		 261.35540			43431.30027		176.41200		875.00000 
 43692.65567		 261.35540			43431.30027		69.17800		324.00000 
 43692.65567		 261.35540			43431.30027		176.41200		875.00000 
 43692.65567		 261.35540			43431.30027		69.17800		324.00000 
 43692.65567		 261.35540			43431.30027		176.41200		875.00000 
 43692.65567		 261.35540			43431.30027		69.17800		324.00000 
 43692.65567		 261.35540			43431.30027		176.41200		875.00000 
 43692.65567		 261.35540			43431.30027		69.17800		324.00000 
 43692.65567		 261.35540			43431.30027		176.41200		875.00000 
 43692.65567		 261.35540			43431.30027		69.17800		324.00000 
 43692.65567		 261.35540			43431.30027		176.41200		875.00000 
 43692.65567		 261.35540			43431.30027		69.17800		324.00000 
 43692.65567		 265.17429			43427.48138		176.41200		875.00000 
 43692.65567		 261.35540			43431.30027		69.17800		324.00000 
 43692.65567		 265.17429			43427.48138		176.41200		875.00000 
 43692.65567		 261.35540			43431.30027		69.17800		324.00000 
 43692.65567		 272.81207			43419.84360		176.41200		875.00000 
 43692.65567		 261.35540			43431.30027		69.17800		324.00000 
 43692.65567		 272.81207			43419.84360		176.41200		875.00000 
 43692.65567		 261.35540			43431.30027		69.17800		324.00000 
 43692.65567		 272.81207			43419.84360		176.41200		875.00000 
 43692.65567		 265.17429			43427.48138		69.17800		324.00000 
 43692.65567		 272.81207			43419.84360		176.41200		875.00000 
 43692.65567		 265.17429			43427.48138		69.17800		324.00000 
 43692.65567		 272.81207			43419.84360		176.41200		875.00000 
 43692.65567		 272.81207			43419.84360		69.17800		324.00000 
 43692.65567		 272.81207			43419.84360		176.41200		875.00000 
 43692.65567		 272.81207			43419.84360		69.17800		324.00000 
 43692.65567		 272.81207			43419.84360		176.41200		875.00000 
 43692.65567		 272.81207			43419.84360		69.17800		324.00000 
 43692.65567		 272.81207			43419.84360		176.41200		875.00000 
 43692.65567		 272.81207			43419.84360		69.17800		324.00000 
 43692.65567		 305.27265			43387.38302		176.41200		875.00000 
 43692.65567		 305.27265			43387.38302		69.17800		324.00000 
 43692.65567		 305.27265			43387.38302		176.41200		875.00000 
 43692.65567		 305.27265			43387.38302		69.17800		324.00000 
 43692.65567		 305.27265			43387.38302		176.41200		875.00000 
 43692.65567		 305.27265			43387.38302		69.17800		324.00000 
 43692.65567		 305.27265			43387.38302		176.41200		875.00000 
 43692.65567		 305.27265			43387.38302		69.17800		324.00000 
 43692.65567		 305.27265			43387.38302		148.30400		875.00000 
 43692.65567		 305.27265			43387.38302		69.17800		324.00000 
 43692.65567		 309.56891			43383.08677		148.30400		875.00000 
 43692.65567		 305.27265			43387.38302		69.17800		324.00000 
 43692.65567		 311.00099			43381.65468		148.30400		875.00000 
 43692.65567		 305.27265			43387.38302		69.17800		324.00000 
 43692.65567		 311.00099			43381.65468		148.30400		875.00000 
 43692.65567		 305.27265			43387.38302		69.17800		324.00000 
 43692.65567		 311.00099			43381.65468		148.30400		875.00000 
 43692.65567		 305.27265			43387.38302		69.17800		324.00000 
 43692.65567		 311.00099			43381.65468		148.30400		875.00000 
 43692.65567		 305.27265			43387.38302		69.17800		324.00000 
 43692.65567		 311.00099			43381.65468		148.30400		875.00000 
 43692.65567		 305.27265			43387.38302		69.17800		324.00000 
 43692.65567		 311.00099			43381.65468		148.30400		875.00000 
 43692.65567		 305.27265			43387.38302		69.17800		324.00000 
 43692.65567		 311.00099			43381.65468		148.30400		875.00000 
 43692.65567		 305.27265			43387.38302		69.17800		324.00000 
 43692.65567		 311.00099			43381.65468		148.30400		875.00000 
 43692.65567		 305.27265			43387.38302		69.17800		324.00000 
 43692.65567		 311.00099			43381.65468		148.30400		875.00000 
 43692.65567		 305.27265			43387.38302		69.17800		324.00000 
 43692.65567		 311.00099			43381.65468		148.30400		875.00000 
 43692.65567		 305.27265			43387.38302		69.17800		324.00000 
 43692.65567		 311.00099			43381.65468		148.30400		875.00000 
 43692.65567		 305.27265			43387.38302		69.17800		324.00000 
 43692.65567		 311.00099			43381.65468		148.30400		875.00000 
 43692.65567		 305.27265			43387.38302		69.17800		324.00000 
 43692.65567		 311.00099			43381.65468		148.30400		875.00000 
 43692.65567		 305.27265			43387.38302		69.17800		324.00000 
 43692.65567		 311.00099			43381.65468		148.30400		875.00000 
 43692.65567		 305.27265			43387.38302		69.17800		324.00000 
 43692.65567		 311.00099			43381.65468		148.30400		875.00000 
 43692.65567		 305.27265			43387.38302		69.17800		324.00000 
 43692.65567		 311.00099			43381.65468		148.30400		875.00000 
 43692.65567		 305.27265			43387.38302		69.17800		324.00000 
 43692.65567		 311.00099			43381.65468		148.30400		875.00000 
 43692.65567		 305.27265			43387.38302		69.17800		324.00000 
 43692.65567		 311.00099			43381.65468		148.30400		875.00000 
 43692.65567		 305.27265			43387.38302		69.17800		324.00000 
 43692.65567		 311.00099			43381.65468		148.30400		875.00000 
 43692.65567		 305.27265			43387.38302		69.17800		324.00000 
 43692.65567		 311.00099			43381.65468		148.30400		875.00000 
 43692.65567		 305.27265			43387.38302		69.17800		324.00000 
 43692.65567		 311.00099			43381.65468		148.30400		875.00000 
 43692.65567		 305.27265			43387.38302		69.17800		324.00000 
 43692.65567		 311.00099			43381.65468		148.30400		875.00000 
 43692.65567		 305.27265			43387.38302		69.17800		324.00000 
 43692.65567		 311.00099			43381.65468		148.30400		875.00000 
 43692.65567		 305.27265			43387.38302		69.17800		324.00000 
 43692.65567		 311.00099			43381.65468		148.30400		875.00000 
 43692.65567		 305.27265			43387.38302		69.17800		324.00000 
 43692.65567		 311.00099			43381.65468		148.30400		875.00000 
 43692.65567		 305.27265			43387.38302		69.17800		324.00000 
 43692.65567		 311.00099			43381.65468		148.30400		875.00000 
 43692.65567		 305.27265			43387.38302		69.17800		324.00000 
 43692.65567		 311.00099			43381.65468		148.30400		875.00000 
 43692.65567		 305.27265			43387.38302		69.17800		324.00000 
 43692.65567		 311.00099			43381.65468		148.30400		875.00000 
 43692.65567		 305.27265			43387.38302		69.17800		324.00000 
 43692.65567		 311.00099			43381.65468		148.30400		875.00000 
 43692.65567		 305.27265			43387.38302		69.17800		324.00000 
 43692.65567		 311.00099			43381.65468		148.30400		875.00000 
 43692.65567		 305.27265			43387.38302		69.17800		324.00000 
 43692.65567		 311.00099			43381.65468		137.39600		875.00000 
 43692.65567		 305.27265			43387.38302		69.17800		324.00000 
 43692.65567		 311.00099			43381.65468		137.39600		875.00000 
 43692.65567		 305.27265			43387.38302		69.17800		324.00000 
 43692.65567		 311.00099			43381.65468		137.39600		875.00000 
 43692.65567		 305.27265			43387.38302		69.17800		324.00000 
 43692.65567		 311.00099			43381.65468		137.39600		875.00000 
 43692.65567		 305.27265			43387.38302		69.17800		324.00000 
 43692.65567		 311.00099			43381.65468		137.39600		875.00000 
 43692.65567		 305.27265			43387.38302		69.17800		324.00000 
 43692.65567		 311.00099			43381.65468		137.39600		875.00000 
 43692.65567		 305.27265			43387.38302		69.17800		324.00000 
 43692.65567		 311.00099			43381.65468		137.39600		875.00000 
 43692.65567		 305.27265			43387.38302		69.17800		324.00000 
 43692.65567		 311.00099			43381.65468		137.39600		875.00000 
 43692.65567		 305.27265			43387.38302		69.17800		324.00000 
 43692.65567		 311.00099			43381.65468		137.39600		875.00000 
 43692.65567		 305.27265			43387.38302		69.17800		324.00000 
 43692.65567		 311.00099			43381.65468		137.39600		875.00000 
 43692.65567		 305.27265			43387.38302		69.17800		324.00000 
 43692.65567		 311.00099			43381.65468		137.39600		875.00000 
 43692.65567		 305.27265			43387.38302		69.17800		324.00000 
 43692.65567		 311.00099			43381.65468		137.39600		875.00000 
 43692.65567		 305.27265			43387.38302		69.17800		324.00000 
 43692.65567		 311.00099			43381.65468		137.39600		875.00000 
 43692.65567		 305.27265			43387.38302		69.17800		324.00000 
 43692.65567		 311.00099			43381.65468		137.39600		875.00000 
 43692.65567		 305.27265			43387.38302		69.17800		324.00000 
 43692.65567		 311.00099			43381.65468		137.39600		875.00000 
 43692.65567		 305.27265			43387.38302		69.17800		324.00000 
 43692.65567		 311.00099			43381.65468		137.39600		875.00000 
 43692.65567		 305.27265			43387.38302		69.17800		324.00000 
 43692.65567		 311.00099			43381.65468		137.39600		875.00000 
 43692.65567		 305.27265			43387.38302		69.17800		324.00000 
 43692.65567		 311.00099			43381.65468		137.39600		875.00000 
 43692.65567		 305.27265			43387.38302		69.17800		324.00000 
 43692.65567		 311.00099			43381.65468		137.39600		875.00000 
 43692.65567		 305.27265			43387.38302		69.17800		324.00000 
 43692.65567		 311.00099			43381.65468		137.39600		875.00000 
 43692.65567		 305.27265			43387.38302		69.17800		324.00000 
 43692.65567		 311.00099			43381.65468		137.39600		875.00000 
 43692.65567		 305.27265			43387.38302		69.17800		324.00000 
 43692.65567		 311.00099			43381.65468		137.39600		875.00000 
 43692.65567		 305.27265			43387.38302		69.17800		324.00000 
 43692.65567		 314.81988			43377.83579		137.39600		875.00000 
 43692.65567		 305.27265			43387.38302		69.17800		324.00000 
 43692.65567		 314.81988			43377.83579		137.39600		875.00000 
 43692.65567		 305.27265			43387.38302		69.17800		324.00000 
 43692.65567		 314.81988			43377.83579		137.39600		875.00000 
 43692.65567		 305.27265			43387.38302		69.17800		324.00000 
 43692.65567		 318.63877			43374.01690		137.39600		875.00000 
 43692.65567		 305.27265			43387.38302		69.17800		324.00000 
 43692.65567		 322.45767			43370.19801		137.39600		875.00000 
 43692.65567		 305.27265			43387.38302		69.17800		324.00000 
 43692.65567		 326.27656			43366.37912		137.39600		875.00000 
 43692.65567		 305.27265			43387.38302		69.17800		324.00000 
 43692.65567		 326.27656			43366.37912		137.39600		875.00000 
 43692.65567		 305.27265			43387.38302		69.17800		324.00000 
 43692.65567		 326.27656			43366.37912		137.39600		875.00000 
 43692.65567		 305.27265			43387.38302		69.17800		324.00000 
 43692.65567		 537.27032			43155.38535		137.39600		875.00000 
 43692.65567		 305.27265			43387.38302		69.17800		324.00000 
 43692.65567		 593.59897			43099.05670		137.39600		875.00000 
 43692.65567		 305.27265			43387.38302		69.17800		324.00000 
 43692.65567		 621.76330			43070.89237		137.39600		875.00000 
 43692.65567		 305.27265			43387.38302		69.17800		324.00000 
 43692.65567		 621.76330			43070.89237		137.39600		875.00000 
 43692.65567		 305.27265			43387.38302		69.17800		324.00000 
 43692.65567		 621.76330			43070.89237		137.39600		875.00000 
 43692.65567		 305.27265			43387.38302		69.17800		324.00000 
 43692.65567		 621.76330			43070.89237		137.39600		875.00000 
 43692.65567		 305.27265			43387.38302		69.17800		324.00000 
 43692.65567		 621.76330			43070.89237		140.73400		875.00000 
 43692.65567		 305.27265			43387.38302		69.17800		324.00000 
 43692.65567		 621.76330			43070.89237		140.73400		875.00000 
 43692.65567		 305.27265			43387.38302		69.17800		324.00000 
 43692.65567		 621.76330			43070.89237		140.73400		875.00000 
 43692.65567		 305.27265			43387.38302		69.17800		324.00000 
 43692.65567		 621.76330			43070.89237		140.73400		875.00000 
 43692.65567		 305.27265			43387.38302		69.17800		324.00000 
 43692.65567		 621.76330			43070.89237		140.73400		875.00000 
 43692.65567		 305.27265			43387.38302		69.17800		324.00000 
 43692.65567		 621.76330			43070.89237		140.73400		875.00000 
 43692.65567		 305.27265			43387.38302		69.17800		324.00000 
 43692.65567		 621.76330			43070.89237		140.73400		875.00000 
 43692.65567		 305.27265			43387.38302		69.17800		324.00000 
 43692.65567		 621.76330			43070.89237		140.73400		875.00000 
 43692.65567		 305.27265			43387.38302		69.17800		324.00000 
 43692.65567		 621.76330			43070.89237		140.73400		875.00000 
 43692.65567		 305.27265			43387.38302		69.17800		324.00000 
 43692.65567		 621.76330			43070.89237		140.73400		875.00000 
 43692.65567		 305.27265			43387.38302		69.17800		324.00000 
 43692.65567		 621.76330			43070.89237		140.73400		875.00000 
 43692.65567		 305.27265			43387.38302		69.17800		324.00000 
 43692.65567		 621.76330			43070.89237		140.73400		875.00000 
 43692.65567		 305.27265			43387.38302		69.17800		324.00000 
 43692.65567		 621.76330			43070.89237		140.73400		875.00000 
 43692.65567		 305.27265			43387.38302		69.17800		324.00000 
 43692.65567		 621.76330			43070.89237		140.73400		875.00000 
 43692.65567		 305.27265			43387.38302		69.17800		324.00000 
 43692.65567		 621.76330			43070.89237		140.73400		875.00000 
 43692.65567		 305.27265			43387.38302		69.17800		324.00000 
 43692.65567		 621.76330			43070.89237		140.73400		875.00000 
 43692.65567		 305.27265			43387.38302		69.17800		324.00000 
 43692.65567		 621.76330			43070.89237		140.73400		875.00000 
 43692.65567		 305.27265			43387.38302		69.17800		324.00000 
 43692.65567		 621.76330			43070.89237		140.73400		875.00000 
 43692.65567		 305.27265			43387.38302		69.17800		324.00000 
 43692.65567		 621.76330			43070.89237		140.73400		875.00000 
 43692.65567		 305.27265			43387.38302		69.17800		324.00000 
 43692.65567		 621.76330			43070.89237		140.73400		875.00000 
 43692.65567		 305.27265			43387.38302		69.17800		324.00000 
 43692.65567		 621.76330			43070.89237		140.73400		875.00000 
 43692.65567		 305.27265			43387.38302		69.17800		324.00000 
 43692.65567		 621.76330			43070.89237		140.73400		875.00000 
 43692.65567		 305.27265			43387.38302		69.17800		324.00000 
 43692.65567		 621.76330			43070.89237		140.73400		875.00000 
 43692.65567		 305.27265			43387.38302		69.17800		324.00000 
 43692.65567		 621.76330			43070.89237		140.73400		875.00000 
 43692.65567		 305.27265			43387.38302		69.17800		324.00000 
 43692.65567		 621.76330			43070.89237		140.73400		875.00000 
 43692.65567		 305.27265			43387.38302		69.17800		324.00000 
 43692.65567		 621.76330			43070.89237		140.73400		875.00000 
 43692.65567		 305.27265			43387.38302		69.17800		324.00000 
 43692.65567		 621.76330			43070.89237		140.73400		875.00000 
 43692.65567		 305.27265			43387.38302		69.17800		324.00000 
 43692.65567		 621.76330			43070.89237		140.73400		875.00000 
 43692.65567		 305.27265			43387.38302		69.17800		324.00000 
 43692.65567		 621.76330			43070.89237		140.73400		875.00000 
 43692.65567		 305.27265			43387.38302		69.17800		324.00000 
 43692.65567		 621.76330			43070.89237		140.73400		875.00000 
 43692.65567		 305.27265			43387.38302		69.17800		324.00000 
 43692.65567		 621.76330			43070.89237		140.73400		875.00000 
 43692.65567		 305.27265			43387.38302		69.17800		324.00000 
 43692.65567		 621.76330			43070.89237		140.73400		875.00000 
 43692.65567		 305.27265			43387.38302		69.17800		324.00000 
 43692.65567		 621.76330			43070.89237		140.73400		875.00000 
 43692.65567		 305.27265			43387.38302		69.17800		324.00000 
 43692.65567		 621.76330			43070.89237		140.73400		875.00000 
 43692.65567		 305.27265			43387.38302		69.17800		324.00000 
 43692.65567		 621.76330			43070.89237		140.73400		875.00000 
 43692.65567		 305.27265			43387.38302		69.17800		324.00000 
 43692.65567		 621.76330			43070.89237		140.73400		875.00000 
 43692.65567		 305.27265			43387.38302		69.17800		324.00000 
 43692.65567		 621.76330			43070.89237		140.73400		875.00000 
 43692.65567		 305.27265			43387.38302		69.17800		324.00000 
 43692.65567		 621.76330			43070.89237		140.73400		875.00000 
 43692.65567		 305.27265			43387.38302		69.17800		324.00000 
 43692.65567		 621.76330			43070.89237		140.73400		875.00000 
 43692.65567		 305.27265			43387.38302		69.17800		324.00000 
 43692.65567		 621.76330			43070.89237		140.73400		875.00000 
 43692.65567		 305.27265			43387.38302		69.17800		324.00000 
 43692.65567		 621.76330			43070.89237		140.73400		875.00000 
 43692.65567		 305.27265			43387.38302		69.17800		324.00000 
 43692.65567		 621.76330			43070.89237		140.73400		875.00000 
 43692.65567		 305.27265			43387.38302		69.17800		324.00000 
 43692.65567		 621.76330			43070.89237		140.73400		875.00000 
 43692.65567		 305.27265			43387.38302		69.17800		324.00000 
 43692.65567		 621.76330			43070.89237		140.73400		875.00000 
 43692.65567		 305.27265			43387.38302		69.17800		324.00000 
 43692.65567		 621.76330			43070.89237		140.73400		875.00000 
 43692.65567		 305.27265			43387.38302		69.17800		324.00000 
 43692.65567		 621.76330			43070.89237		140.73400		875.00000 
 43692.65567		 305.27265			43387.38302		69.17800		324.00000 
 43692.65567		 621.76330			43070.89237		140.73400		875.00000 
 43692.65567		 305.27265			43387.38302		69.17800		324.00000 
 43692.65567		 621.76330			43070.89237		140.73400		875.00000 
 43692.65567		 305.27265			43387.38302		69.17800		324.00000 
 43692.65567		 621.76330			43070.89237		140.73400		875.00000 
 43692.65567		 305.27265			43387.38302		69.17800		324.00000 
 43692.65567		 621.76330			43070.89237		140.73400		875.00000 
 43692.65567		 305.27265			43387.38302		69.17800		324.00000 
 43692.65567		 621.76330			43070.89237		140.73400		875.00000 
 43692.65567		 305.27265			43387.38302		69.17800		324.00000 
 43692.65567		 621.76330			43070.89237		140.73400		875.00000 
 43692.65567		 305.27265			43387.38302		69.17800		324.00000 
 43692.65567		 621.76330			43070.89237		140.73400		875.00000 
 43692.65567		 305.27265			43387.38302		69.17800		324.00000 
 43692.65567		 621.76330			43070.89237		140.73400		875.00000 
 43692.65567		 305.27265			43387.38302		69.17800		324.00000 
 43692.65567		 621.76330			43070.89237		140.73400		875.00000 
 43692.65567		 305.27265			43387.38302		69.17800		324.00000 
 43692.65567		 621.76330			43070.89237		140.73400		875.00000 
 43692.65567		 305.27265			43387.38302		69.17800		324.00000 
 43692.65567		 621.76330			43070.89237		140.73400		875.00000 
 43692.65567		 305.27265			43387.38302		69.17800		324.00000 
 43692.65567		 621.76330			43070.89237		140.73400		875.00000 
 43692.65567		 305.27265			43387.38302		69.17800		324.00000 
 43692.65567		 621.76330			43070.89237		140.73400		875.00000 
 43692.65567		 305.27265			43387.38302		69.17800		324.00000 
 43692.65567		 621.76330			43070.89237		140.73400		875.00000 
 43692.65567		 305.27265			43387.38302		69.17800		324.00000 
 43692.65567		 621.76330			43070.89237		140.73400		875.00000 
 43692.65567		 305.27265			43387.38302		69.17800		324.00000 
 43692.65567		 621.76330			43070.89237		140.73400		875.00000 
 43692.65567		 305.27265			43387.38302		69.17800		324.00000 
 43692.65567		 621.76330			43070.89237		140.73400		875.00000 
 43692.65567		 305.27265			43387.38302		69.17800		324.00000 
 43692.65567		 621.76330			43070.89237		140.73400		875.00000 
 43692.65567		 305.27265			43387.38302		69.17800		324.00000 
 43692.65567		 621.76330			43070.89237		188.38600		875.00000 
 43692.65567		 305.27265			43387.38302		69.17800		324.00000 
 43692.65567		 621.76330			43070.89237		188.38600		875.00000 
 43692.65567		 305.27265			43387.38302		69.17800		324.00000 
 43692.65567		 621.76330			43070.89237		188.38600		875.00000 
 43692.65567		 305.27265			43387.38302		69.17800		324.00000 
 43692.65567		 621.76330			43070.89237		188.38600		875.00000 
 43692.65567		 305.27265			43387.38302		69.17800		324.00000 
 43692.65567		 621.76330			43070.89237		188.38600		875.00000 
 43692.65567		 305.27265			43387.38302		69.17800		324.00000 
 43692.65567		 621.76330			43070.89237		188.38600		875.00000 
 43692.65567		 305.27265			43387.38302		69.17800		324.00000 
 43692.65567		 621.76330			43070.89237		188.38600		875.00000 
 43692.65567		 305.27265			43387.38302		69.17800		324.00000 
 43692.65567		 621.76330			43070.89237		188.38600		875.00000 
 43692.65567		 305.27265			43387.38302		69.17800		324.00000 
 43692.65567		 621.76330			43070.89237		188.38600		875.00000 
 43692.65567		 305.27265			43387.38302		69.17800		324.00000 
 43692.65567		 621.76330			43070.89237		188.38600		875.00000 
 43692.65567		 305.27265			43387.38302		69.17800		324.00000 
 43692.65567		 621.76330			43070.89237		188.38600		875.00000 
 43692.65567		 305.27265			43387.38302		69.17800		324.00000 
 43692.65567		 621.76330			43070.89237		188.38600		875.00000 
 43692.65567		 305.27265			43387.38302		69.17800		324.00000 
 43692.65567		 621.76330			43070.89237		188.38600		875.00000 
 43692.65567		 305.27265			43387.38302		69.17800		324.00000 
 43692.65567		 621.76330			43070.89237		188.38600		875.00000 
 43692.65567		 305.27265			43387.38302		69.17800		324.00000 
 43692.65567		 621.76330			43070.89237		188.38600		875.00000 
 43692.65567		 305.27265			43387.38302		69.17800		324.00000 
 43692.65567		 621.76330			43070.89237		188.38600		875.00000 
 43692.65567		 305.27265			43387.38302		69.17800		324.00000 
 43692.65567		 621.76330			43070.89237		188.38600		875.00000 
 43692.65567		 305.27265			43387.38302		69.17800		324.00000 
 43692.65567		 621.76330			43070.89237		188.38600		875.00000 
 43692.65567		 305.27265			43387.38302		69.17800		324.00000 
 43692.65567		 621.76330			43070.89237		188.38600		875.00000 
 43692.65567		 305.27265			43387.38302		69.17800		324.00000 
 43692.65567		 621.76330			43070.89237		188.38600		875.00000 
 43692.65567		 305.27265			43387.38302		69.17800		324.00000 
 43692.65567		 621.76330			43070.89237		188.38600		875.00000 
 43692.65567		 305.27265			43387.38302		69.17800		324.00000 
 43692.65567		 621.76330			43070.89237		188.38600		875.00000 
 43692.65567		 305.27265			43387.38302		69.17800		324.00000 
 43692.65567		 621.76330			43070.89237		188.38600		875.00000 
 43692.65567		 305.27265			43387.38302		69.17800		324.00000 
 43692.65567		 621.76330			43070.89237		188.38600		875.00000 
 43692.65567		 305.27265			43387.38302		69.17800		324.00000 
 43692.65567		 621.76330			43070.89237		188.38600		875.00000 
 43692.65567		 305.27265			43387.38302		69.17800		324.00000 
 43692.65567		 621.76330			43070.89237		188.38600		875.00000 
 43692.65567		 305.27265			43387.38302		69.17800		324.00000 
 43692.65567		 621.76330			43070.89237		188.38600		875.00000 
 43692.65567		 305.27265			43387.38302		69.17800		324.00000 
 43692.65567		 621.76330			43070.89237		188.38600		875.00000 
 43692.65567		 305.27265			43387.38302		69.17800		324.00000 
 43692.65567		 621.76330			43070.89237		188.38600		875.00000 
 43692.65567		 305.27265			43387.38302		69.17800		324.00000 
 43692.65567		 621.76330			43070.89237		188.38600		875.00000 
 43692.65567		 305.27265			43387.38302		69.17800		324.00000 
 43692.65567		 621.76330			43070.89237		188.38600		875.00000 
 43692.65567		 305.27265			43387.38302		69.17800		324.00000 
 43692.65567		 621.76330			43070.89237		188.38600		875.00000 
 43692.65567		 305.27265			43387.38302		69.17800		324.00000 
 43692.65567		 621.76330			43070.89237		188.38600		875.00000 
 43692.65567		 305.27265			43387.38302		69.17800		324.00000 
 43692.65567		 621.76330			43070.89237		188.38600		875.00000 
 43692.65567		 305.27265			43387.38302		69.17800		324.00000 
 43692.65567		 621.76330			43070.89237		188.38600		875.00000 
 43692.65567		 305.27265			43387.38302		69.17800		324.00000 
 43692.65567		 621.76330			43070.89237		188.38600		875.00000 
 43692.65567		 305.27265			43387.38302		69.17800		324.00000 
 43692.65567		 621.76330			43070.89237		188.38600		875.00000 
 43692.65567		 305.27265			43387.38302		69.17800		324.00000 
 43692.65567		 621.76330			43070.89237		188.38600		875.00000 
 43692.65567		 305.27265			43387.38302		69.17800		324.00000 
 43692.65567		 621.76330			43070.89237		188.38600		875.00000 
 43692.65567		 305.27265			43387.38302		69.17800		324.00000 
 43692.65567		 621.76330			43070.89237		188.38600		875.00000 
 43692.65567		 305.27265			43387.38302		69.17800		324.00000 
 43692.65567		 621.76330			43070.89237		188.38600		875.00000 
 43692.65567		 305.27265			43387.38302		69.17800		324.00000 
 43692.65567		 621.76330			43070.89237		188.38600		875.00000 
 43692.65567		 305.27265			43387.38302		69.17800		324.00000 
 43692.65567		 621.76330			43070.89237		188.38600		875.00000 
 43692.65567		 305.27265			43387.38302		69.17800		324.00000 
 43692.65567		 621.76330			43070.89237		188.38600		875.00000 
 43692.65567		 305.27265			43387.38302		69.17800		324.00000 
 43692.65567		 621.76330			43070.89237		188.38600		875.00000 
 43692.65567		 305.27265			43387.38302		69.17800		324.00000 
 43692.65567		 621.76330			43070.89237		188.38600		875.00000 
 43692.65567		 305.27265			43387.38302		69.17800		324.00000 
 43692.65567		 621.76330			43070.89237		188.38600		875.00000 
 43692.65567		 305.27265			43387.38302		69.17800		324.00000 
 43692.65567		 621.76330			43070.89237		188.38600		875.00000 
 43692.65567		 305.27265			43387.38302		69.17800		324.00000 
 43692.65567		 621.76330			43070.89237		188.38600		875.00000 
 43692.65567		 305.27265			43387.38302		69.17800		324.00000 
 43692.65567		 621.76330			43070.89237		188.38600		875.00000 
 43692.65567		 305.27265			43387.38302		69.17800		324.00000 
 43692.65567		 621.76330			43070.89237		188.38600		875.00000 
 43692.65567		 305.27265			43387.38302		69.17800		324.00000 
 43692.65567		 621.76330			43070.89237		188.38600		875.00000 
 43692.65567		 305.27265			43387.38302		69.17800		324.00000 
 43692.65567		 621.76330			43070.89237		188.38600		875.00000 
 43692.65567		 305.27265			43387.38302		69.17800		324.00000 
 43692.65567		 621.76330			43070.89237		188.38600		875.00000 
 43692.65567		 305.27265			43387.38302		69.17800		324.00000 
 43692.65567		 621.76330			43070.89237		188.38600		875.00000 
 43692.65567		 305.27265			43387.38302		69.17800		324.00000 
 43692.65567		 621.76330			43070.89237		188.38600		875.00000 
 43692.65567		 305.27265			43387.38302		69.17800		324.00000 
 43692.65567		 621.76330			43070.89237		188.38600		875.00000 
 43692.65567		 305.27265			43387.38302		69.17800		324.00000 
 43692.65567		 621.76330			43070.89237		188.38600		875.00000 
 43692.65567		 305.27265			43387.38302		69.17800		324.00000 
 43692.65567		 621.76330			43070.89237		188.38600		875.00000 
 43692.65567		 305.27265			43387.38302		69.17800		324.00000 
 43692.65567		 621.76330			43070.89237		188.38600		875.00000 
 43692.65567		 305.27265			43387.38302		69.17800		324.00000 
 43692.65567		 621.76330			43070.89237		188.38600		875.00000 
 43692.65567		 305.27265			43387.38302		69.17800		324.00000 
 43692.65567		 621.76330			43070.89237		188.38600		875.00000 
 43692.65567		 305.27265			43387.38302		69.17800		324.00000 
 43692.65567		 621.76330			43070.89237		188.38600		875.00000 
 43692.65567		 305.27265			43387.38302		69.17800		324.00000 
 43692.65567		 621.76330			43070.89237		188.38600		875.00000 
 43692.65567		 305.27265			43387.38302		69.17800		324.00000 
 43692.65567		 621.76330			43070.89237		205.59200		875.00000 
 43692.65567		 305.27265			43387.38302		69.17800		324.00000 
 43692.65567		 621.76330			43070.89237		205.59200		875.00000 
 43692.65567		 305.27265			43387.38302		69.17800		324.00000 
 43692.65567		 621.76330			43070.89237		205.59200		875.00000 
 43692.65567		 305.27265			43387.38302		69.17800		324.00000 
 43692.65567		 621.76330			43070.89237		205.59200		875.00000 
 43692.65567		 305.27265			43387.38302		69.17800		324.00000 
 43692.65567		 621.76330			43070.89237		205.59200		875.00000 
 43692.65567		 305.27265			43387.38302		69.17800		324.00000 
 43692.65567		 621.76330			43070.89237		205.59200		875.00000 
 43692.65567		 305.27265			43387.38302		69.17800		324.00000 
 43692.65567		 621.76330			43070.89237		205.59200		875.00000 
 43692.65567		 305.27265			43387.38302		69.17800		324.00000 
 43692.65567		 621.76330			43070.89237		205.59200		875.00000 
 43692.65567		 305.27265			43387.38302		69.17800		324.00000 
 43692.65567		 621.76330			43070.89237		205.59200		875.00000 
 43692.65567		 305.27265			43387.38302		69.17800		324.00000 
 43692.65567		 621.76330			43070.89237		205.59200		875.00000 
 43692.65567		 305.27265			43387.38302		69.17800		324.00000 
 43692.65567		 621.76330			43070.89237		205.59200		875.00000 
 43692.65567		 305.27265			43387.38302		69.17800		324.00000 
 43692.65567		 621.76330			43070.89237		205.59200		875.00000 
 43692.65567		 305.27265			43387.38302		69.17800		324.00000 
 43692.65567		 621.76330			43070.89237		205.59200		875.00000 
 43692.65567		 305.27265			43387.38302		69.17800		324.00000 
 43692.65567		 621.76330			43070.89237		205.59200		875.00000 
 43692.65567		 305.27265			43387.38302		69.17800		324.00000 
 43692.65567		 621.76330			43070.89237		205.59200		875.00000 
 43692.65567		 305.27265			43387.38302		69.17800		324.00000 
 43692.65567		 621.76330			43070.89237		205.59200		875.00000 
 43692.65567		 305.27265			43387.38302		69.17800		324.00000 
 43692.65567		 621.76330			43070.89237		205.59200		875.00000 
 43692.65567		 305.27265			43387.38302		69.17800		324.00000 
 43692.65567		 621.76330			43070.89237		205.59200		875.00000 
 43692.65567		 305.27265			43387.38302		69.17800		324.00000 
 43692.65567		 621.76330			43070.89237		205.59200		875.00000 
 43692.65567		 305.27265			43387.38302		69.17800		324.00000 
 43692.65567		 621.76330			43070.89237		205.59200		875.00000 
 43692.65567		 305.27265			43387.38302		69.17800		324.00000 
 43692.65567		 621.76330			43070.89237		205.59200		875.00000 
 43692.65567		 305.27265			43387.38302		69.17800		324.00000 
 43692.65567		 621.76330			43070.89237		205.59200		875.00000 
 43692.65567		 305.27265			43387.38302		69.17800		324.00000 
 43692.65567		 621.76330			43070.89237		205.59200		875.00000 
 43692.65567		 305.27265			43387.38302		69.17800		324.00000 
 43692.65567		 621.76330			43070.89237		205.59200		875.00000 
 43692.65567		 305.27265			43387.38302		69.17800		324.00000 
 43692.65567		 621.76330			43070.89237		205.59200		875.00000 
 43692.65567		 305.27265			43387.38302		69.17800		324.00000 
 43692.65567		 621.76330			43070.89237		205.59200		875.00000 
 43692.65567		 305.27265			43387.38302		69.17800		324.00000 
 43692.65567		 621.76330			43070.89237		205.59200		875.00000 
 43692.65567		 305.27265			43387.38302		69.17800		324.00000 
 43692.65567		 621.76330			43070.89237		205.59200		875.00000 
 43692.65567		 305.27265			43387.38302		69.17800		324.00000 
 43692.65567		 621.76330			43070.89237		205.59200		875.00000 
 43692.65567		 305.27265			43387.38302		69.17800		324.00000 
 43692.65567		 621.76330			43070.89237		205.59200		875.00000 
 43692.65567		 305.27265			43387.38302		69.17800		324.00000 
 43692.65567		 621.76330			43070.89237		205.59200		875.00000 
 43692.65567		 305.27265			43387.38302		69.17800		324.00000 
 43692.65567		 621.76330			43070.89237		205.59200		875.00000 
 43692.65567		 305.27265			43387.38302		69.17800		324.00000 
 43692.65567		 621.76330			43070.89237		205.59200		875.00000 
 43692.65567		 305.27265			43387.38302		69.17800		324.00000 
 43692.65567		 621.76330			43070.89237		205.59200		875.00000 
 43692.65567		 305.27265			43387.38302		69.17800		324.00000 
 43692.65567		 621.76330			43070.89237		205.59200		875.00000 
 43692.65567		 305.27265			43387.38302		69.17800		324.00000 
 43692.65567		 621.76330			43070.89237		205.59200		875.00000 
 43692.65567		 305.27265			43387.38302		69.17800		324.00000 
 43692.65567		 621.76330			43070.89237		205.59200		875.00000 
 43692.65567		 305.27265			43387.38302		69.17800		324.00000 
 43692.65567		 621.76330			43070.89237		205.59200		875.00000 
 43692.65567		 305.27265			43387.38302		69.17800		324.00000 
 43692.65567		 621.76330			43070.89237		205.59200		875.00000 
 43692.65567		 305.27265			43387.38302		69.17800		324.00000 
 43692.65567		 621.76330			43070.89237		205.59200		875.00000 
 43692.65567		 305.27265			43387.38302		69.17800		324.00000 
 43692.65567		 621.76330			43070.89237		205.59200		875.00000 
 43692.65567		 305.27265			43387.38302		69.17800		324.00000 
 43692.65567		 621.76330			43070.89237		205.59200		875.00000 
 43692.65567		 305.27265			43387.38302		69.17800		324.00000 
 43692.65567		 621.76330			43070.89237		205.59200		875.00000 
 43692.65567		 305.27265			43387.38302		69.17800		324.00000 
 43692.65567		 621.76330			43070.89237		205.59200		875.00000 
 43692.65567		 305.27265			43387.38302		69.17800		324.00000 
 43692.65567		 621.76330			43070.89237		205.59200		875.00000 
 43692.65567		 305.27265			43387.38302		69.17800		324.00000 
 43692.65567		 621.76330			43070.89237		205.59200		875.00000 
 43692.65567		 305.27265			43387.38302		69.17800		324.00000 
 43692.65567		 621.76330			43070.89237		205.59200		875.00000 
 43692.65567		 305.27265			43387.38302		69.17800		324.00000 
 43692.65567		 621.76330			43070.89237		205.59200		875.00000 
 43692.65567		 305.27265			43387.38302		69.17800		324.00000 
 43692.65567		 621.76330			43070.89237		205.59200		875.00000 
 43692.65567		 305.27265			43387.38302		69.17800		324.00000 
 43692.65567		 621.76330			43070.89237		205.59200		875.00000 
 43692.65567		 305.27265			43387.38302		69.17800		324.00000 
 43692.65567		 621.76330			43070.89237		205.59200		875.00000 
 43692.65567		 305.27265			43387.38302		69.17800		324.00000 
 43692.65567		 621.76330			43070.89237		205.59200		875.00000 
 43692.65567		 305.27265			43387.38302		69.17800		324.00000 
 43692.65567		 621.76330			43070.89237		205.59200		875.00000 
 43692.65567		 305.27265			43387.38302		69.17800		324.00000 
 43692.65567		 621.76330			43070.89237		205.59200		875.00000 
 43692.65567		 305.27265			43387.38302		69.17800		324.00000 
 43692.65567		 621.76330			43070.89237		205.59200		875.00000 
 43692.65567		 305.27265			43387.38302		69.17800		324.00000 
 43692.65567		 621.76330			43070.89237		205.59200		875.00000 
 43692.65567		 305.27265			43387.38302		69.17800		324.00000 
 43692.65567		 621.76330			43070.89237		205.59200		875.00000 
 43692.65567		 305.27265			43387.38302		69.17800		324.00000 
 43692.65567		 621.76330			43070.89237		205.59200		875.00000 
 43692.65567		 305.27265			43387.38302		69.17800		324.00000 
 43692.65567		 621.76330			43070.89237		205.59200		875.00000 
 43692.65567		 305.27265			43387.38302		69.17800		324.00000 
 43692.65567		 621.76330			43070.89237		205.59200		875.00000 
 43692.65567		 305.27265			43387.38302		69.17800		324.00000 
 43692.65567		 621.76330			43070.89237		205.59200		875.00000 
 43692.65567		 305.27265			43387.38302		69.17800		324.00000 
 43692.65567		 621.76330			43070.89237		205.59200		875.00000 
 43692.65567		 305.27265			43387.38302		69.17800		324.00000 
 43692.65567		 621.76330			43070.89237		205.59200		875.00000 
 43692.65567		 305.27265			43387.38302		69.17800		324.00000 
 43692.65567		 621.76330			43070.89237		205.59200		875.00000 
 43692.65567		 305.27265			43387.38302		69.17800		324.00000 
 43692.65567		 621.76330			43070.89237		212.72400		875.00000 
 43692.65567		 305.27265			43387.38302		69.17800		324.00000 
 43692.65567		 621.76330			43070.89237		212.72400		875.00000 
 43692.65567		 305.27265			43387.38302		69.17800		324.00000 
 43692.65567		 621.76330			43070.89237		212.72400		875.00000 
 43692.65567		 305.27265			43387.38302		69.17800		324.00000 
 43692.65567		 621.76330			43070.89237		212.72400		875.00000 
 43692.65567		 305.27265			43387.38302		69.17800		324.00000 
 43692.65567		 621.76330			43070.89237		212.72400		875.00000 
 43692.65567		 305.27265			43387.38302		69.17800		324.00000 
 43692.65567		 621.76330			43070.89237		212.72400		875.00000 
 43692.65567		 305.27265			43387.38302		69.17800		324.00000 
 43692.65567		 621.76330			43070.89237		212.72400		875.00000 
 43692.65567		 305.27265			43387.38302		69.17800		324.00000 
 43692.65567		 621.76330			43070.89237		212.72400		875.00000 
 43692.65567		 305.27265			43387.38302		69.17800		324.00000 
 43692.65567		 621.76330			43070.89237		212.72400		875.00000 
 43692.65567		 305.27265			43387.38302		69.17400		324.00000 
 43692.65567		 621.76330			43070.89237		212.72400		875.00000 
 43692.65567		 305.27265			43387.38302		69.17400		324.00000 
 43692.65567		 621.76330			43070.89237		212.72400		875.00000 
 43692.65567		 305.27265			43387.38302		69.17400		324.00000 
 43692.65567		 621.76330			43070.89237		212.72400		875.00000 
 43692.65567		 305.27265			43387.38302		69.17400		324.00000 
 43692.65567		 621.76330			43070.89237		212.72400		875.00000 
 43692.65567		 305.27265			43387.38302		69.17400		324.00000 
 43692.65567		 621.76330			43070.89237		212.72400		875.00000 
 43692.65567		 305.27265			43387.38302		69.17400		324.00000 
 43692.65567		 621.76330			43070.89237		212.72400		875.00000 
 43692.65567		 305.27265			43387.38302		69.17400		324.00000 
 43692.65567		 621.76330			43070.89237		212.72400		875.00000 
 43692.65567		 305.27265			43387.38302		69.17400		324.00000 
 43692.65567		 621.76330			43070.89237		212.72400		875.00000 
 43692.65567		 305.27265			43387.38302		69.17400		324.00000 
 43692.65567		 621.76330			43070.89237		212.72400		875.00000 
 43692.65567		 305.27265			43387.38302		69.17400		324.00000 
 43692.65567		 621.76330			43070.89237		212.72400		875.00000 
 43692.65567		 305.27265			43387.38302		69.17400		324.00000 
 43692.65567		 621.76330			43070.89237		212.72400		875.00000 
 43692.65567		 305.27265			43387.38302		69.17400		324.00000 
 43692.65567		 621.76330			43070.89237		212.72400		875.00000 
 43692.65567		 305.27265			43387.38302		69.17400		324.00000 
 43692.65567		 621.76330			43070.89237		212.72400		875.00000 
 43692.65567		 305.27265			43387.38302		69.17400		324.00000 
 43692.65567		 621.76330			43070.89237		212.72400		875.00000 
 43692.65567		 305.27265			43387.38302		69.17400		324.00000 
 43692.65567		 621.76330			43070.89237		212.72400		875.00000 
 43692.65567		 305.27265			43387.38302		69.17400		324.00000 
 43692.65567		 621.76330			43070.89237		212.72400		875.00000 
 43692.65567		 305.27265			43387.38302		69.17400		324.00000 
 43692.65567		 621.76330			43070.89237		212.72400		875.00000 
 43692.65567		 305.27265			43387.38302		69.17400		324.00000 
 43692.65567		 621.76330			43070.89237		212.72400		875.00000 
 43692.65567		 305.27265			43387.38302		69.17400		324.00000 
 43692.65567		 621.76330			43070.89237		212.72400		875.00000 
 43692.65567		 305.27265			43387.38302		69.17400		324.00000 
 43692.65567		 621.76330			43070.89237		212.72400		875.00000 
 43692.65567		 305.27265			43387.38302		69.17400		324.00000 
 43692.65567		 621.76330			43070.89237		212.72400		875.00000 
 43692.65567		 305.27265			43387.38302		69.17400		324.00000 
 43692.65567		 621.76330			43070.89237		212.72400		875.00000 
 43692.65567		 305.27265			43387.38302		69.17400		324.00000 
 43692.65567		 621.76330			43070.89237		212.72400		875.00000 
 43692.65567		 305.27265			43387.38302		69.17400		324.00000 
 43692.65567		 621.76330			43070.89237		212.72400		875.00000 
 43692.65567		 305.27265			43387.38302		69.17400		324.00000 
 43692.65567		 621.76330			43070.89237		212.72400		875.00000 
 43692.65567		 305.27265			43387.38302		69.17400		324.00000 
 43692.65567		 621.76330			43070.89237		212.72400		875.00000 
 43692.65567		 305.27265			43387.38302		69.17400		324.00000 
 43692.65567		 621.76330			43070.89237		212.72400		875.00000 
 43692.65567		 305.27265			43387.38302		69.17400		324.00000 
 43692.65567		 621.76330			43070.89237		212.72400		875.00000 
 43692.65567		 305.27265			43387.38302		69.17400		324.00000 
 43692.65567		 621.76330			43070.89237		212.72400		875.00000 
 43692.65567		 305.27265			43387.38302		69.17400		324.00000 
 43692.65567		 621.76330			43070.89237		212.72400		875.00000 
 43692.65567		 305.27265			43387.38302		69.17400		324.00000 
 43692.65567		 621.76330			43070.89237		212.72400		875.00000 
 43692.65567		 305.27265			43387.38302		69.17400		324.00000 
 43692.65567		 621.76330			43070.89237		212.72400		875.00000 
 43692.65567		 305.27265			43387.38302		69.17400		324.00000 
 43692.65567		 621.76330			43070.89237		212.72400		875.00000 
 43692.65567		 305.27265			43387.38302		69.17400		324.00000 
 43692.65567		 621.76330			43070.89237		212.72400		875.00000 
 43692.65567		 305.27265			43387.38302		69.17400		324.00000 
 43692.65567		 621.76330			43070.89237		212.72400		875.00000 
 43692.65567		 305.27265			43387.38302		69.17400		324.00000 
 43692.65567		 621.76330			43070.89237		212.72400		875.00000 
 43692.65567		 305.27265			43387.38302		69.17400		324.00000 
 43692.65567		 621.76330			43070.89237		212.72400		875.00000 
 43692.65567		 305.27265			43387.38302		69.17400		324.00000 
 43692.65567		 621.76330			43070.89237		212.72400		875.00000 
 43692.65567		 305.27265			43387.38302		69.17400		324.00000 
 43692.65567		 621.76330			43070.89237		212.72400		875.00000 
 43692.65567		 305.27265			43387.38302		69.17400		324.00000 
 43692.65567		 621.76330			43070.89237		212.72400		875.00000 
 43692.65567		 305.27265			43387.38302		69.17400		324.00000 
 43692.65567		 621.76330			43070.89237		212.72400		875.00000 
 43692.65567		 305.27265			43387.38302		69.17400		324.00000 
 43692.65567		 621.76330			43070.89237		212.72400		875.00000 
 43692.65567		 305.27265			43387.38302		69.17400		324.00000 
 43692.65567		 621.76330			43070.89237		212.72400		875.00000 
 43692.65567		 305.27265			43387.38302		69.17400		324.00000 
 43692.65567		 621.76330			43070.89237		212.72400		875.00000 
 43692.65567		 305.27265			43387.38302		69.17400		324.00000 
 43692.65567		 621.76330			43070.89237		212.72400		875.00000 
 43692.65567		 305.27265			43387.38302		69.17400		324.00000 
 43692.65567		 621.76330			43070.89237		212.72400		875.00000 
 43692.65567		 305.27265			43387.38302		69.17400		324.00000 
 43692.65567		 621.76330			43070.89237		212.72400		875.00000 
 43692.65567		 305.27265			43387.38302		69.17400		324.00000 
 43692.65567		 621.76330			43070.89237		212.72400		875.00000 
 43692.65567		 305.27265			43387.38302		69.17400		324.00000 
 43692.65567		 621.76330			43070.89237		212.72400		875.00000 
 43692.65567		 305.27265			43387.38302		69.17400		324.00000 
 43692.65567		 621.76330			43070.89237		212.72400		875.00000 
 43692.65567		 305.27265			43387.38302		69.17400		324.00000 
 43692.65567		 621.76330			43070.89237		212.72400		875.00000 
 43692.65567		 305.27265			43387.38302		69.17400		324.00000 
 43692.65567		 621.76330			43070.89237		212.72400		875.00000 
 43692.65567		 305.27265			43387.38302		69.17400		324.00000 
 43692.65567		 621.76330			43070.89237		215.01600		875.00000 
 43692.65567		 305.27265			43387.38302		69.17400		324.00000 
 43692.65567		 621.76330			43070.89237		215.01600		875.00000 
 43692.65567		 305.27265			43387.38302		69.17400		324.00000 
 43692.65567		 621.76330			43070.89237		215.01600		875.00000 
 43692.65567		 305.27265			43387.38302		69.17400		324.00000 
 43692.65567		 621.76330			43070.89237		215.01600		875.00000 
 43692.65567		 305.27265			43387.38302		69.17400		324.00000 
 43692.65567		 621.76330			43070.89237		215.01600		875.00000 
 43692.65567		 305.27265			43387.38302		69.17400		324.00000 
 43692.65567		 621.76330			43070.89237		215.01600		875.00000 
 43692.65567		 305.27265			43387.38302		69.17400		324.00000 
 43692.65567		 621.76330			43070.89237		215.01600		875.00000 
 43692.65567		 305.27265			43387.38302		69.17400		324.00000 
 43692.65567		 621.76330			43070.89237		215.01600		875.00000 
 43692.65567		 305.27265			43387.38302		69.17400		324.00000 
 43692.65567		 621.76330			43070.89237		215.01600		875.00000 
 43692.65567		 305.27265			43387.38302		69.17400		324.00000 
 43692.65567		 621.76330			43070.89237		215.01600		875.00000 
 43692.65567		 305.27265			43387.38302		69.17400		324.00000 
 43692.65567		 621.76330			43070.89237		215.01600		875.00000 
 43692.65567		 305.27265			43387.38302		69.17400		324.00000 
 43692.65567		 621.76330			43070.89237		215.01600		875.00000 
 43692.65567		 305.27265			43387.38302		69.17400		324.00000 
 43692.65567		 621.76330			43070.89237		215.01600		875.00000 
 43692.65567		 305.27265			43387.38302		69.17400		324.00000 
 43692.65567		 621.76330			43070.89237		215.01600		875.00000 
 43692.65567		 305.27265			43387.38302		69.17400		324.00000 
 43692.65567		 621.76330			43070.89237		215.01600		875.00000 
 43692.65567		 305.27265			43387.38302		69.17400		324.00000 
 43692.65567		 621.76330			43070.89237		215.01600		875.00000 
 43692.65567		 305.27265			43387.38302		69.17400		324.00000 
 43692.65567		 621.76330			43070.89237		215.01600		875.00000 
 43692.65567		 305.27265			43387.38302		69.17400		324.00000 
 43692.65567		 621.76330			43070.89237		215.01600		875.00000 
 43692.65567		 305.27265			43387.38302		69.17400		324.00000 
 43692.65567		 621.76330			43070.89237		215.01600		875.00000 
 43692.65567		 305.27265			43387.38302		69.17400		324.00000 
 43692.65567		 621.76330			43070.89237		215.01600		875.00000 
 43692.65567		 305.27265			43387.38302		69.17400		324.00000 
 43692.65567		 621.76330			43070.89237		215.01600		875.00000 
 43692.65567		 305.27265			43387.38302		69.17400		324.00000 
 43692.65567		 621.76330			43070.89237		215.01600		875.00000 
 43692.65567		 305.27265			43387.38302		69.17400		324.00000 
 43692.65567		 621.76330			43070.89237		215.01600		875.00000 
 43692.65567		 305.27265			43387.38302		69.17400		324.00000 
 43692.65567		 621.76330			43070.89237		215.01600		875.00000 
 43692.65567		 305.27265			43387.38302		69.17400		324.00000 
 43692.65567		 621.76330			43070.89237		215.01600		875.00000 
 43692.65567		 305.27265			43387.38302		69.17400		324.00000 
 43692.65567		 621.76330			43070.89237		215.01600		875.00000 
 43692.65567		 305.27265			43387.38302		69.17400		324.00000 
 43692.65567		 621.76330			43070.89237		215.01600		875.00000 
 43692.65567		 305.27265			43387.38302		69.17400		324.00000 
 43692.65567		 621.76330			43070.89237		215.01600		875.00000 
 43692.65567		 305.27265			43387.38302		69.17400		324.00000 
 43692.65567		 621.76330			43070.89237		215.01600		875.00000 
 43692.65567		 305.27265			43387.38302		69.17400		324.00000 
 43692.65567		 621.76330			43070.89237		215.01600		875.00000 
 43692.65567		 305.27265			43387.38302		69.17400		324.00000 
 43692.65567		 621.76330			43070.89237		215.01600		875.00000 
 43692.65567		 305.27265			43387.38302		69.17400		324.00000 
 43692.65567		 621.76330			43070.89237		215.01600		875.00000 
 43692.65567		 305.27265			43387.38302		69.17400		324.00000 
 43692.65567		 621.76330			43070.89237		215.01600		875.00000 
 43692.65567		 305.27265			43387.38302		69.17400		324.00000 
 43692.65567		 621.76330			43070.89237		215.01600		875.00000 
 43692.65567		 305.27265			43387.38302		69.17400		324.00000 
 43692.65567		 621.76330			43070.89237		215.01600		875.00000 
 43692.65567		 305.27265			43387.38302		69.17400		324.00000 
 43692.65567		 621.76330			43070.89237		215.01600		875.00000 
 43692.65567		 305.27265			43387.38302		69.17400		324.00000 
 43692.65567		 621.76330			43070.89237		215.01600		875.00000 
 43692.65567		 305.27265			43387.38302		69.17400		324.00000 
 43692.65567		 621.76330			43070.89237		215.01600		875.00000 
 43692.65567		 305.27265			43387.38302		69.17400		324.00000 
 43692.65567		 621.76330			43070.89237		215.01600		875.00000 
 43692.65567		 305.27265			43387.38302		69.17400		324.00000 
 43692.65567		 621.76330			43070.89237		215.01600		875.00000 
 43692.65567		 305.27265			43387.38302		69.17400		324.00000 
 43692.65567		 621.76330			43070.89237		215.01600		875.00000 
 43692.65567		 305.27265			43387.38302		69.17400		324.00000 
 43692.65567		 621.76330			43070.89237		215.01600		875.00000 
 43692.65567		 305.27265			43387.38302		69.17400		324.00000 
 43692.65567		 621.76330			43070.89237		215.01600		875.00000 
 43692.65567		 305.27265			43387.38302		69.17400		324.00000 
 43692.65567		 621.76330			43070.89237		215.01600		875.00000 
 43692.65567		 305.27265			43387.38302		69.17400		324.00000 
 43692.65567		 621.76330			43070.89237		215.01600		875.00000 
 43692.65567		 305.27265			43387.38302		69.17400		324.00000 
 43692.65567		 621.76330			43070.89237		215.01600		875.00000 
 43692.65567		 305.27265			43387.38302		69.17400		324.00000 
 43692.65567		 621.76330			43070.89237		215.01600		875.00000 
 43692.65567		 305.27265			43387.38302		69.17400		324.00000 
 43692.65567		 621.76330			43070.89237		215.01600		875.00000 
 43692.65567		 305.27265			43387.38302		69.17400		324.00000 
 43692.65567		 621.76330			43070.89237		215.01600		875.00000 
 43692.65567		 305.27265			43387.38302		69.17400		324.00000 
 43692.65567		 621.76330			43070.89237		215.01600		875.00000 
 43692.65567		 305.27265			43387.38302		69.17400		324.00000 
 43692.65567		 621.76330			43070.89237		215.01600		875.00000 
 43692.65567		 305.27265			43387.38302		69.17400		324.00000 
 43692.65567		 621.76330			43070.89237		215.01600		875.00000 
 43692.65567		 305.27265			43387.38302		69.17400		324.00000 
 43692.65567		 621.76330			43070.89237		215.01600		875.00000 
 43692.65567		 305.27265			43387.38302		69.17400		324.00000 
 43692.65567		 621.76330			43070.89237		215.01600		875.00000 
 43692.65567		 305.27265			43387.38302		69.17400		324.00000 
 43692.65567		 621.76330			43070.89237		215.01600		875.00000 
 43692.65567		 305.27265			43387.38302		69.17400		324.00000 
 43692.65567		 621.76330			43070.89237		215.01600		875.00000 
 43692.65567		 305.27265			43387.38302		69.17400		324.00000 
 43692.65567		 621.76330			43070.89237		215.01600		875.00000 
 43692.65567		 305.27265			43387.38302		69.17400		324.00000 
 43692.65567		 621.76330			43070.89237		215.01600		875.00000 
 43692.65567		 305.27265			43387.38302		69.17400		324.00000 
 43692.65567		 621.76330			43070.89237		215.01600		875.00000 
 43692.65567		 305.27265			43387.38302		69.17400		324.00000 
 43692.65567		 621.76330			43070.89237		215.01600		875.00000 
 43692.65567		 305.27265			43387.38302		69.17400		324.00000 
 43692.65567		 621.76330			43070.89237		215.01600		875.00000 
 43692.65567		 305.27265			43387.38302		69.17400		324.00000 
 43692.65567		 621.76330			43070.89237		215.01600		875.00000 
 43692.65567		 305.27265			43387.38302		69.17400		324.00000 
 43692.65567		 621.76330			43070.89237		215.01600		875.00000 
 43692.65567		 305.27265			43387.38302		69.17400		324.00000 
 43692.65567		 621.76330			43070.89237		215.01600		875.00000 
 43692.65567		 305.27265			43387.38302		69.17400		324.00000 
 43692.65567		 621.76330			43070.89237		215.01600		875.00000 
 43692.65567		 305.27265			43387.38302		69.17400		324.00000 
 43692.65567		 593.59897			43099.05670		215.77800		875.00000 
 43692.65567		 305.27265			43387.38302		69.17400		324.00000 
 43692.65567		 537.27032			43155.38535		215.77800		875.00000 
 43692.65567		 305.27265			43387.38302		69.17400		324.00000 
 43692.65567		 537.27032			43155.38535		215.77800		875.00000 
 43692.65567		 305.27265			43387.38302		69.17400		324.00000 
 43692.65567		 537.27032			43155.38535		215.77800		875.00000 
 43692.65567		 305.27265			43387.38302		69.17400		324.00000 
 43692.65567		 537.27032			43155.38535		215.77800		875.00000 
 43692.65567		 305.27265			43387.38302		69.17400		324.00000 
 43692.65567		 537.27032			43155.38535		215.77800		875.00000 
 43692.65567		 305.27265			43387.38302		69.17400		324.00000 
 43692.65567		 537.27032			43155.38535		215.77800		875.00000 
 43692.65567		 305.27265			43387.38302		69.17400		324.00000 
 43692.65567		 537.27032			43155.38535		215.77800		875.00000 
 43692.65567		 305.27265			43387.38302		69.17400		324.00000 
 43692.65567		 537.27032			43155.38535		215.77800		875.00000 
 43692.65567		 305.27265			43387.38302		69.17400		324.00000 
 43692.65567		 537.27032			43155.38535		215.77800		875.00000 
 43692.65567		 305.27265			43387.38302		69.17400		324.00000 
 43692.65567		 537.27032			43155.38535		215.77800		875.00000 
 43692.65567		 305.27265			43387.38302		69.17400		324.00000 
 43692.65567		 537.27032			43155.38535		215.77800		875.00000 
 43692.65567		 305.27265			43387.38302		69.17400		324.00000 
 43692.65567		 537.27032			43155.38535		215.77800		875.00000 
 43692.65567		 305.27265			43387.38302		69.17400		324.00000 
 43692.65567		 537.27032			43155.38535		215.77800		875.00000 
 43692.65567		 305.27265			43387.38302		69.17400		324.00000 
 43692.65567		 537.27032			43155.38535		215.77800		875.00000 
 43692.65567		 305.27265			43387.38302		69.17400		324.00000 
 43692.65567		 537.27032			43155.38535		215.77800		875.00000 
 43692.65567		 305.27265			43387.38302		69.17400		324.00000 
 43692.65567		 537.27032			43155.38535		215.77800		875.00000 
 43692.65567		 305.27265			43387.38302		69.17400		324.00000 
 43692.65567		 537.27032			43155.38535		215.77800		875.00000 
 43692.65567		 305.27265			43387.38302		69.17400		324.00000 
 43692.65567		 537.27032			43155.38535		215.77800		875.00000 
 43692.65567		 305.27265			43387.38302		69.17400		324.00000 
 43692.65567		 537.27032			43155.38535		215.77800		875.00000 
 43692.65567		 305.27265			43387.38302		69.17400		324.00000 
 43692.65567		 529.63254			43163.02313		215.77800		875.00000 
 43692.65567		 305.27265			43387.38302		69.17400		324.00000 
 43692.65567		 525.81365			43166.84203		215.77800		875.00000 
 43692.65567		 297.63487			43395.02080		69.17400		324.00000 
 43692.65567		 261.35540			43431.30027		215.77800		875.00000 
 43692.65567		 261.35540			43431.30027		69.17400		324.00000 
