Memory Total (MiB) 	 Memory Used (MiB) 	    Memory Free (MiB) 	 Power Drawed (W) 	 Clocks (Mhz) 	 
 43692.65567		 261.35540			43431.30027		192.98800		875.00000 
 43692.65567		 261.35540			43431.30027		70.74000		324.00000 
 43692.65567		 261.35540			43431.30027		192.98800		875.00000 
 43692.65567		 261.35540			43431.30027		70.74000		324.00000 
 43692.65567		 261.35540			43431.30027		192.98800		875.00000 
 43692.65567		 261.35540			43431.30027		70.74000		324.00000 
 43692.65567		 261.35540			43431.30027		192.98800		875.00000 
 43692.65567		 261.35540			43431.30027		70.74000		324.00000 
 43692.65567		 261.35540			43431.30027		192.98800		875.00000 
 43692.65567		 261.35540			43431.30027		70.74000		324.00000 
 43692.65567		 261.35540			43431.30027		192.98800		875.00000 
 43692.65567		 261.35540			43431.30027		70.74000		324.00000 
 43692.65567		 261.35540			43431.30027		192.98800		875.00000 
 43692.65567		 261.35540			43431.30027		70.74000		324.00000 
 43692.65567		 261.35540			43431.30027		192.98800		875.00000 
 43692.65567		 261.35540			43431.30027		70.74000		324.00000 
 43692.65567		 261.35540			43431.30027		192.98800		875.00000 
 43692.65567		 261.35540			43431.30027		70.74000		324.00000 
 43692.65567		 261.35540			43431.30027		192.98800		875.00000 
 43692.65567		 261.35540			43431.30027		70.74000		324.00000 
 43692.65567		 261.35540			43431.30027		192.98800		875.00000 
 43692.65567		 261.35540			43431.30027		70.74000		324.00000 
 43692.65567		 261.35540			43431.30027		192.98800		875.00000 
 43692.65567		 261.35540			43431.30027		70.74000		324.00000 
 43692.65567		 261.35540			43431.30027		192.98800		875.00000 
 43692.65567		 261.35540			43431.30027		70.74000		324.00000 
 43692.65567		 261.35540			43431.30027		192.98800		875.00000 
 43692.65567		 261.35540			43431.30027		70.74000		324.00000 
 43692.65567		 261.35540			43431.30027		192.98800		875.00000 
 43692.65567		 261.35540			43431.30027		70.74000		324.00000 
 43692.65567		 261.35540			43431.30027		192.98800		875.00000 
 43692.65567		 261.35540			43431.30027		70.74000		324.00000 
 43692.65567		 261.35540			43431.30027		192.98800		875.00000 
 43692.65567		 261.35540			43431.30027		70.74000		324.00000 
 43692.65567		 261.35540			43431.30027		192.98800		875.00000 
 43692.65567		 261.35540			43431.30027		70.74000		324.00000 
 43692.65567		 265.17429			43427.48138		155.65000		875.00000 
 43692.65567		 261.35540			43431.30027		70.74000		324.00000 
 43692.65567		 265.17429			43427.48138		155.65000		875.00000 
 43692.65567		 261.35540			43431.30027		70.74000		324.00000 
 43692.65567		 272.81207			43419.84360		155.65000		875.00000 
 43692.65567		 261.35540			43431.30027		70.74000		324.00000 
 43692.65567		 272.81207			43419.84360		155.65000		875.00000 
 43692.65567		 261.35540			43431.30027		70.74000		324.00000 
 43692.65567		 272.81207			43419.84360		155.65000		875.00000 
 43692.65567		 265.17429			43427.48138		70.74000		324.00000 
 43692.65567		 272.81207			43419.84360		155.65000		875.00000 
 43692.65567		 265.17429			43427.48138		70.74000		324.00000 
 43692.65567		 272.81207			43419.84360		155.65000		875.00000 
 43692.65567		 272.81207			43419.84360		70.74000		324.00000 
 43692.65567		 272.81207			43419.84360		155.65000		875.00000 
 43692.65567		 272.81207			43419.84360		70.74000		324.00000 
 43692.65567		 272.81207			43419.84360		155.65000		875.00000 
 43692.65567		 272.81207			43419.84360		70.74000		324.00000 
 43692.65567		 272.81207			43419.84360		155.65000		875.00000 
 43692.65567		 272.81207			43419.84360		70.74000		324.00000 
 43692.65567		 305.27265			43387.38302		155.65000		875.00000 
 43692.65567		 305.27265			43387.38302		70.74000		324.00000 
 43692.65567		 305.27265			43387.38302		155.65000		875.00000 
 43692.65567		 305.27265			43387.38302		70.74000		324.00000 
 43692.65567		 305.27265			43387.38302		155.65000		875.00000 
 43692.65567		 305.27265			43387.38302		70.74000		324.00000 
 43692.65567		 305.27265			43387.38302		155.65000		875.00000 
 43692.65567		 305.27265			43387.38302		70.74000		324.00000 
 43692.65567		 305.27265			43387.38302		155.65000		875.00000 
 43692.65567		 305.27265			43387.38302		70.74000		324.00000 
 43692.65567		 310.04627			43382.60941		155.65000		875.00000 
 43692.65567		 305.27265			43387.38302		70.74000		324.00000 
 43692.65567		 311.00099			43381.65468		155.65000		875.00000 
 43692.65567		 305.27265			43387.38302		70.74000		324.00000 
 43692.65567		 311.00099			43381.65468		155.65000		875.00000 
 43692.65567		 305.27265			43387.38302		70.74000		324.00000 
 43692.65567		 311.00099			43381.65468		155.65000		875.00000 
 43692.65567		 305.27265			43387.38302		70.74000		324.00000 
 43692.65567		 311.00099			43381.65468		155.65000		875.00000 
 43692.65567		 305.27265			43387.38302		70.74000		324.00000 
 43692.65567		 311.00099			43381.65468		155.65000		875.00000 
 43692.65567		 305.27265			43387.38302		70.74000		324.00000 
 43692.65567		 311.00099			43381.65468		155.65000		875.00000 
 43692.65567		 305.27265			43387.38302		70.74000		324.00000 
 43692.65567		 311.00099			43381.65468		155.65000		875.00000 
 43692.65567		 305.27265			43387.38302		70.74000		324.00000 
 43692.65567		 311.00099			43381.65468		155.65000		875.00000 
 43692.65567		 305.27265			43387.38302		70.74000		324.00000 
 43692.65567		 311.00099			43381.65468		155.65000		875.00000 
 43692.65567		 305.27265			43387.38302		70.74000		324.00000 
 43692.65567		 311.00099			43381.65468		155.65000		875.00000 
 43692.65567		 305.27265			43387.38302		70.74000		324.00000 
 43692.65567		 311.00099			43381.65468		155.65000		875.00000 
 43692.65567		 305.27265			43387.38302		70.74000		324.00000 
 43692.65567		 311.00099			43381.65468		155.65000		875.00000 
 43692.65567		 305.27265			43387.38302		70.74000		324.00000 
 43692.65567		 311.00099			43381.65468		155.65000		875.00000 
 43692.65567		 305.27265			43387.38302		70.74000		324.00000 
 43692.65567		 311.00099			43381.65468		155.65000		875.00000 
 43692.65567		 305.27265			43387.38302		70.74000		324.00000 
 43692.65567		 311.00099			43381.65468		155.65000		875.00000 
 43692.65567		 305.27265			43387.38302		70.74000		324.00000 
 43692.65567		 311.00099			43381.65468		139.84200		875.00000 
 43692.65567		 305.27265			43387.38302		70.74000		324.00000 
 43692.65567		 311.00099			43381.65468		139.84200		875.00000 
 43692.65567		 305.27265			43387.38302		70.74000		324.00000 
 43692.65567		 311.00099			43381.65468		139.84200		875.00000 
 43692.65567		 305.27265			43387.38302		70.74000		324.00000 
 43692.65567		 311.00099			43381.65468		139.84200		875.00000 
 43692.65567		 305.27265			43387.38302		70.74000		324.00000 
 43692.65567		 311.00099			43381.65468		139.84200		875.00000 
 43692.65567		 305.27265			43387.38302		70.74000		324.00000 
 43692.65567		 311.00099			43381.65468		139.84200		875.00000 
 43692.65567		 305.27265			43387.38302		70.74000		324.00000 
 43692.65567		 311.00099			43381.65468		139.84200		875.00000 
 43692.65567		 305.27265			43387.38302		70.74000		324.00000 
 43692.65567		 311.00099			43381.65468		139.84200		875.00000 
 43692.65567		 305.27265			43387.38302		70.74000		324.00000 
 43692.65567		 311.00099			43381.65468		139.84200		875.00000 
 43692.65567		 305.27265			43387.38302		70.74000		324.00000 
 43692.65567		 311.00099			43381.65468		139.84200		875.00000 
 43692.65567		 305.27265			43387.38302		70.74000		324.00000 
 43692.65567		 311.00099			43381.65468		139.84200		875.00000 
 43692.65567		 305.27265			43387.38302		70.74000		324.00000 
 43692.65567		 311.00099			43381.65468		139.84200		875.00000 
 43692.65567		 305.27265			43387.38302		70.74000		324.00000 
 43692.65567		 311.00099			43381.65468		139.84200		875.00000 
 43692.65567		 305.27265			43387.38302		70.74000		324.00000 
 43692.65567		 311.00099			43381.65468		139.84200		875.00000 
 43692.65567		 305.27265			43387.38302		70.74000		324.00000 
 43692.65567		 311.00099			43381.65468		139.84200		875.00000 
 43692.65567		 305.27265			43387.38302		70.74000		324.00000 
 43692.65567		 311.00099			43381.65468		139.84200		875.00000 
 43692.65567		 305.27265			43387.38302		70.74000		324.00000 
 43692.65567		 311.00099			43381.65468		139.84200		875.00000 
 43692.65567		 305.27265			43387.38302		70.74000		324.00000 
 43692.65567		 311.00099			43381.65468		139.84200		875.00000 
 43692.65567		 305.27265			43387.38302		70.74000		324.00000 
 43692.65567		 311.00099			43381.65468		139.84200		875.00000 
 43692.65567		 305.27265			43387.38302		70.74000		324.00000 
 43692.65567		 311.00099			43381.65468		139.84200		875.00000 
 43692.65567		 305.27265			43387.38302		70.74000		324.00000 
 43692.65567		 311.00099			43381.65468		139.84200		875.00000 
 43692.65567		 305.27265			43387.38302		70.74000		324.00000 
 43692.65567		 311.00099			43381.65468		139.84200		875.00000 
 43692.65567		 305.27265			43387.38302		70.74000		324.00000 
 43692.65567		 311.00099			43381.65468		139.84200		875.00000 
 43692.65567		 305.27265			43387.38302		70.74000		324.00000 
 43692.65567		 311.00099			43381.65468		139.84200		875.00000 
 43692.65567		 305.27265			43387.38302		70.74000		324.00000 
 43692.65567		 311.00099			43381.65468		139.84200		875.00000 
 43692.65567		 305.27265			43387.38302		70.74000		324.00000 
 43692.65567		 311.00099			43381.65468		139.84200		875.00000 
 43692.65567		 305.27265			43387.38302		70.74000		324.00000 
 43692.65567		 311.00099			43381.65468		139.84200		875.00000 
 43692.65567		 305.27265			43387.38302		70.74000		324.00000 
 43692.65567		 311.00099			43381.65468		139.84200		875.00000 
 43692.65567		 305.27265			43387.38302		70.74000		324.00000 
 43692.65567		 311.00099			43381.65468		139.84200		875.00000 
 43692.65567		 305.27265			43387.38302		70.74000		324.00000 
 43692.65567		 311.00099			43381.65468		139.84200		875.00000 
 43692.65567		 305.27265			43387.38302		70.74000		324.00000 
 43692.65567		 311.00099			43381.65468		139.84200		875.00000 
 43692.65567		 305.27265			43387.38302		70.74000		324.00000 
 43692.65567		 311.00099			43381.65468		135.03600		875.00000 
 43692.65567		 305.27265			43387.38302		70.74000		324.00000 
 43692.65567		 311.00099			43381.65468		135.03600		875.00000 
 43692.65567		 305.27265			43387.38302		70.74000		324.00000 
 43692.65567		 311.00099			43381.65468		135.03600		875.00000 
 43692.65567		 305.27265			43387.38302		70.74000		324.00000 
 43692.65567		 311.00099			43381.65468		135.03600		875.00000 
 43692.65567		 305.27265			43387.38302		70.74000		324.00000 
 43692.65567		 314.81988			43377.83579		135.03600		875.00000 
 43692.65567		 305.27265			43387.38302		70.74000		324.00000 
 43692.65567		 314.81988			43377.83579		135.03600		875.00000 
 43692.65567		 305.27265			43387.38302		70.74000		324.00000 
 43692.65567		 314.81988			43377.83579		135.03600		875.00000 
 43692.65567		 305.27265			43387.38302		70.74000		324.00000 
 43692.65567		 318.63877			43374.01690		135.03600		875.00000 
 43692.65567		 305.27265			43387.38302		70.74000		324.00000 
 43692.65567		 322.45767			43370.19801		135.03600		875.00000 
 43692.65567		 305.27265			43387.38302		70.74000		324.00000 
 43692.65567		 326.27656			43366.37912		135.03600		875.00000 
 43692.65567		 305.27265			43387.38302		70.74000		324.00000 
 43692.65567		 326.27656			43366.37912		135.03600		875.00000 
 43692.65567		 305.27265			43387.38302		70.74000		324.00000 
 43692.65567		 326.27656			43366.37912		135.03600		875.00000 
 43692.65567		 305.27265			43387.38302		70.74000		324.00000 
 43692.65567		 537.27032			43155.38535		135.03600		875.00000 
 43692.65567		 305.27265			43387.38302		70.74000		324.00000 
 43692.65567		 672.84098			43019.81470		135.03600		875.00000 
 43692.65567		 305.27265			43387.38302		70.74000		324.00000 
 43692.65567		 740.62630			42952.02937		135.03600		875.00000 
 43692.65567		 305.27265			43387.38302		70.74000		324.00000 
 43692.65567		 740.62630			42952.02937		135.03600		875.00000 
 43692.65567		 305.27265			43387.38302		70.74000		324.00000 
 43692.65567		 740.62630			42952.02937		135.03600		875.00000 
 43692.65567		 305.27265			43387.38302		70.74000		324.00000 
 43692.65567		 740.62630			42952.02937		135.03600		875.00000 
 43692.65567		 305.27265			43387.38302		70.74000		324.00000 
 43692.65567		 740.62630			42952.02937		135.03600		875.00000 
 43692.65567		 305.27265			43387.38302		70.74000		324.00000 
 43692.65567		 740.62630			42952.02937		135.03600		875.00000 
 43692.65567		 305.27265			43387.38302		70.74000		324.00000 
 43692.65567		 740.62630			42952.02937		135.03600		875.00000 
 43692.65567		 305.27265			43387.38302		70.74000		324.00000 
 43692.65567		 740.62630			42952.02937		135.03600		875.00000 
 43692.65567		 305.27265			43387.38302		70.74000		324.00000 
 43692.65567		 740.62630			42952.02937		135.03600		875.00000 
 43692.65567		 305.27265			43387.38302		70.74000		324.00000 
 43692.65567		 740.62630			42952.02937		135.03600		875.00000 
 43692.65567		 305.27265			43387.38302		70.74000		324.00000 
 43692.65567		 740.62630			42952.02937		135.03600		875.00000 
 43692.65567		 305.27265			43387.38302		70.74000		324.00000 
 43692.65567		 740.62630			42952.02937		135.03600		875.00000 
 43692.65567		 305.27265			43387.38302		70.74000		324.00000 
 43692.65567		 740.62630			42952.02937		135.03600		875.00000 
 43692.65567		 305.27265			43387.38302		70.74000		324.00000 
 43692.65567		 740.62630			42952.02937		135.03600		875.00000 
 43692.65567		 305.27265			43387.38302		70.74000		324.00000 
 43692.65567		 740.62630			42952.02937		135.03600		875.00000 
 43692.65567		 305.27265			43387.38302		70.74000		324.00000 
 43692.65567		 740.62630			42952.02937		135.03600		875.00000 
 43692.65567		 305.27265			43387.38302		70.74000		324.00000 
 43692.65567		 740.62630			42952.02937		135.03600		875.00000 
 43692.65567		 305.27265			43387.38302		70.74000		324.00000 
 43692.65567		 740.62630			42952.02937		135.03600		875.00000 
 43692.65567		 305.27265			43387.38302		70.74000		324.00000 
 43692.65567		 740.62630			42952.02937		135.03600		875.00000 
 43692.65567		 305.27265			43387.38302		70.74000		324.00000 
 43692.65567		 740.62630			42952.02937		135.03600		875.00000 
 43692.65567		 305.27265			43387.38302		70.74000		324.00000 
 43692.65567		 740.62630			42952.02937		135.03600		875.00000 
 43692.65567		 305.27265			43387.38302		70.74000		324.00000 
 43692.65567		 740.62630			42952.02937		135.03600		875.00000 
 43692.65567		 305.27265			43387.38302		70.74000		324.00000 
 43692.65567		 740.62630			42952.02937		135.03600		875.00000 
 43692.65567		 305.27265			43387.38302		70.74000		324.00000 
 43692.65567		 740.62630			42952.02937		135.03600		875.00000 
 43692.65567		 305.27265			43387.38302		70.74000		324.00000 
 43692.65567		 740.62630			42952.02937		135.03600		875.00000 
 43692.65567		 305.27265			43387.38302		70.74000		324.00000 
 43692.65567		 740.62630			42952.02937		135.03600		875.00000 
 43692.65567		 305.27265			43387.38302		70.74000		324.00000 
 43692.65567		 740.62630			42952.02937		135.03600		875.00000 
 43692.65567		 305.27265			43387.38302		70.74000		324.00000 
 43692.65567		 740.62630			42952.02937		135.03600		875.00000 
 43692.65567		 305.27265			43387.38302		70.74000		324.00000 
 43692.65567		 740.62630			42952.02937		135.03600		875.00000 
 43692.65567		 305.27265			43387.38302		70.74000		324.00000 
 43692.65567		 740.62630			42952.02937		135.03600		875.00000 
 43692.65567		 305.27265			43387.38302		70.74000		324.00000 
 43692.65567		 740.62630			42952.02937		135.03600		875.00000 
 43692.65567		 305.27265			43387.38302		70.74000		324.00000 
 43692.65567		 740.62630			42952.02937		135.03600		875.00000 
 43692.65567		 305.27265			43387.38302		70.74000		324.00000 
 43692.65567		 740.62630			42952.02937		135.03600		875.00000 
 43692.65567		 305.27265			43387.38302		70.74000		324.00000 
 43692.65567		 740.62630			42952.02937		135.03600		875.00000 
 43692.65567		 305.27265			43387.38302		70.74000		324.00000 
 43692.65567		 740.62630			42952.02937		135.03600		875.00000 
 43692.65567		 305.27265			43387.38302		70.74000		324.00000 
 43692.65567		 740.62630			42952.02937		135.03600		875.00000 
 43692.65567		 305.27265			43387.38302		70.74000		324.00000 
 43692.65567		 740.62630			42952.02937		135.03600		875.00000 
 43692.65567		 305.27265			43387.38302		70.74000		324.00000 
 43692.65567		 740.62630			42952.02937		135.03600		875.00000 
 43692.65567		 305.27265			43387.38302		70.74000		324.00000 
 43692.65567		 740.62630			42952.02937		135.03600		875.00000 
 43692.65567		 305.27265			43387.38302		70.74000		324.00000 
 43692.65567		 740.62630			42952.02937		135.03600		875.00000 
 43692.65567		 305.27265			43387.38302		70.74000		324.00000 
 43692.65567		 740.62630			42952.02937		135.03600		875.00000 
 43692.65567		 305.27265			43387.38302		70.74000		324.00000 
 43692.65567		 740.62630			42952.02937		177.15800		875.00000 
 43692.65567		 305.27265			43387.38302		70.74000		324.00000 
 43692.65567		 740.62630			42952.02937		177.15800		875.00000 
 43692.65567		 305.27265			43387.38302		70.74000		324.00000 
 43692.65567		 740.62630			42952.02937		177.15800		875.00000 
 43692.65567		 305.27265			43387.38302		70.74000		324.00000 
 43692.65567		 740.62630			42952.02937		177.15800		875.00000 
 43692.65567		 305.27265			43387.38302		70.74000		324.00000 
 43692.65567		 740.62630			42952.02937		177.15800		875.00000 
 43692.65567		 305.27265			43387.38302		70.74000		324.00000 
 43692.65567		 740.62630			42952.02937		177.15800		875.00000 
 43692.65567		 305.27265			43387.38302		70.74000		324.00000 
 43692.65567		 740.62630			42952.02937		177.15800		875.00000 
 43692.65567		 305.27265			43387.38302		70.74000		324.00000 
 43692.65567		 740.62630			42952.02937		177.15800		875.00000 
 43692.65567		 305.27265			43387.38302		70.74000		324.00000 
 43692.65567		 740.62630			42952.02937		177.15800		875.00000 
 43692.65567		 305.27265			43387.38302		70.74000		324.00000 
 43692.65567		 740.62630			42952.02937		177.15800		875.00000 
 43692.65567		 305.27265			43387.38302		70.74000		324.00000 
 43692.65567		 740.62630			42952.02937		177.15800		875.00000 
 43692.65567		 305.27265			43387.38302		70.74000		324.00000 
 43692.65567		 740.62630			42952.02937		177.15800		875.00000 
 43692.65567		 305.27265			43387.38302		70.74000		324.00000 
 43692.65567		 740.62630			42952.02937		177.15800		875.00000 
 43692.65567		 305.27265			43387.38302		70.74000		324.00000 
 43692.65567		 740.62630			42952.02937		177.15800		875.00000 
 43692.65567		 305.27265			43387.38302		70.74000		324.00000 
 43692.65567		 740.62630			42952.02937		177.15800		875.00000 
 43692.65567		 305.27265			43387.38302		70.74000		324.00000 
 43692.65567		 740.62630			42952.02937		177.15800		875.00000 
 43692.65567		 305.27265			43387.38302		70.74000		324.00000 
 43692.65567		 740.62630			42952.02937		177.15800		875.00000 
 43692.65567		 305.27265			43387.38302		70.74000		324.00000 
 43692.65567		 740.62630			42952.02937		177.15800		875.00000 
 43692.65567		 305.27265			43387.38302		70.74000		324.00000 
 43692.65567		 740.62630			42952.02937		177.15800		875.00000 
 43692.65567		 305.27265			43387.38302		70.74000		324.00000 
 43692.65567		 740.62630			42952.02937		177.15800		875.00000 
 43692.65567		 305.27265			43387.38302		70.74000		324.00000 
 43692.65567		 740.62630			42952.02937		177.15800		875.00000 
 43692.65567		 305.27265			43387.38302		70.74000		324.00000 
 43692.65567		 740.62630			42952.02937		177.15800		875.00000 
 43692.65567		 305.27265			43387.38302		70.74000		324.00000 
 43692.65567		 740.62630			42952.02937		177.15800		875.00000 
 43692.65567		 305.27265			43387.38302		70.74000		324.00000 
 43692.65567		 740.62630			42952.02937		177.15800		875.00000 
 43692.65567		 305.27265			43387.38302		70.74000		324.00000 
 43692.65567		 740.62630			42952.02937		177.15800		875.00000 
 43692.65567		 305.27265			43387.38302		70.74000		324.00000 
 43692.65567		 740.62630			42952.02937		177.15800		875.00000 
 43692.65567		 305.27265			43387.38302		70.74000		324.00000 
 43692.65567		 740.62630			42952.02937		177.15800		875.00000 
 43692.65567		 305.27265			43387.38302		70.74000		324.00000 
 43692.65567		 740.62630			42952.02937		177.15800		875.00000 
 43692.65567		 305.27265			43387.38302		70.74000		324.00000 
 43692.65567		 740.62630			42952.02937		177.15800		875.00000 
 43692.65567		 305.27265			43387.38302		70.74000		324.00000 
 43692.65567		 740.62630			42952.02937		177.15800		875.00000 
 43692.65567		 305.27265			43387.38302		70.74000		324.00000 
 43692.65567		 740.62630			42952.02937		177.15800		875.00000 
 43692.65567		 305.27265			43387.38302		70.74000		324.00000 
 43692.65567		 740.62630			42952.02937		177.15800		875.00000 
 43692.65567		 305.27265			43387.38302		70.74000		324.00000 
 43692.65567		 740.62630			42952.02937		177.15800		875.00000 
 43692.65567		 305.27265			43387.38302		70.74000		324.00000 
 43692.65567		 740.62630			42952.02937		177.15800		875.00000 
 43692.65567		 305.27265			43387.38302		70.74000		324.00000 
 43692.65567		 740.62630			42952.02937		177.15800		875.00000 
 43692.65567		 305.27265			43387.38302		70.74000		324.00000 
 43692.65567		 740.62630			42952.02937		177.15800		875.00000 
 43692.65567		 305.27265			43387.38302		70.74000		324.00000 
 43692.65567		 740.62630			42952.02937		177.15800		875.00000 
 43692.65567		 305.27265			43387.38302		70.74000		324.00000 
 43692.65567		 740.62630			42952.02937		177.15800		875.00000 
 43692.65567		 305.27265			43387.38302		70.74000		324.00000 
 43692.65567		 740.62630			42952.02937		177.15800		875.00000 
 43692.65567		 305.27265			43387.38302		70.74000		324.00000 
 43692.65567		 740.62630			42952.02937		177.15800		875.00000 
 43692.65567		 305.27265			43387.38302		70.74000		324.00000 
 43692.65567		 740.62630			42952.02937		177.15800		875.00000 
 43692.65567		 305.27265			43387.38302		70.74000		324.00000 
 43692.65567		 740.62630			42952.02937		177.15800		875.00000 
 43692.65567		 305.27265			43387.38302		70.74000		324.00000 
 43692.65567		 740.62630			42952.02937		177.15800		875.00000 
 43692.65567		 305.27265			43387.38302		70.74000		324.00000 
 43692.65567		 740.62630			42952.02937		177.15800		875.00000 
 43692.65567		 305.27265			43387.38302		70.74000		324.00000 
 43692.65567		 740.62630			42952.02937		177.15800		875.00000 
 43692.65567		 305.27265			43387.38302		70.74000		324.00000 
 43692.65567		 740.62630			42952.02937		177.15800		875.00000 
 43692.65567		 305.27265			43387.38302		70.74000		324.00000 
 43692.65567		 740.62630			42952.02937		177.15800		875.00000 
 43692.65567		 305.27265			43387.38302		70.74000		324.00000 
 43692.65567		 740.62630			42952.02937		177.15800		875.00000 
 43692.65567		 305.27265			43387.38302		70.74000		324.00000 
 43692.65567		 740.62630			42952.02937		177.15800		875.00000 
 43692.65567		 305.27265			43387.38302		70.74000		324.00000 
 43692.65567		 740.62630			42952.02937		177.15800		875.00000 
 43692.65567		 305.27265			43387.38302		70.74000		324.00000 
 43692.65567		 740.62630			42952.02937		177.15800		875.00000 
 43692.65567		 305.27265			43387.38302		70.74000		324.00000 
 43692.65567		 740.62630			42952.02937		177.15800		875.00000 
 43692.65567		 305.27265			43387.38302		70.74000		324.00000 
 43692.65567		 740.62630			42952.02937		177.15800		875.00000 
 43692.65567		 305.27265			43387.38302		70.74000		324.00000 
 43692.65567		 740.62630			42952.02937		177.15800		875.00000 
 43692.65567		 305.27265			43387.38302		70.74000		324.00000 
 43692.65567		 740.62630			42952.02937		177.15800		875.00000 
 43692.65567		 305.27265			43387.38302		70.74000		324.00000 
 43692.65567		 740.62630			42952.02937		177.15800		875.00000 
 43692.65567		 305.27265			43387.38302		70.74000		324.00000 
 43692.65567		 740.62630			42952.02937		177.15800		875.00000 
 43692.65567		 305.27265			43387.38302		70.74000		324.00000 
 43692.65567		 740.62630			42952.02937		177.15800		875.00000 
 43692.65567		 305.27265			43387.38302		70.74000		324.00000 
 43692.65567		 740.62630			42952.02937		177.15800		875.00000 
 43692.65567		 305.27265			43387.38302		70.74000		324.00000 
 43692.65567		 740.62630			42952.02937		177.15800		875.00000 
 43692.65567		 305.27265			43387.38302		70.74000		324.00000 
 43692.65567		 740.62630			42952.02937		177.15800		875.00000 
 43692.65567		 305.27265			43387.38302		70.74000		324.00000 
 43692.65567		 740.62630			42952.02937		177.15800		875.00000 
 43692.65567		 305.27265			43387.38302		70.74000		324.00000 
 43692.65567		 740.62630			42952.02937		177.15800		875.00000 
 43692.65567		 305.27265			43387.38302		70.74000		324.00000 
 43692.65567		 740.62630			42952.02937		177.15800		875.00000 
 43692.65567		 305.27265			43387.38302		70.74000		324.00000 
 43692.65567		 740.62630			42952.02937		208.31200		875.00000 
 43692.65567		 305.27265			43387.38302		70.74000		324.00000 
 43692.65567		 740.62630			42952.02937		208.31200		875.00000 
 43692.65567		 305.27265			43387.38302		70.74000		324.00000 
 43692.65567		 740.62630			42952.02937		208.31200		875.00000 
 43692.65567		 305.27265			43387.38302		70.74000		324.00000 
 43692.65567		 740.62630			42952.02937		208.31200		875.00000 
 43692.65567		 305.27265			43387.38302		70.74000		324.00000 
 43692.65567		 740.62630			42952.02937		208.31200		875.00000 
 43692.65567		 305.27265			43387.38302		70.74000		324.00000 
 43692.65567		 740.62630			42952.02937		208.31200		875.00000 
 43692.65567		 305.27265			43387.38302		70.74000		324.00000 
 43692.65567		 740.62630			42952.02937		208.31200		875.00000 
 43692.65567		 305.27265			43387.38302		70.74000		324.00000 
 43692.65567		 740.62630			42952.02937		208.31200		875.00000 
 43692.65567		 305.27265			43387.38302		70.74000		324.00000 
 43692.65567		 740.62630			42952.02937		208.31200		875.00000 
 43692.65567		 305.27265			43387.38302		70.74000		324.00000 
 43692.65567		 740.62630			42952.02937		208.31200		875.00000 
 43692.65567		 305.27265			43387.38302		70.74000		324.00000 
 43692.65567		 740.62630			42952.02937		208.31200		875.00000 
 43692.65567		 305.27265			43387.38302		70.74000		324.00000 
 43692.65567		 740.62630			42952.02937		208.31200		875.00000 
 43692.65567		 305.27265			43387.38302		70.74000		324.00000 
 43692.65567		 740.62630			42952.02937		208.31200		875.00000 
 43692.65567		 305.27265			43387.38302		70.74000		324.00000 
 43692.65567		 740.62630			42952.02937		208.31200		875.00000 
 43692.65567		 305.27265			43387.38302		70.74000		324.00000 
 43692.65567		 740.62630			42952.02937		208.31200		875.00000 
 43692.65567		 305.27265			43387.38302		70.74000		324.00000 
 43692.65567		 740.62630			42952.02937		208.31200		875.00000 
 43692.65567		 305.27265			43387.38302		70.74000		324.00000 
 43692.65567		 740.62630			42952.02937		208.31200		875.00000 
 43692.65567		 305.27265			43387.38302		70.74000		324.00000 
 43692.65567		 740.62630			42952.02937		208.31200		875.00000 
 43692.65567		 305.27265			43387.38302		70.74000		324.00000 
 43692.65567		 740.62630			42952.02937		208.31200		875.00000 
 43692.65567		 305.27265			43387.38302		70.74000		324.00000 
 43692.65567		 740.62630			42952.02937		208.31200		875.00000 
 43692.65567		 305.27265			43387.38302		70.74000		324.00000 
 43692.65567		 740.62630			42952.02937		208.31200		875.00000 
 43692.65567		 305.27265			43387.38302		70.74000		324.00000 
 43692.65567		 740.62630			42952.02937		208.31200		875.00000 
 43692.65567		 305.27265			43387.38302		70.74000		324.00000 
 43692.65567		 740.62630			42952.02937		208.31200		875.00000 
 43692.65567		 305.27265			43387.38302		70.74000		324.00000 
 43692.65567		 740.62630			42952.02937		208.31200		875.00000 
 43692.65567		 305.27265			43387.38302		70.74000		324.00000 
 43692.65567		 740.62630			42952.02937		208.31200		875.00000 
 43692.65567		 305.27265			43387.38302		70.74000		324.00000 
 43692.65567		 740.62630			42952.02937		208.31200		875.00000 
 43692.65567		 305.27265			43387.38302		70.74000		324.00000 
 43692.65567		 740.62630			42952.02937		208.31200		875.00000 
 43692.65567		 305.27265			43387.38302		70.74000		324.00000 
 43692.65567		 740.62630			42952.02937		208.31200		875.00000 
 43692.65567		 305.27265			43387.38302		70.74000		324.00000 
 43692.65567		 740.62630			42952.02937		208.31200		875.00000 
 43692.65567		 305.27265			43387.38302		70.74000		324.00000 
 43692.65567		 740.62630			42952.02937		208.31200		875.00000 
 43692.65567		 305.27265			43387.38302		70.74000		324.00000 
 43692.65567		 740.62630			42952.02937		208.31200		875.00000 
 43692.65567		 305.27265			43387.38302		70.74000		324.00000 
 43692.65567		 740.62630			42952.02937		208.31200		875.00000 
 43692.65567		 305.27265			43387.38302		70.74000		324.00000 
 43692.65567		 740.62630			42952.02937		208.31200		875.00000 
 43692.65567		 305.27265			43387.38302		70.74000		324.00000 
 43692.65567		 740.62630			42952.02937		208.31200		875.00000 
 43692.65567		 305.27265			43387.38302		70.74000		324.00000 
 43692.65567		 740.62630			42952.02937		208.31200		875.00000 
 43692.65567		 305.27265			43387.38302		70.74000		324.00000 
 43692.65567		 740.62630			42952.02937		208.31200		875.00000 
 43692.65567		 305.27265			43387.38302		70.74000		324.00000 
 43692.65567		 740.62630			42952.02937		208.31200		875.00000 
 43692.65567		 305.27265			43387.38302		70.74000		324.00000 
 43692.65567		 740.62630			42952.02937		208.31200		875.00000 
 43692.65567		 305.27265			43387.38302		70.74000		324.00000 
 43692.65567		 740.62630			42952.02937		208.31200		875.00000 
 43692.65567		 305.27265			43387.38302		70.74000		324.00000 
 43692.65567		 740.62630			42952.02937		208.31200		875.00000 
 43692.65567		 305.27265			43387.38302		70.74000		324.00000 
 43692.65567		 740.62630			42952.02937		208.31200		875.00000 
 43692.65567		 305.27265			43387.38302		70.74000		324.00000 
 43692.65567		 740.62630			42952.02937		208.31200		875.00000 
 43692.65567		 305.27265			43387.38302		70.74000		324.00000 
 43692.65567		 740.62630			42952.02937		208.31200		875.00000 
 43692.65567		 305.27265			43387.38302		70.74000		324.00000 
 43692.65567		 740.62630			42952.02937		208.31200		875.00000 
 43692.65567		 305.27265			43387.38302		70.74000		324.00000 
 43692.65567		 740.62630			42952.02937		208.31200		875.00000 
 43692.65567		 305.27265			43387.38302		70.74000		324.00000 
 43692.65567		 740.62630			42952.02937		208.31200		875.00000 
 43692.65567		 305.27265			43387.38302		70.74000		324.00000 
 43692.65567		 740.62630			42952.02937		208.31200		875.00000 
 43692.65567		 305.27265			43387.38302		70.74000		324.00000 
 43692.65567		 740.62630			42952.02937		208.31200		875.00000 
 43692.65567		 305.27265			43387.38302		70.74000		324.00000 
 43692.65567		 740.62630			42952.02937		208.31200		875.00000 
 43692.65567		 305.27265			43387.38302		70.74000		324.00000 
 43692.65567		 740.62630			42952.02937		208.31200		875.00000 
 43692.65567		 305.27265			43387.38302		70.74000		324.00000 
 43692.65567		 740.62630			42952.02937		208.31200		875.00000 
 43692.65567		 305.27265			43387.38302		70.74000		324.00000 
 43692.65567		 740.62630			42952.02937		208.31200		875.00000 
 43692.65567		 305.27265			43387.38302		70.74000		324.00000 
 43692.65567		 740.62630			42952.02937		208.31200		875.00000 
 43692.65567		 305.27265			43387.38302		70.74000		324.00000 
 43692.65567		 740.62630			42952.02937		208.31200		875.00000 
 43692.65567		 305.27265			43387.38302		70.74000		324.00000 
 43692.65567		 740.62630			42952.02937		208.31200		875.00000 
 43692.65567		 305.27265			43387.38302		70.74000		324.00000 
 43692.65567		 740.62630			42952.02937		208.31200		875.00000 
 43692.65567		 305.27265			43387.38302		70.74000		324.00000 
 43692.65567		 740.62630			42952.02937		208.31200		875.00000 
 43692.65567		 305.27265			43387.38302		70.74000		324.00000 
 43692.65567		 740.62630			42952.02937		208.31200		875.00000 
 43692.65567		 305.27265			43387.38302		70.74000		324.00000 
 43692.65567		 740.62630			42952.02937		208.31200		875.00000 
 43692.65567		 305.27265			43387.38302		70.74000		324.00000 
 43692.65567		 740.62630			42952.02937		208.31200		875.00000 
 43692.65567		 305.27265			43387.38302		70.74000		324.00000 
 43692.65567		 740.62630			42952.02937		208.31200		875.00000 
 43692.65567		 305.27265			43387.38302		70.74000		324.00000 
 43692.65567		 740.62630			42952.02937		208.31200		875.00000 
 43692.65567		 305.27265			43387.38302		70.74000		324.00000 
 43692.65567		 740.62630			42952.02937		208.31200		875.00000 
 43692.65567		 305.27265			43387.38302		70.74000		324.00000 
 43692.65567		 740.62630			42952.02937		208.31200		875.00000 
 43692.65567		 305.27265			43387.38302		70.74000		324.00000 
 43692.65567		 740.62630			42952.02937		220.47000		875.00000 
 43692.65567		 305.27265			43387.38302		70.74000		324.00000 
 43692.65567		 740.62630			42952.02937		220.47000		875.00000 
 43692.65567		 305.27265			43387.38302		70.74000		324.00000 
 43692.65567		 740.62630			42952.02937		220.47000		875.00000 
 43692.65567		 305.27265			43387.38302		70.74000		324.00000 
 43692.65567		 740.62630			42952.02937		220.47000		875.00000 
 43692.65567		 305.27265			43387.38302		70.74000		324.00000 
 43692.65567		 740.62630			42952.02937		220.47000		875.00000 
 43692.65567		 305.27265			43387.38302		70.74000		324.00000 
 43692.65567		 740.62630			42952.02937		220.47000		875.00000 
 43692.65567		 305.27265			43387.38302		70.74000		324.00000 
 43692.65567		 740.62630			42952.02937		220.47000		875.00000 
 43692.65567		 305.27265			43387.38302		70.74000		324.00000 
 43692.65567		 740.62630			42952.02937		220.47000		875.00000 
 43692.65567		 305.27265			43387.38302		70.74000		324.00000 
 43692.65567		 740.62630			42952.02937		220.47000		875.00000 
 43692.65567		 305.27265			43387.38302		70.74000		324.00000 
 43692.65567		 740.62630			42952.02937		220.47000		875.00000 
 43692.65567		 305.27265			43387.38302		70.74000		324.00000 
 43692.65567		 740.62630			42952.02937		220.47000		875.00000 
 43692.65567		 305.27265			43387.38302		70.74000		324.00000 
 43692.65567		 740.62630			42952.02937		220.47000		875.00000 
 43692.65567		 305.27265			43387.38302		70.74000		324.00000 
 43692.65567		 740.62630			42952.02937		220.47000		875.00000 
 43692.65567		 305.27265			43387.38302		70.74000		324.00000 
 43692.65567		 740.62630			42952.02937		220.47000		875.00000 
 43692.65567		 305.27265			43387.38302		70.74000		324.00000 
 43692.65567		 740.62630			42952.02937		220.47000		875.00000 
 43692.65567		 305.27265			43387.38302		70.74000		324.00000 
 43692.65567		 740.62630			42952.02937		220.47000		875.00000 
 43692.65567		 305.27265			43387.38302		70.74000		324.00000 
 43692.65567		 740.62630			42952.02937		220.47000		875.00000 
 43692.65567		 305.27265			43387.38302		70.74000		324.00000 
 43692.65567		 740.62630			42952.02937		220.47000		875.00000 
 43692.65567		 305.27265			43387.38302		70.74000		324.00000 
 43692.65567		 740.62630			42952.02937		220.47000		875.00000 
 43692.65567		 305.27265			43387.38302		70.74000		324.00000 
 43692.65567		 740.62630			42952.02937		220.47000		875.00000 
 43692.65567		 305.27265			43387.38302		70.74000		324.00000 
 43692.65567		 740.62630			42952.02937		220.47000		875.00000 
 43692.65567		 305.27265			43387.38302		70.74000		324.00000 
 43692.65567		 740.62630			42952.02937		220.47000		875.00000 
 43692.65567		 305.27265			43387.38302		70.74000		324.00000 
 43692.65567		 740.62630			42952.02937		220.47000		875.00000 
 43692.65567		 305.27265			43387.38302		70.74000		324.00000 
 43692.65567		 740.62630			42952.02937		220.47000		875.00000 
 43692.65567		 305.27265			43387.38302		70.74000		324.00000 
 43692.65567		 740.62630			42952.02937		220.47000		875.00000 
 43692.65567		 305.27265			43387.38302		70.74000		324.00000 
 43692.65567		 740.62630			42952.02937		220.47000		875.00000 
 43692.65567		 305.27265			43387.38302		70.74000		324.00000 
 43692.65567		 740.62630			42952.02937		220.47000		875.00000 
 43692.65567		 305.27265			43387.38302		70.74000		324.00000 
 43692.65567		 740.62630			42952.02937		220.47000		875.00000 
 43692.65567		 305.27265			43387.38302		70.74000		324.00000 
 43692.65567		 740.62630			42952.02937		220.47000		875.00000 
 43692.65567		 305.27265			43387.38302		70.74000		324.00000 
 43692.65567		 740.62630			42952.02937		220.47000		875.00000 
 43692.65567		 305.27265			43387.38302		70.74000		324.00000 
 43692.65567		 740.62630			42952.02937		220.47000		875.00000 
 43692.65567		 305.27265			43387.38302		70.74000		324.00000 
 43692.65567		 740.62630			42952.02937		220.47000		875.00000 
 43692.65567		 305.27265			43387.38302		70.74000		324.00000 
 43692.65567		 740.62630			42952.02937		220.47000		875.00000 
 43692.65567		 305.27265			43387.38302		70.74000		324.00000 
 43692.65567		 740.62630			42952.02937		220.47000		875.00000 
 43692.65567		 305.27265			43387.38302		70.74000		324.00000 
 43692.65567		 740.62630			42952.02937		220.47000		875.00000 
 43692.65567		 305.27265			43387.38302		70.74000		324.00000 
 43692.65567		 740.62630			42952.02937		220.47000		875.00000 
 43692.65567		 305.27265			43387.38302		70.74000		324.00000 
 43692.65567		 740.62630			42952.02937		220.47000		875.00000 
 43692.65567		 305.27265			43387.38302		70.74000		324.00000 
 43692.65567		 740.62630			42952.02937		220.47000		875.00000 
 43692.65567		 305.27265			43387.38302		70.74000		324.00000 
 43692.65567		 740.62630			42952.02937		220.47000		875.00000 
 43692.65567		 305.27265			43387.38302		70.74000		324.00000 
 43692.65567		 740.62630			42952.02937		220.47000		875.00000 
 43692.65567		 305.27265			43387.38302		70.74000		324.00000 
 43692.65567		 740.62630			42952.02937		220.47000		875.00000 
 43692.65567		 305.27265			43387.38302		70.74000		324.00000 
 43692.65567		 740.62630			42952.02937		220.47000		875.00000 
 43692.65567		 305.27265			43387.38302		70.74000		324.00000 
 43692.65567		 740.62630			42952.02937		220.47000		875.00000 
 43692.65567		 305.27265			43387.38302		70.74000		324.00000 
 43692.65567		 740.62630			42952.02937		220.47000		875.00000 
 43692.65567		 305.27265			43387.38302		70.74000		324.00000 
 43692.65567		 740.62630			42952.02937		220.47000		875.00000 
 43692.65567		 305.27265			43387.38302		70.74000		324.00000 
 43692.65567		 740.62630			42952.02937		220.47000		875.00000 
 43692.65567		 305.27265			43387.38302		70.74000		324.00000 
 43692.65567		 740.62630			42952.02937		220.47000		875.00000 
 43692.65567		 305.27265			43387.38302		70.74000		324.00000 
 43692.65567		 740.62630			42952.02937		220.47000		875.00000 
 43692.65567		 305.27265			43387.38302		70.74000		324.00000 
 43692.65567		 740.62630			42952.02937		220.47000		875.00000 
 43692.65567		 305.27265			43387.38302		70.74000		324.00000 
 43692.65567		 740.62630			42952.02937		220.47000		875.00000 
 43692.65567		 305.27265			43387.38302		70.74000		324.00000 
 43692.65567		 740.62630			42952.02937		220.47000		875.00000 
 43692.65567		 305.27265			43387.38302		70.74000		324.00000 
 43692.65567		 740.62630			42952.02937		220.47000		875.00000 
 43692.65567		 305.27265			43387.38302		70.74000		324.00000 
 43692.65567		 740.62630			42952.02937		220.47000		875.00000 
 43692.65567		 305.27265			43387.38302		70.74000		324.00000 
 43692.65567		 740.62630			42952.02937		220.47000		875.00000 
 43692.65567		 305.27265			43387.38302		70.74000		324.00000 
 43692.65567		 740.62630			42952.02937		220.47000		875.00000 
 43692.65567		 305.27265			43387.38302		70.74000		324.00000 
 43692.65567		 740.62630			42952.02937		220.47000		875.00000 
 43692.65567		 305.27265			43387.38302		70.74000		324.00000 
 43692.65567		 740.62630			42952.02937		220.47000		875.00000 
 43692.65567		 305.27265			43387.38302		70.74000		324.00000 
 43692.65567		 740.62630			42952.02937		220.47000		875.00000 
 43692.65567		 305.27265			43387.38302		70.74000		324.00000 
 43692.65567		 740.62630			42952.02937		220.47000		875.00000 
 43692.65567		 305.27265			43387.38302		70.74000		324.00000 
 43692.65567		 740.62630			42952.02937		220.47000		875.00000 
 43692.65567		 305.27265			43387.38302		70.74000		324.00000 
 43692.65567		 740.62630			42952.02937		220.47000		875.00000 
 43692.65567		 305.27265			43387.38302		70.74000		324.00000 
 43692.65567		 740.62630			42952.02937		220.47000		875.00000 
 43692.65567		 305.27265			43387.38302		70.74000		324.00000 
 43692.65567		 740.62630			42952.02937		220.47000		875.00000 
 43692.65567		 305.27265			43387.38302		70.74000		324.00000 
 43692.65567		 740.62630			42952.02937		220.47000		875.00000 
 43692.65567		 305.27265			43387.38302		70.74000		324.00000 
 43692.65567		 740.62630			42952.02937		225.51000		875.00000 
 43692.65567		 305.27265			43387.38302		70.74000		324.00000 
 43692.65567		 740.62630			42952.02937		225.51000		875.00000 
 43692.65567		 305.27265			43387.38302		70.74000		324.00000 
 43692.65567		 740.62630			42952.02937		225.51000		875.00000 
 43692.65567		 305.27265			43387.38302		70.74000		324.00000 
 43692.65567		 740.62630			42952.02937		225.51000		875.00000 
 43692.65567		 305.27265			43387.38302		70.74000		324.00000 
 43692.65567		 740.62630			42952.02937		225.51000		875.00000 
 43692.65567		 305.27265			43387.38302		70.74000		324.00000 
 43692.65567		 740.62630			42952.02937		225.51000		875.00000 
 43692.65567		 305.27265			43387.38302		70.74000		324.00000 
 43692.65567		 740.62630			42952.02937		225.51000		875.00000 
 43692.65567		 305.27265			43387.38302		70.74000		324.00000 
 43692.65567		 740.62630			42952.02937		225.51000		875.00000 
 43692.65567		 305.27265			43387.38302		70.74000		324.00000 
 43692.65567		 740.62630			42952.02937		225.51000		875.00000 
 43692.65567		 305.27265			43387.38302		70.74000		324.00000 
 43692.65567		 740.62630			42952.02937		225.51000		875.00000 
 43692.65567		 305.27265			43387.38302		70.74000		324.00000 
 43692.65567		 740.62630			42952.02937		225.51000		875.00000 
 43692.65567		 305.27265			43387.38302		70.74000		324.00000 
 43692.65567		 740.62630			42952.02937		225.51000		875.00000 
 43692.65567		 305.27265			43387.38302		70.74000		324.00000 
 43692.65567		 740.62630			42952.02937		225.51000		875.00000 
 43692.65567		 305.27265			43387.38302		70.74000		324.00000 
 43692.65567		 740.62630			42952.02937		225.51000		875.00000 
 43692.65567		 305.27265			43387.38302		70.74000		324.00000 
 43692.65567		 740.62630			42952.02937		225.51000		875.00000 
 43692.65567		 305.27265			43387.38302		70.74000		324.00000 
 43692.65567		 740.62630			42952.02937		225.51000		875.00000 
 43692.65567		 305.27265			43387.38302		70.74000		324.00000 
 43692.65567		 740.62630			42952.02937		225.51000		875.00000 
 43692.65567		 305.27265			43387.38302		70.74000		324.00000 
 43692.65567		 740.62630			42952.02937		225.51000		875.00000 
 43692.65567		 305.27265			43387.38302		70.74000		324.00000 
 43692.65567		 740.62630			42952.02937		225.51000		875.00000 
 43692.65567		 305.27265			43387.38302		70.74000		324.00000 
 43692.65567		 740.62630			42952.02937		225.51000		875.00000 
 43692.65567		 305.27265			43387.38302		70.74000		324.00000 
 43692.65567		 740.62630			42952.02937		225.51000		875.00000 
 43692.65567		 305.27265			43387.38302		70.74000		324.00000 
 43692.65567		 740.62630			42952.02937		225.51000		875.00000 
 43692.65567		 305.27265			43387.38302		70.74000		324.00000 
 43692.65567		 740.62630			42952.02937		225.51000		875.00000 
 43692.65567		 305.27265			43387.38302		70.74000		324.00000 
 43692.65567		 740.62630			42952.02937		225.51000		875.00000 
 43692.65567		 305.27265			43387.38302		70.74000		324.00000 
 43692.65567		 740.62630			42952.02937		225.51000		875.00000 
 43692.65567		 305.27265			43387.38302		70.74000		324.00000 
 43692.65567		 740.62630			42952.02937		225.51000		875.00000 
 43692.65567		 305.27265			43387.38302		70.74000		324.00000 
 43692.65567		 740.62630			42952.02937		225.51000		875.00000 
 43692.65567		 305.27265			43387.38302		70.74000		324.00000 
 43692.65567		 740.62630			42952.02937		225.51000		875.00000 
 43692.65567		 305.27265			43387.38302		70.74000		324.00000 
 43692.65567		 740.62630			42952.02937		225.51000		875.00000 
 43692.65567		 305.27265			43387.38302		70.74000		324.00000 
 43692.65567		 740.62630			42952.02937		225.51000		875.00000 
 43692.65567		 305.27265			43387.38302		70.74000		324.00000 
 43692.65567		 740.62630			42952.02937		225.51000		875.00000 
 43692.65567		 305.27265			43387.38302		70.74000		324.00000 
 43692.65567		 740.62630			42952.02937		225.51000		875.00000 
 43692.65567		 305.27265			43387.38302		70.74000		324.00000 
 43692.65567		 740.62630			42952.02937		225.51000		875.00000 
 43692.65567		 305.27265			43387.38302		70.74000		324.00000 
 43692.65567		 740.62630			42952.02937		225.51000		875.00000 
 43692.65567		 305.27265			43387.38302		70.74000		324.00000 
 43692.65567		 740.62630			42952.02937		225.51000		875.00000 
 43692.65567		 305.27265			43387.38302		70.74000		324.00000 
 43692.65567		 740.62630			42952.02937		225.51000		875.00000 
 43692.65567		 305.27265			43387.38302		70.74000		324.00000 
 43692.65567		 740.62630			42952.02937		225.51000		875.00000 
 43692.65567		 305.27265			43387.38302		70.74000		324.00000 
 43692.65567		 740.62630			42952.02937		225.51000		875.00000 
 43692.65567		 305.27265			43387.38302		70.74000		324.00000 
 43692.65567		 740.62630			42952.02937		225.51000		875.00000 
 43692.65567		 305.27265			43387.38302		70.74000		324.00000 
 43692.65567		 740.62630			42952.02937		225.51000		875.00000 
 43692.65567		 305.27265			43387.38302		70.74000		324.00000 
 43692.65567		 740.62630			42952.02937		225.51000		875.00000 
 43692.65567		 305.27265			43387.38302		70.74000		324.00000 
 43692.65567		 740.62630			42952.02937		225.51000		875.00000 
 43692.65567		 305.27265			43387.38302		70.74000		324.00000 
 43692.65567		 740.62630			42952.02937		225.51000		875.00000 
 43692.65567		 305.27265			43387.38302		70.74000		324.00000 
 43692.65567		 740.62630			42952.02937		225.51000		875.00000 
 43692.65567		 305.27265			43387.38302		70.74000		324.00000 
 43692.65567		 740.62630			42952.02937		225.51000		875.00000 
 43692.65567		 305.27265			43387.38302		70.74000		324.00000 
 43692.65567		 740.62630			42952.02937		225.51000		875.00000 
 43692.65567		 305.27265			43387.38302		70.74000		324.00000 
 43692.65567		 740.62630			42952.02937		225.51000		875.00000 
 43692.65567		 305.27265			43387.38302		70.74000		324.00000 
 43692.65567		 740.62630			42952.02937		225.51000		875.00000 
 43692.65567		 305.27265			43387.38302		70.74000		324.00000 
 43692.65567		 740.62630			42952.02937		225.51000		875.00000 
 43692.65567		 305.27265			43387.38302		70.74000		324.00000 
 43692.65567		 740.62630			42952.02937		225.51000		875.00000 
 43692.65567		 305.27265			43387.38302		70.74000		324.00000 
 43692.65567		 740.62630			42952.02937		225.51000		875.00000 
 43692.65567		 305.27265			43387.38302		70.74000		324.00000 
 43692.65567		 740.62630			42952.02937		225.51000		875.00000 
 43692.65567		 305.27265			43387.38302		70.74000		324.00000 
 43692.65567		 740.62630			42952.02937		225.51000		875.00000 
 43692.65567		 305.27265			43387.38302		70.74000		324.00000 
 43692.65567		 740.62630			42952.02937		225.51000		875.00000 
 43692.65567		 305.27265			43387.38302		70.74000		324.00000 
 43692.65567		 740.62630			42952.02937		225.51000		875.00000 
 43692.65567		 305.27265			43387.38302		70.74000		324.00000 
 43692.65567		 740.62630			42952.02937		225.51000		875.00000 
 43692.65567		 305.27265			43387.38302		70.74000		324.00000 
 43692.65567		 740.62630			42952.02937		225.51000		875.00000 
 43692.65567		 305.27265			43387.38302		70.74000		324.00000 
 43692.65567		 740.62630			42952.02937		225.51000		875.00000 
 43692.65567		 305.27265			43387.38302		70.74000		324.00000 
 43692.65567		 740.62630			42952.02937		225.51000		875.00000 
 43692.65567		 305.27265			43387.38302		70.74000		324.00000 
 43692.65567		 740.62630			42952.02937		225.51000		875.00000 
 43692.65567		 305.27265			43387.38302		70.74000		324.00000 
 43692.65567		 740.62630			42952.02937		225.51000		875.00000 
 43692.65567		 305.27265			43387.38302		70.74000		324.00000 
 43692.65567		 740.62630			42952.02937		225.51000		875.00000 
 43692.65567		 305.27265			43387.38302		70.74000		324.00000 
 43692.65567		 740.62630			42952.02937		225.51000		875.00000 
 43692.65567		 305.27265			43387.38302		70.74000		324.00000 
 43692.65567		 740.62630			42952.02937		225.51000		875.00000 
 43692.65567		 305.27265			43387.38302		70.74000		324.00000 
 43692.65567		 740.62630			42952.02937		226.90800		875.00000 
 43692.65567		 305.27265			43387.38302		70.74000		324.00000 
 43692.65567		 740.62630			42952.02937		226.90800		875.00000 
 43692.65567		 305.27265			43387.38302		70.74000		324.00000 
 43692.65567		 740.62630			42952.02937		226.90800		875.00000 
 43692.65567		 305.27265			43387.38302		70.74000		324.00000 
 43692.65567		 740.62630			42952.02937		226.90800		875.00000 
 43692.65567		 305.27265			43387.38302		70.74000		324.00000 
 43692.65567		 740.62630			42952.02937		226.90800		875.00000 
 43692.65567		 305.27265			43387.38302		70.74000		324.00000 
 43692.65567		 740.62630			42952.02937		226.90800		875.00000 
 43692.65567		 305.27265			43387.38302		70.74000		324.00000 
 43692.65567		 740.62630			42952.02937		226.90800		875.00000 
 43692.65567		 305.27265			43387.38302		70.74000		324.00000 
 43692.65567		 740.62630			42952.02937		226.90800		875.00000 
 43692.65567		 305.27265			43387.38302		70.74000		324.00000 
 43692.65567		 740.62630			42952.02937		226.90800		875.00000 
 43692.65567		 305.27265			43387.38302		70.74000		324.00000 
 43692.65567		 740.62630			42952.02937		226.90800		875.00000 
 43692.65567		 305.27265			43387.38302		70.74000		324.00000 
 43692.65567		 740.62630			42952.02937		226.90800		875.00000 
 43692.65567		 305.27265			43387.38302		70.74000		324.00000 
 43692.65567		 740.62630			42952.02937		226.90800		875.00000 
 43692.65567		 305.27265			43387.38302		70.74000		324.00000 
 43692.65567		 740.62630			42952.02937		226.90800		875.00000 
 43692.65567		 305.27265			43387.38302		70.74000		324.00000 
 43692.65567		 740.62630			42952.02937		226.90800		875.00000 
 43692.65567		 305.27265			43387.38302		70.74000		324.00000 
 43692.65567		 740.62630			42952.02937		226.90800		875.00000 
 43692.65567		 305.27265			43387.38302		69.16200		324.00000 
 43692.65567		 740.62630			42952.02937		226.90800		875.00000 
 43692.65567		 305.27265			43387.38302		69.16200		324.00000 
 43692.65567		 740.62630			42952.02937		226.90800		875.00000 
 43692.65567		 305.27265			43387.38302		69.16200		324.00000 
 43692.65567		 740.62630			42952.02937		226.90800		875.00000 
 43692.65567		 305.27265			43387.38302		69.16200		324.00000 
 43692.65567		 740.62630			42952.02937		226.90800		875.00000 
 43692.65567		 305.27265			43387.38302		69.16200		324.00000 
 43692.65567		 740.62630			42952.02937		226.90800		875.00000 
 43692.65567		 305.27265			43387.38302		69.16200		324.00000 
 43692.65567		 740.62630			42952.02937		226.90800		875.00000 
 43692.65567		 305.27265			43387.38302		69.16200		324.00000 
 43692.65567		 740.62630			42952.02937		226.90800		875.00000 
 43692.65567		 305.27265			43387.38302		69.16200		324.00000 
 43692.65567		 740.62630			42952.02937		226.90800		875.00000 
 43692.65567		 305.27265			43387.38302		69.16200		324.00000 
 43692.65567		 740.62630			42952.02937		226.90800		875.00000 
 43692.65567		 305.27265			43387.38302		69.16200		324.00000 
 43692.65567		 740.62630			42952.02937		226.90800		875.00000 
 43692.65567		 305.27265			43387.38302		69.16200		324.00000 
 43692.65567		 740.62630			42952.02937		226.90800		875.00000 
 43692.65567		 305.27265			43387.38302		69.16200		324.00000 
 43692.65567		 740.62630			42952.02937		226.90800		875.00000 
 43692.65567		 305.27265			43387.38302		69.16200		324.00000 
 43692.65567		 740.62630			42952.02937		226.90800		875.00000 
 43692.65567		 305.27265			43387.38302		69.16200		324.00000 
 43692.65567		 740.62630			42952.02937		226.90800		875.00000 
 43692.65567		 305.27265			43387.38302		69.16200		324.00000 
 43692.65567		 740.62630			42952.02937		226.90800		875.00000 
 43692.65567		 305.27265			43387.38302		69.16200		324.00000 
 43692.65567		 740.62630			42952.02937		226.90800		875.00000 
 43692.65567		 305.27265			43387.38302		69.16200		324.00000 
 43692.65567		 740.62630			42952.02937		226.90800		875.00000 
 43692.65567		 305.27265			43387.38302		69.16200		324.00000 
 43692.65567		 740.62630			42952.02937		226.90800		875.00000 
 43692.65567		 305.27265			43387.38302		69.16200		324.00000 
 43692.65567		 740.62630			42952.02937		226.90800		875.00000 
 43692.65567		 305.27265			43387.38302		69.16200		324.00000 
 43692.65567		 740.62630			42952.02937		226.90800		875.00000 
 43692.65567		 305.27265			43387.38302		69.16200		324.00000 
 43692.65567		 740.62630			42952.02937		226.90800		875.00000 
 43692.65567		 305.27265			43387.38302		69.16200		324.00000 
 43692.65567		 740.62630			42952.02937		226.90800		875.00000 
 43692.65567		 305.27265			43387.38302		69.16200		324.00000 
 43692.65567		 740.62630			42952.02937		226.90800		875.00000 
 43692.65567		 305.27265			43387.38302		69.16200		324.00000 
 43692.65567		 740.62630			42952.02937		226.90800		875.00000 
 43692.65567		 305.27265			43387.38302		69.16200		324.00000 
 43692.65567		 740.62630			42952.02937		226.90800		875.00000 
 43692.65567		 305.27265			43387.38302		69.16200		324.00000 
 43692.65567		 740.62630			42952.02937		226.90800		875.00000 
 43692.65567		 305.27265			43387.38302		69.16200		324.00000 
 43692.65567		 740.62630			42952.02937		226.90800		875.00000 
 43692.65567		 305.27265			43387.38302		69.16200		324.00000 
 43692.65567		 740.62630			42952.02937		226.90800		875.00000 
 43692.65567		 305.27265			43387.38302		69.16200		324.00000 
 43692.65567		 740.62630			42952.02937		226.90800		875.00000 
 43692.65567		 305.27265			43387.38302		69.16200		324.00000 
 43692.65567		 740.62630			42952.02937		226.90800		875.00000 
 43692.65567		 305.27265			43387.38302		69.16200		324.00000 
 43692.65567		 740.62630			42952.02937		226.90800		875.00000 
 43692.65567		 305.27265			43387.38302		69.16200		324.00000 
 43692.65567		 740.62630			42952.02937		226.90800		875.00000 
 43692.65567		 305.27265			43387.38302		69.16200		324.00000 
 43692.65567		 740.62630			42952.02937		226.90800		875.00000 
 43692.65567		 305.27265			43387.38302		69.16200		324.00000 
 43692.65567		 740.62630			42952.02937		226.90800		875.00000 
 43692.65567		 305.27265			43387.38302		69.16200		324.00000 
 43692.65567		 740.62630			42952.02937		226.90800		875.00000 
 43692.65567		 305.27265			43387.38302		69.16200		324.00000 
 43692.65567		 740.62630			42952.02937		226.90800		875.00000 
 43692.65567		 305.27265			43387.38302		69.16200		324.00000 
 43692.65567		 740.62630			42952.02937		226.90800		875.00000 
 43692.65567		 305.27265			43387.38302		69.16200		324.00000 
 43692.65567		 740.62630			42952.02937		226.90800		875.00000 
 43692.65567		 305.27265			43387.38302		69.16200		324.00000 
 43692.65567		 740.62630			42952.02937		226.90800		875.00000 
 43692.65567		 305.27265			43387.38302		69.16200		324.00000 
 43692.65567		 740.62630			42952.02937		226.90800		875.00000 
 43692.65567		 305.27265			43387.38302		69.16200		324.00000 
 43692.65567		 740.62630			42952.02937		226.90800		875.00000 
 43692.65567		 305.27265			43387.38302		69.16200		324.00000 
 43692.65567		 740.62630			42952.02937		226.90800		875.00000 
 43692.65567		 305.27265			43387.38302		69.16200		324.00000 
 43692.65567		 740.62630			42952.02937		226.90800		875.00000 
 43692.65567		 305.27265			43387.38302		69.16200		324.00000 
 43692.65567		 740.62630			42952.02937		226.90800		875.00000 
 43692.65567		 305.27265			43387.38302		69.16200		324.00000 
 43692.65567		 740.62630			42952.02937		226.90800		875.00000 
 43692.65567		 305.27265			43387.38302		69.16200		324.00000 
 43692.65567		 740.62630			42952.02937		226.90800		875.00000 
 43692.65567		 305.27265			43387.38302		69.16200		324.00000 
 43692.65567		 740.62630			42952.02937		226.55400		875.00000 
 43692.65567		 305.27265			43387.38302		69.16200		324.00000 
 43692.65567		 740.62630			42952.02937		226.55400		875.00000 
 43692.65567		 305.27265			43387.38302		69.16200		324.00000 
 43692.65567		 740.62630			42952.02937		226.55400		875.00000 
 43692.65567		 305.27265			43387.38302		69.16200		324.00000 
 43692.65567		 740.62630			42952.02937		226.55400		875.00000 
 43692.65567		 305.27265			43387.38302		69.16200		324.00000 
 43692.65567		 740.62630			42952.02937		226.55400		875.00000 
 43692.65567		 305.27265			43387.38302		69.16200		324.00000 
 43692.65567		 740.62630			42952.02937		226.55400		875.00000 
 43692.65567		 305.27265			43387.38302		69.16200		324.00000 
 43692.65567		 740.62630			42952.02937		226.55400		875.00000 
 43692.65567		 305.27265			43387.38302		69.16200		324.00000 
 43692.65567		 740.62630			42952.02937		226.55400		875.00000 
 43692.65567		 305.27265			43387.38302		69.16200		324.00000 
 43692.65567		 740.62630			42952.02937		226.55400		875.00000 
 43692.65567		 305.27265			43387.38302		69.16200		324.00000 
 43692.65567		 740.62630			42952.02937		226.55400		875.00000 
 43692.65567		 305.27265			43387.38302		69.16200		324.00000 
 43692.65567		 740.62630			42952.02937		226.55400		875.00000 
 43692.65567		 305.27265			43387.38302		69.16200		324.00000 
 43692.65567		 740.62630			42952.02937		226.55400		875.00000 
 43692.65567		 305.27265			43387.38302		69.16200		324.00000 
 43692.65567		 740.62630			42952.02937		226.55400		875.00000 
 43692.65567		 305.27265			43387.38302		69.16200		324.00000 
 43692.65567		 740.62630			42952.02937		226.55400		875.00000 
 43692.65567		 305.27265			43387.38302		69.16200		324.00000 
 43692.65567		 740.62630			42952.02937		226.55400		875.00000 
 43692.65567		 305.27265			43387.38302		69.16200		324.00000 
 43692.65567		 740.62630			42952.02937		226.55400		875.00000 
 43692.65567		 305.27265			43387.38302		69.16200		324.00000 
 43692.65567		 740.62630			42952.02937		226.55400		875.00000 
 43692.65567		 305.27265			43387.38302		69.16200		324.00000 
 43692.65567		 740.62630			42952.02937		226.55400		875.00000 
 43692.65567		 305.27265			43387.38302		69.16200		324.00000 
 43692.65567		 740.62630			42952.02937		226.55400		875.00000 
 43692.65567		 305.27265			43387.38302		69.16200		324.00000 
 43692.65567		 740.62630			42952.02937		226.55400		875.00000 
 43692.65567		 305.27265			43387.38302		69.16200		324.00000 
 43692.65567		 740.62630			42952.02937		226.55400		875.00000 
 43692.65567		 305.27265			43387.38302		69.16200		324.00000 
 43692.65567		 740.62630			42952.02937		226.55400		875.00000 
 43692.65567		 305.27265			43387.38302		69.16200		324.00000 
 43692.65567		 740.62630			42952.02937		226.55400		875.00000 
 43692.65567		 305.27265			43387.38302		69.16200		324.00000 
 43692.65567		 740.62630			42952.02937		226.55400		875.00000 
 43692.65567		 305.27265			43387.38302		69.16200		324.00000 
 43692.65567		 740.62630			42952.02937		226.55400		875.00000 
 43692.65567		 305.27265			43387.38302		69.16200		324.00000 
 43692.65567		 740.62630			42952.02937		226.55400		875.00000 
 43692.65567		 305.27265			43387.38302		69.16200		324.00000 
 43692.65567		 740.62630			42952.02937		226.55400		875.00000 
 43692.65567		 305.27265			43387.38302		69.16200		324.00000 
 43692.65567		 740.62630			42952.02937		226.55400		875.00000 
 43692.65567		 305.27265			43387.38302		69.16200		324.00000 
 43692.65567		 740.62630			42952.02937		226.55400		875.00000 
 43692.65567		 305.27265			43387.38302		69.16200		324.00000 
 43692.65567		 740.62630			42952.02937		226.55400		875.00000 
 43692.65567		 305.27265			43387.38302		69.16200		324.00000 
 43692.65567		 740.62630			42952.02937		226.55400		875.00000 
 43692.65567		 305.27265			43387.38302		69.16200		324.00000 
 43692.65567		 740.62630			42952.02937		226.55400		875.00000 
 43692.65567		 305.27265			43387.38302		69.16200		324.00000 
 43692.65567		 740.62630			42952.02937		226.55400		875.00000 
 43692.65567		 305.27265			43387.38302		69.16200		324.00000 
 43692.65567		 740.62630			42952.02937		226.55400		875.00000 
 43692.65567		 305.27265			43387.38302		69.16200		324.00000 
 43692.65567		 740.62630			42952.02937		226.55400		875.00000 
 43692.65567		 305.27265			43387.38302		69.16200		324.00000 
 43692.65567		 740.62630			42952.02937		226.55400		875.00000 
 43692.65567		 305.27265			43387.38302		69.16200		324.00000 
 43692.65567		 740.62630			42952.02937		226.55400		875.00000 
 43692.65567		 305.27265			43387.38302		69.16200		324.00000 
 43692.65567		 740.62630			42952.02937		226.55400		875.00000 
 43692.65567		 305.27265			43387.38302		69.16200		324.00000 
 43692.65567		 740.62630			42952.02937		226.55400		875.00000 
 43692.65567		 305.27265			43387.38302		69.16200		324.00000 
 43692.65567		 740.62630			42952.02937		226.55400		875.00000 
 43692.65567		 305.27265			43387.38302		69.16200		324.00000 
 43692.65567		 740.62630			42952.02937		226.55400		875.00000 
 43692.65567		 305.27265			43387.38302		69.16200		324.00000 
 43692.65567		 740.62630			42952.02937		226.55400		875.00000 
 43692.65567		 305.27265			43387.38302		69.16200		324.00000 
 43692.65567		 740.62630			42952.02937		226.55400		875.00000 
 43692.65567		 305.27265			43387.38302		69.16200		324.00000 
 43692.65567		 740.62630			42952.02937		226.55400		875.00000 
 43692.65567		 305.27265			43387.38302		69.16200		324.00000 
 43692.65567		 740.62630			42952.02937		226.55400		875.00000 
 43692.65567		 305.27265			43387.38302		69.16200		324.00000 
 43692.65567		 740.62630			42952.02937		226.55400		875.00000 
 43692.65567		 305.27265			43387.38302		69.16200		324.00000 
 43692.65567		 740.62630			42952.02937		226.55400		875.00000 
 43692.65567		 305.27265			43387.38302		69.16200		324.00000 
 43692.65567		 740.62630			42952.02937		226.55400		875.00000 
 43692.65567		 305.27265			43387.38302		69.16200		324.00000 
 43692.65567		 740.62630			42952.02937		226.55400		875.00000 
 43692.65567		 305.27265			43387.38302		69.16200		324.00000 
 43692.65567		 740.62630			42952.02937		226.55400		875.00000 
 43692.65567		 305.27265			43387.38302		69.16200		324.00000 
 43692.65567		 740.62630			42952.02937		226.55400		875.00000 
 43692.65567		 305.27265			43387.38302		69.16200		324.00000 
 43692.65567		 740.62630			42952.02937		226.55400		875.00000 
 43692.65567		 305.27265			43387.38302		69.16200		324.00000 
 43692.65567		 740.62630			42952.02937		226.55400		875.00000 
 43692.65567		 305.27265			43387.38302		69.16200		324.00000 
 43692.65567		 740.62630			42952.02937		226.55400		875.00000 
 43692.65567		 305.27265			43387.38302		69.16200		324.00000 
 43692.65567		 740.62630			42952.02937		226.55400		875.00000 
 43692.65567		 305.27265			43387.38302		69.16200		324.00000 
 43692.65567		 740.62630			42952.02937		226.55400		875.00000 
 43692.65567		 305.27265			43387.38302		69.16200		324.00000 
 43692.65567		 740.62630			42952.02937		226.55400		875.00000 
 43692.65567		 305.27265			43387.38302		69.16200		324.00000 
 43692.65567		 740.62630			42952.02937		226.55400		875.00000 
 43692.65567		 305.27265			43387.38302		69.16200		324.00000 
 43692.65567		 740.62630			42952.02937		226.55400		875.00000 
 43692.65567		 305.27265			43387.38302		69.16200		324.00000 
 43692.65567		 740.62630			42952.02937		226.55400		875.00000 
 43692.65567		 305.27265			43387.38302		69.16200		324.00000 
 43692.65567		 740.62630			42952.02937		226.55400		875.00000 
 43692.65567		 305.27265			43387.38302		69.16200		324.00000 
 43692.65567		 740.62630			42952.02937		226.55400		875.00000 
 43692.65567		 305.27265			43387.38302		69.16200		324.00000 
 43692.65567		 740.62630			42952.02937		226.55400		875.00000 
 43692.65567		 305.27265			43387.38302		69.16200		324.00000 
 43692.65567		 740.62630			42952.02937		226.55400		875.00000 
 43692.65567		 305.27265			43387.38302		69.16200		324.00000 
 43692.65567		 740.62630			42952.02937		226.78200		875.00000 
 43692.65567		 305.27265			43387.38302		69.16200		324.00000 
 43692.65567		 740.62630			42952.02937		226.78200		875.00000 
 43692.65567		 305.27265			43387.38302		69.16200		324.00000 
 43692.65567		 740.62630			42952.02937		226.78200		875.00000 
 43692.65567		 305.27265			43387.38302		69.16200		324.00000 
 43692.65567		 740.62630			42952.02937		226.78200		875.00000 
 43692.65567		 305.27265			43387.38302		69.16200		324.00000 
 43692.65567		 740.62630			42952.02937		226.78200		875.00000 
 43692.65567		 305.27265			43387.38302		69.16200		324.00000 
 43692.65567		 740.62630			42952.02937		226.78200		875.00000 
 43692.65567		 305.27265			43387.38302		69.16200		324.00000 
 43692.65567		 740.62630			42952.02937		226.78200		875.00000 
 43692.65567		 305.27265			43387.38302		69.16200		324.00000 
 43692.65567		 740.62630			42952.02937		226.78200		875.00000 
 43692.65567		 305.27265			43387.38302		69.16200		324.00000 
 43692.65567		 740.62630			42952.02937		226.78200		875.00000 
 43692.65567		 305.27265			43387.38302		69.16200		324.00000 
 43692.65567		 740.62630			42952.02937		226.78200		875.00000 
 43692.65567		 305.27265			43387.38302		69.16200		324.00000 
 43692.65567		 740.62630			42952.02937		226.78200		875.00000 
 43692.65567		 305.27265			43387.38302		69.16200		324.00000 
 43692.65567		 740.62630			42952.02937		226.78200		875.00000 
 43692.65567		 305.27265			43387.38302		69.16200		324.00000 
 43692.65567		 740.62630			42952.02937		226.78200		875.00000 
 43692.65567		 305.27265			43387.38302		69.16200		324.00000 
 43692.65567		 740.62630			42952.02937		226.78200		875.00000 
 43692.65567		 305.27265			43387.38302		69.16200		324.00000 
 43692.65567		 740.62630			42952.02937		226.78200		875.00000 
 43692.65567		 305.27265			43387.38302		69.16200		324.00000 
 43692.65567		 740.62630			42952.02937		226.78200		875.00000 
 43692.65567		 305.27265			43387.38302		69.16200		324.00000 
 43692.65567		 740.62630			42952.02937		226.78200		875.00000 
 43692.65567		 305.27265			43387.38302		69.16200		324.00000 
 43692.65567		 740.62630			42952.02937		226.78200		875.00000 
 43692.65567		 305.27265			43387.38302		69.16200		324.00000 
 43692.65567		 740.62630			42952.02937		226.78200		875.00000 
 43692.65567		 305.27265			43387.38302		69.16200		324.00000 
 43692.65567		 740.62630			42952.02937		226.78200		875.00000 
 43692.65567		 305.27265			43387.38302		69.16200		324.00000 
 43692.65567		 740.62630			42952.02937		226.78200		875.00000 
 43692.65567		 305.27265			43387.38302		69.16200		324.00000 
 43692.65567		 740.62630			42952.02937		226.78200		875.00000 
 43692.65567		 305.27265			43387.38302		69.16200		324.00000 
 43692.65567		 740.62630			42952.02937		226.78200		875.00000 
 43692.65567		 305.27265			43387.38302		69.16200		324.00000 
 43692.65567		 740.62630			42952.02937		226.78200		875.00000 
 43692.65567		 305.27265			43387.38302		69.16200		324.00000 
 43692.65567		 740.62630			42952.02937		226.78200		875.00000 
 43692.65567		 305.27265			43387.38302		69.16200		324.00000 
 43692.65567		 740.62630			42952.02937		226.78200		875.00000 
 43692.65567		 305.27265			43387.38302		69.16200		324.00000 
 43692.65567		 740.62630			42952.02937		226.78200		875.00000 
 43692.65567		 305.27265			43387.38302		69.16200		324.00000 
 43692.65567		 740.62630			42952.02937		226.78200		875.00000 
 43692.65567		 305.27265			43387.38302		69.16200		324.00000 
 43692.65567		 740.62630			42952.02937		226.78200		875.00000 
 43692.65567		 305.27265			43387.38302		69.16200		324.00000 
 43692.65567		 740.62630			42952.02937		226.78200		875.00000 
 43692.65567		 305.27265			43387.38302		69.16200		324.00000 
 43692.65567		 740.62630			42952.02937		226.78200		875.00000 
 43692.65567		 305.27265			43387.38302		69.16200		324.00000 
 43692.65567		 740.62630			42952.02937		226.78200		875.00000 
 43692.65567		 305.27265			43387.38302		69.16200		324.00000 
 43692.65567		 740.62630			42952.02937		226.78200		875.00000 
 43692.65567		 305.27265			43387.38302		69.16200		324.00000 
 43692.65567		 740.62630			42952.02937		226.78200		875.00000 
 43692.65567		 305.27265			43387.38302		69.16200		324.00000 
 43692.65567		 740.62630			42952.02937		226.78200		875.00000 
 43692.65567		 305.27265			43387.38302		69.16200		324.00000 
 43692.65567		 740.62630			42952.02937		226.78200		875.00000 
 43692.65567		 305.27265			43387.38302		69.16200		324.00000 
 43692.65567		 740.62630			42952.02937		226.78200		875.00000 
 43692.65567		 305.27265			43387.38302		69.16200		324.00000 
 43692.65567		 740.62630			42952.02937		226.78200		875.00000 
 43692.65567		 305.27265			43387.38302		69.16200		324.00000 
 43692.65567		 740.62630			42952.02937		226.78200		875.00000 
 43692.65567		 305.27265			43387.38302		69.16200		324.00000 
 43692.65567		 740.62630			42952.02937		226.78200		875.00000 
 43692.65567		 305.27265			43387.38302		69.16200		324.00000 
 43692.65567		 740.62630			42952.02937		226.78200		875.00000 
 43692.65567		 305.27265			43387.38302		69.16200		324.00000 
 43692.65567		 740.62630			42952.02937		226.78200		875.00000 
 43692.65567		 305.27265			43387.38302		69.16200		324.00000 
 43692.65567		 740.62630			42952.02937		226.78200		875.00000 
 43692.65567		 305.27265			43387.38302		69.16200		324.00000 
 43692.65567		 740.62630			42952.02937		226.78200		875.00000 
 43692.65567		 305.27265			43387.38302		69.16200		324.00000 
 43692.65567		 740.62630			42952.02937		226.78200		875.00000 
 43692.65567		 305.27265			43387.38302		69.16200		324.00000 
 43692.65567		 740.62630			42952.02937		226.78200		875.00000 
 43692.65567		 305.27265			43387.38302		69.16200		324.00000 
 43692.65567		 740.62630			42952.02937		226.78200		875.00000 
 43692.65567		 305.27265			43387.38302		69.16200		324.00000 
 43692.65567		 740.62630			42952.02937		226.78200		875.00000 
 43692.65567		 305.27265			43387.38302		69.16200		324.00000 
 43692.65567		 740.62630			42952.02937		226.78200		875.00000 
 43692.65567		 305.27265			43387.38302		69.16200		324.00000 
 43692.65567		 740.62630			42952.02937		226.78200		875.00000 
 43692.65567		 305.27265			43387.38302		69.16200		324.00000 
 43692.65567		 740.62630			42952.02937		226.78200		875.00000 
 43692.65567		 305.27265			43387.38302		69.16200		324.00000 
 43692.65567		 740.62630			42952.02937		226.78200		875.00000 
 43692.65567		 305.27265			43387.38302		69.16200		324.00000 
 43692.65567		 740.62630			42952.02937		226.78200		875.00000 
 43692.65567		 305.27265			43387.38302		69.16200		324.00000 
 43692.65567		 740.62630			42952.02937		226.78200		875.00000 
 43692.65567		 305.27265			43387.38302		69.16200		324.00000 
 43692.65567		 740.62630			42952.02937		226.78200		875.00000 
 43692.65567		 305.27265			43387.38302		69.16200		324.00000 
 43692.65567		 740.62630			42952.02937		226.78200		875.00000 
 43692.65567		 305.27265			43387.38302		69.16200		324.00000 
 43692.65567		 740.62630			42952.02937		226.78200		875.00000 
 43692.65567		 305.27265			43387.38302		69.16200		324.00000 
 43692.65567		 740.62630			42952.02937		226.78200		875.00000 
 43692.65567		 305.27265			43387.38302		69.16200		324.00000 
 43692.65567		 740.62630			42952.02937		226.78200		875.00000 
 43692.65567		 305.27265			43387.38302		69.16200		324.00000 
 43692.65567		 740.62630			42952.02937		226.78200		875.00000 
 43692.65567		 305.27265			43387.38302		69.16200		324.00000 
 43692.65567		 740.62630			42952.02937		226.78200		875.00000 
 43692.65567		 305.27265			43387.38302		69.16200		324.00000 
 43692.65567		 740.62630			42952.02937		226.78200		875.00000 
 43692.65567		 305.27265			43387.38302		69.16200		324.00000 
 43692.65567		 740.62630			42952.02937		226.78200		875.00000 
 43692.65567		 305.27265			43387.38302		69.16200		324.00000 
 43692.65567		 740.62630			42952.02937		226.78200		875.00000 
 43692.65567		 305.27265			43387.38302		69.16200		324.00000 
 43692.65567		 740.62630			42952.02937		227.74600		875.00000 
 43692.65567		 305.27265			43387.38302		69.16200		324.00000 
 43692.65567		 740.62630			42952.02937		227.74600		875.00000 
 43692.65567		 305.27265			43387.38302		69.16200		324.00000 
 43692.65567		 740.62630			42952.02937		227.74600		875.00000 
 43692.65567		 305.27265			43387.38302		69.16200		324.00000 
 43692.65567		 740.62630			42952.02937		227.74600		875.00000 
 43692.65567		 305.27265			43387.38302		69.16200		324.00000 
 43692.65567		 740.62630			42952.02937		227.74600		875.00000 
 43692.65567		 305.27265			43387.38302		69.16200		324.00000 
 43692.65567		 740.62630			42952.02937		227.74600		875.00000 
 43692.65567		 305.27265			43387.38302		69.16200		324.00000 
 43692.65567		 740.62630			42952.02937		227.74600		875.00000 
 43692.65567		 305.27265			43387.38302		69.16200		324.00000 
 43692.65567		 740.62630			42952.02937		227.74600		875.00000 
 43692.65567		 305.27265			43387.38302		69.16200		324.00000 
 43692.65567		 740.62630			42952.02937		227.74600		875.00000 
 43692.65567		 305.27265			43387.38302		69.16200		324.00000 
 43692.65567		 740.62630			42952.02937		227.74600		875.00000 
 43692.65567		 305.27265			43387.38302		69.16200		324.00000 
 43692.65567		 740.62630			42952.02937		227.74600		875.00000 
 43692.65567		 305.27265			43387.38302		69.16200		324.00000 
 43692.65567		 740.62630			42952.02937		227.74600		875.00000 
 43692.65567		 305.27265			43387.38302		69.16200		324.00000 
 43692.65567		 740.62630			42952.02937		227.74600		875.00000 
 43692.65567		 305.27265			43387.38302		69.16200		324.00000 
 43692.65567		 740.62630			42952.02937		227.74600		875.00000 
 43692.65567		 305.27265			43387.38302		69.16200		324.00000 
 43692.65567		 740.62630			42952.02937		227.74600		875.00000 
 43692.65567		 305.27265			43387.38302		69.16200		324.00000 
 43692.65567		 740.62630			42952.02937		227.74600		875.00000 
 43692.65567		 305.27265			43387.38302		69.16200		324.00000 
 43692.65567		 740.62630			42952.02937		227.74600		875.00000 
 43692.65567		 305.27265			43387.38302		69.16200		324.00000 
 43692.65567		 740.62630			42952.02937		227.74600		875.00000 
 43692.65567		 305.27265			43387.38302		69.16200		324.00000 
 43692.65567		 740.62630			42952.02937		227.74600		875.00000 
 43692.65567		 305.27265			43387.38302		69.16200		324.00000 
 43692.65567		 740.62630			42952.02937		227.74600		875.00000 
 43692.65567		 305.27265			43387.38302		69.16200		324.00000 
 43692.65567		 740.62630			42952.02937		227.74600		875.00000 
 43692.65567		 305.27265			43387.38302		69.16200		324.00000 
 43692.65567		 740.62630			42952.02937		227.74600		875.00000 
 43692.65567		 305.27265			43387.38302		69.16200		324.00000 
 43692.65567		 740.62630			42952.02937		227.74600		875.00000 
 43692.65567		 305.27265			43387.38302		69.16200		324.00000 
 43692.65567		 740.62630			42952.02937		227.74600		875.00000 
 43692.65567		 305.27265			43387.38302		69.16200		324.00000 
 43692.65567		 740.62630			42952.02937		227.74600		875.00000 
 43692.65567		 305.27265			43387.38302		69.16200		324.00000 
 43692.65567		 740.62630			42952.02937		227.74600		875.00000 
 43692.65567		 305.27265			43387.38302		69.16200		324.00000 
 43692.65567		 740.62630			42952.02937		227.74600		875.00000 
 43692.65567		 305.27265			43387.38302		69.16200		324.00000 
 43692.65567		 740.62630			42952.02937		227.74600		875.00000 
 43692.65567		 305.27265			43387.38302		69.16200		324.00000 
 43692.65567		 740.62630			42952.02937		227.74600		875.00000 
 43692.65567		 305.27265			43387.38302		69.16200		324.00000 
 43692.65567		 740.62630			42952.02937		227.74600		875.00000 
 43692.65567		 305.27265			43387.38302		69.16200		324.00000 
 43692.65567		 740.62630			42952.02937		227.74600		875.00000 
 43692.65567		 305.27265			43387.38302		69.16200		324.00000 
 43692.65567		 740.62630			42952.02937		227.74600		875.00000 
 43692.65567		 305.27265			43387.38302		69.16200		324.00000 
 43692.65567		 740.62630			42952.02937		227.74600		875.00000 
 43692.65567		 305.27265			43387.38302		69.16200		324.00000 
 43692.65567		 740.62630			42952.02937		227.74600		875.00000 
 43692.65567		 305.27265			43387.38302		69.16200		324.00000 
 43692.65567		 740.62630			42952.02937		227.74600		875.00000 
 43692.65567		 305.27265			43387.38302		69.16200		324.00000 
 43692.65567		 740.62630			42952.02937		227.74600		875.00000 
 43692.65567		 305.27265			43387.38302		69.16200		324.00000 
 43692.65567		 740.62630			42952.02937		227.74600		875.00000 
 43692.65567		 305.27265			43387.38302		69.16200		324.00000 
 43692.65567		 740.62630			42952.02937		227.74600		875.00000 
 43692.65567		 305.27265			43387.38302		69.16200		324.00000 
 43692.65567		 740.62630			42952.02937		227.74600		875.00000 
 43692.65567		 305.27265			43387.38302		69.16200		324.00000 
 43692.65567		 740.62630			42952.02937		227.74600		875.00000 
 43692.65567		 305.27265			43387.38302		69.16200		324.00000 
 43692.65567		 740.62630			42952.02937		227.74600		875.00000 
 43692.65567		 305.27265			43387.38302		69.16200		324.00000 
 43692.65567		 740.62630			42952.02937		227.74600		875.00000 
 43692.65567		 305.27265			43387.38302		69.16200		324.00000 
 43692.65567		 740.62630			42952.02937		227.74600		875.00000 
 43692.65567		 305.27265			43387.38302		69.16200		324.00000 
 43692.65567		 740.62630			42952.02937		227.74600		875.00000 
 43692.65567		 305.27265			43387.38302		69.16200		324.00000 
 43692.65567		 740.62630			42952.02937		227.74600		875.00000 
 43692.65567		 305.27265			43387.38302		69.16200		324.00000 
 43692.65567		 740.62630			42952.02937		227.74600		875.00000 
 43692.65567		 305.27265			43387.38302		69.16200		324.00000 
 43692.65567		 740.62630			42952.02937		227.74600		875.00000 
 43692.65567		 305.27265			43387.38302		69.16200		324.00000 
 43692.65567		 740.62630			42952.02937		227.74600		875.00000 
 43692.65567		 305.27265			43387.38302		69.16200		324.00000 
 43692.65567		 740.62630			42952.02937		227.74600		875.00000 
 43692.65567		 305.27265			43387.38302		69.16200		324.00000 
 43692.65567		 740.62630			42952.02937		227.74600		875.00000 
 43692.65567		 305.27265			43387.38302		69.16200		324.00000 
 43692.65567		 740.62630			42952.02937		227.74600		875.00000 
 43692.65567		 305.27265			43387.38302		69.16200		324.00000 
 43692.65567		 740.62630			42952.02937		227.74600		875.00000 
 43692.65567		 305.27265			43387.38302		69.16200		324.00000 
 43692.65567		 740.62630			42952.02937		227.74600		875.00000 
 43692.65567		 305.27265			43387.38302		69.16200		324.00000 
 43692.65567		 740.62630			42952.02937		227.74600		875.00000 
 43692.65567		 305.27265			43387.38302		69.16200		324.00000 
 43692.65567		 740.62630			42952.02937		227.74600		875.00000 
 43692.65567		 305.27265			43387.38302		69.16200		324.00000 
 43692.65567		 740.62630			42952.02937		227.74600		875.00000 
 43692.65567		 305.27265			43387.38302		69.16200		324.00000 
 43692.65567		 740.62630			42952.02937		227.74600		875.00000 
 43692.65567		 305.27265			43387.38302		69.16200		324.00000 
 43692.65567		 740.62630			42952.02937		227.74600		875.00000 
 43692.65567		 305.27265			43387.38302		69.16200		324.00000 
 43692.65567		 740.62630			42952.02937		227.74600		875.00000 
 43692.65567		 305.27265			43387.38302		69.16200		324.00000 
 43692.65567		 740.62630			42952.02937		227.74600		875.00000 
 43692.65567		 305.27265			43387.38302		69.16200		324.00000 
 43692.65567		 740.62630			42952.02937		227.74600		875.00000 
 43692.65567		 305.27265			43387.38302		69.16200		324.00000 
 43692.65567		 740.62630			42952.02937		227.74600		875.00000 
 43692.65567		 305.27265			43387.38302		69.16200		324.00000 
 43692.65567		 740.62630			42952.02937		227.74600		875.00000 
 43692.65567		 305.27265			43387.38302		69.16200		324.00000 
 43692.65567		 740.62630			42952.02937		227.74600		875.00000 
 43692.65567		 305.27265			43387.38302		69.16200		324.00000 
 43692.65567		 740.62630			42952.02937		227.74600		875.00000 
 43692.65567		 305.27265			43387.38302		69.16200		324.00000 
 43692.65567		 740.62630			42952.02937		226.18400		875.00000 
 43692.65567		 305.27265			43387.38302		69.16200		324.00000 
 43692.65567		 740.62630			42952.02937		226.18400		875.00000 
 43692.65567		 305.27265			43387.38302		69.16200		324.00000 
 43692.65567		 740.62630			42952.02937		226.18400		875.00000 
 43692.65567		 305.27265			43387.38302		69.16200		324.00000 
 43692.65567		 740.62630			42952.02937		226.18400		875.00000 
 43692.65567		 305.27265			43387.38302		69.16200		324.00000 
 43692.65567		 740.62630			42952.02937		226.18400		875.00000 
 43692.65567		 305.27265			43387.38302		69.16200		324.00000 
 43692.65567		 740.62630			42952.02937		226.18400		875.00000 
 43692.65567		 305.27265			43387.38302		69.16200		324.00000 
 43692.65567		 740.62630			42952.02937		226.18400		875.00000 
 43692.65567		 305.27265			43387.38302		69.16200		324.00000 
 43692.65567		 740.62630			42952.02937		226.18400		875.00000 
 43692.65567		 305.27265			43387.38302		69.16200		324.00000 
 43692.65567		 740.62630			42952.02937		226.18400		875.00000 
 43692.65567		 305.27265			43387.38302		69.16200		324.00000 
 43692.65567		 740.62630			42952.02937		226.18400		875.00000 
 43692.65567		 305.27265			43387.38302		69.16200		324.00000 
 43692.65567		 740.62630			42952.02937		226.18400		875.00000 
 43692.65567		 305.27265			43387.38302		69.16200		324.00000 
 43692.65567		 740.62630			42952.02937		226.18400		875.00000 
 43692.65567		 305.27265			43387.38302		69.16200		324.00000 
 43692.65567		 740.62630			42952.02937		226.18400		875.00000 
 43692.65567		 305.27265			43387.38302		69.16200		324.00000 
 43692.65567		 740.62630			42952.02937		226.18400		875.00000 
 43692.65567		 305.27265			43387.38302		69.16200		324.00000 
 43692.65567		 740.62630			42952.02937		226.18400		875.00000 
 43692.65567		 305.27265			43387.38302		69.16200		324.00000 
 43692.65567		 740.62630			42952.02937		226.18400		875.00000 
 43692.65567		 305.27265			43387.38302		69.16200		324.00000 
 43692.65567		 740.62630			42952.02937		226.18400		875.00000 
 43692.65567		 305.27265			43387.38302		69.16200		324.00000 
 43692.65567		 740.62630			42952.02937		226.18400		875.00000 
 43692.65567		 305.27265			43387.38302		69.16200		324.00000 
 43692.65567		 740.62630			42952.02937		226.18400		875.00000 
 43692.65567		 305.27265			43387.38302		69.16200		324.00000 
 43692.65567		 740.62630			42952.02937		226.18400		875.00000 
 43692.65567		 305.27265			43387.38302		69.16200		324.00000 
 43692.65567		 740.62630			42952.02937		226.18400		875.00000 
 43692.65567		 305.27265			43387.38302		69.16200		324.00000 
 43692.65567		 740.62630			42952.02937		226.18400		875.00000 
 43692.65567		 305.27265			43387.38302		69.16200		324.00000 
 43692.65567		 740.62630			42952.02937		226.18400		875.00000 
 43692.65567		 305.27265			43387.38302		69.16200		324.00000 
 43692.65567		 740.62630			42952.02937		226.18400		875.00000 
 43692.65567		 305.27265			43387.38302		69.16200		324.00000 
 43692.65567		 740.62630			42952.02937		226.18400		875.00000 
 43692.65567		 305.27265			43387.38302		69.16200		324.00000 
 43692.65567		 740.62630			42952.02937		226.18400		875.00000 
 43692.65567		 305.27265			43387.38302		69.16200		324.00000 
 43692.65567		 740.62630			42952.02937		226.18400		875.00000 
 43692.65567		 305.27265			43387.38302		69.16200		324.00000 
 43692.65567		 740.62630			42952.02937		226.18400		875.00000 
 43692.65567		 305.27265			43387.38302		69.16200		324.00000 
 43692.65567		 740.62630			42952.02937		226.18400		875.00000 
 43692.65567		 305.27265			43387.38302		69.16200		324.00000 
 43692.65567		 740.62630			42952.02937		226.18400		875.00000 
 43692.65567		 305.27265			43387.38302		69.16200		324.00000 
 43692.65567		 740.62630			42952.02937		226.18400		875.00000 
 43692.65567		 305.27265			43387.38302		69.16200		324.00000 
 43692.65567		 740.62630			42952.02937		226.18400		875.00000 
 43692.65567		 305.27265			43387.38302		69.16200		324.00000 
 43692.65567		 740.62630			42952.02937		226.18400		875.00000 
 43692.65567		 305.27265			43387.38302		69.16200		324.00000 
 43692.65567		 740.62630			42952.02937		226.18400		875.00000 
 43692.65567		 305.27265			43387.38302		69.16200		324.00000 
 43692.65567		 740.62630			42952.02937		226.18400		875.00000 
 43692.65567		 305.27265			43387.38302		69.16200		324.00000 
 43692.65567		 740.62630			42952.02937		226.18400		875.00000 
 43692.65567		 305.27265			43387.38302		69.16200		324.00000 
 43692.65567		 740.62630			42952.02937		226.18400		875.00000 
 43692.65567		 305.27265			43387.38302		69.16200		324.00000 
 43692.65567		 740.62630			42952.02937		226.18400		875.00000 
 43692.65567		 305.27265			43387.38302		69.16200		324.00000 
 43692.65567		 740.62630			42952.02937		226.18400		875.00000 
 43692.65567		 305.27265			43387.38302		69.16200		324.00000 
 43692.65567		 740.62630			42952.02937		226.18400		875.00000 
 43692.65567		 305.27265			43387.38302		69.16200		324.00000 
 43692.65567		 740.62630			42952.02937		226.18400		875.00000 
 43692.65567		 305.27265			43387.38302		69.16200		324.00000 
 43692.65567		 740.62630			42952.02937		226.18400		875.00000 
 43692.65567		 305.27265			43387.38302		69.16200		324.00000 
 43692.65567		 740.62630			42952.02937		226.18400		875.00000 
 43692.65567		 305.27265			43387.38302		69.16200		324.00000 
 43692.65567		 740.62630			42952.02937		226.18400		875.00000 
 43692.65567		 305.27265			43387.38302		69.16200		324.00000 
 43692.65567		 740.62630			42952.02937		226.18400		875.00000 
 43692.65567		 305.27265			43387.38302		69.16200		324.00000 
 43692.65567		 740.62630			42952.02937		226.18400		875.00000 
 43692.65567		 305.27265			43387.38302		69.16200		324.00000 
 43692.65567		 740.62630			42952.02937		226.18400		875.00000 
 43692.65567		 305.27265			43387.38302		69.16200		324.00000 
 43692.65567		 740.62630			42952.02937		226.18400		875.00000 
 43692.65567		 305.27265			43387.38302		69.16200		324.00000 
 43692.65567		 740.62630			42952.02937		226.18400		875.00000 
 43692.65567		 305.27265			43387.38302		69.16200		324.00000 
 43692.65567		 740.62630			42952.02937		226.18400		875.00000 
 43692.65567		 305.27265			43387.38302		69.16200		324.00000 
 43692.65567		 740.62630			42952.02937		226.18400		875.00000 
 43692.65567		 305.27265			43387.38302		69.16200		324.00000 
 43692.65567		 740.62630			42952.02937		226.18400		875.00000 
 43692.65567		 305.27265			43387.38302		69.16200		324.00000 
 43692.65567		 740.62630			42952.02937		226.18400		875.00000 
 43692.65567		 305.27265			43387.38302		69.16200		324.00000 
 43692.65567		 740.62630			42952.02937		226.18400		875.00000 
 43692.65567		 305.27265			43387.38302		69.16200		324.00000 
 43692.65567		 740.62630			42952.02937		226.18400		875.00000 
 43692.65567		 305.27265			43387.38302		69.16200		324.00000 
 43692.65567		 740.62630			42952.02937		226.18400		875.00000 
 43692.65567		 305.27265			43387.38302		69.16200		324.00000 
 43692.65567		 740.62630			42952.02937		226.18400		875.00000 
 43692.65567		 305.27265			43387.38302		69.16200		324.00000 
 43692.65567		 740.62630			42952.02937		226.18400		875.00000 
 43692.65567		 305.27265			43387.38302		69.16200		324.00000 
 43692.65567		 740.62630			42952.02937		226.18400		875.00000 
 43692.65567		 305.27265			43387.38302		69.16200		324.00000 
 43692.65567		 740.62630			42952.02937		226.18400		875.00000 
 43692.65567		 305.27265			43387.38302		69.16200		324.00000 
 43692.65567		 740.62630			42952.02937		226.18400		875.00000 
 43692.65567		 305.27265			43387.38302		69.16200		324.00000 
 43692.65567		 740.62630			42952.02937		226.18400		875.00000 
 43692.65567		 305.27265			43387.38302		69.16200		324.00000 
 43692.65567		 740.62630			42952.02937		226.18400		875.00000 
 43692.65567		 305.27265			43387.38302		69.16200		324.00000 
 43692.65567		 740.62630			42952.02937		226.18400		875.00000 
 43692.65567		 305.27265			43387.38302		69.16200		324.00000 
 43692.65567		 740.62630			42952.02937		226.18400		875.00000 
 43692.65567		 305.27265			43387.38302		69.16200		324.00000 
 43692.65567		 740.62630			42952.02937		226.18400		875.00000 
 43692.65567		 305.27265			43387.38302		69.16200		324.00000 
 43692.65567		 740.62630			42952.02937		226.18400		875.00000 
 43692.65567		 305.27265			43387.38302		69.16200		324.00000 
 43692.65567		 740.62630			42952.02937		226.18400		875.00000 
 43692.65567		 305.27265			43387.38302		69.16200		324.00000 
 43692.65567		 740.62630			42952.02937		226.18400		875.00000 
 43692.65567		 305.27265			43387.38302		69.16200		324.00000 
 43692.65567		 740.62630			42952.02937		226.18400		875.00000 
 43692.65567		 305.27265			43387.38302		69.16200		324.00000 
 43692.65567		 740.62630			42952.02937		226.18400		875.00000 
 43692.65567		 305.27265			43387.38302		69.16200		324.00000 
 43692.65567		 740.62630			42952.02937		226.18400		875.00000 
 43692.65567		 305.27265			43387.38302		69.16200		324.00000 
 43692.65567		 740.62630			42952.02937		226.18400		875.00000 
 43692.65567		 305.27265			43387.38302		69.16200		324.00000 
 43692.65567		 740.62630			42952.02937		226.18400		875.00000 
 43692.65567		 305.27265			43387.38302		69.16200		324.00000 
 43692.65567		 740.62630			42952.02937		226.18400		875.00000 
 43692.65567		 305.27265			43387.38302		69.16200		324.00000 
 43692.65567		 740.62630			42952.02937		226.18400		875.00000 
 43692.65567		 305.27265			43387.38302		69.16200		324.00000 
 43692.65567		 740.62630			42952.02937		226.18400		875.00000 
 43692.65567		 305.27265			43387.38302		69.16200		324.00000 
 43692.65567		 740.62630			42952.02937		226.18400		875.00000 
 43692.65567		 305.27265			43387.38302		69.16200		324.00000 
 43692.65567		 740.62630			42952.02937		226.18400		875.00000 
 43692.65567		 305.27265			43387.38302		69.16200		324.00000 
 43692.65567		 740.62630			42952.02937		226.18400		875.00000 
 43692.65567		 305.27265			43387.38302		69.16200		324.00000 
 43692.65567		 740.62630			42952.02937		226.18400		875.00000 
 43692.65567		 305.27265			43387.38302		69.16200		324.00000 
 43692.65567		 740.62630			42952.02937		226.18400		875.00000 
 43692.65567		 305.27265			43387.38302		69.16200		324.00000 
 43692.65567		 740.62630			42952.02937		226.18400		875.00000 
 43692.65567		 305.27265			43387.38302		69.16200		324.00000 
 43692.65567		 740.62630			42952.02937		226.18400		875.00000 
 43692.65567		 305.27265			43387.38302		69.16200		324.00000 
 43692.65567		 740.62630			42952.02937		226.18400		875.00000 
 43692.65567		 305.27265			43387.38302		69.16200		324.00000 
 43692.65567		 740.62630			42952.02937		226.18400		875.00000 
 43692.65567		 305.27265			43387.38302		69.16200		324.00000 
 43692.65567		 740.62630			42952.02937		226.18400		875.00000 
 43692.65567		 305.27265			43387.38302		69.16200		324.00000 
 43692.65567		 740.62630			42952.02937		226.18400		875.00000 
 43692.65567		 305.27265			43387.38302		69.16200		324.00000 
 43692.65567		 740.62630			42952.02937		226.18400		875.00000 
 43692.65567		 305.27265			43387.38302		69.16200		324.00000 
 43692.65567		 740.62630			42952.02937		226.18400		875.00000 
 43692.65567		 305.27265			43387.38302		69.16200		324.00000 
 43692.65567		 740.62630			42952.02937		226.18400		875.00000 
 43692.65567		 305.27265			43387.38302		69.16200		324.00000 
 43692.65567		 740.62630			42952.02937		226.18400		875.00000 
 43692.65567		 305.27265			43387.38302		69.16200		324.00000 
 43692.65567		 740.62630			42952.02937		226.18400		875.00000 
 43692.65567		 305.27265			43387.38302		69.16200		324.00000 
 43692.65567		 740.62630			42952.02937		226.18400		875.00000 
 43692.65567		 305.27265			43387.38302		69.16200		324.00000 
 43692.65567		 740.62630			42952.02937		226.18400		875.00000 
 43692.65567		 305.27265			43387.38302		69.16200		324.00000 
 43692.65567		 740.62630			42952.02937		226.18400		875.00000 
 43692.65567		 305.27265			43387.38302		69.16200		324.00000 
 43692.65567		 740.62630			42952.02937		226.18400		875.00000 
 43692.65567		 305.27265			43387.38302		69.16200		324.00000 
 43692.65567		 740.62630			42952.02937		226.18400		875.00000 
 43692.65567		 305.27265			43387.38302		69.16200		324.00000 
 43692.65567		 740.62630			42952.02937		226.18400		875.00000 
 43692.65567		 305.27265			43387.38302		69.16200		324.00000 
 43692.65567		 740.62630			42952.02937		226.18400		875.00000 
 43692.65567		 305.27265			43387.38302		69.16200		324.00000 
 43692.65567		 740.62630			42952.02937		226.18400		875.00000 
 43692.65567		 305.27265			43387.38302		69.16200		324.00000 
 43692.65567		 740.62630			42952.02937		226.18400		875.00000 
 43692.65567		 305.27265			43387.38302		69.16200		324.00000 
 43692.65567		 740.62630			42952.02937		226.18400		875.00000 
 43692.65567		 305.27265			43387.38302		69.16200		324.00000 
 43692.65567		 740.62630			42952.02937		226.18400		875.00000 
 43692.65567		 305.27265			43387.38302		69.16200		324.00000 
 43692.65567		 740.62630			42952.02937		226.18400		875.00000 
 43692.65567		 305.27265			43387.38302		69.16200		324.00000 
 43692.65567		 740.62630			42952.02937		226.18400		875.00000 
 43692.65567		 305.27265			43387.38302		69.16200		324.00000 
 43692.65567		 740.62630			42952.02937		226.18400		875.00000 
 43692.65567		 305.27265			43387.38302		69.16200		324.00000 
 43692.65567		 740.62630			42952.02937		226.18400		875.00000 
 43692.65567		 305.27265			43387.38302		69.16200		324.00000 
 43692.65567		 740.62630			42952.02937		226.18400		875.00000 
 43692.65567		 305.27265			43387.38302		69.16200		324.00000 
 43692.65567		 740.62630			42952.02937		226.18400		875.00000 
 43692.65567		 305.27265			43387.38302		69.16200		324.00000 
 43692.65567		 740.62630			42952.02937		226.18400		875.00000 
 43692.65567		 305.27265			43387.38302		69.16200		324.00000 
 43692.65567		 740.62630			42952.02937		226.18400		875.00000 
 43692.65567		 305.27265			43387.38302		69.16200		324.00000 
 43692.65567		 740.62630			42952.02937		226.18400		875.00000 
 43692.65567		 305.27265			43387.38302		69.16200		324.00000 
 43692.65567		 740.62630			42952.02937		226.18400		875.00000 
 43692.65567		 305.27265			43387.38302		69.16200		324.00000 
 43692.65567		 740.62630			42952.02937		226.18400		875.00000 
 43692.65567		 305.27265			43387.38302		69.16200		324.00000 
 43692.65567		 740.62630			42952.02937		226.18400		875.00000 
 43692.65567		 305.27265			43387.38302		69.16200		324.00000 
 43692.65567		 740.62630			42952.02937		226.18400		875.00000 
 43692.65567		 305.27265			43387.38302		69.16200		324.00000 
 43692.65567		 740.62630			42952.02937		226.18400		875.00000 
 43692.65567		 305.27265			43387.38302		69.16200		324.00000 
 43692.65567		 740.62630			42952.02937		226.18400		875.00000 
 43692.65567		 305.27265			43387.38302		69.16200		324.00000 
 43692.65567		 740.62630			42952.02937		226.18400		875.00000 
 43692.65567		 305.27265			43387.38302		69.16200		324.00000 
 43692.65567		 740.62630			42952.02937		226.18400		875.00000 
 43692.65567		 305.27265			43387.38302		69.16200		324.00000 
 43692.65567		 740.62630			42952.02937		226.18400		875.00000 
 43692.65567		 305.27265			43387.38302		69.16200		324.00000 
 43692.65567		 740.62630			42952.02937		226.18400		875.00000 
 43692.65567		 305.27265			43387.38302		69.16200		324.00000 
 43692.65567		 740.62630			42952.02937		226.18400		875.00000 
 43692.65567		 305.27265			43387.38302		69.16200		324.00000 
 43692.65567		 740.62630			42952.02937		226.18400		875.00000 
 43692.65567		 305.27265			43387.38302		69.16200		324.00000 
 43692.65567		 740.62630			42952.02937		226.18400		875.00000 
 43692.65567		 305.27265			43387.38302		69.16200		324.00000 
 43692.65567		 740.62630			42952.02937		226.18400		875.00000 
 43692.65567		 305.27265			43387.38302		69.16200		324.00000 
 43692.65567		 740.62630			42952.02937		227.14800		875.00000 
 43692.65567		 305.27265			43387.38302		69.16200		324.00000 
 43692.65567		 740.62630			42952.02937		227.14800		875.00000 
 43692.65567		 305.27265			43387.38302		69.16200		324.00000 
 43692.65567		 740.62630			42952.02937		227.14800		875.00000 
 43692.65567		 305.27265			43387.38302		69.16200		324.00000 
 43692.65567		 740.62630			42952.02937		227.14800		875.00000 
 43692.65567		 305.27265			43387.38302		69.16200		324.00000 
 43692.65567		 740.62630			42952.02937		227.14800		875.00000 
 43692.65567		 305.27265			43387.38302		69.16200		324.00000 
 43692.65567		 740.62630			42952.02937		227.14800		875.00000 
 43692.65567		 305.27265			43387.38302		69.16200		324.00000 
 43692.65567		 740.62630			42952.02937		227.14800		875.00000 
 43692.65567		 305.27265			43387.38302		69.16200		324.00000 
 43692.65567		 740.62630			42952.02937		227.14800		875.00000 
 43692.65567		 305.27265			43387.38302		69.16200		324.00000 
 43692.65567		 740.62630			42952.02937		227.14800		875.00000 
 43692.65567		 305.27265			43387.38302		69.16200		324.00000 
 43692.65567		 740.62630			42952.02937		227.14800		875.00000 
 43692.65567		 305.27265			43387.38302		69.16200		324.00000 
 43692.65567		 740.62630			42952.02937		227.14800		875.00000 
 43692.65567		 305.27265			43387.38302		69.16200		324.00000 
 43692.65567		 740.62630			42952.02937		227.14800		875.00000 
 43692.65567		 305.27265			43387.38302		69.16200		324.00000 
 43692.65567		 740.62630			42952.02937		227.14800		875.00000 
 43692.65567		 305.27265			43387.38302		69.16200		324.00000 
 43692.65567		 740.62630			42952.02937		227.14800		875.00000 
 43692.65567		 305.27265			43387.38302		69.16200		324.00000 
 43692.65567		 740.62630			42952.02937		227.14800		875.00000 
 43692.65567		 305.27265			43387.38302		69.16200		324.00000 
 43692.65567		 740.62630			42952.02937		227.14800		875.00000 
 43692.65567		 305.27265			43387.38302		69.16200		324.00000 
 43692.65567		 740.62630			42952.02937		227.14800		875.00000 
 43692.65567		 305.27265			43387.38302		69.16200		324.00000 
 43692.65567		 740.62630			42952.02937		227.14800		875.00000 
 43692.65567		 305.27265			43387.38302		69.16200		324.00000 
 43692.65567		 740.62630			42952.02937		227.14800		875.00000 
 43692.65567		 305.27265			43387.38302		69.16200		324.00000 
 43692.65567		 740.62630			42952.02937		227.14800		875.00000 
 43692.65567		 305.27265			43387.38302		69.16200		324.00000 
 43692.65567		 740.62630			42952.02937		227.14800		875.00000 
 43692.65567		 305.27265			43387.38302		69.16200		324.00000 
 43692.65567		 740.62630			42952.02937		227.14800		875.00000 
 43692.65567		 305.27265			43387.38302		69.16200		324.00000 
 43692.65567		 740.62630			42952.02937		227.14800		875.00000 
 43692.65567		 305.27265			43387.38302		69.16200		324.00000 
 43692.65567		 740.62630			42952.02937		227.14800		875.00000 
 43692.65567		 305.27265			43387.38302		69.16200		324.00000 
 43692.65567		 740.62630			42952.02937		227.14800		875.00000 
 43692.65567		 305.27265			43387.38302		69.16200		324.00000 
 43692.65567		 740.62630			42952.02937		227.14800		875.00000 
 43692.65567		 305.27265			43387.38302		69.16200		324.00000 
 43692.65567		 740.62630			42952.02937		227.14800		875.00000 
 43692.65567		 305.27265			43387.38302		69.16200		324.00000 
 43692.65567		 740.62630			42952.02937		227.14800		875.00000 
 43692.65567		 305.27265			43387.38302		69.16200		324.00000 
 43692.65567		 740.62630			42952.02937		227.14800		875.00000 
 43692.65567		 305.27265			43387.38302		69.16200		324.00000 
 43692.65567		 740.62630			42952.02937		227.14800		875.00000 
 43692.65567		 305.27265			43387.38302		69.16200		324.00000 
 43692.65567		 740.62630			42952.02937		227.14800		875.00000 
 43692.65567		 305.27265			43387.38302		69.16200		324.00000 
 43692.65567		 740.62630			42952.02937		227.14800		875.00000 
 43692.65567		 305.27265			43387.38302		69.16200		324.00000 
 43692.65567		 740.62630			42952.02937		227.14800		875.00000 
 43692.65567		 305.27265			43387.38302		69.16200		324.00000 
 43692.65567		 740.62630			42952.02937		227.14800		875.00000 
 43692.65567		 305.27265			43387.38302		69.16200		324.00000 
 43692.65567		 740.62630			42952.02937		227.14800		875.00000 
 43692.65567		 305.27265			43387.38302		69.16200		324.00000 
 43692.65567		 740.62630			42952.02937		227.14800		875.00000 
 43692.65567		 305.27265			43387.38302		69.16200		324.00000 
 43692.65567		 740.62630			42952.02937		227.14800		875.00000 
 43692.65567		 305.27265			43387.38302		69.16200		324.00000 
 43692.65567		 740.62630			42952.02937		227.14800		875.00000 
 43692.65567		 305.27265			43387.38302		69.16200		324.00000 
 43692.65567		 740.62630			42952.02937		227.14800		875.00000 
 43692.65567		 305.27265			43387.38302		69.16200		324.00000 
 43692.65567		 740.62630			42952.02937		227.14800		875.00000 
 43692.65567		 305.27265			43387.38302		69.16200		324.00000 
 43692.65567		 740.62630			42952.02937		227.14800		875.00000 
 43692.65567		 305.27265			43387.38302		69.16200		324.00000 
 43692.65567		 672.84098			43019.81470		227.14800		875.00000 
 43692.65567		 305.27265			43387.38302		69.16200		324.00000 
 43692.65567		 605.05565			43087.60002		227.14800		875.00000 
 43692.65567		 305.27265			43387.38302		69.16200		324.00000 
 43692.65567		 537.27032			43155.38535		227.14800		875.00000 
 43692.65567		 305.27265			43387.38302		69.16200		324.00000 
 43692.65567		 537.27032			43155.38535		227.14800		875.00000 
 43692.65567		 305.27265			43387.38302		69.16200		324.00000 
 43692.65567		 537.27032			43155.38535		227.14800		875.00000 
 43692.65567		 305.27265			43387.38302		69.16200		324.00000 
 43692.65567		 537.27032			43155.38535		227.14800		875.00000 
 43692.65567		 305.27265			43387.38302		69.16200		324.00000 
 43692.65567		 537.27032			43155.38535		227.14800		875.00000 
 43692.65567		 305.27265			43387.38302		69.16200		324.00000 
 43692.65567		 537.27032			43155.38535		227.14800		875.00000 
 43692.65567		 305.27265			43387.38302		69.16200		324.00000 
 43692.65567		 537.27032			43155.38535		227.14800		875.00000 
 43692.65567		 305.27265			43387.38302		69.16200		324.00000 
 43692.65567		 537.27032			43155.38535		227.14800		875.00000 
 43692.65567		 305.27265			43387.38302		69.16200		324.00000 
 43692.65567		 537.27032			43155.38535		227.14800		875.00000 
 43692.65567		 305.27265			43387.38302		69.16200		324.00000 
 43692.65567		 537.27032			43155.38535		227.14800		875.00000 
 43692.65567		 305.27265			43387.38302		69.16200		324.00000 
 43692.65567		 537.27032			43155.38535		227.14800		875.00000 
 43692.65567		 305.27265			43387.38302		69.16200		324.00000 
 43692.65567		 537.27032			43155.38535		227.14800		875.00000 
 43692.65567		 305.27265			43387.38302		69.16200		324.00000 
 43692.65567		 537.27032			43155.38535		227.14800		875.00000 
 43692.65567		 305.27265			43387.38302		69.16200		324.00000 
 43692.65567		 537.27032			43155.38535		227.14800		875.00000 
 43692.65567		 305.27265			43387.38302		69.16200		324.00000 
 43692.65567		 537.27032			43155.38535		227.14800		875.00000 
 43692.65567		 305.27265			43387.38302		69.16200		324.00000 
 43692.65567		 537.27032			43155.38535		227.14800		875.00000 
 43692.65567		 305.27265			43387.38302		69.16200		324.00000 
 43692.65567		 537.27032			43155.38535		198.75400		875.00000 
 43692.65567		 305.27265			43387.38302		69.16200		324.00000 
 43692.65567		 537.27032			43155.38535		198.75400		875.00000 
 43692.65567		 305.27265			43387.38302		69.16200		324.00000 
 43692.65567		 537.27032			43155.38535		198.75400		875.00000 
 43692.65567		 305.27265			43387.38302		69.16200		324.00000 
 43692.65567		 525.81365			43166.84203		198.75400		875.00000 
 43692.65567		 305.27265			43387.38302		69.16200		324.00000 
 43692.65567		 525.81365			43166.84203		198.75400		875.00000 
 43692.65567		 261.35540			43431.30027		69.16200		324.00000 
 43692.65567		 261.35540			43431.30027		198.75400		875.00000 
 43692.65567		 261.35540			43431.30027		69.16200		324.00000 
