Memory Total (MiB) 	 Memory Used (MiB) 	    Memory Free (MiB) 	 Power Drawed (W) 	 Clocks (Mhz) 	 
 43692.65567		 261.35540			43431.30027		212.14800		875.00000 
 43692.65567		 261.35540			43431.30027		69.67800		324.00000 
 43692.65567		 261.35540			43431.30027		212.14800		875.00000 
 43692.65567		 261.35540			43431.30027		69.67800		324.00000 
 43692.65567		 261.35540			43431.30027		212.14800		875.00000 
 43692.65567		 261.35540			43431.30027		69.67800		324.00000 
 43692.65567		 261.35540			43431.30027		212.14800		875.00000 
 43692.65567		 261.35540			43431.30027		69.67800		324.00000 
 43692.65567		 261.35540			43431.30027		212.14800		875.00000 
 43692.65567		 261.35540			43431.30027		69.67800		324.00000 
 43692.65567		 261.35540			43431.30027		212.14800		875.00000 
 43692.65567		 261.35540			43431.30027		69.67800		324.00000 
 43692.65567		 261.35540			43431.30027		212.14800		875.00000 
 43692.65567		 261.35540			43431.30027		69.67800		324.00000 
 43692.65567		 261.35540			43431.30027		212.14800		875.00000 
 43692.65567		 261.35540			43431.30027		69.67800		324.00000 
 43692.65567		 261.35540			43431.30027		212.14800		875.00000 
 43692.65567		 261.35540			43431.30027		69.67800		324.00000 
 43692.65567		 261.35540			43431.30027		212.14800		875.00000 
 43692.65567		 261.35540			43431.30027		69.67800		324.00000 
 43692.65567		 261.35540			43431.30027		212.14800		875.00000 
 43692.65567		 261.35540			43431.30027		69.67800		324.00000 
 43692.65567		 261.35540			43431.30027		161.81000		875.00000 
 43692.65567		 261.35540			43431.30027		69.67800		324.00000 
 43692.65567		 261.35540			43431.30027		161.81000		875.00000 
 43692.65567		 261.35540			43431.30027		69.67800		324.00000 
 43692.65567		 261.35540			43431.30027		161.81000		875.00000 
 43692.65567		 261.35540			43431.30027		69.67800		324.00000 
 43692.65567		 261.35540			43431.30027		161.81000		875.00000 
 43692.65567		 261.35540			43431.30027		69.67800		324.00000 
 43692.65567		 261.35540			43431.30027		161.81000		875.00000 
 43692.65567		 261.35540			43431.30027		69.67800		324.00000 
 43692.65567		 261.35540			43431.30027		161.81000		875.00000 
 43692.65567		 261.35540			43431.30027		69.67800		324.00000 
 43692.65567		 261.35540			43431.30027		161.81000		875.00000 
 43692.65567		 261.35540			43431.30027		69.67800		324.00000 
 43692.65567		 261.35540			43431.30027		161.81000		875.00000 
 43692.65567		 261.35540			43431.30027		69.67800		324.00000 
 43692.65567		 265.17429			43427.48138		161.81000		875.00000 
 43692.65567		 261.35540			43431.30027		69.67800		324.00000 
 43692.65567		 272.81207			43419.84360		161.81000		875.00000 
 43692.65567		 261.35540			43431.30027		69.67800		324.00000 
 43692.65567		 272.81207			43419.84360		161.81000		875.00000 
 43692.65567		 261.35540			43431.30027		69.67800		324.00000 
 43692.65567		 272.81207			43419.84360		161.81000		875.00000 
 43692.65567		 265.17429			43427.48138		69.67800		324.00000 
 43692.65567		 272.81207			43419.84360		161.81000		875.00000 
 43692.65567		 265.17429			43427.48138		69.67800		324.00000 
 43692.65567		 272.81207			43419.84360		161.81000		875.00000 
 43692.65567		 265.17429			43427.48138		69.67800		324.00000 
 43692.65567		 272.81207			43419.84360		161.81000		875.00000 
 43692.65567		 272.81207			43419.84360		69.67800		324.00000 
 43692.65567		 272.81207			43419.84360		161.81000		875.00000 
 43692.65567		 272.81207			43419.84360		69.67800		324.00000 
 43692.65567		 272.81207			43419.84360		161.81000		875.00000 
 43692.65567		 272.81207			43419.84360		69.67800		324.00000 
 43692.65567		 305.27265			43387.38302		161.81000		875.00000 
 43692.65567		 305.27265			43387.38302		69.67800		324.00000 
 43692.65567		 305.27265			43387.38302		161.81000		875.00000 
 43692.65567		 305.27265			43387.38302		69.67800		324.00000 
 43692.65567		 305.27265			43387.38302		161.81000		875.00000 
 43692.65567		 305.27265			43387.38302		69.67800		324.00000 
 43692.65567		 305.27265			43387.38302		161.81000		875.00000 
 43692.65567		 305.27265			43387.38302		69.67800		324.00000 
 43692.65567		 305.27265			43387.38302		161.81000		875.00000 
 43692.65567		 305.27265			43387.38302		69.67800		324.00000 
 43692.65567		 310.04627			43382.60941		161.81000		875.00000 
 43692.65567		 305.27265			43387.38302		69.67800		324.00000 
 43692.65567		 311.00099			43381.65468		161.81000		875.00000 
 43692.65567		 305.27265			43387.38302		69.67800		324.00000 
 43692.65567		 311.00099			43381.65468		161.81000		875.00000 
 43692.65567		 305.27265			43387.38302		69.67800		324.00000 
 43692.65567		 311.00099			43381.65468		161.81000		875.00000 
 43692.65567		 305.27265			43387.38302		69.67800		324.00000 
 43692.65567		 311.00099			43381.65468		161.81000		875.00000 
 43692.65567		 305.27265			43387.38302		69.67800		324.00000 
 43692.65567		 311.00099			43381.65468		161.81000		875.00000 
 43692.65567		 305.27265			43387.38302		69.67800		324.00000 
 43692.65567		 311.00099			43381.65468		161.81000		875.00000 
 43692.65567		 305.27265			43387.38302		69.67800		324.00000 
 43692.65567		 311.00099			43381.65468		161.81000		875.00000 
 43692.65567		 305.27265			43387.38302		69.67800		324.00000 
 43692.65567		 311.00099			43381.65468		161.81000		875.00000 
 43692.65567		 305.27265			43387.38302		69.67800		324.00000 
 43692.65567		 311.00099			43381.65468		161.81000		875.00000 
 43692.65567		 305.27265			43387.38302		69.67800		324.00000 
 43692.65567		 311.00099			43381.65468		161.81000		875.00000 
 43692.65567		 305.27265			43387.38302		69.67800		324.00000 
 43692.65567		 311.00099			43381.65468		142.94800		875.00000 
 43692.65567		 305.27265			43387.38302		69.67800		324.00000 
 43692.65567		 311.00099			43381.65468		142.94800		875.00000 
 43692.65567		 305.27265			43387.38302		69.67800		324.00000 
 43692.65567		 311.00099			43381.65468		142.94800		875.00000 
 43692.65567		 305.27265			43387.38302		69.67800		324.00000 
 43692.65567		 311.00099			43381.65468		142.94800		875.00000 
 43692.65567		 305.27265			43387.38302		69.67800		324.00000 
 43692.65567		 311.00099			43381.65468		142.94800		875.00000 
 43692.65567		 305.27265			43387.38302		69.67800		324.00000 
 43692.65567		 311.00099			43381.65468		142.94800		875.00000 
 43692.65567		 305.27265			43387.38302		69.67800		324.00000 
 43692.65567		 311.00099			43381.65468		142.94800		875.00000 
 43692.65567		 305.27265			43387.38302		69.67800		324.00000 
 43692.65567		 311.00099			43381.65468		142.94800		875.00000 
 43692.65567		 305.27265			43387.38302		69.67800		324.00000 
 43692.65567		 311.00099			43381.65468		142.94800		875.00000 
 43692.65567		 305.27265			43387.38302		69.67800		324.00000 
 43692.65567		 311.00099			43381.65468		142.94800		875.00000 
 43692.65567		 305.27265			43387.38302		69.67800		324.00000 
 43692.65567		 311.00099			43381.65468		142.94800		875.00000 
 43692.65567		 305.27265			43387.38302		69.67800		324.00000 
 43692.65567		 311.00099			43381.65468		142.94800		875.00000 
 43692.65567		 305.27265			43387.38302		69.67800		324.00000 
 43692.65567		 311.00099			43381.65468		142.94800		875.00000 
 43692.65567		 305.27265			43387.38302		69.67800		324.00000 
 43692.65567		 311.00099			43381.65468		142.94800		875.00000 
 43692.65567		 305.27265			43387.38302		69.67800		324.00000 
 43692.65567		 311.00099			43381.65468		142.94800		875.00000 
 43692.65567		 305.27265			43387.38302		69.67800		324.00000 
 43692.65567		 311.00099			43381.65468		142.94800		875.00000 
 43692.65567		 305.27265			43387.38302		69.67800		324.00000 
 43692.65567		 311.00099			43381.65468		142.94800		875.00000 
 43692.65567		 305.27265			43387.38302		69.67800		324.00000 
 43692.65567		 311.00099			43381.65468		142.94800		875.00000 
 43692.65567		 305.27265			43387.38302		69.67800		324.00000 
 43692.65567		 311.00099			43381.65468		142.94800		875.00000 
 43692.65567		 305.27265			43387.38302		69.67800		324.00000 
 43692.65567		 311.00099			43381.65468		142.94800		875.00000 
 43692.65567		 305.27265			43387.38302		69.67800		324.00000 
 43692.65567		 311.00099			43381.65468		142.94800		875.00000 
 43692.65567		 305.27265			43387.38302		69.67800		324.00000 
 43692.65567		 311.00099			43381.65468		142.94800		875.00000 
 43692.65567		 305.27265			43387.38302		69.67800		324.00000 
 43692.65567		 311.00099			43381.65468		142.94800		875.00000 
 43692.65567		 305.27265			43387.38302		69.67800		324.00000 
 43692.65567		 311.00099			43381.65468		142.94800		875.00000 
 43692.65567		 305.27265			43387.38302		69.67800		324.00000 
 43692.65567		 311.00099			43381.65468		142.94800		875.00000 
 43692.65567		 305.27265			43387.38302		69.67800		324.00000 
 43692.65567		 311.00099			43381.65468		142.94800		875.00000 
 43692.65567		 305.27265			43387.38302		69.67800		324.00000 
 43692.65567		 311.00099			43381.65468		142.94800		875.00000 
 43692.65567		 305.27265			43387.38302		69.67800		324.00000 
 43692.65567		 311.00099			43381.65468		142.94800		875.00000 
 43692.65567		 305.27265			43387.38302		69.67800		324.00000 
 43692.65567		 311.00099			43381.65468		142.94800		875.00000 
 43692.65567		 305.27265			43387.38302		69.67800		324.00000 
 43692.65567		 311.00099			43381.65468		142.94800		875.00000 
 43692.65567		 305.27265			43387.38302		69.67800		324.00000 
 43692.65567		 311.00099			43381.65468		142.94800		875.00000 
 43692.65567		 305.27265			43387.38302		69.67800		324.00000 
 43692.65567		 311.00099			43381.65468		135.34600		875.00000 
 43692.65567		 305.27265			43387.38302		69.67800		324.00000 
 43692.65567		 311.00099			43381.65468		135.34600		875.00000 
 43692.65567		 305.27265			43387.38302		69.67800		324.00000 
 43692.65567		 311.00099			43381.65468		135.34600		875.00000 
 43692.65567		 305.27265			43387.38302		69.67800		324.00000 
 43692.65567		 311.00099			43381.65468		135.34600		875.00000 
 43692.65567		 305.27265			43387.38302		69.67800		324.00000 
 43692.65567		 311.00099			43381.65468		135.34600		875.00000 
 43692.65567		 305.27265			43387.38302		69.67800		324.00000 
 43692.65567		 311.00099			43381.65468		135.34600		875.00000 
 43692.65567		 305.27265			43387.38302		69.67800		324.00000 
 43692.65567		 311.00099			43381.65468		135.34600		875.00000 
 43692.65567		 305.27265			43387.38302		69.67800		324.00000 
 43692.65567		 311.00099			43381.65468		135.34600		875.00000 
 43692.65567		 305.27265			43387.38302		69.67800		324.00000 
 43692.65567		 311.00099			43381.65468		135.34600		875.00000 
 43692.65567		 305.27265			43387.38302		69.67800		324.00000 
 43692.65567		 314.81988			43377.83579		135.34600		875.00000 
 43692.65567		 305.27265			43387.38302		69.67800		324.00000 
 43692.65567		 314.81988			43377.83579		135.34600		875.00000 
 43692.65567		 305.27265			43387.38302		69.67800		324.00000 
 43692.65567		 314.81988			43377.83579		135.34600		875.00000 
 43692.65567		 305.27265			43387.38302		69.67800		324.00000 
 43692.65567		 318.63877			43374.01690		135.34600		875.00000 
 43692.65567		 305.27265			43387.38302		69.67800		324.00000 
 43692.65567		 322.45767			43370.19801		135.34600		875.00000 
 43692.65567		 305.27265			43387.38302		69.67800		324.00000 
 43692.65567		 326.27656			43366.37912		135.34600		875.00000 
 43692.65567		 305.27265			43387.38302		69.67800		324.00000 
 43692.65567		 326.27656			43366.37912		135.34600		875.00000 
 43692.65567		 305.27265			43387.38302		69.67800		324.00000 
 43692.65567		 326.27656			43366.37912		135.34600		875.00000 
 43692.65567		 305.27265			43387.38302		69.67800		324.00000 
 43692.65567		 537.27032			43155.38535		135.34600		875.00000 
 43692.65567		 305.27265			43387.38302		69.67800		324.00000 
 43692.65567		 635.60678			43057.04889		135.34600		875.00000 
 43692.65567		 305.27265			43387.38302		69.67800		324.00000 
 43692.65567		 684.77501			43007.88066		135.34600		875.00000 
 43692.65567		 305.27265			43387.38302		69.67800		324.00000 
 43692.65567		 684.77501			43007.88066		135.34600		875.00000 
 43692.65567		 305.27265			43387.38302		69.67800		324.00000 
 43692.65567		 684.77501			43007.88066		135.34600		875.00000 
 43692.65567		 305.27265			43387.38302		69.67800		324.00000 
 43692.65567		 684.77501			43007.88066		135.34600		875.00000 
 43692.65567		 305.27265			43387.38302		69.67800		324.00000 
 43692.65567		 684.77501			43007.88066		135.34600		875.00000 
 43692.65567		 305.27265			43387.38302		69.67800		324.00000 
 43692.65567		 684.77501			43007.88066		135.34600		875.00000 
 43692.65567		 305.27265			43387.38302		69.67800		324.00000 
 43692.65567		 684.77501			43007.88066		135.34600		875.00000 
 43692.65567		 305.27265			43387.38302		69.67800		324.00000 
 43692.65567		 684.77501			43007.88066		135.34600		875.00000 
 43692.65567		 305.27265			43387.38302		69.67800		324.00000 
 43692.65567		 684.77501			43007.88066		135.34600		875.00000 
 43692.65567		 305.27265			43387.38302		69.67800		324.00000 
 43692.65567		 684.77501			43007.88066		135.34600		875.00000 
 43692.65567		 305.27265			43387.38302		69.67800		324.00000 
 43692.65567		 684.77501			43007.88066		135.34600		875.00000 
 43692.65567		 305.27265			43387.38302		69.67800		324.00000 
 43692.65567		 684.77501			43007.88066		135.34600		875.00000 
 43692.65567		 305.27265			43387.38302		69.67800		324.00000 
 43692.65567		 684.77501			43007.88066		135.34600		875.00000 
 43692.65567		 305.27265			43387.38302		69.67800		324.00000 
 43692.65567		 684.77501			43007.88066		135.34600		875.00000 
 43692.65567		 305.27265			43387.38302		69.67800		324.00000 
 43692.65567		 684.77501			43007.88066		135.34600		875.00000 
 43692.65567		 305.27265			43387.38302		69.67800		324.00000 
 43692.65567		 684.77501			43007.88066		135.34600		875.00000 
 43692.65567		 305.27265			43387.38302		69.67800		324.00000 
 43692.65567		 684.77501			43007.88066		135.34600		875.00000 
 43692.65567		 305.27265			43387.38302		69.67800		324.00000 
 43692.65567		 684.77501			43007.88066		135.34600		875.00000 
 43692.65567		 305.27265			43387.38302		69.67800		324.00000 
 43692.65567		 684.77501			43007.88066		135.34600		875.00000 
 43692.65567		 305.27265			43387.38302		69.67800		324.00000 
 43692.65567		 684.77501			43007.88066		135.34600		875.00000 
 43692.65567		 305.27265			43387.38302		69.67800		324.00000 
 43692.65567		 684.77501			43007.88066		135.34600		875.00000 
 43692.65567		 305.27265			43387.38302		69.67800		324.00000 
 43692.65567		 684.77501			43007.88066		135.34600		875.00000 
 43692.65567		 305.27265			43387.38302		69.67800		324.00000 
 43692.65567		 684.77501			43007.88066		135.34600		875.00000 
 43692.65567		 305.27265			43387.38302		69.67800		324.00000 
 43692.65567		 684.77501			43007.88066		135.34600		875.00000 
 43692.65567		 305.27265			43387.38302		69.67800		324.00000 
 43692.65567		 684.77501			43007.88066		135.34600		875.00000 
 43692.65567		 305.27265			43387.38302		69.67800		324.00000 
 43692.65567		 684.77501			43007.88066		135.34600		875.00000 
 43692.65567		 305.27265			43387.38302		69.67800		324.00000 
 43692.65567		 684.77501			43007.88066		135.34600		875.00000 
 43692.65567		 305.27265			43387.38302		69.67800		324.00000 
 43692.65567		 684.77501			43007.88066		135.34600		875.00000 
 43692.65567		 305.27265			43387.38302		69.67800		324.00000 
 43692.65567		 684.77501			43007.88066		135.34600		875.00000 
 43692.65567		 305.27265			43387.38302		69.67800		324.00000 
 43692.65567		 684.77501			43007.88066		135.34600		875.00000 
 43692.65567		 305.27265			43387.38302		69.67800		324.00000 
 43692.65567		 684.77501			43007.88066		135.34600		875.00000 
 43692.65567		 305.27265			43387.38302		69.67800		324.00000 
 43692.65567		 684.77501			43007.88066		135.34600		875.00000 
 43692.65567		 305.27265			43387.38302		69.67800		324.00000 
 43692.65567		 684.77501			43007.88066		166.49000		875.00000 
 43692.65567		 305.27265			43387.38302		69.67800		324.00000 
 43692.65567		 684.77501			43007.88066		166.49000		875.00000 
 43692.65567		 305.27265			43387.38302		69.67800		324.00000 
 43692.65567		 684.77501			43007.88066		166.49000		875.00000 
 43692.65567		 305.27265			43387.38302		69.67800		324.00000 
 43692.65567		 684.77501			43007.88066		166.49000		875.00000 
 43692.65567		 305.27265			43387.38302		69.67800		324.00000 
 43692.65567		 684.77501			43007.88066		166.49000		875.00000 
 43692.65567		 305.27265			43387.38302		69.67800		324.00000 
 43692.65567		 684.77501			43007.88066		166.49000		875.00000 
 43692.65567		 305.27265			43387.38302		69.67800		324.00000 
 43692.65567		 684.77501			43007.88066		166.49000		875.00000 
 43692.65567		 305.27265			43387.38302		69.67800		324.00000 
 43692.65567		 684.77501			43007.88066		166.49000		875.00000 
 43692.65567		 305.27265			43387.38302		69.67800		324.00000 
 43692.65567		 684.77501			43007.88066		166.49000		875.00000 
 43692.65567		 305.27265			43387.38302		69.67800		324.00000 
 43692.65567		 684.77501			43007.88066		166.49000		875.00000 
 43692.65567		 305.27265			43387.38302		69.67800		324.00000 
 43692.65567		 684.77501			43007.88066		166.49000		875.00000 
 43692.65567		 305.27265			43387.38302		69.67800		324.00000 
 43692.65567		 684.77501			43007.88066		166.49000		875.00000 
 43692.65567		 305.27265			43387.38302		69.67800		324.00000 
 43692.65567		 684.77501			43007.88066		166.49000		875.00000 
 43692.65567		 305.27265			43387.38302		69.67800		324.00000 
 43692.65567		 684.77501			43007.88066		166.49000		875.00000 
 43692.65567		 305.27265			43387.38302		69.67800		324.00000 
 43692.65567		 684.77501			43007.88066		166.49000		875.00000 
 43692.65567		 305.27265			43387.38302		69.67800		324.00000 
 43692.65567		 684.77501			43007.88066		166.49000		875.00000 
 43692.65567		 305.27265			43387.38302		69.67800		324.00000 
 43692.65567		 684.77501			43007.88066		166.49000		875.00000 
 43692.65567		 305.27265			43387.38302		69.67800		324.00000 
 43692.65567		 684.77501			43007.88066		166.49000		875.00000 
 43692.65567		 305.27265			43387.38302		69.67800		324.00000 
 43692.65567		 684.77501			43007.88066		166.49000		875.00000 
 43692.65567		 305.27265			43387.38302		69.67800		324.00000 
 43692.65567		 684.77501			43007.88066		166.49000		875.00000 
 43692.65567		 305.27265			43387.38302		69.67800		324.00000 
 43692.65567		 684.77501			43007.88066		166.49000		875.00000 
 43692.65567		 305.27265			43387.38302		69.67800		324.00000 
 43692.65567		 684.77501			43007.88066		166.49000		875.00000 
 43692.65567		 305.27265			43387.38302		69.67800		324.00000 
 43692.65567		 684.77501			43007.88066		166.49000		875.00000 
 43692.65567		 305.27265			43387.38302		69.67800		324.00000 
 43692.65567		 684.77501			43007.88066		166.49000		875.00000 
 43692.65567		 305.27265			43387.38302		69.67800		324.00000 
 43692.65567		 684.77501			43007.88066		166.49000		875.00000 
 43692.65567		 305.27265			43387.38302		69.67800		324.00000 
 43692.65567		 684.77501			43007.88066		166.49000		875.00000 
 43692.65567		 305.27265			43387.38302		69.67800		324.00000 
 43692.65567		 684.77501			43007.88066		166.49000		875.00000 
 43692.65567		 305.27265			43387.38302		69.67800		324.00000 
 43692.65567		 684.77501			43007.88066		166.49000		875.00000 
 43692.65567		 305.27265			43387.38302		69.67800		324.00000 
 43692.65567		 684.77501			43007.88066		166.49000		875.00000 
 43692.65567		 305.27265			43387.38302		69.67800		324.00000 
 43692.65567		 684.77501			43007.88066		166.49000		875.00000 
 43692.65567		 305.27265			43387.38302		69.67800		324.00000 
 43692.65567		 684.77501			43007.88066		166.49000		875.00000 
 43692.65567		 305.27265			43387.38302		69.67800		324.00000 
 43692.65567		 684.77501			43007.88066		166.49000		875.00000 
 43692.65567		 305.27265			43387.38302		69.67800		324.00000 
 43692.65567		 684.77501			43007.88066		166.49000		875.00000 
 43692.65567		 305.27265			43387.38302		69.67800		324.00000 
 43692.65567		 684.77501			43007.88066		166.49000		875.00000 
 43692.65567		 305.27265			43387.38302		69.67800		324.00000 
 43692.65567		 684.77501			43007.88066		166.49000		875.00000 
 43692.65567		 305.27265			43387.38302		69.67800		324.00000 
 43692.65567		 684.77501			43007.88066		166.49000		875.00000 
 43692.65567		 305.27265			43387.38302		69.67800		324.00000 
 43692.65567		 684.77501			43007.88066		166.49000		875.00000 
 43692.65567		 305.27265			43387.38302		69.67800		324.00000 
 43692.65567		 684.77501			43007.88066		166.49000		875.00000 
 43692.65567		 305.27265			43387.38302		69.67800		324.00000 
 43692.65567		 684.77501			43007.88066		166.49000		875.00000 
 43692.65567		 305.27265			43387.38302		69.67800		324.00000 
 43692.65567		 684.77501			43007.88066		166.49000		875.00000 
 43692.65567		 305.27265			43387.38302		69.67800		324.00000 
 43692.65567		 684.77501			43007.88066		166.49000		875.00000 
 43692.65567		 305.27265			43387.38302		69.67800		324.00000 
 43692.65567		 684.77501			43007.88066		166.49000		875.00000 
 43692.65567		 305.27265			43387.38302		69.67800		324.00000 
 43692.65567		 684.77501			43007.88066		166.49000		875.00000 
 43692.65567		 305.27265			43387.38302		69.67800		324.00000 
 43692.65567		 684.77501			43007.88066		166.49000		875.00000 
 43692.65567		 305.27265			43387.38302		69.67800		324.00000 
 43692.65567		 684.77501			43007.88066		166.49000		875.00000 
 43692.65567		 305.27265			43387.38302		69.67800		324.00000 
 43692.65567		 684.77501			43007.88066		166.49000		875.00000 
 43692.65567		 305.27265			43387.38302		69.67800		324.00000 
 43692.65567		 684.77501			43007.88066		166.49000		875.00000 
 43692.65567		 305.27265			43387.38302		69.67800		324.00000 
 43692.65567		 684.77501			43007.88066		166.49000		875.00000 
 43692.65567		 305.27265			43387.38302		69.67800		324.00000 
 43692.65567		 684.77501			43007.88066		166.49000		875.00000 
 43692.65567		 305.27265			43387.38302		69.67800		324.00000 
 43692.65567		 684.77501			43007.88066		166.49000		875.00000 
 43692.65567		 305.27265			43387.38302		69.67800		324.00000 
 43692.65567		 684.77501			43007.88066		166.49000		875.00000 
 43692.65567		 305.27265			43387.38302		69.67800		324.00000 
 43692.65567		 684.77501			43007.88066		166.49000		875.00000 
 43692.65567		 305.27265			43387.38302		69.67800		324.00000 
 43692.65567		 684.77501			43007.88066		166.49000		875.00000 
 43692.65567		 305.27265			43387.38302		69.67800		324.00000 
 43692.65567		 684.77501			43007.88066		166.49000		875.00000 
 43692.65567		 305.27265			43387.38302		69.67800		324.00000 
 43692.65567		 684.77501			43007.88066		166.49000		875.00000 
 43692.65567		 305.27265			43387.38302		69.67800		324.00000 
 43692.65567		 684.77501			43007.88066		166.49000		875.00000 
 43692.65567		 305.27265			43387.38302		69.67800		324.00000 
 43692.65567		 684.77501			43007.88066		166.49000		875.00000 
 43692.65567		 305.27265			43387.38302		69.67800		324.00000 
 43692.65567		 684.77501			43007.88066		166.49000		875.00000 
 43692.65567		 305.27265			43387.38302		69.67800		324.00000 
 43692.65567		 684.77501			43007.88066		166.49000		875.00000 
 43692.65567		 305.27265			43387.38302		69.67800		324.00000 
 43692.65567		 684.77501			43007.88066		166.49000		875.00000 
 43692.65567		 305.27265			43387.38302		69.67800		324.00000 
 43692.65567		 684.77501			43007.88066		166.49000		875.00000 
 43692.65567		 305.27265			43387.38302		69.67800		324.00000 
 43692.65567		 684.77501			43007.88066		166.49000		875.00000 
 43692.65567		 305.27265			43387.38302		69.67800		324.00000 
 43692.65567		 684.77501			43007.88066		166.49000		875.00000 
 43692.65567		 305.27265			43387.38302		69.67800		324.00000 
 43692.65567		 684.77501			43007.88066		166.49000		875.00000 
 43692.65567		 305.27265			43387.38302		69.67800		324.00000 
 43692.65567		 684.77501			43007.88066		198.86000		875.00000 
 43692.65567		 305.27265			43387.38302		69.67800		324.00000 
 43692.65567		 684.77501			43007.88066		198.86000		875.00000 
 43692.65567		 305.27265			43387.38302		69.67800		324.00000 
 43692.65567		 684.77501			43007.88066		198.86000		875.00000 
 43692.65567		 305.27265			43387.38302		69.67800		324.00000 
 43692.65567		 684.77501			43007.88066		198.86000		875.00000 
 43692.65567		 305.27265			43387.38302		69.67800		324.00000 
 43692.65567		 684.77501			43007.88066		198.86000		875.00000 
 43692.65567		 305.27265			43387.38302		69.67800		324.00000 
 43692.65567		 684.77501			43007.88066		198.86000		875.00000 
 43692.65567		 305.27265			43387.38302		69.67800		324.00000 
 43692.65567		 684.77501			43007.88066		198.86000		875.00000 
 43692.65567		 305.27265			43387.38302		69.67800		324.00000 
 43692.65567		 684.77501			43007.88066		198.86000		875.00000 
 43692.65567		 305.27265			43387.38302		69.67800		324.00000 
 43692.65567		 684.77501			43007.88066		198.86000		875.00000 
 43692.65567		 305.27265			43387.38302		69.67800		324.00000 
 43692.65567		 684.77501			43007.88066		198.86000		875.00000 
 43692.65567		 305.27265			43387.38302		69.67800		324.00000 
 43692.65567		 684.77501			43007.88066		198.86000		875.00000 
 43692.65567		 305.27265			43387.38302		69.67800		324.00000 
 43692.65567		 684.77501			43007.88066		198.86000		875.00000 
 43692.65567		 305.27265			43387.38302		69.67800		324.00000 
 43692.65567		 684.77501			43007.88066		198.86000		875.00000 
 43692.65567		 305.27265			43387.38302		69.67800		324.00000 
 43692.65567		 684.77501			43007.88066		198.86000		875.00000 
 43692.65567		 305.27265			43387.38302		69.67800		324.00000 
 43692.65567		 684.77501			43007.88066		198.86000		875.00000 
 43692.65567		 305.27265			43387.38302		69.67800		324.00000 
 43692.65567		 684.77501			43007.88066		198.86000		875.00000 
 43692.65567		 305.27265			43387.38302		69.67800		324.00000 
 43692.65567		 684.77501			43007.88066		198.86000		875.00000 
 43692.65567		 305.27265			43387.38302		69.67800		324.00000 
 43692.65567		 684.77501			43007.88066		198.86000		875.00000 
 43692.65567		 305.27265			43387.38302		69.67800		324.00000 
 43692.65567		 684.77501			43007.88066		198.86000		875.00000 
 43692.65567		 305.27265			43387.38302		69.67800		324.00000 
 43692.65567		 684.77501			43007.88066		198.86000		875.00000 
 43692.65567		 305.27265			43387.38302		69.67800		324.00000 
 43692.65567		 684.77501			43007.88066		198.86000		875.00000 
 43692.65567		 305.27265			43387.38302		69.67800		324.00000 
 43692.65567		 684.77501			43007.88066		198.86000		875.00000 
 43692.65567		 305.27265			43387.38302		69.67800		324.00000 
 43692.65567		 684.77501			43007.88066		198.86000		875.00000 
 43692.65567		 305.27265			43387.38302		69.67800		324.00000 
 43692.65567		 684.77501			43007.88066		198.86000		875.00000 
 43692.65567		 305.27265			43387.38302		69.67800		324.00000 
 43692.65567		 684.77501			43007.88066		198.86000		875.00000 
 43692.65567		 305.27265			43387.38302		69.67800		324.00000 
 43692.65567		 684.77501			43007.88066		198.86000		875.00000 
 43692.65567		 305.27265			43387.38302		69.67800		324.00000 
 43692.65567		 684.77501			43007.88066		198.86000		875.00000 
 43692.65567		 305.27265			43387.38302		69.67800		324.00000 
 43692.65567		 684.77501			43007.88066		198.86000		875.00000 
 43692.65567		 305.27265			43387.38302		69.67800		324.00000 
 43692.65567		 684.77501			43007.88066		198.86000		875.00000 
 43692.65567		 305.27265			43387.38302		69.67800		324.00000 
 43692.65567		 684.77501			43007.88066		198.86000		875.00000 
 43692.65567		 305.27265			43387.38302		69.67800		324.00000 
 43692.65567		 684.77501			43007.88066		198.86000		875.00000 
 43692.65567		 305.27265			43387.38302		69.67800		324.00000 
 43692.65567		 684.77501			43007.88066		198.86000		875.00000 
 43692.65567		 305.27265			43387.38302		69.67800		324.00000 
 43692.65567		 684.77501			43007.88066		198.86000		875.00000 
 43692.65567		 305.27265			43387.38302		69.67800		324.00000 
 43692.65567		 684.77501			43007.88066		198.86000		875.00000 
 43692.65567		 305.27265			43387.38302		69.67800		324.00000 
 43692.65567		 684.77501			43007.88066		198.86000		875.00000 
 43692.65567		 305.27265			43387.38302		69.67800		324.00000 
 43692.65567		 684.77501			43007.88066		198.86000		875.00000 
 43692.65567		 305.27265			43387.38302		69.67800		324.00000 
 43692.65567		 684.77501			43007.88066		198.86000		875.00000 
 43692.65567		 305.27265			43387.38302		69.67800		324.00000 
 43692.65567		 684.77501			43007.88066		198.86000		875.00000 
 43692.65567		 305.27265			43387.38302		69.67800		324.00000 
 43692.65567		 684.77501			43007.88066		198.86000		875.00000 
 43692.65567		 305.27265			43387.38302		69.67800		324.00000 
 43692.65567		 684.77501			43007.88066		198.86000		875.00000 
 43692.65567		 305.27265			43387.38302		69.67800		324.00000 
 43692.65567		 684.77501			43007.88066		198.86000		875.00000 
 43692.65567		 305.27265			43387.38302		69.67800		324.00000 
 43692.65567		 684.77501			43007.88066		198.86000		875.00000 
 43692.65567		 305.27265			43387.38302		69.67800		324.00000 
 43692.65567		 684.77501			43007.88066		198.86000		875.00000 
 43692.65567		 305.27265			43387.38302		69.67800		324.00000 
 43692.65567		 684.77501			43007.88066		198.86000		875.00000 
 43692.65567		 305.27265			43387.38302		69.67800		324.00000 
 43692.65567		 684.77501			43007.88066		198.86000		875.00000 
 43692.65567		 305.27265			43387.38302		69.67800		324.00000 
 43692.65567		 684.77501			43007.88066		198.86000		875.00000 
 43692.65567		 305.27265			43387.38302		69.67800		324.00000 
 43692.65567		 684.77501			43007.88066		198.86000		875.00000 
 43692.65567		 305.27265			43387.38302		69.67800		324.00000 
 43692.65567		 684.77501			43007.88066		198.86000		875.00000 
 43692.65567		 305.27265			43387.38302		69.67800		324.00000 
 43692.65567		 684.77501			43007.88066		198.86000		875.00000 
 43692.65567		 305.27265			43387.38302		69.67800		324.00000 
 43692.65567		 684.77501			43007.88066		198.86000		875.00000 
 43692.65567		 305.27265			43387.38302		69.67800		324.00000 
 43692.65567		 684.77501			43007.88066		198.86000		875.00000 
 43692.65567		 305.27265			43387.38302		69.67800		324.00000 
 43692.65567		 684.77501			43007.88066		198.86000		875.00000 
 43692.65567		 305.27265			43387.38302		69.67800		324.00000 
 43692.65567		 684.77501			43007.88066		198.86000		875.00000 
 43692.65567		 305.27265			43387.38302		69.67800		324.00000 
 43692.65567		 684.77501			43007.88066		198.86000		875.00000 
 43692.65567		 305.27265			43387.38302		69.67800		324.00000 
 43692.65567		 684.77501			43007.88066		198.86000		875.00000 
 43692.65567		 305.27265			43387.38302		69.67800		324.00000 
 43692.65567		 684.77501			43007.88066		198.86000		875.00000 
 43692.65567		 305.27265			43387.38302		69.67800		324.00000 
 43692.65567		 684.77501			43007.88066		198.86000		875.00000 
 43692.65567		 305.27265			43387.38302		69.67800		324.00000 
 43692.65567		 684.77501			43007.88066		198.86000		875.00000 
 43692.65567		 305.27265			43387.38302		69.67800		324.00000 
 43692.65567		 684.77501			43007.88066		198.86000		875.00000 
 43692.65567		 305.27265			43387.38302		69.67800		324.00000 
 43692.65567		 684.77501			43007.88066		198.86000		875.00000 
 43692.65567		 305.27265			43387.38302		69.67800		324.00000 
 43692.65567		 684.77501			43007.88066		198.86000		875.00000 
 43692.65567		 305.27265			43387.38302		69.67800		324.00000 
 43692.65567		 684.77501			43007.88066		198.86000		875.00000 
 43692.65567		 305.27265			43387.38302		69.67800		324.00000 
 43692.65567		 684.77501			43007.88066		198.86000		875.00000 
 43692.65567		 305.27265			43387.38302		69.67800		324.00000 
 43692.65567		 684.77501			43007.88066		198.86000		875.00000 
 43692.65567		 305.27265			43387.38302		69.67800		324.00000 
 43692.65567		 684.77501			43007.88066		210.38000		875.00000 
 43692.65567		 305.27265			43387.38302		69.67800		324.00000 
 43692.65567		 684.77501			43007.88066		210.38000		875.00000 
 43692.65567		 305.27265			43387.38302		69.67800		324.00000 
 43692.65567		 684.77501			43007.88066		210.38000		875.00000 
 43692.65567		 305.27265			43387.38302		69.67800		324.00000 
 43692.65567		 684.77501			43007.88066		210.38000		875.00000 
 43692.65567		 305.27265			43387.38302		69.67800		324.00000 
 43692.65567		 684.77501			43007.88066		210.38000		875.00000 
 43692.65567		 305.27265			43387.38302		69.67800		324.00000 
 43692.65567		 684.77501			43007.88066		210.38000		875.00000 
 43692.65567		 305.27265			43387.38302		69.67800		324.00000 
 43692.65567		 684.77501			43007.88066		210.38000		875.00000 
 43692.65567		 305.27265			43387.38302		69.67800		324.00000 
 43692.65567		 684.77501			43007.88066		210.38000		875.00000 
 43692.65567		 305.27265			43387.38302		69.67800		324.00000 
 43692.65567		 684.77501			43007.88066		210.38000		875.00000 
 43692.65567		 305.27265			43387.38302		69.67800		324.00000 
 43692.65567		 684.77501			43007.88066		210.38000		875.00000 
 43692.65567		 305.27265			43387.38302		69.67800		324.00000 
 43692.65567		 684.77501			43007.88066		210.38000		875.00000 
 43692.65567		 305.27265			43387.38302		69.67800		324.00000 
 43692.65567		 684.77501			43007.88066		210.38000		875.00000 
 43692.65567		 305.27265			43387.38302		69.67800		324.00000 
 43692.65567		 684.77501			43007.88066		210.38000		875.00000 
 43692.65567		 305.27265			43387.38302		69.67800		324.00000 
 43692.65567		 684.77501			43007.88066		210.38000		875.00000 
 43692.65567		 305.27265			43387.38302		69.67800		324.00000 
 43692.65567		 684.77501			43007.88066		210.38000		875.00000 
 43692.65567		 305.27265			43387.38302		69.67800		324.00000 
 43692.65567		 684.77501			43007.88066		210.38000		875.00000 
 43692.65567		 305.27265			43387.38302		69.67800		324.00000 
 43692.65567		 684.77501			43007.88066		210.38000		875.00000 
 43692.65567		 305.27265			43387.38302		69.67800		324.00000 
 43692.65567		 684.77501			43007.88066		210.38000		875.00000 
 43692.65567		 305.27265			43387.38302		69.67800		324.00000 
 43692.65567		 684.77501			43007.88066		210.38000		875.00000 
 43692.65567		 305.27265			43387.38302		69.67800		324.00000 
 43692.65567		 684.77501			43007.88066		210.38000		875.00000 
 43692.65567		 305.27265			43387.38302		69.67800		324.00000 
 43692.65567		 684.77501			43007.88066		210.38000		875.00000 
 43692.65567		 305.27265			43387.38302		69.67800		324.00000 
 43692.65567		 684.77501			43007.88066		210.38000		875.00000 
 43692.65567		 305.27265			43387.38302		69.67800		324.00000 
 43692.65567		 684.77501			43007.88066		210.38000		875.00000 
 43692.65567		 305.27265			43387.38302		69.67800		324.00000 
 43692.65567		 684.77501			43007.88066		210.38000		875.00000 
 43692.65567		 305.27265			43387.38302		69.67800		324.00000 
 43692.65567		 684.77501			43007.88066		210.38000		875.00000 
 43692.65567		 305.27265			43387.38302		69.67800		324.00000 
 43692.65567		 684.77501			43007.88066		210.38000		875.00000 
 43692.65567		 305.27265			43387.38302		69.67800		324.00000 
 43692.65567		 684.77501			43007.88066		210.38000		875.00000 
 43692.65567		 305.27265			43387.38302		69.67800		324.00000 
 43692.65567		 684.77501			43007.88066		210.38000		875.00000 
 43692.65567		 305.27265			43387.38302		69.67800		324.00000 
 43692.65567		 684.77501			43007.88066		210.38000		875.00000 
 43692.65567		 305.27265			43387.38302		69.67800		324.00000 
 43692.65567		 684.77501			43007.88066		210.38000		875.00000 
 43692.65567		 305.27265			43387.38302		69.67800		324.00000 
 43692.65567		 684.77501			43007.88066		210.38000		875.00000 
 43692.65567		 305.27265			43387.38302		69.67800		324.00000 
 43692.65567		 684.77501			43007.88066		210.38000		875.00000 
 43692.65567		 305.27265			43387.38302		69.67800		324.00000 
 43692.65567		 684.77501			43007.88066		210.38000		875.00000 
 43692.65567		 305.27265			43387.38302		69.67800		324.00000 
 43692.65567		 684.77501			43007.88066		210.38000		875.00000 
 43692.65567		 305.27265			43387.38302		69.67800		324.00000 
 43692.65567		 684.77501			43007.88066		210.38000		875.00000 
 43692.65567		 305.27265			43387.38302		69.67800		324.00000 
 43692.65567		 684.77501			43007.88066		210.38000		875.00000 
 43692.65567		 305.27265			43387.38302		69.67800		324.00000 
 43692.65567		 684.77501			43007.88066		210.38000		875.00000 
 43692.65567		 305.27265			43387.38302		69.67800		324.00000 
 43692.65567		 684.77501			43007.88066		210.38000		875.00000 
 43692.65567		 305.27265			43387.38302		69.67800		324.00000 
 43692.65567		 684.77501			43007.88066		210.38000		875.00000 
 43692.65567		 305.27265			43387.38302		69.67800		324.00000 
 43692.65567		 684.77501			43007.88066		210.38000		875.00000 
 43692.65567		 305.27265			43387.38302		69.67800		324.00000 
 43692.65567		 684.77501			43007.88066		210.38000		875.00000 
 43692.65567		 305.27265			43387.38302		69.67800		324.00000 
 43692.65567		 684.77501			43007.88066		210.38000		875.00000 
 43692.65567		 305.27265			43387.38302		69.67800		324.00000 
 43692.65567		 684.77501			43007.88066		210.38000		875.00000 
 43692.65567		 305.27265			43387.38302		69.67800		324.00000 
 43692.65567		 684.77501			43007.88066		210.38000		875.00000 
 43692.65567		 305.27265			43387.38302		69.67800		324.00000 
 43692.65567		 684.77501			43007.88066		210.38000		875.00000 
 43692.65567		 305.27265			43387.38302		69.67800		324.00000 
 43692.65567		 684.77501			43007.88066		210.38000		875.00000 
 43692.65567		 305.27265			43387.38302		69.67800		324.00000 
 43692.65567		 684.77501			43007.88066		210.38000		875.00000 
 43692.65567		 305.27265			43387.38302		69.67800		324.00000 
 43692.65567		 684.77501			43007.88066		210.38000		875.00000 
 43692.65567		 305.27265			43387.38302		69.67800		324.00000 
 43692.65567		 684.77501			43007.88066		210.38000		875.00000 
 43692.65567		 305.27265			43387.38302		69.67800		324.00000 
 43692.65567		 684.77501			43007.88066		210.38000		875.00000 
 43692.65567		 305.27265			43387.38302		69.67800		324.00000 
 43692.65567		 684.77501			43007.88066		210.38000		875.00000 
 43692.65567		 305.27265			43387.38302		69.67800		324.00000 
 43692.65567		 684.77501			43007.88066		210.38000		875.00000 
 43692.65567		 305.27265			43387.38302		69.67800		324.00000 
 43692.65567		 684.77501			43007.88066		210.38000		875.00000 
 43692.65567		 305.27265			43387.38302		69.67800		324.00000 
 43692.65567		 684.77501			43007.88066		210.38000		875.00000 
 43692.65567		 305.27265			43387.38302		69.67800		324.00000 
 43692.65567		 684.77501			43007.88066		210.38000		875.00000 
 43692.65567		 305.27265			43387.38302		69.67800		324.00000 
 43692.65567		 684.77501			43007.88066		210.38000		875.00000 
 43692.65567		 305.27265			43387.38302		69.67800		324.00000 
 43692.65567		 684.77501			43007.88066		210.38000		875.00000 
 43692.65567		 305.27265			43387.38302		69.67800		324.00000 
 43692.65567		 684.77501			43007.88066		210.38000		875.00000 
 43692.65567		 305.27265			43387.38302		69.67800		324.00000 
 43692.65567		 684.77501			43007.88066		210.38000		875.00000 
 43692.65567		 305.27265			43387.38302		69.67800		324.00000 
 43692.65567		 684.77501			43007.88066		210.38000		875.00000 
 43692.65567		 305.27265			43387.38302		69.67800		324.00000 
 43692.65567		 684.77501			43007.88066		210.38000		875.00000 
 43692.65567		 305.27265			43387.38302		69.67800		324.00000 
 43692.65567		 684.77501			43007.88066		210.38000		875.00000 
 43692.65567		 305.27265			43387.38302		69.67800		324.00000 
 43692.65567		 684.77501			43007.88066		210.38000		875.00000 
 43692.65567		 305.27265			43387.38302		69.67800		324.00000 
 43692.65567		 684.77501			43007.88066		210.38000		875.00000 
 43692.65567		 305.27265			43387.38302		69.67800		324.00000 
 43692.65567		 684.77501			43007.88066		210.38000		875.00000 
 43692.65567		 305.27265			43387.38302		69.67800		324.00000 
 43692.65567		 684.77501			43007.88066		215.98000		875.00000 
 43692.65567		 305.27265			43387.38302		69.67800		324.00000 
 43692.65567		 684.77501			43007.88066		215.98000		875.00000 
 43692.65567		 305.27265			43387.38302		69.67800		324.00000 
 43692.65567		 684.77501			43007.88066		215.98000		875.00000 
 43692.65567		 305.27265			43387.38302		69.67800		324.00000 
 43692.65567		 684.77501			43007.88066		215.98000		875.00000 
 43692.65567		 305.27265			43387.38302		69.67800		324.00000 
 43692.65567		 684.77501			43007.88066		215.98000		875.00000 
 43692.65567		 305.27265			43387.38302		69.67800		324.00000 
 43692.65567		 684.77501			43007.88066		215.98000		875.00000 
 43692.65567		 305.27265			43387.38302		69.67800		324.00000 
 43692.65567		 684.77501			43007.88066		215.98000		875.00000 
 43692.65567		 305.27265			43387.38302		69.67800		324.00000 
 43692.65567		 684.77501			43007.88066		215.98000		875.00000 
 43692.65567		 305.27265			43387.38302		69.67800		324.00000 
 43692.65567		 684.77501			43007.88066		215.98000		875.00000 
 43692.65567		 305.27265			43387.38302		69.67800		324.00000 
 43692.65567		 684.77501			43007.88066		215.98000		875.00000 
 43692.65567		 305.27265			43387.38302		69.67800		324.00000 
 43692.65567		 684.77501			43007.88066		215.98000		875.00000 
 43692.65567		 305.27265			43387.38302		69.67800		324.00000 
 43692.65567		 684.77501			43007.88066		215.98000		875.00000 
 43692.65567		 305.27265			43387.38302		69.67800		324.00000 
 43692.65567		 684.77501			43007.88066		215.98000		875.00000 
 43692.65567		 305.27265			43387.38302		69.67800		324.00000 
 43692.65567		 684.77501			43007.88066		215.98000		875.00000 
 43692.65567		 305.27265			43387.38302		69.67800		324.00000 
 43692.65567		 684.77501			43007.88066		215.98000		875.00000 
 43692.65567		 305.27265			43387.38302		69.67800		324.00000 
 43692.65567		 684.77501			43007.88066		215.98000		875.00000 
 43692.65567		 305.27265			43387.38302		69.67800		324.00000 
 43692.65567		 684.77501			43007.88066		215.98000		875.00000 
 43692.65567		 305.27265			43387.38302		69.67800		324.00000 
 43692.65567		 684.77501			43007.88066		215.98000		875.00000 
 43692.65567		 305.27265			43387.38302		69.67800		324.00000 
 43692.65567		 684.77501			43007.88066		215.98000		875.00000 
 43692.65567		 305.27265			43387.38302		69.67800		324.00000 
 43692.65567		 684.77501			43007.88066		215.98000		875.00000 
 43692.65567		 305.27265			43387.38302		69.67800		324.00000 
 43692.65567		 684.77501			43007.88066		215.98000		875.00000 
 43692.65567		 305.27265			43387.38302		69.67800		324.00000 
 43692.65567		 684.77501			43007.88066		215.98000		875.00000 
 43692.65567		 305.27265			43387.38302		69.67800		324.00000 
 43692.65567		 684.77501			43007.88066		215.98000		875.00000 
 43692.65567		 305.27265			43387.38302		69.67800		324.00000 
 43692.65567		 684.77501			43007.88066		215.98000		875.00000 
 43692.65567		 305.27265			43387.38302		69.67800		324.00000 
 43692.65567		 684.77501			43007.88066		215.98000		875.00000 
 43692.65567		 305.27265			43387.38302		69.67800		324.00000 
 43692.65567		 684.77501			43007.88066		215.98000		875.00000 
 43692.65567		 305.27265			43387.38302		69.67800		324.00000 
 43692.65567		 684.77501			43007.88066		215.98000		875.00000 
 43692.65567		 305.27265			43387.38302		69.67800		324.00000 
 43692.65567		 684.77501			43007.88066		215.98000		875.00000 
 43692.65567		 305.27265			43387.38302		69.67800		324.00000 
 43692.65567		 684.77501			43007.88066		215.98000		875.00000 
 43692.65567		 305.27265			43387.38302		69.67800		324.00000 
 43692.65567		 684.77501			43007.88066		215.98000		875.00000 
 43692.65567		 305.27265			43387.38302		69.67800		324.00000 
 43692.65567		 684.77501			43007.88066		215.98000		875.00000 
 43692.65567		 305.27265			43387.38302		69.67800		324.00000 
 43692.65567		 684.77501			43007.88066		215.98000		875.00000 
 43692.65567		 305.27265			43387.38302		69.67800		324.00000 
 43692.65567		 684.77501			43007.88066		215.98000		875.00000 
 43692.65567		 305.27265			43387.38302		69.67800		324.00000 
 43692.65567		 684.77501			43007.88066		215.98000		875.00000 
 43692.65567		 305.27265			43387.38302		69.67800		324.00000 
 43692.65567		 684.77501			43007.88066		215.98000		875.00000 
 43692.65567		 305.27265			43387.38302		69.67800		324.00000 
 43692.65567		 684.77501			43007.88066		215.98000		875.00000 
 43692.65567		 305.27265			43387.38302		69.67800		324.00000 
 43692.65567		 684.77501			43007.88066		215.98000		875.00000 
 43692.65567		 305.27265			43387.38302		69.67800		324.00000 
 43692.65567		 684.77501			43007.88066		215.98000		875.00000 
 43692.65567		 305.27265			43387.38302		69.67800		324.00000 
 43692.65567		 684.77501			43007.88066		215.98000		875.00000 
 43692.65567		 305.27265			43387.38302		69.67800		324.00000 
 43692.65567		 684.77501			43007.88066		215.98000		875.00000 
 43692.65567		 305.27265			43387.38302		69.67800		324.00000 
 43692.65567		 684.77501			43007.88066		215.98000		875.00000 
 43692.65567		 305.27265			43387.38302		69.67800		324.00000 
 43692.65567		 684.77501			43007.88066		215.98000		875.00000 
 43692.65567		 305.27265			43387.38302		69.67800		324.00000 
 43692.65567		 684.77501			43007.88066		215.98000		875.00000 
 43692.65567		 305.27265			43387.38302		69.67800		324.00000 
 43692.65567		 684.77501			43007.88066		215.98000		875.00000 
 43692.65567		 305.27265			43387.38302		69.67800		324.00000 
 43692.65567		 684.77501			43007.88066		215.98000		875.00000 
 43692.65567		 305.27265			43387.38302		69.67800		324.00000 
 43692.65567		 684.77501			43007.88066		215.98000		875.00000 
 43692.65567		 305.27265			43387.38302		69.67800		324.00000 
 43692.65567		 684.77501			43007.88066		215.98000		875.00000 
 43692.65567		 305.27265			43387.38302		69.67800		324.00000 
 43692.65567		 684.77501			43007.88066		215.98000		875.00000 
 43692.65567		 305.27265			43387.38302		69.67800		324.00000 
 43692.65567		 684.77501			43007.88066		215.98000		875.00000 
 43692.65567		 305.27265			43387.38302		69.67800		324.00000 
 43692.65567		 684.77501			43007.88066		215.98000		875.00000 
 43692.65567		 305.27265			43387.38302		69.67800		324.00000 
 43692.65567		 684.77501			43007.88066		215.98000		875.00000 
 43692.65567		 305.27265			43387.38302		69.67800		324.00000 
 43692.65567		 684.77501			43007.88066		215.98000		875.00000 
 43692.65567		 305.27265			43387.38302		69.67800		324.00000 
 43692.65567		 684.77501			43007.88066		215.98000		875.00000 
 43692.65567		 305.27265			43387.38302		69.67800		324.00000 
 43692.65567		 684.77501			43007.88066		215.98000		875.00000 
 43692.65567		 305.27265			43387.38302		69.67800		324.00000 
 43692.65567		 684.77501			43007.88066		215.98000		875.00000 
 43692.65567		 305.27265			43387.38302		69.67800		324.00000 
 43692.65567		 684.77501			43007.88066		215.98000		875.00000 
 43692.65567		 305.27265			43387.38302		69.67800		324.00000 
 43692.65567		 684.77501			43007.88066		215.98000		875.00000 
 43692.65567		 305.27265			43387.38302		69.67800		324.00000 
 43692.65567		 684.77501			43007.88066		215.98000		875.00000 
 43692.65567		 305.27265			43387.38302		69.67800		324.00000 
 43692.65567		 684.77501			43007.88066		215.98000		875.00000 
 43692.65567		 305.27265			43387.38302		69.67800		324.00000 
 43692.65567		 684.77501			43007.88066		215.98000		875.00000 
 43692.65567		 305.27265			43387.38302		69.67800		324.00000 
 43692.65567		 684.77501			43007.88066		215.98000		875.00000 
 43692.65567		 305.27265			43387.38302		69.67800		324.00000 
 43692.65567		 684.77501			43007.88066		215.98000		875.00000 
 43692.65567		 305.27265			43387.38302		69.67800		324.00000 
 43692.65567		 684.77501			43007.88066		215.98000		875.00000 
 43692.65567		 305.27265			43387.38302		69.67800		324.00000 
 43692.65567		 684.77501			43007.88066		215.98000		875.00000 
 43692.65567		 305.27265			43387.38302		69.67800		324.00000 
 43692.65567		 684.77501			43007.88066		217.33600		875.00000 
 43692.65567		 305.27265			43387.38302		69.67800		324.00000 
 43692.65567		 684.77501			43007.88066		217.33600		875.00000 
 43692.65567		 305.27265			43387.38302		69.67800		324.00000 
 43692.65567		 684.77501			43007.88066		217.33600		875.00000 
 43692.65567		 305.27265			43387.38302		69.67800		324.00000 
 43692.65567		 684.77501			43007.88066		217.33600		875.00000 
 43692.65567		 305.27265			43387.38302		69.67800		324.00000 
 43692.65567		 684.77501			43007.88066		217.33600		875.00000 
 43692.65567		 305.27265			43387.38302		69.67800		324.00000 
 43692.65567		 684.77501			43007.88066		217.33600		875.00000 
 43692.65567		 305.27265			43387.38302		69.67800		324.00000 
 43692.65567		 684.77501			43007.88066		217.33600		875.00000 
 43692.65567		 305.27265			43387.38302		69.67800		324.00000 
 43692.65567		 684.77501			43007.88066		217.33600		875.00000 
 43692.65567		 305.27265			43387.38302		69.67800		324.00000 
 43692.65567		 684.77501			43007.88066		217.33600		875.00000 
 43692.65567		 305.27265			43387.38302		69.67800		324.00000 
 43692.65567		 684.77501			43007.88066		217.33600		875.00000 
 43692.65567		 305.27265			43387.38302		69.67800		324.00000 
 43692.65567		 684.77501			43007.88066		217.33600		875.00000 
 43692.65567		 305.27265			43387.38302		69.67800		324.00000 
 43692.65567		 684.77501			43007.88066		217.33600		875.00000 
 43692.65567		 305.27265			43387.38302		69.67800		324.00000 
 43692.65567		 684.77501			43007.88066		217.33600		875.00000 
 43692.65567		 305.27265			43387.38302		69.67800		324.00000 
 43692.65567		 684.77501			43007.88066		217.33600		875.00000 
 43692.65567		 305.27265			43387.38302		69.67800		324.00000 
 43692.65567		 684.77501			43007.88066		217.33600		875.00000 
 43692.65567		 305.27265			43387.38302		69.67800		324.00000 
 43692.65567		 684.77501			43007.88066		217.33600		875.00000 
 43692.65567		 305.27265			43387.38302		69.67800		324.00000 
 43692.65567		 684.77501			43007.88066		217.33600		875.00000 
 43692.65567		 305.27265			43387.38302		69.67800		324.00000 
 43692.65567		 684.77501			43007.88066		217.33600		875.00000 
 43692.65567		 305.27265			43387.38302		69.67800		324.00000 
 43692.65567		 684.77501			43007.88066		217.33600		875.00000 
 43692.65567		 305.27265			43387.38302		69.67800		324.00000 
 43692.65567		 684.77501			43007.88066		217.33600		875.00000 
 43692.65567		 305.27265			43387.38302		69.67800		324.00000 
 43692.65567		 684.77501			43007.88066		217.33600		875.00000 
 43692.65567		 305.27265			43387.38302		69.67800		324.00000 
 43692.65567		 684.77501			43007.88066		217.33600		875.00000 
 43692.65567		 305.27265			43387.38302		69.67800		324.00000 
 43692.65567		 684.77501			43007.88066		217.33600		875.00000 
 43692.65567		 305.27265			43387.38302		69.67800		324.00000 
 43692.65567		 684.77501			43007.88066		217.33600		875.00000 
 43692.65567		 305.27265			43387.38302		69.67800		324.00000 
 43692.65567		 684.77501			43007.88066		217.33600		875.00000 
 43692.65567		 305.27265			43387.38302		69.67800		324.00000 
 43692.65567		 684.77501			43007.88066		217.33600		875.00000 
 43692.65567		 305.27265			43387.38302		69.67800		324.00000 
 43692.65567		 684.77501			43007.88066		217.33600		875.00000 
 43692.65567		 305.27265			43387.38302		69.67800		324.00000 
 43692.65567		 684.77501			43007.88066		217.33600		875.00000 
 43692.65567		 305.27265			43387.38302		69.67800		324.00000 
 43692.65567		 684.77501			43007.88066		217.33600		875.00000 
 43692.65567		 305.27265			43387.38302		69.67800		324.00000 
 43692.65567		 684.77501			43007.88066		217.33600		875.00000 
 43692.65567		 305.27265			43387.38302		69.67800		324.00000 
 43692.65567		 684.77501			43007.88066		217.33600		875.00000 
 43692.65567		 305.27265			43387.38302		69.67800		324.00000 
 43692.65567		 684.77501			43007.88066		217.33600		875.00000 
 43692.65567		 305.27265			43387.38302		69.67800		324.00000 
 43692.65567		 684.77501			43007.88066		217.33600		875.00000 
 43692.65567		 305.27265			43387.38302		69.67800		324.00000 
 43692.65567		 684.77501			43007.88066		217.33600		875.00000 
 43692.65567		 305.27265			43387.38302		69.67800		324.00000 
 43692.65567		 684.77501			43007.88066		217.33600		875.00000 
 43692.65567		 305.27265			43387.38302		69.67800		324.00000 
 43692.65567		 684.77501			43007.88066		217.33600		875.00000 
 43692.65567		 305.27265			43387.38302		69.67800		324.00000 
 43692.65567		 684.77501			43007.88066		217.33600		875.00000 
 43692.65567		 305.27265			43387.38302		69.67800		324.00000 
 43692.65567		 684.77501			43007.88066		217.33600		875.00000 
 43692.65567		 305.27265			43387.38302		69.67800		324.00000 
 43692.65567		 684.77501			43007.88066		217.33600		875.00000 
 43692.65567		 305.27265			43387.38302		69.67800		324.00000 
 43692.65567		 684.77501			43007.88066		217.33600		875.00000 
 43692.65567		 305.27265			43387.38302		69.67800		324.00000 
 43692.65567		 684.77501			43007.88066		217.33600		875.00000 
 43692.65567		 305.27265			43387.38302		69.67800		324.00000 
 43692.65567		 684.77501			43007.88066		217.33600		875.00000 
 43692.65567		 305.27265			43387.38302		69.67800		324.00000 
 43692.65567		 684.77501			43007.88066		217.33600		875.00000 
 43692.65567		 305.27265			43387.38302		69.67800		324.00000 
 43692.65567		 684.77501			43007.88066		217.33600		875.00000 
 43692.65567		 305.27265			43387.38302		69.67800		324.00000 
 43692.65567		 684.77501			43007.88066		217.33600		875.00000 
 43692.65567		 305.27265			43387.38302		69.67800		324.00000 
 43692.65567		 684.77501			43007.88066		217.33600		875.00000 
 43692.65567		 305.27265			43387.38302		69.67800		324.00000 
 43692.65567		 684.77501			43007.88066		217.33600		875.00000 
 43692.65567		 305.27265			43387.38302		69.67800		324.00000 
 43692.65567		 684.77501			43007.88066		217.33600		875.00000 
 43692.65567		 305.27265			43387.38302		69.67800		324.00000 
 43692.65567		 684.77501			43007.88066		217.33600		875.00000 
 43692.65567		 305.27265			43387.38302		69.67800		324.00000 
 43692.65567		 684.77501			43007.88066		217.33600		875.00000 
 43692.65567		 305.27265			43387.38302		69.67800		324.00000 
 43692.65567		 684.77501			43007.88066		217.33600		875.00000 
 43692.65567		 305.27265			43387.38302		69.67800		324.00000 
 43692.65567		 684.77501			43007.88066		217.33600		875.00000 
 43692.65567		 305.27265			43387.38302		69.67800		324.00000 
 43692.65567		 684.77501			43007.88066		217.33600		875.00000 
 43692.65567		 305.27265			43387.38302		69.67800		324.00000 
 43692.65567		 684.77501			43007.88066		217.33600		875.00000 
 43692.65567		 305.27265			43387.38302		69.67800		324.00000 
 43692.65567		 684.77501			43007.88066		217.33600		875.00000 
 43692.65567		 305.27265			43387.38302		69.67800		324.00000 
 43692.65567		 684.77501			43007.88066		217.33600		875.00000 
 43692.65567		 305.27265			43387.38302		69.67800		324.00000 
 43692.65567		 684.77501			43007.88066		217.33600		875.00000 
 43692.65567		 305.27265			43387.38302		69.67800		324.00000 
 43692.65567		 684.77501			43007.88066		217.33600		875.00000 
 43692.65567		 305.27265			43387.38302		69.67800		324.00000 
 43692.65567		 684.77501			43007.88066		217.33600		875.00000 
 43692.65567		 305.27265			43387.38302		69.67800		324.00000 
 43692.65567		 684.77501			43007.88066		217.33600		875.00000 
 43692.65567		 305.27265			43387.38302		69.67800		324.00000 
 43692.65567		 684.77501			43007.88066		217.33600		875.00000 
 43692.65567		 305.27265			43387.38302		69.67800		324.00000 
 43692.65567		 684.77501			43007.88066		217.33600		875.00000 
 43692.65567		 305.27265			43387.38302		69.67800		324.00000 
 43692.65567		 684.77501			43007.88066		217.33600		875.00000 
 43692.65567		 305.27265			43387.38302		69.67800		324.00000 
 43692.65567		 684.77501			43007.88066		217.33600		875.00000 
 43692.65567		 305.27265			43387.38302		69.67800		324.00000 
 43692.65567		 684.77501			43007.88066		217.33600		875.00000 
 43692.65567		 305.27265			43387.38302		69.67800		324.00000 
 43692.65567		 684.77501			43007.88066		218.46200		875.00000 
 43692.65567		 305.27265			43387.38302		69.67800		324.00000 
 43692.65567		 684.77501			43007.88066		218.46200		875.00000 
 43692.65567		 305.27265			43387.38302		69.67800		324.00000 
 43692.65567		 684.77501			43007.88066		218.46200		875.00000 
 43692.65567		 305.27265			43387.38302		69.67800		324.00000 
 43692.65567		 684.77501			43007.88066		218.46200		875.00000 
 43692.65567		 305.27265			43387.38302		69.67800		324.00000 
 43692.65567		 684.77501			43007.88066		218.46200		875.00000 
 43692.65567		 305.27265			43387.38302		69.67800		324.00000 
 43692.65567		 684.77501			43007.88066		218.46200		875.00000 
 43692.65567		 305.27265			43387.38302		69.67800		324.00000 
 43692.65567		 684.77501			43007.88066		218.46200		875.00000 
 43692.65567		 305.27265			43387.38302		69.67800		324.00000 
 43692.65567		 684.77501			43007.88066		218.46200		875.00000 
 43692.65567		 305.27265			43387.38302		69.67800		324.00000 
 43692.65567		 684.77501			43007.88066		218.46200		875.00000 
 43692.65567		 305.27265			43387.38302		69.67800		324.00000 
 43692.65567		 684.77501			43007.88066		218.46200		875.00000 
 43692.65567		 305.27265			43387.38302		69.67800		324.00000 
 43692.65567		 684.77501			43007.88066		218.46200		875.00000 
 43692.65567		 305.27265			43387.38302		69.67800		324.00000 
 43692.65567		 684.77501			43007.88066		218.46200		875.00000 
 43692.65567		 305.27265			43387.38302		69.67800		324.00000 
 43692.65567		 684.77501			43007.88066		218.46200		875.00000 
 43692.65567		 305.27265			43387.38302		69.67800		324.00000 
 43692.65567		 684.77501			43007.88066		218.46200		875.00000 
 43692.65567		 305.27265			43387.38302		69.67800		324.00000 
 43692.65567		 684.77501			43007.88066		218.46200		875.00000 
 43692.65567		 305.27265			43387.38302		69.67800		324.00000 
 43692.65567		 684.77501			43007.88066		218.46200		875.00000 
 43692.65567		 305.27265			43387.38302		69.67800		324.00000 
 43692.65567		 684.77501			43007.88066		218.46200		875.00000 
 43692.65567		 305.27265			43387.38302		69.67800		324.00000 
 43692.65567		 684.77501			43007.88066		218.46200		875.00000 
 43692.65567		 305.27265			43387.38302		69.67800		324.00000 
 43692.65567		 684.77501			43007.88066		218.46200		875.00000 
 43692.65567		 305.27265			43387.38302		69.67800		324.00000 
 43692.65567		 684.77501			43007.88066		218.46200		875.00000 
 43692.65567		 305.27265			43387.38302		69.67800		324.00000 
 43692.65567		 684.77501			43007.88066		218.46200		875.00000 
 43692.65567		 305.27265			43387.38302		69.67800		324.00000 
 43692.65567		 684.77501			43007.88066		218.46200		875.00000 
 43692.65567		 305.27265			43387.38302		69.67800		324.00000 
 43692.65567		 684.77501			43007.88066		218.46200		875.00000 
 43692.65567		 305.27265			43387.38302		69.67800		324.00000 
 43692.65567		 684.77501			43007.88066		218.46200		875.00000 
 43692.65567		 305.27265			43387.38302		69.67800		324.00000 
 43692.65567		 684.77501			43007.88066		218.46200		875.00000 
 43692.65567		 305.27265			43387.38302		69.67800		324.00000 
 43692.65567		 684.77501			43007.88066		218.46200		875.00000 
 43692.65567		 305.27265			43387.38302		69.67800		324.00000 
 43692.65567		 684.77501			43007.88066		218.46200		875.00000 
 43692.65567		 305.27265			43387.38302		69.67800		324.00000 
 43692.65567		 684.77501			43007.88066		218.46200		875.00000 
 43692.65567		 305.27265			43387.38302		69.67800		324.00000 
 43692.65567		 684.77501			43007.88066		218.46200		875.00000 
 43692.65567		 305.27265			43387.38302		69.67800		324.00000 
 43692.65567		 684.77501			43007.88066		218.46200		875.00000 
 43692.65567		 305.27265			43387.38302		69.67800		324.00000 
 43692.65567		 684.77501			43007.88066		218.46200		875.00000 
 43692.65567		 305.27265			43387.38302		69.67800		324.00000 
 43692.65567		 684.77501			43007.88066		218.46200		875.00000 
 43692.65567		 305.27265			43387.38302		69.67800		324.00000 
 43692.65567		 684.77501			43007.88066		218.46200		875.00000 
 43692.65567		 305.27265			43387.38302		69.67800		324.00000 
 43692.65567		 684.77501			43007.88066		218.46200		875.00000 
 43692.65567		 305.27265			43387.38302		69.67800		324.00000 
 43692.65567		 684.77501			43007.88066		218.46200		875.00000 
 43692.65567		 305.27265			43387.38302		69.67800		324.00000 
 43692.65567		 684.77501			43007.88066		218.46200		875.00000 
 43692.65567		 305.27265			43387.38302		69.67800		324.00000 
 43692.65567		 684.77501			43007.88066		218.46200		875.00000 
 43692.65567		 305.27265			43387.38302		69.67800		324.00000 
 43692.65567		 684.77501			43007.88066		218.46200		875.00000 
 43692.65567		 305.27265			43387.38302		69.67800		324.00000 
 43692.65567		 684.77501			43007.88066		218.46200		875.00000 
 43692.65567		 305.27265			43387.38302		69.67800		324.00000 
 43692.65567		 684.77501			43007.88066		218.46200		875.00000 
 43692.65567		 305.27265			43387.38302		69.67800		324.00000 
 43692.65567		 684.77501			43007.88066		218.46200		875.00000 
 43692.65567		 305.27265			43387.38302		69.67800		324.00000 
 43692.65567		 684.77501			43007.88066		218.46200		875.00000 
 43692.65567		 305.27265			43387.38302		69.67800		324.00000 
 43692.65567		 684.77501			43007.88066		218.46200		875.00000 
 43692.65567		 305.27265			43387.38302		69.67800		324.00000 
 43692.65567		 684.77501			43007.88066		218.46200		875.00000 
 43692.65567		 305.27265			43387.38302		69.67800		324.00000 
 43692.65567		 684.77501			43007.88066		218.46200		875.00000 
 43692.65567		 305.27265			43387.38302		69.67800		324.00000 
 43692.65567		 684.77501			43007.88066		218.46200		875.00000 
 43692.65567		 305.27265			43387.38302		69.67800		324.00000 
 43692.65567		 684.77501			43007.88066		218.46200		875.00000 
 43692.65567		 305.27265			43387.38302		69.67800		324.00000 
 43692.65567		 684.77501			43007.88066		218.46200		875.00000 
 43692.65567		 305.27265			43387.38302		69.67800		324.00000 
 43692.65567		 684.77501			43007.88066		218.46200		875.00000 
 43692.65567		 305.27265			43387.38302		69.67800		324.00000 
 43692.65567		 684.77501			43007.88066		218.46200		875.00000 
 43692.65567		 305.27265			43387.38302		69.67800		324.00000 
 43692.65567		 684.77501			43007.88066		218.46200		875.00000 
 43692.65567		 305.27265			43387.38302		69.67800		324.00000 
 43692.65567		 684.77501			43007.88066		218.46200		875.00000 
 43692.65567		 305.27265			43387.38302		69.67800		324.00000 
 43692.65567		 684.77501			43007.88066		218.46200		875.00000 
 43692.65567		 305.27265			43387.38302		69.67800		324.00000 
 43692.65567		 684.77501			43007.88066		218.46200		875.00000 
 43692.65567		 305.27265			43387.38302		69.67800		324.00000 
 43692.65567		 684.77501			43007.88066		218.46200		875.00000 
 43692.65567		 305.27265			43387.38302		69.67800		324.00000 
 43692.65567		 684.77501			43007.88066		218.46200		875.00000 
 43692.65567		 305.27265			43387.38302		69.67800		324.00000 
 43692.65567		 684.77501			43007.88066		218.46200		875.00000 
 43692.65567		 305.27265			43387.38302		69.67800		324.00000 
 43692.65567		 684.77501			43007.88066		218.46200		875.00000 
 43692.65567		 305.27265			43387.38302		69.67800		324.00000 
 43692.65567		 684.77501			43007.88066		218.46200		875.00000 
 43692.65567		 305.27265			43387.38302		69.67800		324.00000 
 43692.65567		 684.77501			43007.88066		218.46200		875.00000 
 43692.65567		 305.27265			43387.38302		69.67800		324.00000 
 43692.65567		 684.77501			43007.88066		218.46200		875.00000 
 43692.65567		 305.27265			43387.38302		69.67800		324.00000 
 43692.65567		 684.77501			43007.88066		218.46200		875.00000 
 43692.65567		 305.27265			43387.38302		69.67800		324.00000 
 43692.65567		 684.77501			43007.88066		218.46200		875.00000 
 43692.65567		 305.27265			43387.38302		69.67800		324.00000 
 43692.65567		 684.77501			43007.88066		218.46200		875.00000 
 43692.65567		 305.27265			43387.38302		69.67800		324.00000 
 43692.65567		 684.77501			43007.88066		218.46200		875.00000 
 43692.65567		 305.27265			43387.38302		69.67800		324.00000 
 43692.65567		 684.77501			43007.88066		217.86200		875.00000 
 43692.65567		 305.27265			43387.38302		69.67800		324.00000 
 43692.65567		 684.77501			43007.88066		217.86200		875.00000 
 43692.65567		 305.27265			43387.38302		69.67800		324.00000 
 43692.65567		 684.77501			43007.88066		217.86200		875.00000 
 43692.65567		 305.27265			43387.38302		69.67800		324.00000 
 43692.65567		 684.77501			43007.88066		217.86200		875.00000 
 43692.65567		 305.27265			43387.38302		69.67800		324.00000 
 43692.65567		 684.77501			43007.88066		217.86200		875.00000 
 43692.65567		 305.27265			43387.38302		69.67800		324.00000 
 43692.65567		 684.77501			43007.88066		217.86200		875.00000 
 43692.65567		 305.27265			43387.38302		69.67800		324.00000 
 43692.65567		 684.77501			43007.88066		217.86200		875.00000 
 43692.65567		 305.27265			43387.38302		69.67800		324.00000 
 43692.65567		 684.77501			43007.88066		217.86200		875.00000 
 43692.65567		 305.27265			43387.38302		69.67800		324.00000 
 43692.65567		 684.77501			43007.88066		217.86200		875.00000 
 43692.65567		 305.27265			43387.38302		69.67800		324.00000 
 43692.65567		 684.77501			43007.88066		217.86200		875.00000 
 43692.65567		 305.27265			43387.38302		69.67800		324.00000 
 43692.65567		 684.77501			43007.88066		217.86200		875.00000 
 43692.65567		 305.27265			43387.38302		69.67800		324.00000 
 43692.65567		 684.77501			43007.88066		217.86200		875.00000 
 43692.65567		 305.27265			43387.38302		69.67800		324.00000 
 43692.65567		 684.77501			43007.88066		217.86200		875.00000 
 43692.65567		 305.27265			43387.38302		69.67800		324.00000 
 43692.65567		 684.77501			43007.88066		217.86200		875.00000 
 43692.65567		 305.27265			43387.38302		69.67800		324.00000 
 43692.65567		 684.77501			43007.88066		217.86200		875.00000 
 43692.65567		 305.27265			43387.38302		69.67800		324.00000 
 43692.65567		 684.77501			43007.88066		217.86200		875.00000 
 43692.65567		 305.27265			43387.38302		69.67800		324.00000 
 43692.65567		 684.77501			43007.88066		217.86200		875.00000 
 43692.65567		 305.27265			43387.38302		69.67800		324.00000 
 43692.65567		 684.77501			43007.88066		217.86200		875.00000 
 43692.65567		 305.27265			43387.38302		69.67800		324.00000 
 43692.65567		 684.77501			43007.88066		217.86200		875.00000 
 43692.65567		 305.27265			43387.38302		69.67800		324.00000 
 43692.65567		 684.77501			43007.88066		217.86200		875.00000 
 43692.65567		 305.27265			43387.38302		69.67800		324.00000 
 43692.65567		 684.77501			43007.88066		217.86200		875.00000 
 43692.65567		 305.27265			43387.38302		69.67800		324.00000 
 43692.65567		 684.77501			43007.88066		217.86200		875.00000 
 43692.65567		 305.27265			43387.38302		69.67800		324.00000 
 43692.65567		 684.77501			43007.88066		217.86200		875.00000 
 43692.65567		 305.27265			43387.38302		69.67800		324.00000 
 43692.65567		 684.77501			43007.88066		217.86200		875.00000 
 43692.65567		 305.27265			43387.38302		69.67800		324.00000 
 43692.65567		 684.77501			43007.88066		217.86200		875.00000 
 43692.65567		 305.27265			43387.38302		69.67800		324.00000 
 43692.65567		 684.77501			43007.88066		217.86200		875.00000 
 43692.65567		 305.27265			43387.38302		69.67800		324.00000 
 43692.65567		 684.77501			43007.88066		217.86200		875.00000 
 43692.65567		 305.27265			43387.38302		69.67800		324.00000 
 43692.65567		 684.77501			43007.88066		217.86200		875.00000 
 43692.65567		 305.27265			43387.38302		69.67800		324.00000 
 43692.65567		 684.77501			43007.88066		217.86200		875.00000 
 43692.65567		 305.27265			43387.38302		69.67800		324.00000 
 43692.65567		 684.77501			43007.88066		217.86200		875.00000 
 43692.65567		 305.27265			43387.38302		69.67800		324.00000 
 43692.65567		 684.77501			43007.88066		217.86200		875.00000 
 43692.65567		 305.27265			43387.38302		69.67800		324.00000 
 43692.65567		 684.77501			43007.88066		217.86200		875.00000 
 43692.65567		 305.27265			43387.38302		69.67800		324.00000 
 43692.65567		 684.77501			43007.88066		217.86200		875.00000 
 43692.65567		 305.27265			43387.38302		69.67800		324.00000 
 43692.65567		 684.77501			43007.88066		217.86200		875.00000 
 43692.65567		 305.27265			43387.38302		69.67800		324.00000 
 43692.65567		 684.77501			43007.88066		217.86200		875.00000 
 43692.65567		 305.27265			43387.38302		69.67800		324.00000 
 43692.65567		 684.77501			43007.88066		217.86200		875.00000 
 43692.65567		 305.27265			43387.38302		69.67800		324.00000 
 43692.65567		 684.77501			43007.88066		217.86200		875.00000 
 43692.65567		 305.27265			43387.38302		69.67800		324.00000 
 43692.65567		 684.77501			43007.88066		217.86200		875.00000 
 43692.65567		 305.27265			43387.38302		69.67800		324.00000 
 43692.65567		 684.77501			43007.88066		217.86200		875.00000 
 43692.65567		 305.27265			43387.38302		69.67800		324.00000 
 43692.65567		 684.77501			43007.88066		217.86200		875.00000 
 43692.65567		 305.27265			43387.38302		69.67800		324.00000 
 43692.65567		 684.77501			43007.88066		217.86200		875.00000 
 43692.65567		 305.27265			43387.38302		69.67800		324.00000 
 43692.65567		 684.77501			43007.88066		217.86200		875.00000 
 43692.65567		 305.27265			43387.38302		69.67800		324.00000 
 43692.65567		 684.77501			43007.88066		217.86200		875.00000 
 43692.65567		 305.27265			43387.38302		69.67800		324.00000 
 43692.65567		 684.77501			43007.88066		217.86200		875.00000 
 43692.65567		 305.27265			43387.38302		69.67800		324.00000 
 43692.65567		 684.77501			43007.88066		217.86200		875.00000 
 43692.65567		 305.27265			43387.38302		69.67800		324.00000 
 43692.65567		 684.77501			43007.88066		217.86200		875.00000 
 43692.65567		 305.27265			43387.38302		69.67800		324.00000 
 43692.65567		 684.77501			43007.88066		217.86200		875.00000 
 43692.65567		 305.27265			43387.38302		69.67800		324.00000 
 43692.65567		 684.77501			43007.88066		217.86200		875.00000 
 43692.65567		 305.27265			43387.38302		69.67800		324.00000 
 43692.65567		 684.77501			43007.88066		217.86200		875.00000 
 43692.65567		 305.27265			43387.38302		69.67800		324.00000 
 43692.65567		 684.77501			43007.88066		217.86200		875.00000 
 43692.65567		 305.27265			43387.38302		69.67800		324.00000 
 43692.65567		 684.77501			43007.88066		217.86200		875.00000 
 43692.65567		 305.27265			43387.38302		69.67800		324.00000 
 43692.65567		 684.77501			43007.88066		217.86200		875.00000 
 43692.65567		 305.27265			43387.38302		69.67800		324.00000 
 43692.65567		 684.77501			43007.88066		217.86200		875.00000 
 43692.65567		 305.27265			43387.38302		69.67800		324.00000 
 43692.65567		 684.77501			43007.88066		217.86200		875.00000 
 43692.65567		 305.27265			43387.38302		70.62000		324.00000 
 43692.65567		 684.77501			43007.88066		217.86200		875.00000 
 43692.65567		 305.27265			43387.38302		70.62000		324.00000 
 43692.65567		 684.77501			43007.88066		217.86200		875.00000 
 43692.65567		 305.27265			43387.38302		70.62000		324.00000 
 43692.65567		 684.77501			43007.88066		217.86200		875.00000 
 43692.65567		 305.27265			43387.38302		70.62000		324.00000 
 43692.65567		 684.77501			43007.88066		217.86200		875.00000 
 43692.65567		 305.27265			43387.38302		70.62000		324.00000 
 43692.65567		 684.77501			43007.88066		217.86200		875.00000 
 43692.65567		 305.27265			43387.38302		70.62000		324.00000 
 43692.65567		 684.77501			43007.88066		217.86200		875.00000 
 43692.65567		 305.27265			43387.38302		70.62000		324.00000 
 43692.65567		 684.77501			43007.88066		217.86200		875.00000 
 43692.65567		 305.27265			43387.38302		70.62000		324.00000 
 43692.65567		 684.77501			43007.88066		217.86200		875.00000 
 43692.65567		 305.27265			43387.38302		70.62000		324.00000 
 43692.65567		 684.77501			43007.88066		218.46200		875.00000 
 43692.65567		 305.27265			43387.38302		70.62000		324.00000 
 43692.65567		 684.77501			43007.88066		218.46200		875.00000 
 43692.65567		 305.27265			43387.38302		70.62000		324.00000 
 43692.65567		 684.77501			43007.88066		218.46200		875.00000 
 43692.65567		 305.27265			43387.38302		70.62000		324.00000 
 43692.65567		 684.77501			43007.88066		218.46200		875.00000 
 43692.65567		 305.27265			43387.38302		70.62000		324.00000 
 43692.65567		 684.77501			43007.88066		218.46200		875.00000 
 43692.65567		 305.27265			43387.38302		70.62000		324.00000 
 43692.65567		 684.77501			43007.88066		218.46200		875.00000 
 43692.65567		 305.27265			43387.38302		70.62000		324.00000 
 43692.65567		 684.77501			43007.88066		218.46200		875.00000 
 43692.65567		 305.27265			43387.38302		70.62000		324.00000 
 43692.65567		 684.77501			43007.88066		218.46200		875.00000 
 43692.65567		 305.27265			43387.38302		70.62000		324.00000 
 43692.65567		 684.77501			43007.88066		218.46200		875.00000 
 43692.65567		 305.27265			43387.38302		70.62000		324.00000 
 43692.65567		 684.77501			43007.88066		218.46200		875.00000 
 43692.65567		 305.27265			43387.38302		70.62000		324.00000 
 43692.65567		 684.77501			43007.88066		218.46200		875.00000 
 43692.65567		 305.27265			43387.38302		70.62000		324.00000 
 43692.65567		 684.77501			43007.88066		218.46200		875.00000 
 43692.65567		 305.27265			43387.38302		70.62000		324.00000 
 43692.65567		 684.77501			43007.88066		218.46200		875.00000 
 43692.65567		 305.27265			43387.38302		70.62000		324.00000 
 43692.65567		 684.77501			43007.88066		218.46200		875.00000 
 43692.65567		 305.27265			43387.38302		70.62000		324.00000 
 43692.65567		 684.77501			43007.88066		218.46200		875.00000 
 43692.65567		 305.27265			43387.38302		70.62000		324.00000 
 43692.65567		 684.77501			43007.88066		218.46200		875.00000 
 43692.65567		 305.27265			43387.38302		70.62000		324.00000 
 43692.65567		 684.77501			43007.88066		218.46200		875.00000 
 43692.65567		 305.27265			43387.38302		70.62000		324.00000 
 43692.65567		 684.77501			43007.88066		218.46200		875.00000 
 43692.65567		 305.27265			43387.38302		70.62000		324.00000 
 43692.65567		 684.77501			43007.88066		218.46200		875.00000 
 43692.65567		 305.27265			43387.38302		70.62000		324.00000 
 43692.65567		 684.77501			43007.88066		218.46200		875.00000 
 43692.65567		 305.27265			43387.38302		70.62000		324.00000 
 43692.65567		 684.77501			43007.88066		218.46200		875.00000 
 43692.65567		 305.27265			43387.38302		70.62000		324.00000 
 43692.65567		 684.77501			43007.88066		218.46200		875.00000 
 43692.65567		 305.27265			43387.38302		70.62000		324.00000 
 43692.65567		 684.77501			43007.88066		218.46200		875.00000 
 43692.65567		 305.27265			43387.38302		70.62000		324.00000 
 43692.65567		 684.77501			43007.88066		218.46200		875.00000 
 43692.65567		 305.27265			43387.38302		70.62000		324.00000 
 43692.65567		 684.77501			43007.88066		218.46200		875.00000 
 43692.65567		 305.27265			43387.38302		70.62000		324.00000 
 43692.65567		 684.77501			43007.88066		218.46200		875.00000 
 43692.65567		 305.27265			43387.38302		70.62000		324.00000 
 43692.65567		 684.77501			43007.88066		218.46200		875.00000 
 43692.65567		 305.27265			43387.38302		70.62000		324.00000 
 43692.65567		 684.77501			43007.88066		218.46200		875.00000 
 43692.65567		 305.27265			43387.38302		70.62000		324.00000 
 43692.65567		 684.77501			43007.88066		218.46200		875.00000 
 43692.65567		 305.27265			43387.38302		70.62000		324.00000 
 43692.65567		 684.77501			43007.88066		218.46200		875.00000 
 43692.65567		 305.27265			43387.38302		70.62000		324.00000 
 43692.65567		 684.77501			43007.88066		218.46200		875.00000 
 43692.65567		 305.27265			43387.38302		70.62000		324.00000 
 43692.65567		 684.77501			43007.88066		218.46200		875.00000 
 43692.65567		 305.27265			43387.38302		70.62000		324.00000 
 43692.65567		 684.77501			43007.88066		218.46200		875.00000 
 43692.65567		 305.27265			43387.38302		70.62000		324.00000 
 43692.65567		 684.77501			43007.88066		218.46200		875.00000 
 43692.65567		 305.27265			43387.38302		70.62000		324.00000 
 43692.65567		 684.77501			43007.88066		218.46200		875.00000 
 43692.65567		 305.27265			43387.38302		70.62000		324.00000 
 43692.65567		 684.77501			43007.88066		218.46200		875.00000 
 43692.65567		 305.27265			43387.38302		70.62000		324.00000 
 43692.65567		 684.77501			43007.88066		218.46200		875.00000 
 43692.65567		 305.27265			43387.38302		70.62000		324.00000 
 43692.65567		 684.77501			43007.88066		218.46200		875.00000 
 43692.65567		 305.27265			43387.38302		70.62000		324.00000 
 43692.65567		 684.77501			43007.88066		218.46200		875.00000 
 43692.65567		 305.27265			43387.38302		70.62000		324.00000 
 43692.65567		 684.77501			43007.88066		218.46200		875.00000 
 43692.65567		 305.27265			43387.38302		70.62000		324.00000 
 43692.65567		 684.77501			43007.88066		218.46200		875.00000 
 43692.65567		 305.27265			43387.38302		70.62000		324.00000 
 43692.65567		 684.77501			43007.88066		218.46200		875.00000 
 43692.65567		 305.27265			43387.38302		70.62000		324.00000 
 43692.65567		 684.77501			43007.88066		218.46200		875.00000 
 43692.65567		 305.27265			43387.38302		70.62000		324.00000 
 43692.65567		 684.77501			43007.88066		218.46200		875.00000 
 43692.65567		 305.27265			43387.38302		70.62000		324.00000 
 43692.65567		 684.77501			43007.88066		218.46200		875.00000 
 43692.65567		 305.27265			43387.38302		70.62000		324.00000 
 43692.65567		 684.77501			43007.88066		218.46200		875.00000 
 43692.65567		 305.27265			43387.38302		70.62000		324.00000 
 43692.65567		 684.77501			43007.88066		218.46200		875.00000 
 43692.65567		 305.27265			43387.38302		70.62000		324.00000 
 43692.65567		 684.77501			43007.88066		218.46200		875.00000 
 43692.65567		 305.27265			43387.38302		70.62000		324.00000 
 43692.65567		 684.77501			43007.88066		218.46200		875.00000 
 43692.65567		 305.27265			43387.38302		70.62000		324.00000 
 43692.65567		 684.77501			43007.88066		218.46200		875.00000 
 43692.65567		 305.27265			43387.38302		70.62000		324.00000 
 43692.65567		 684.77501			43007.88066		218.46200		875.00000 
 43692.65567		 305.27265			43387.38302		70.62000		324.00000 
 43692.65567		 684.77501			43007.88066		218.46200		875.00000 
 43692.65567		 305.27265			43387.38302		70.62000		324.00000 
 43692.65567		 684.77501			43007.88066		218.46200		875.00000 
 43692.65567		 305.27265			43387.38302		70.62000		324.00000 
 43692.65567		 684.77501			43007.88066		218.46200		875.00000 
 43692.65567		 305.27265			43387.38302		70.62000		324.00000 
 43692.65567		 684.77501			43007.88066		218.46200		875.00000 
 43692.65567		 305.27265			43387.38302		70.62000		324.00000 
 43692.65567		 684.77501			43007.88066		218.46200		875.00000 
 43692.65567		 305.27265			43387.38302		70.62000		324.00000 
 43692.65567		 684.77501			43007.88066		218.46200		875.00000 
 43692.65567		 305.27265			43387.38302		70.62000		324.00000 
 43692.65567		 684.77501			43007.88066		218.46200		875.00000 
 43692.65567		 305.27265			43387.38302		70.62000		324.00000 
 43692.65567		 684.77501			43007.88066		218.46200		875.00000 
 43692.65567		 305.27265			43387.38302		70.62000		324.00000 
 43692.65567		 684.77501			43007.88066		218.46200		875.00000 
 43692.65567		 305.27265			43387.38302		70.62000		324.00000 
 43692.65567		 684.77501			43007.88066		218.46200		875.00000 
 43692.65567		 305.27265			43387.38302		70.62000		324.00000 
 43692.65567		 684.77501			43007.88066		218.46200		875.00000 
 43692.65567		 305.27265			43387.38302		70.62000		324.00000 
 43692.65567		 684.77501			43007.88066		218.46200		875.00000 
 43692.65567		 305.27265			43387.38302		70.62000		324.00000 
 43692.65567		 684.77501			43007.88066		218.46200		875.00000 
 43692.65567		 305.27265			43387.38302		70.62000		324.00000 
 43692.65567		 684.77501			43007.88066		217.86200		875.00000 
 43692.65567		 305.27265			43387.38302		70.62000		324.00000 
 43692.65567		 684.77501			43007.88066		217.86200		875.00000 
 43692.65567		 305.27265			43387.38302		70.62000		324.00000 
 43692.65567		 684.77501			43007.88066		217.86200		875.00000 
 43692.65567		 305.27265			43387.38302		70.62000		324.00000 
 43692.65567		 684.77501			43007.88066		217.86200		875.00000 
 43692.65567		 305.27265			43387.38302		70.62000		324.00000 
 43692.65567		 684.77501			43007.88066		217.86200		875.00000 
 43692.65567		 305.27265			43387.38302		70.62000		324.00000 
 43692.65567		 684.77501			43007.88066		217.86200		875.00000 
 43692.65567		 305.27265			43387.38302		70.62000		324.00000 
 43692.65567		 635.60678			43057.04889		217.86200		875.00000 
 43692.65567		 305.27265			43387.38302		70.62000		324.00000 
 43692.65567		 586.43855			43106.21712		217.86200		875.00000 
 43692.65567		 305.27265			43387.38302		70.62000		324.00000 
 43692.65567		 537.27032			43155.38535		217.86200		875.00000 
 43692.65567		 305.27265			43387.38302		70.62000		324.00000 
 43692.65567		 537.27032			43155.38535		217.86200		875.00000 
 43692.65567		 305.27265			43387.38302		70.62000		324.00000 
 43692.65567		 537.27032			43155.38535		217.86200		875.00000 
 43692.65567		 305.27265			43387.38302		70.62000		324.00000 
 43692.65567		 537.27032			43155.38535		217.86200		875.00000 
 43692.65567		 305.27265			43387.38302		70.62000		324.00000 
 43692.65567		 537.27032			43155.38535		217.86200		875.00000 
 43692.65567		 305.27265			43387.38302		70.62000		324.00000 
 43692.65567		 537.27032			43155.38535		217.86200		875.00000 
 43692.65567		 305.27265			43387.38302		70.62000		324.00000 
 43692.65567		 537.27032			43155.38535		217.86200		875.00000 
 43692.65567		 305.27265			43387.38302		70.62000		324.00000 
 43692.65567		 537.27032			43155.38535		217.86200		875.00000 
 43692.65567		 305.27265			43387.38302		70.62000		324.00000 
 43692.65567		 537.27032			43155.38535		217.86200		875.00000 
 43692.65567		 305.27265			43387.38302		70.62000		324.00000 
 43692.65567		 537.27032			43155.38535		217.86200		875.00000 
 43692.65567		 305.27265			43387.38302		70.62000		324.00000 
 43692.65567		 537.27032			43155.38535		217.86200		875.00000 
 43692.65567		 305.27265			43387.38302		70.62000		324.00000 
 43692.65567		 537.27032			43155.38535		217.86200		875.00000 
 43692.65567		 305.27265			43387.38302		70.62000		324.00000 
 43692.65567		 537.27032			43155.38535		217.86200		875.00000 
 43692.65567		 305.27265			43387.38302		70.62000		324.00000 
 43692.65567		 537.27032			43155.38535		217.86200		875.00000 
 43692.65567		 305.27265			43387.38302		70.62000		324.00000 
 43692.65567		 537.27032			43155.38535		217.86200		875.00000 
 43692.65567		 305.27265			43387.38302		70.62000		324.00000 
 43692.65567		 537.27032			43155.38535		217.86200		875.00000 
 43692.65567		 305.27265			43387.38302		70.62000		324.00000 
 43692.65567		 537.27032			43155.38535		217.86200		875.00000 
 43692.65567		 305.27265			43387.38302		70.62000		324.00000 
 43692.65567		 537.27032			43155.38535		217.86200		875.00000 
 43692.65567		 305.27265			43387.38302		70.62000		324.00000 
 43692.65567		 537.27032			43155.38535		217.86200		875.00000 
 43692.65567		 305.27265			43387.38302		70.62000		324.00000 
 43692.65567		 537.27032			43155.38535		217.86200		875.00000 
 43692.65567		 305.27265			43387.38302		70.62000		324.00000 
 43692.65567		 529.63254			43163.02313		217.86200		875.00000 
 43692.65567		 305.27265			43387.38302		70.62000		324.00000 
 43692.65567		 525.81365			43166.84203		217.86200		875.00000 
 43692.65567		 305.27265			43387.38302		70.62000		324.00000 
 43692.65567		 525.81365			43166.84203		217.86200		875.00000 
 43692.65567		 261.35540			43431.30027		70.62000		324.00000 
