Memory Total (MiB) 	 Memory Used (MiB) 	    Memory Free (MiB) 	 Power Drawed (W) 	 Clocks (Mhz) 	 
 43692.65567		 261.35540			43431.30027		186.04200		875.00000 
 43692.65567		 261.35540			43431.30027		70.13800		324.00000 
 43692.65567		 261.35540			43431.30027		186.04200		875.00000 
 43692.65567		 261.35540			43431.30027		70.13800		324.00000 
 43692.65567		 261.35540			43431.30027		186.04200		875.00000 
 43692.65567		 261.35540			43431.30027		70.13800		324.00000 
 43692.65567		 261.35540			43431.30027		186.04200		875.00000 
 43692.65567		 261.35540			43431.30027		70.13800		324.00000 
 43692.65567		 261.35540			43431.30027		186.04200		875.00000 
 43692.65567		 261.35540			43431.30027		70.13800		324.00000 
 43692.65567		 261.35540			43431.30027		186.04200		875.00000 
 43692.65567		 261.35540			43431.30027		70.13800		324.00000 
 43692.65567		 261.35540			43431.30027		186.04200		875.00000 
 43692.65567		 261.35540			43431.30027		70.13800		324.00000 
 43692.65567		 261.35540			43431.30027		186.04200		875.00000 
 43692.65567		 261.35540			43431.30027		70.13800		324.00000 
 43692.65567		 261.35540			43431.30027		186.04200		875.00000 
 43692.65567		 261.35540			43431.30027		70.13800		324.00000 
 43692.65567		 261.35540			43431.30027		186.04200		875.00000 
 43692.65567		 261.35540			43431.30027		70.13800		324.00000 
 43692.65567		 261.35540			43431.30027		186.04200		875.00000 
 43692.65567		 261.35540			43431.30027		70.13800		324.00000 
 43692.65567		 261.35540			43431.30027		186.04200		875.00000 
 43692.65567		 261.35540			43431.30027		70.13800		324.00000 
 43692.65567		 261.35540			43431.30027		186.04200		875.00000 
 43692.65567		 261.35540			43431.30027		70.13800		324.00000 
 43692.65567		 261.35540			43431.30027		186.04200		875.00000 
 43692.65567		 261.35540			43431.30027		70.13800		324.00000 
 43692.65567		 261.35540			43431.30027		186.04200		875.00000 
 43692.65567		 261.35540			43431.30027		70.13800		324.00000 
 43692.65567		 261.35540			43431.30027		186.04200		875.00000 
 43692.65567		 261.35540			43431.30027		70.13800		324.00000 
 43692.65567		 261.35540			43431.30027		186.04200		875.00000 
 43692.65567		 261.35540			43431.30027		70.13800		324.00000 
 43692.65567		 261.35540			43431.30027		186.04200		875.00000 
 43692.65567		 261.35540			43431.30027		70.13800		324.00000 
 43692.65567		 261.35540			43431.30027		186.04200		875.00000 
 43692.65567		 261.35540			43431.30027		70.13800		324.00000 
 43692.65567		 265.17429			43427.48138		186.04200		875.00000 
 43692.65567		 261.35540			43431.30027		70.13800		324.00000 
 43692.65567		 265.17429			43427.48138		186.04200		875.00000 
 43692.65567		 261.35540			43431.30027		70.13800		324.00000 
 43692.65567		 272.81207			43419.84360		186.04200		875.00000 
 43692.65567		 261.35540			43431.30027		70.13800		324.00000 
 43692.65567		 272.81207			43419.84360		186.04200		875.00000 
 43692.65567		 261.35540			43431.30027		70.13800		324.00000 
 43692.65567		 272.81207			43419.84360		186.04200		875.00000 
 43692.65567		 265.17429			43427.48138		70.13800		324.00000 
 43692.65567		 272.81207			43419.84360		152.11000		875.00000 
 43692.65567		 265.17429			43427.48138		70.13800		324.00000 
 43692.65567		 272.81207			43419.84360		152.11000		875.00000 
 43692.65567		 272.81207			43419.84360		70.13800		324.00000 
 43692.65567		 272.81207			43419.84360		152.11000		875.00000 
 43692.65567		 272.81207			43419.84360		70.13800		324.00000 
 43692.65567		 272.81207			43419.84360		152.11000		875.00000 
 43692.65567		 272.81207			43419.84360		70.13800		324.00000 
 43692.65567		 272.81207			43419.84360		152.11000		875.00000 
 43692.65567		 272.81207			43419.84360		70.13800		324.00000 
 43692.65567		 305.27265			43387.38302		152.11000		875.00000 
 43692.65567		 305.27265			43387.38302		70.13800		324.00000 
 43692.65567		 305.27265			43387.38302		152.11000		875.00000 
 43692.65567		 305.27265			43387.38302		70.13800		324.00000 
 43692.65567		 305.27265			43387.38302		152.11000		875.00000 
 43692.65567		 305.27265			43387.38302		70.13800		324.00000 
 43692.65567		 305.27265			43387.38302		152.11000		875.00000 
 43692.65567		 305.27265			43387.38302		70.13800		324.00000 
 43692.65567		 305.27265			43387.38302		152.11000		875.00000 
 43692.65567		 305.27265			43387.38302		70.13800		324.00000 
 43692.65567		 309.56891			43383.08677		152.11000		875.00000 
 43692.65567		 305.27265			43387.38302		70.13800		324.00000 
 43692.65567		 311.00099			43381.65468		152.11000		875.00000 
 43692.65567		 305.27265			43387.38302		70.13800		324.00000 
 43692.65567		 311.00099			43381.65468		152.11000		875.00000 
 43692.65567		 305.27265			43387.38302		70.13800		324.00000 
 43692.65567		 311.00099			43381.65468		152.11000		875.00000 
 43692.65567		 305.27265			43387.38302		70.13800		324.00000 
 43692.65567		 311.00099			43381.65468		152.11000		875.00000 
 43692.65567		 305.27265			43387.38302		70.13800		324.00000 
 43692.65567		 311.00099			43381.65468		152.11000		875.00000 
 43692.65567		 305.27265			43387.38302		70.13800		324.00000 
 43692.65567		 311.00099			43381.65468		152.11000		875.00000 
 43692.65567		 305.27265			43387.38302		70.13800		324.00000 
 43692.65567		 311.00099			43381.65468		152.11000		875.00000 
 43692.65567		 305.27265			43387.38302		70.13800		324.00000 
 43692.65567		 311.00099			43381.65468		152.11000		875.00000 
 43692.65567		 305.27265			43387.38302		70.13800		324.00000 
 43692.65567		 311.00099			43381.65468		152.11000		875.00000 
 43692.65567		 305.27265			43387.38302		70.13800		324.00000 
 43692.65567		 311.00099			43381.65468		152.11000		875.00000 
 43692.65567		 305.27265			43387.38302		70.13800		324.00000 
 43692.65567		 311.00099			43381.65468		152.11000		875.00000 
 43692.65567		 305.27265			43387.38302		70.13800		324.00000 
 43692.65567		 311.00099			43381.65468		152.11000		875.00000 
 43692.65567		 305.27265			43387.38302		70.13800		324.00000 
 43692.65567		 311.00099			43381.65468		152.11000		875.00000 
 43692.65567		 305.27265			43387.38302		70.13800		324.00000 
 43692.65567		 311.00099			43381.65468		152.11000		875.00000 
 43692.65567		 305.27265			43387.38302		70.13800		324.00000 
 43692.65567		 311.00099			43381.65468		152.11000		875.00000 
 43692.65567		 305.27265			43387.38302		70.13800		324.00000 
 43692.65567		 311.00099			43381.65468		152.11000		875.00000 
 43692.65567		 305.27265			43387.38302		70.13800		324.00000 
 43692.65567		 311.00099			43381.65468		152.11000		875.00000 
 43692.65567		 305.27265			43387.38302		70.13800		324.00000 
 43692.65567		 311.00099			43381.65468		152.11000		875.00000 
 43692.65567		 305.27265			43387.38302		70.13800		324.00000 
 43692.65567		 311.00099			43381.65468		152.11000		875.00000 
 43692.65567		 305.27265			43387.38302		70.13800		324.00000 
 43692.65567		 311.00099			43381.65468		152.11000		875.00000 
 43692.65567		 305.27265			43387.38302		70.13800		324.00000 
 43692.65567		 311.00099			43381.65468		152.11000		875.00000 
 43692.65567		 305.27265			43387.38302		70.13800		324.00000 
 43692.65567		 311.00099			43381.65468		152.11000		875.00000 
 43692.65567		 305.27265			43387.38302		70.13800		324.00000 
 43692.65567		 311.00099			43381.65468		138.95000		875.00000 
 43692.65567		 305.27265			43387.38302		70.13800		324.00000 
 43692.65567		 311.00099			43381.65468		138.95000		875.00000 
 43692.65567		 305.27265			43387.38302		70.13800		324.00000 
 43692.65567		 311.00099			43381.65468		138.95000		875.00000 
 43692.65567		 305.27265			43387.38302		70.13800		324.00000 
 43692.65567		 311.00099			43381.65468		138.95000		875.00000 
 43692.65567		 305.27265			43387.38302		70.13800		324.00000 
 43692.65567		 311.00099			43381.65468		138.95000		875.00000 
 43692.65567		 305.27265			43387.38302		70.13800		324.00000 
 43692.65567		 311.00099			43381.65468		138.95000		875.00000 
 43692.65567		 305.27265			43387.38302		70.13800		324.00000 
 43692.65567		 311.00099			43381.65468		138.95000		875.00000 
 43692.65567		 305.27265			43387.38302		70.13800		324.00000 
 43692.65567		 311.00099			43381.65468		138.95000		875.00000 
 43692.65567		 305.27265			43387.38302		70.13800		324.00000 
 43692.65567		 311.00099			43381.65468		138.95000		875.00000 
 43692.65567		 305.27265			43387.38302		70.13800		324.00000 
 43692.65567		 311.00099			43381.65468		138.95000		875.00000 
 43692.65567		 305.27265			43387.38302		70.13800		324.00000 
 43692.65567		 311.00099			43381.65468		138.95000		875.00000 
 43692.65567		 305.27265			43387.38302		70.13800		324.00000 
 43692.65567		 311.00099			43381.65468		138.95000		875.00000 
 43692.65567		 305.27265			43387.38302		70.13800		324.00000 
 43692.65567		 311.00099			43381.65468		138.95000		875.00000 
 43692.65567		 305.27265			43387.38302		70.13800		324.00000 
 43692.65567		 311.00099			43381.65468		138.95000		875.00000 
 43692.65567		 305.27265			43387.38302		70.13800		324.00000 
 43692.65567		 311.00099			43381.65468		138.95000		875.00000 
 43692.65567		 305.27265			43387.38302		70.13800		324.00000 
 43692.65567		 311.00099			43381.65468		138.95000		875.00000 
 43692.65567		 305.27265			43387.38302		70.13800		324.00000 
 43692.65567		 311.00099			43381.65468		138.95000		875.00000 
 43692.65567		 305.27265			43387.38302		70.13800		324.00000 
 43692.65567		 311.00099			43381.65468		138.95000		875.00000 
 43692.65567		 305.27265			43387.38302		70.13800		324.00000 
 43692.65567		 311.00099			43381.65468		138.95000		875.00000 
 43692.65567		 305.27265			43387.38302		70.13800		324.00000 
 43692.65567		 311.00099			43381.65468		138.95000		875.00000 
 43692.65567		 305.27265			43387.38302		70.13800		324.00000 
 43692.65567		 311.00099			43381.65468		138.95000		875.00000 
 43692.65567		 305.27265			43387.38302		70.13800		324.00000 
 43692.65567		 311.00099			43381.65468		138.95000		875.00000 
 43692.65567		 305.27265			43387.38302		70.13800		324.00000 
 43692.65567		 311.00099			43381.65468		138.95000		875.00000 
 43692.65567		 305.27265			43387.38302		70.13800		324.00000 
 43692.65567		 311.00099			43381.65468		138.95000		875.00000 
 43692.65567		 305.27265			43387.38302		70.13800		324.00000 
 43692.65567		 311.00099			43381.65468		138.95000		875.00000 
 43692.65567		 305.27265			43387.38302		70.13800		324.00000 
 43692.65567		 311.00099			43381.65468		138.95000		875.00000 
 43692.65567		 305.27265			43387.38302		70.13800		324.00000 
 43692.65567		 311.00099			43381.65468		138.95000		875.00000 
 43692.65567		 305.27265			43387.38302		70.13800		324.00000 
 43692.65567		 311.00099			43381.65468		138.95000		875.00000 
 43692.65567		 305.27265			43387.38302		70.13800		324.00000 
 43692.65567		 311.00099			43381.65468		138.95000		875.00000 
 43692.65567		 305.27265			43387.38302		70.13800		324.00000 
 43692.65567		 311.00099			43381.65468		138.95000		875.00000 
 43692.65567		 305.27265			43387.38302		70.13800		324.00000 
 43692.65567		 314.81988			43377.83579		138.95000		875.00000 
 43692.65567		 305.27265			43387.38302		70.13800		324.00000 
 43692.65567		 314.81988			43377.83579		138.95000		875.00000 
 43692.65567		 305.27265			43387.38302		70.13800		324.00000 
 43692.65567		 318.63877			43374.01690		138.95000		875.00000 
 43692.65567		 305.27265			43387.38302		70.13800		324.00000 
 43692.65567		 322.45767			43370.19801		133.77200		875.00000 
 43692.65567		 305.27265			43387.38302		70.13800		324.00000 
 43692.65567		 326.27656			43366.37912		133.77200		875.00000 
 43692.65567		 305.27265			43387.38302		70.13800		324.00000 
 43692.65567		 326.27656			43366.37912		133.77200		875.00000 
 43692.65567		 305.27265			43387.38302		70.13800		324.00000 
 43692.65567		 326.27656			43366.37912		133.77200		875.00000 
 43692.65567		 305.27265			43387.38302		70.13800		324.00000 
 43692.65567		 326.27656			43366.37912		133.77200		875.00000 
 43692.65567		 305.27265			43387.38302		70.13800		324.00000 
 43692.65567		 537.27032			43155.38535		133.77200		875.00000 
 43692.65567		 305.27265			43387.38302		70.13800		324.00000 
 43692.65567		 590.73481			43101.92087		133.77200		875.00000 
 43692.65567		 305.27265			43387.38302		70.13800		324.00000 
 43692.65567		 617.46705			43075.18863		133.77200		875.00000 
 43692.65567		 305.27265			43387.38302		70.13800		324.00000 
 43692.65567		 617.46705			43075.18863		133.77200		875.00000 
 43692.65567		 305.27265			43387.38302		70.13800		324.00000 
 43692.65567		 617.46705			43075.18863		133.77200		875.00000 
 43692.65567		 305.27265			43387.38302		70.13800		324.00000 
 43692.65567		 617.46705			43075.18863		133.77200		875.00000 
 43692.65567		 305.27265			43387.38302		70.13800		324.00000 
 43692.65567		 617.46705			43075.18863		133.77200		875.00000 
 43692.65567		 305.27265			43387.38302		70.13800		324.00000 
 43692.65567		 617.46705			43075.18863		133.77200		875.00000 
 43692.65567		 305.27265			43387.38302		70.13800		324.00000 
 43692.65567		 617.46705			43075.18863		133.77200		875.00000 
 43692.65567		 305.27265			43387.38302		70.13800		324.00000 
 43692.65567		 617.46705			43075.18863		133.77200		875.00000 
 43692.65567		 305.27265			43387.38302		70.13800		324.00000 
 43692.65567		 617.46705			43075.18863		133.77200		875.00000 
 43692.65567		 305.27265			43387.38302		70.13800		324.00000 
 43692.65567		 617.46705			43075.18863		133.77200		875.00000 
 43692.65567		 305.27265			43387.38302		70.13800		324.00000 
 43692.65567		 617.46705			43075.18863		133.77200		875.00000 
 43692.65567		 305.27265			43387.38302		70.13800		324.00000 
 43692.65567		 617.46705			43075.18863		133.77200		875.00000 
 43692.65567		 305.27265			43387.38302		70.13800		324.00000 
 43692.65567		 617.46705			43075.18863		133.77200		875.00000 
 43692.65567		 305.27265			43387.38302		70.13800		324.00000 
 43692.65567		 617.46705			43075.18863		133.77200		875.00000 
 43692.65567		 305.27265			43387.38302		70.13800		324.00000 
 43692.65567		 617.46705			43075.18863		133.77200		875.00000 
 43692.65567		 305.27265			43387.38302		70.13800		324.00000 
 43692.65567		 617.46705			43075.18863		133.77200		875.00000 
 43692.65567		 305.27265			43387.38302		70.13800		324.00000 
 43692.65567		 617.46705			43075.18863		133.77200		875.00000 
 43692.65567		 305.27265			43387.38302		70.13800		324.00000 
 43692.65567		 617.46705			43075.18863		133.77200		875.00000 
 43692.65567		 305.27265			43387.38302		70.13800		324.00000 
 43692.65567		 617.46705			43075.18863		133.77200		875.00000 
 43692.65567		 305.27265			43387.38302		70.13800		324.00000 
 43692.65567		 617.46705			43075.18863		133.77200		875.00000 
 43692.65567		 305.27265			43387.38302		70.13800		324.00000 
 43692.65567		 617.46705			43075.18863		133.77200		875.00000 
 43692.65567		 305.27265			43387.38302		70.13800		324.00000 
 43692.65567		 617.46705			43075.18863		133.77200		875.00000 
 43692.65567		 305.27265			43387.38302		70.13800		324.00000 
 43692.65567		 617.46705			43075.18863		133.77200		875.00000 
 43692.65567		 305.27265			43387.38302		70.13800		324.00000 
 43692.65567		 617.46705			43075.18863		133.77200		875.00000 
 43692.65567		 305.27265			43387.38302		70.13800		324.00000 
 43692.65567		 617.46705			43075.18863		133.77200		875.00000 
 43692.65567		 305.27265			43387.38302		70.13800		324.00000 
 43692.65567		 617.46705			43075.18863		133.77200		875.00000 
 43692.65567		 305.27265			43387.38302		70.13800		324.00000 
 43692.65567		 617.46705			43075.18863		133.77200		875.00000 
 43692.65567		 305.27265			43387.38302		70.13800		324.00000 
 43692.65567		 617.46705			43075.18863		133.77200		875.00000 
 43692.65567		 305.27265			43387.38302		70.13800		324.00000 
 43692.65567		 617.46705			43075.18863		133.77200		875.00000 
 43692.65567		 305.27265			43387.38302		70.13800		324.00000 
 43692.65567		 617.46705			43075.18863		133.77200		875.00000 
 43692.65567		 305.27265			43387.38302		70.13800		324.00000 
 43692.65567		 617.46705			43075.18863		133.77200		875.00000 
 43692.65567		 305.27265			43387.38302		70.13800		324.00000 
 43692.65567		 617.46705			43075.18863		133.77200		875.00000 
 43692.65567		 305.27265			43387.38302		70.13800		324.00000 
 43692.65567		 617.46705			43075.18863		133.77200		875.00000 
 43692.65567		 305.27265			43387.38302		70.13800		324.00000 
 43692.65567		 617.46705			43075.18863		133.77200		875.00000 
 43692.65567		 305.27265			43387.38302		70.13800		324.00000 
 43692.65567		 617.46705			43075.18863		133.77200		875.00000 
 43692.65567		 305.27265			43387.38302		70.13800		324.00000 
 43692.65567		 617.46705			43075.18863		133.77200		875.00000 
 43692.65567		 305.27265			43387.38302		70.13800		324.00000 
 43692.65567		 617.46705			43075.18863		133.77200		875.00000 
 43692.65567		 305.27265			43387.38302		70.13800		324.00000 
 43692.65567		 617.46705			43075.18863		133.77200		875.00000 
 43692.65567		 305.27265			43387.38302		70.13800		324.00000 
 43692.65567		 617.46705			43075.18863		133.77200		875.00000 
 43692.65567		 305.27265			43387.38302		70.13800		324.00000 
 43692.65567		 617.46705			43075.18863		133.77200		875.00000 
 43692.65567		 305.27265			43387.38302		70.13800		324.00000 
 43692.65567		 617.46705			43075.18863		133.77200		875.00000 
 43692.65567		 305.27265			43387.38302		70.13800		324.00000 
 43692.65567		 617.46705			43075.18863		133.77200		875.00000 
 43692.65567		 305.27265			43387.38302		70.13800		324.00000 
 43692.65567		 617.46705			43075.18863		133.77200		875.00000 
 43692.65567		 305.27265			43387.38302		70.13800		324.00000 
 43692.65567		 617.46705			43075.18863		133.77200		875.00000 
 43692.65567		 305.27265			43387.38302		70.13800		324.00000 
 43692.65567		 617.46705			43075.18863		133.77200		875.00000 
 43692.65567		 305.27265			43387.38302		70.13800		324.00000 
 43692.65567		 617.46705			43075.18863		133.77200		875.00000 
 43692.65567		 305.27265			43387.38302		70.13800		324.00000 
 43692.65567		 617.46705			43075.18863		133.77200		875.00000 
 43692.65567		 305.27265			43387.38302		70.13800		324.00000 
 43692.65567		 617.46705			43075.18863		133.77200		875.00000 
 43692.65567		 305.27265			43387.38302		70.13800		324.00000 
 43692.65567		 617.46705			43075.18863		133.77200		875.00000 
 43692.65567		 305.27265			43387.38302		70.13800		324.00000 
 43692.65567		 617.46705			43075.18863		133.77200		875.00000 
 43692.65567		 305.27265			43387.38302		70.13800		324.00000 
 43692.65567		 617.46705			43075.18863		133.77200		875.00000 
 43692.65567		 305.27265			43387.38302		70.13800		324.00000 
 43692.65567		 617.46705			43075.18863		133.77200		875.00000 
 43692.65567		 305.27265			43387.38302		70.13800		324.00000 
 43692.65567		 617.46705			43075.18863		133.77200		875.00000 
 43692.65567		 305.27265			43387.38302		70.13800		324.00000 
 43692.65567		 617.46705			43075.18863		133.77200		875.00000 
 43692.65567		 305.27265			43387.38302		70.13800		324.00000 
 43692.65567		 617.46705			43075.18863		133.77200		875.00000 
 43692.65567		 305.27265			43387.38302		70.13800		324.00000 
 43692.65567		 617.46705			43075.18863		180.43400		875.00000 
 43692.65567		 305.27265			43387.38302		70.13800		324.00000 
 43692.65567		 617.46705			43075.18863		180.43400		875.00000 
 43692.65567		 305.27265			43387.38302		70.13800		324.00000 
 43692.65567		 617.46705			43075.18863		180.43400		875.00000 
 43692.65567		 305.27265			43387.38302		70.13800		324.00000 
 43692.65567		 617.46705			43075.18863		180.43400		875.00000 
 43692.65567		 305.27265			43387.38302		70.13800		324.00000 
 43692.65567		 617.46705			43075.18863		180.43400		875.00000 
 43692.65567		 305.27265			43387.38302		70.13800		324.00000 
 43692.65567		 617.46705			43075.18863		180.43400		875.00000 
 43692.65567		 305.27265			43387.38302		70.13800		324.00000 
 43692.65567		 617.46705			43075.18863		180.43400		875.00000 
 43692.65567		 305.27265			43387.38302		70.13800		324.00000 
 43692.65567		 617.46705			43075.18863		180.43400		875.00000 
 43692.65567		 305.27265			43387.38302		70.13800		324.00000 
 43692.65567		 617.46705			43075.18863		180.43400		875.00000 
 43692.65567		 305.27265			43387.38302		70.13800		324.00000 
 43692.65567		 617.46705			43075.18863		180.43400		875.00000 
 43692.65567		 305.27265			43387.38302		70.13800		324.00000 
 43692.65567		 617.46705			43075.18863		180.43400		875.00000 
 43692.65567		 305.27265			43387.38302		70.13800		324.00000 
 43692.65567		 617.46705			43075.18863		180.43400		875.00000 
 43692.65567		 305.27265			43387.38302		70.13800		324.00000 
 43692.65567		 617.46705			43075.18863		180.43400		875.00000 
 43692.65567		 305.27265			43387.38302		70.13800		324.00000 
 43692.65567		 617.46705			43075.18863		180.43400		875.00000 
 43692.65567		 305.27265			43387.38302		70.13800		324.00000 
 43692.65567		 617.46705			43075.18863		180.43400		875.00000 
 43692.65567		 305.27265			43387.38302		70.13800		324.00000 
 43692.65567		 617.46705			43075.18863		180.43400		875.00000 
 43692.65567		 305.27265			43387.38302		70.13800		324.00000 
 43692.65567		 617.46705			43075.18863		180.43400		875.00000 
 43692.65567		 305.27265			43387.38302		70.13800		324.00000 
 43692.65567		 617.46705			43075.18863		180.43400		875.00000 
 43692.65567		 305.27265			43387.38302		70.13800		324.00000 
 43692.65567		 617.46705			43075.18863		180.43400		875.00000 
 43692.65567		 305.27265			43387.38302		70.13800		324.00000 
 43692.65567		 617.46705			43075.18863		180.43400		875.00000 
 43692.65567		 305.27265			43387.38302		70.13800		324.00000 
 43692.65567		 617.46705			43075.18863		180.43400		875.00000 
 43692.65567		 305.27265			43387.38302		70.13800		324.00000 
 43692.65567		 617.46705			43075.18863		180.43400		875.00000 
 43692.65567		 305.27265			43387.38302		70.13800		324.00000 
 43692.65567		 617.46705			43075.18863		180.43400		875.00000 
 43692.65567		 305.27265			43387.38302		70.13800		324.00000 
 43692.65567		 617.46705			43075.18863		180.43400		875.00000 
 43692.65567		 305.27265			43387.38302		70.13800		324.00000 
 43692.65567		 617.46705			43075.18863		180.43400		875.00000 
 43692.65567		 305.27265			43387.38302		70.13800		324.00000 
 43692.65567		 617.46705			43075.18863		180.43400		875.00000 
 43692.65567		 305.27265			43387.38302		70.13800		324.00000 
 43692.65567		 617.46705			43075.18863		180.43400		875.00000 
 43692.65567		 305.27265			43387.38302		70.13800		324.00000 
 43692.65567		 617.46705			43075.18863		180.43400		875.00000 
 43692.65567		 305.27265			43387.38302		70.13800		324.00000 
 43692.65567		 617.46705			43075.18863		180.43400		875.00000 
 43692.65567		 305.27265			43387.38302		70.13800		324.00000 
 43692.65567		 617.46705			43075.18863		180.43400		875.00000 
 43692.65567		 305.27265			43387.38302		70.13800		324.00000 
 43692.65567		 617.46705			43075.18863		180.43400		875.00000 
 43692.65567		 305.27265			43387.38302		70.13800		324.00000 
 43692.65567		 617.46705			43075.18863		180.43400		875.00000 
 43692.65567		 305.27265			43387.38302		70.13800		324.00000 
 43692.65567		 617.46705			43075.18863		180.43400		875.00000 
 43692.65567		 305.27265			43387.38302		70.13800		324.00000 
 43692.65567		 617.46705			43075.18863		180.43400		875.00000 
 43692.65567		 305.27265			43387.38302		70.13800		324.00000 
 43692.65567		 617.46705			43075.18863		180.43400		875.00000 
 43692.65567		 305.27265			43387.38302		70.13800		324.00000 
 43692.65567		 617.46705			43075.18863		180.43400		875.00000 
 43692.65567		 305.27265			43387.38302		70.13800		324.00000 
 43692.65567		 617.46705			43075.18863		180.43400		875.00000 
 43692.65567		 305.27265			43387.38302		70.13800		324.00000 
 43692.65567		 617.46705			43075.18863		180.43400		875.00000 
 43692.65567		 305.27265			43387.38302		70.13800		324.00000 
 43692.65567		 617.46705			43075.18863		180.43400		875.00000 
 43692.65567		 305.27265			43387.38302		70.13800		324.00000 
 43692.65567		 617.46705			43075.18863		180.43400		875.00000 
 43692.65567		 305.27265			43387.38302		70.13800		324.00000 
 43692.65567		 617.46705			43075.18863		180.43400		875.00000 
 43692.65567		 305.27265			43387.38302		70.13800		324.00000 
 43692.65567		 617.46705			43075.18863		180.43400		875.00000 
 43692.65567		 305.27265			43387.38302		70.13800		324.00000 
 43692.65567		 617.46705			43075.18863		180.43400		875.00000 
 43692.65567		 305.27265			43387.38302		70.13800		324.00000 
 43692.65567		 617.46705			43075.18863		180.43400		875.00000 
 43692.65567		 305.27265			43387.38302		70.13800		324.00000 
 43692.65567		 617.46705			43075.18863		180.43400		875.00000 
 43692.65567		 305.27265			43387.38302		70.13800		324.00000 
 43692.65567		 617.46705			43075.18863		180.43400		875.00000 
 43692.65567		 305.27265			43387.38302		70.13800		324.00000 
 43692.65567		 617.46705			43075.18863		180.43400		875.00000 
 43692.65567		 305.27265			43387.38302		70.13800		324.00000 
 43692.65567		 617.46705			43075.18863		180.43400		875.00000 
 43692.65567		 305.27265			43387.38302		70.13800		324.00000 
 43692.65567		 617.46705			43075.18863		180.43400		875.00000 
 43692.65567		 305.27265			43387.38302		70.13800		324.00000 
 43692.65567		 617.46705			43075.18863		180.43400		875.00000 
 43692.65567		 305.27265			43387.38302		70.13800		324.00000 
 43692.65567		 617.46705			43075.18863		180.43400		875.00000 
 43692.65567		 305.27265			43387.38302		70.13800		324.00000 
 43692.65567		 617.46705			43075.18863		180.43400		875.00000 
 43692.65567		 305.27265			43387.38302		70.13800		324.00000 
 43692.65567		 617.46705			43075.18863		180.43400		875.00000 
 43692.65567		 305.27265			43387.38302		70.13800		324.00000 
 43692.65567		 617.46705			43075.18863		180.43400		875.00000 
 43692.65567		 305.27265			43387.38302		70.13800		324.00000 
 43692.65567		 617.46705			43075.18863		180.43400		875.00000 
 43692.65567		 305.27265			43387.38302		70.13800		324.00000 
 43692.65567		 617.46705			43075.18863		180.43400		875.00000 
 43692.65567		 305.27265			43387.38302		70.13800		324.00000 
 43692.65567		 617.46705			43075.18863		180.43400		875.00000 
 43692.65567		 305.27265			43387.38302		70.13800		324.00000 
 43692.65567		 617.46705			43075.18863		180.43400		875.00000 
 43692.65567		 305.27265			43387.38302		70.13800		324.00000 
 43692.65567		 617.46705			43075.18863		180.43400		875.00000 
 43692.65567		 305.27265			43387.38302		70.13800		324.00000 
 43692.65567		 617.46705			43075.18863		180.43400		875.00000 
 43692.65567		 305.27265			43387.38302		70.13800		324.00000 
 43692.65567		 617.46705			43075.18863		180.43400		875.00000 
 43692.65567		 305.27265			43387.38302		70.13800		324.00000 
 43692.65567		 617.46705			43075.18863		180.43400		875.00000 
 43692.65567		 305.27265			43387.38302		70.13800		324.00000 
 43692.65567		 617.46705			43075.18863		180.43400		875.00000 
 43692.65567		 305.27265			43387.38302		70.13800		324.00000 
 43692.65567		 617.46705			43075.18863		180.43400		875.00000 
 43692.65567		 305.27265			43387.38302		70.13800		324.00000 
 43692.65567		 617.46705			43075.18863		205.00800		875.00000 
 43692.65567		 305.27265			43387.38302		70.13800		324.00000 
 43692.65567		 617.46705			43075.18863		205.00800		875.00000 
 43692.65567		 305.27265			43387.38302		70.13800		324.00000 
 43692.65567		 617.46705			43075.18863		205.00800		875.00000 
 43692.65567		 305.27265			43387.38302		70.13800		324.00000 
 43692.65567		 617.46705			43075.18863		205.00800		875.00000 
 43692.65567		 305.27265			43387.38302		70.13800		324.00000 
 43692.65567		 617.46705			43075.18863		205.00800		875.00000 
 43692.65567		 305.27265			43387.38302		70.13800		324.00000 
 43692.65567		 617.46705			43075.18863		205.00800		875.00000 
 43692.65567		 305.27265			43387.38302		70.13800		324.00000 
 43692.65567		 617.46705			43075.18863		205.00800		875.00000 
 43692.65567		 305.27265			43387.38302		70.13800		324.00000 
 43692.65567		 617.46705			43075.18863		205.00800		875.00000 
 43692.65567		 305.27265			43387.38302		70.13800		324.00000 
 43692.65567		 617.46705			43075.18863		205.00800		875.00000 
 43692.65567		 305.27265			43387.38302		70.13800		324.00000 
 43692.65567		 617.46705			43075.18863		205.00800		875.00000 
 43692.65567		 305.27265			43387.38302		70.13800		324.00000 
 43692.65567		 617.46705			43075.18863		205.00800		875.00000 
 43692.65567		 305.27265			43387.38302		70.13800		324.00000 
 43692.65567		 617.46705			43075.18863		205.00800		875.00000 
 43692.65567		 305.27265			43387.38302		70.13800		324.00000 
 43692.65567		 617.46705			43075.18863		205.00800		875.00000 
 43692.65567		 305.27265			43387.38302		70.13800		324.00000 
 43692.65567		 617.46705			43075.18863		205.00800		875.00000 
 43692.65567		 305.27265			43387.38302		70.13800		324.00000 
 43692.65567		 617.46705			43075.18863		205.00800		875.00000 
 43692.65567		 305.27265			43387.38302		70.13800		324.00000 
 43692.65567		 617.46705			43075.18863		205.00800		875.00000 
 43692.65567		 305.27265			43387.38302		70.13800		324.00000 
 43692.65567		 617.46705			43075.18863		205.00800		875.00000 
 43692.65567		 305.27265			43387.38302		70.13800		324.00000 
 43692.65567		 617.46705			43075.18863		205.00800		875.00000 
 43692.65567		 305.27265			43387.38302		70.13800		324.00000 
 43692.65567		 617.46705			43075.18863		205.00800		875.00000 
 43692.65567		 305.27265			43387.38302		70.13800		324.00000 
 43692.65567		 617.46705			43075.18863		205.00800		875.00000 
 43692.65567		 305.27265			43387.38302		70.13800		324.00000 
 43692.65567		 617.46705			43075.18863		205.00800		875.00000 
 43692.65567		 305.27265			43387.38302		70.13800		324.00000 
 43692.65567		 617.46705			43075.18863		205.00800		875.00000 
 43692.65567		 305.27265			43387.38302		70.13800		324.00000 
 43692.65567		 617.46705			43075.18863		205.00800		875.00000 
 43692.65567		 305.27265			43387.38302		70.13800		324.00000 
 43692.65567		 617.46705			43075.18863		205.00800		875.00000 
 43692.65567		 305.27265			43387.38302		70.13800		324.00000 
 43692.65567		 617.46705			43075.18863		205.00800		875.00000 
 43692.65567		 305.27265			43387.38302		70.13800		324.00000 
 43692.65567		 617.46705			43075.18863		205.00800		875.00000 
 43692.65567		 305.27265			43387.38302		70.13800		324.00000 
 43692.65567		 617.46705			43075.18863		205.00800		875.00000 
 43692.65567		 305.27265			43387.38302		70.13800		324.00000 
 43692.65567		 617.46705			43075.18863		205.00800		875.00000 
 43692.65567		 305.27265			43387.38302		70.13800		324.00000 
 43692.65567		 617.46705			43075.18863		205.00800		875.00000 
 43692.65567		 305.27265			43387.38302		70.13800		324.00000 
 43692.65567		 617.46705			43075.18863		205.00800		875.00000 
 43692.65567		 305.27265			43387.38302		70.13800		324.00000 
 43692.65567		 617.46705			43075.18863		205.00800		875.00000 
 43692.65567		 305.27265			43387.38302		70.13800		324.00000 
 43692.65567		 617.46705			43075.18863		205.00800		875.00000 
 43692.65567		 305.27265			43387.38302		70.13800		324.00000 
 43692.65567		 617.46705			43075.18863		205.00800		875.00000 
 43692.65567		 305.27265			43387.38302		70.13800		324.00000 
 43692.65567		 617.46705			43075.18863		205.00800		875.00000 
 43692.65567		 305.27265			43387.38302		70.13800		324.00000 
 43692.65567		 617.46705			43075.18863		205.00800		875.00000 
 43692.65567		 305.27265			43387.38302		70.13800		324.00000 
 43692.65567		 617.46705			43075.18863		205.00800		875.00000 
 43692.65567		 305.27265			43387.38302		70.13800		324.00000 
 43692.65567		 617.46705			43075.18863		205.00800		875.00000 
 43692.65567		 305.27265			43387.38302		70.13800		324.00000 
 43692.65567		 617.46705			43075.18863		205.00800		875.00000 
 43692.65567		 305.27265			43387.38302		70.13800		324.00000 
 43692.65567		 617.46705			43075.18863		205.00800		875.00000 
 43692.65567		 305.27265			43387.38302		70.13800		324.00000 
 43692.65567		 617.46705			43075.18863		205.00800		875.00000 
 43692.65567		 305.27265			43387.38302		70.13800		324.00000 
 43692.65567		 617.46705			43075.18863		205.00800		875.00000 
 43692.65567		 305.27265			43387.38302		70.13800		324.00000 
 43692.65567		 617.46705			43075.18863		205.00800		875.00000 
 43692.65567		 305.27265			43387.38302		70.13800		324.00000 
 43692.65567		 617.46705			43075.18863		205.00800		875.00000 
 43692.65567		 305.27265			43387.38302		70.13800		324.00000 
 43692.65567		 617.46705			43075.18863		205.00800		875.00000 
 43692.65567		 305.27265			43387.38302		70.13800		324.00000 
 43692.65567		 617.46705			43075.18863		205.00800		875.00000 
 43692.65567		 305.27265			43387.38302		70.13800		324.00000 
 43692.65567		 617.46705			43075.18863		205.00800		875.00000 
 43692.65567		 305.27265			43387.38302		70.13800		324.00000 
 43692.65567		 617.46705			43075.18863		205.00800		875.00000 
 43692.65567		 305.27265			43387.38302		70.13800		324.00000 
 43692.65567		 617.46705			43075.18863		205.00800		875.00000 
 43692.65567		 305.27265			43387.38302		70.13800		324.00000 
 43692.65567		 617.46705			43075.18863		205.00800		875.00000 
 43692.65567		 305.27265			43387.38302		70.13800		324.00000 
 43692.65567		 617.46705			43075.18863		205.00800		875.00000 
 43692.65567		 305.27265			43387.38302		70.13800		324.00000 
 43692.65567		 617.46705			43075.18863		205.00800		875.00000 
 43692.65567		 305.27265			43387.38302		70.13800		324.00000 
 43692.65567		 617.46705			43075.18863		205.00800		875.00000 
 43692.65567		 305.27265			43387.38302		70.13800		324.00000 
 43692.65567		 617.46705			43075.18863		205.00800		875.00000 
 43692.65567		 305.27265			43387.38302		70.13800		324.00000 
 43692.65567		 617.46705			43075.18863		205.00800		875.00000 
 43692.65567		 305.27265			43387.38302		70.13800		324.00000 
 43692.65567		 617.46705			43075.18863		205.00800		875.00000 
 43692.65567		 305.27265			43387.38302		70.13800		324.00000 
 43692.65567		 617.46705			43075.18863		205.00800		875.00000 
 43692.65567		 305.27265			43387.38302		70.13800		324.00000 
 43692.65567		 617.46705			43075.18863		205.00800		875.00000 
 43692.65567		 305.27265			43387.38302		70.13800		324.00000 
 43692.65567		 617.46705			43075.18863		205.00800		875.00000 
 43692.65567		 305.27265			43387.38302		70.13800		324.00000 
 43692.65567		 617.46705			43075.18863		205.00800		875.00000 
 43692.65567		 305.27265			43387.38302		70.13800		324.00000 
 43692.65567		 617.46705			43075.18863		205.00800		875.00000 
 43692.65567		 305.27265			43387.38302		70.13800		324.00000 
 43692.65567		 617.46705			43075.18863		205.00800		875.00000 
 43692.65567		 305.27265			43387.38302		70.13800		324.00000 
 43692.65567		 617.46705			43075.18863		205.00800		875.00000 
 43692.65567		 305.27265			43387.38302		70.13800		324.00000 
 43692.65567		 617.46705			43075.18863		205.00800		875.00000 
 43692.65567		 305.27265			43387.38302		70.13800		324.00000 
 43692.65567		 617.46705			43075.18863		205.00800		875.00000 
 43692.65567		 305.27265			43387.38302		70.13800		324.00000 
 43692.65567		 617.46705			43075.18863		213.31200		875.00000 
 43692.65567		 305.27265			43387.38302		70.13800		324.00000 
 43692.65567		 617.46705			43075.18863		213.31200		875.00000 
 43692.65567		 305.27265			43387.38302		70.13800		324.00000 
 43692.65567		 617.46705			43075.18863		213.31200		875.00000 
 43692.65567		 305.27265			43387.38302		70.13800		324.00000 
 43692.65567		 617.46705			43075.18863		213.31200		875.00000 
 43692.65567		 305.27265			43387.38302		70.13800		324.00000 
 43692.65567		 617.46705			43075.18863		213.31200		875.00000 
 43692.65567		 305.27265			43387.38302		70.13800		324.00000 
 43692.65567		 617.46705			43075.18863		213.31200		875.00000 
 43692.65567		 305.27265			43387.38302		70.13800		324.00000 
 43692.65567		 617.46705			43075.18863		213.31200		875.00000 
 43692.65567		 305.27265			43387.38302		70.13800		324.00000 
 43692.65567		 617.46705			43075.18863		213.31200		875.00000 
 43692.65567		 305.27265			43387.38302		70.13800		324.00000 
 43692.65567		 617.46705			43075.18863		213.31200		875.00000 
 43692.65567		 305.27265			43387.38302		70.13800		324.00000 
 43692.65567		 617.46705			43075.18863		213.31200		875.00000 
 43692.65567		 305.27265			43387.38302		70.13800		324.00000 
 43692.65567		 617.46705			43075.18863		213.31200		875.00000 
 43692.65567		 305.27265			43387.38302		70.13800		324.00000 
 43692.65567		 617.46705			43075.18863		213.31200		875.00000 
 43692.65567		 305.27265			43387.38302		70.13800		324.00000 
 43692.65567		 617.46705			43075.18863		213.31200		875.00000 
 43692.65567		 305.27265			43387.38302		70.13800		324.00000 
 43692.65567		 617.46705			43075.18863		213.31200		875.00000 
 43692.65567		 305.27265			43387.38302		70.13800		324.00000 
 43692.65567		 617.46705			43075.18863		213.31200		875.00000 
 43692.65567		 305.27265			43387.38302		70.13800		324.00000 
 43692.65567		 617.46705			43075.18863		213.31200		875.00000 
 43692.65567		 305.27265			43387.38302		70.13800		324.00000 
 43692.65567		 617.46705			43075.18863		213.31200		875.00000 
 43692.65567		 305.27265			43387.38302		70.13800		324.00000 
 43692.65567		 617.46705			43075.18863		213.31200		875.00000 
 43692.65567		 305.27265			43387.38302		70.13800		324.00000 
 43692.65567		 617.46705			43075.18863		213.31200		875.00000 
 43692.65567		 305.27265			43387.38302		70.13800		324.00000 
 43692.65567		 617.46705			43075.18863		213.31200		875.00000 
 43692.65567		 305.27265			43387.38302		70.13800		324.00000 
 43692.65567		 617.46705			43075.18863		213.31200		875.00000 
 43692.65567		 305.27265			43387.38302		70.13800		324.00000 
 43692.65567		 617.46705			43075.18863		213.31200		875.00000 
 43692.65567		 305.27265			43387.38302		70.13800		324.00000 
 43692.65567		 617.46705			43075.18863		213.31200		875.00000 
 43692.65567		 305.27265			43387.38302		70.13800		324.00000 
 43692.65567		 617.46705			43075.18863		213.31200		875.00000 
 43692.65567		 305.27265			43387.38302		70.13800		324.00000 
 43692.65567		 617.46705			43075.18863		213.31200		875.00000 
 43692.65567		 305.27265			43387.38302		70.13800		324.00000 
 43692.65567		 617.46705			43075.18863		213.31200		875.00000 
 43692.65567		 305.27265			43387.38302		70.13800		324.00000 
 43692.65567		 617.46705			43075.18863		213.31200		875.00000 
 43692.65567		 305.27265			43387.38302		70.13800		324.00000 
 43692.65567		 617.46705			43075.18863		213.31200		875.00000 
 43692.65567		 305.27265			43387.38302		70.13800		324.00000 
 43692.65567		 617.46705			43075.18863		213.31200		875.00000 
 43692.65567		 305.27265			43387.38302		70.13800		324.00000 
 43692.65567		 617.46705			43075.18863		213.31200		875.00000 
 43692.65567		 305.27265			43387.38302		70.13800		324.00000 
 43692.65567		 617.46705			43075.18863		213.31200		875.00000 
 43692.65567		 305.27265			43387.38302		70.13800		324.00000 
 43692.65567		 617.46705			43075.18863		213.31200		875.00000 
 43692.65567		 305.27265			43387.38302		70.13800		324.00000 
 43692.65567		 617.46705			43075.18863		213.31200		875.00000 
 43692.65567		 305.27265			43387.38302		70.13800		324.00000 
 43692.65567		 617.46705			43075.18863		213.31200		875.00000 
 43692.65567		 305.27265			43387.38302		70.13800		324.00000 
 43692.65567		 617.46705			43075.18863		213.31200		875.00000 
 43692.65567		 305.27265			43387.38302		70.13800		324.00000 
 43692.65567		 617.46705			43075.18863		213.31200		875.00000 
 43692.65567		 305.27265			43387.38302		70.13800		324.00000 
 43692.65567		 617.46705			43075.18863		213.31200		875.00000 
 43692.65567		 305.27265			43387.38302		70.13800		324.00000 
 43692.65567		 617.46705			43075.18863		213.31200		875.00000 
 43692.65567		 305.27265			43387.38302		70.13800		324.00000 
 43692.65567		 617.46705			43075.18863		213.31200		875.00000 
 43692.65567		 305.27265			43387.38302		70.13800		324.00000 
 43692.65567		 617.46705			43075.18863		213.31200		875.00000 
 43692.65567		 305.27265			43387.38302		70.13800		324.00000 
 43692.65567		 617.46705			43075.18863		213.31200		875.00000 
 43692.65567		 305.27265			43387.38302		70.13800		324.00000 
 43692.65567		 617.46705			43075.18863		213.31200		875.00000 
 43692.65567		 305.27265			43387.38302		70.13800		324.00000 
 43692.65567		 617.46705			43075.18863		213.31200		875.00000 
 43692.65567		 305.27265			43387.38302		70.13800		324.00000 
 43692.65567		 617.46705			43075.18863		213.31200		875.00000 
 43692.65567		 305.27265			43387.38302		70.13800		324.00000 
 43692.65567		 617.46705			43075.18863		213.31200		875.00000 
 43692.65567		 305.27265			43387.38302		70.13800		324.00000 
 43692.65567		 617.46705			43075.18863		213.31200		875.00000 
 43692.65567		 305.27265			43387.38302		70.13800		324.00000 
 43692.65567		 617.46705			43075.18863		213.31200		875.00000 
 43692.65567		 305.27265			43387.38302		70.13800		324.00000 
 43692.65567		 617.46705			43075.18863		213.31200		875.00000 
 43692.65567		 305.27265			43387.38302		70.13800		324.00000 
 43692.65567		 617.46705			43075.18863		213.31200		875.00000 
 43692.65567		 305.27265			43387.38302		70.13800		324.00000 
 43692.65567		 617.46705			43075.18863		213.31200		875.00000 
 43692.65567		 305.27265			43387.38302		70.13800		324.00000 
 43692.65567		 617.46705			43075.18863		213.31200		875.00000 
 43692.65567		 305.27265			43387.38302		70.13800		324.00000 
 43692.65567		 617.46705			43075.18863		213.31200		875.00000 
 43692.65567		 305.27265			43387.38302		70.13800		324.00000 
 43692.65567		 617.46705			43075.18863		213.31200		875.00000 
 43692.65567		 305.27265			43387.38302		70.13800		324.00000 
 43692.65567		 617.46705			43075.18863		213.31200		875.00000 
 43692.65567		 305.27265			43387.38302		70.13800		324.00000 
 43692.65567		 617.46705			43075.18863		213.31200		875.00000 
 43692.65567		 305.27265			43387.38302		70.13800		324.00000 
 43692.65567		 617.46705			43075.18863		213.31200		875.00000 
 43692.65567		 305.27265			43387.38302		70.13800		324.00000 
 43692.65567		 617.46705			43075.18863		213.31200		875.00000 
 43692.65567		 305.27265			43387.38302		70.13800		324.00000 
 43692.65567		 617.46705			43075.18863		213.31200		875.00000 
 43692.65567		 305.27265			43387.38302		70.13800		324.00000 
 43692.65567		 617.46705			43075.18863		213.31200		875.00000 
 43692.65567		 305.27265			43387.38302		70.13800		324.00000 
 43692.65567		 617.46705			43075.18863		213.31200		875.00000 
 43692.65567		 305.27265			43387.38302		70.13800		324.00000 
 43692.65567		 617.46705			43075.18863		213.31200		875.00000 
 43692.65567		 305.27265			43387.38302		70.13800		324.00000 
 43692.65567		 617.46705			43075.18863		213.31200		875.00000 
 43692.65567		 305.27265			43387.38302		70.13800		324.00000 
 43692.65567		 617.46705			43075.18863		213.31200		875.00000 
 43692.65567		 305.27265			43387.38302		70.13800		324.00000 
 43692.65567		 617.46705			43075.18863		213.31200		875.00000 
 43692.65567		 305.27265			43387.38302		70.13800		324.00000 
 43692.65567		 617.46705			43075.18863		213.31200		875.00000 
 43692.65567		 305.27265			43387.38302		70.13800		324.00000 
 43692.65567		 617.46705			43075.18863		216.79000		875.00000 
 43692.65567		 305.27265			43387.38302		70.13800		324.00000 
 43692.65567		 617.46705			43075.18863		216.79000		875.00000 
 43692.65567		 305.27265			43387.38302		70.13800		324.00000 
 43692.65567		 617.46705			43075.18863		216.79000		875.00000 
 43692.65567		 305.27265			43387.38302		70.13800		324.00000 
 43692.65567		 617.46705			43075.18863		216.79000		875.00000 
 43692.65567		 305.27265			43387.38302		70.13800		324.00000 
 43692.65567		 617.46705			43075.18863		216.79000		875.00000 
 43692.65567		 305.27265			43387.38302		70.13800		324.00000 
 43692.65567		 617.46705			43075.18863		216.79000		875.00000 
 43692.65567		 305.27265			43387.38302		70.13800		324.00000 
 43692.65567		 617.46705			43075.18863		216.79000		875.00000 
 43692.65567		 305.27265			43387.38302		70.13800		324.00000 
 43692.65567		 617.46705			43075.18863		216.79000		875.00000 
 43692.65567		 305.27265			43387.38302		70.13800		324.00000 
 43692.65567		 617.46705			43075.18863		216.79000		875.00000 
 43692.65567		 305.27265			43387.38302		70.13800		324.00000 
 43692.65567		 617.46705			43075.18863		216.79000		875.00000 
 43692.65567		 305.27265			43387.38302		70.13800		324.00000 
 43692.65567		 617.46705			43075.18863		216.79000		875.00000 
 43692.65567		 305.27265			43387.38302		70.13800		324.00000 
 43692.65567		 617.46705			43075.18863		216.79000		875.00000 
 43692.65567		 305.27265			43387.38302		70.13800		324.00000 
 43692.65567		 617.46705			43075.18863		216.79000		875.00000 
 43692.65567		 305.27265			43387.38302		70.13800		324.00000 
 43692.65567		 617.46705			43075.18863		216.79000		875.00000 
 43692.65567		 305.27265			43387.38302		70.13800		324.00000 
 43692.65567		 617.46705			43075.18863		216.79000		875.00000 
 43692.65567		 305.27265			43387.38302		70.13800		324.00000 
 43692.65567		 617.46705			43075.18863		216.79000		875.00000 
 43692.65567		 305.27265			43387.38302		70.13800		324.00000 
 43692.65567		 617.46705			43075.18863		216.79000		875.00000 
 43692.65567		 305.27265			43387.38302		70.13800		324.00000 
 43692.65567		 617.46705			43075.18863		216.79000		875.00000 
 43692.65567		 305.27265			43387.38302		70.13800		324.00000 
 43692.65567		 617.46705			43075.18863		216.79000		875.00000 
 43692.65567		 305.27265			43387.38302		70.13800		324.00000 
 43692.65567		 617.46705			43075.18863		216.79000		875.00000 
 43692.65567		 305.27265			43387.38302		70.13800		324.00000 
 43692.65567		 617.46705			43075.18863		216.79000		875.00000 
 43692.65567		 305.27265			43387.38302		70.13800		324.00000 
 43692.65567		 617.46705			43075.18863		216.79000		875.00000 
 43692.65567		 305.27265			43387.38302		70.13800		324.00000 
 43692.65567		 617.46705			43075.18863		216.79000		875.00000 
 43692.65567		 305.27265			43387.38302		70.13800		324.00000 
 43692.65567		 617.46705			43075.18863		216.79000		875.00000 
 43692.65567		 305.27265			43387.38302		70.13800		324.00000 
 43692.65567		 617.46705			43075.18863		216.79000		875.00000 
 43692.65567		 305.27265			43387.38302		70.13800		324.00000 
 43692.65567		 617.46705			43075.18863		216.79000		875.00000 
 43692.65567		 305.27265			43387.38302		70.13800		324.00000 
 43692.65567		 617.46705			43075.18863		216.79000		875.00000 
 43692.65567		 305.27265			43387.38302		70.13800		324.00000 
 43692.65567		 617.46705			43075.18863		216.79000		875.00000 
 43692.65567		 305.27265			43387.38302		70.13800		324.00000 
 43692.65567		 617.46705			43075.18863		216.79000		875.00000 
 43692.65567		 305.27265			43387.38302		70.13800		324.00000 
 43692.65567		 617.46705			43075.18863		216.79000		875.00000 
 43692.65567		 305.27265			43387.38302		70.13800		324.00000 
 43692.65567		 617.46705			43075.18863		216.79000		875.00000 
 43692.65567		 305.27265			43387.38302		70.13800		324.00000 
 43692.65567		 617.46705			43075.18863		216.79000		875.00000 
 43692.65567		 305.27265			43387.38302		70.13800		324.00000 
 43692.65567		 617.46705			43075.18863		216.79000		875.00000 
 43692.65567		 305.27265			43387.38302		70.13800		324.00000 
 43692.65567		 617.46705			43075.18863		216.79000		875.00000 
 43692.65567		 305.27265			43387.38302		70.13800		324.00000 
 43692.65567		 617.46705			43075.18863		216.79000		875.00000 
 43692.65567		 305.27265			43387.38302		70.13800		324.00000 
 43692.65567		 617.46705			43075.18863		216.79000		875.00000 
 43692.65567		 305.27265			43387.38302		70.13800		324.00000 
 43692.65567		 617.46705			43075.18863		216.79000		875.00000 
 43692.65567		 305.27265			43387.38302		70.13800		324.00000 
 43692.65567		 617.46705			43075.18863		216.79000		875.00000 
 43692.65567		 305.27265			43387.38302		70.13800		324.00000 
 43692.65567		 617.46705			43075.18863		216.79000		875.00000 
 43692.65567		 305.27265			43387.38302		70.13800		324.00000 
 43692.65567		 617.46705			43075.18863		216.79000		875.00000 
 43692.65567		 305.27265			43387.38302		70.13800		324.00000 
 43692.65567		 617.46705			43075.18863		216.79000		875.00000 
 43692.65567		 305.27265			43387.38302		70.13800		324.00000 
 43692.65567		 617.46705			43075.18863		216.79000		875.00000 
 43692.65567		 305.27265			43387.38302		70.13800		324.00000 
 43692.65567		 617.46705			43075.18863		216.79000		875.00000 
 43692.65567		 305.27265			43387.38302		70.13800		324.00000 
 43692.65567		 617.46705			43075.18863		216.79000		875.00000 
 43692.65567		 305.27265			43387.38302		70.13800		324.00000 
 43692.65567		 617.46705			43075.18863		216.79000		875.00000 
 43692.65567		 305.27265			43387.38302		70.13800		324.00000 
 43692.65567		 617.46705			43075.18863		216.79000		875.00000 
 43692.65567		 305.27265			43387.38302		70.13800		324.00000 
 43692.65567		 617.46705			43075.18863		216.79000		875.00000 
 43692.65567		 305.27265			43387.38302		70.13800		324.00000 
 43692.65567		 617.46705			43075.18863		216.79000		875.00000 
 43692.65567		 305.27265			43387.38302		70.13800		324.00000 
 43692.65567		 617.46705			43075.18863		216.79000		875.00000 
 43692.65567		 305.27265			43387.38302		70.13800		324.00000 
 43692.65567		 617.46705			43075.18863		216.79000		875.00000 
 43692.65567		 305.27265			43387.38302		70.13800		324.00000 
 43692.65567		 617.46705			43075.18863		216.79000		875.00000 
 43692.65567		 305.27265			43387.38302		70.13800		324.00000 
 43692.65567		 617.46705			43075.18863		216.79000		875.00000 
 43692.65567		 305.27265			43387.38302		70.13800		324.00000 
 43692.65567		 617.46705			43075.18863		216.79000		875.00000 
 43692.65567		 305.27265			43387.38302		70.13800		324.00000 
 43692.65567		 617.46705			43075.18863		216.79000		875.00000 
 43692.65567		 305.27265			43387.38302		70.13800		324.00000 
 43692.65567		 617.46705			43075.18863		216.79000		875.00000 
 43692.65567		 305.27265			43387.38302		70.13800		324.00000 
 43692.65567		 617.46705			43075.18863		216.79000		875.00000 
 43692.65567		 305.27265			43387.38302		70.13800		324.00000 
 43692.65567		 617.46705			43075.18863		216.79000		875.00000 
 43692.65567		 305.27265			43387.38302		70.13800		324.00000 
 43692.65567		 617.46705			43075.18863		216.79000		875.00000 
 43692.65567		 305.27265			43387.38302		70.13800		324.00000 
 43692.65567		 617.46705			43075.18863		216.79000		875.00000 
 43692.65567		 305.27265			43387.38302		70.13800		324.00000 
 43692.65567		 617.46705			43075.18863		216.79000		875.00000 
 43692.65567		 305.27265			43387.38302		70.13800		324.00000 
 43692.65567		 617.46705			43075.18863		216.79000		875.00000 
 43692.65567		 305.27265			43387.38302		70.13800		324.00000 
 43692.65567		 617.46705			43075.18863		216.79000		875.00000 
 43692.65567		 305.27265			43387.38302		70.13800		324.00000 
 43692.65567		 590.73481			43101.92087		216.79000		875.00000 
 43692.65567		 305.27265			43387.38302		70.13800		324.00000 
 43692.65567		 537.27032			43155.38535		216.79000		875.00000 
 43692.65567		 305.27265			43387.38302		70.13800		324.00000 
 43692.65567		 537.27032			43155.38535		213.62200		875.00000 
 43692.65567		 305.27265			43387.38302		70.13800		324.00000 
 43692.65567		 537.27032			43155.38535		213.62200		875.00000 
 43692.65567		 305.27265			43387.38302		70.13800		324.00000 
 43692.65567		 537.27032			43155.38535		213.62200		875.00000 
 43692.65567		 305.27265			43387.38302		70.13800		324.00000 
 43692.65567		 537.27032			43155.38535		213.62200		875.00000 
 43692.65567		 305.27265			43387.38302		70.13800		324.00000 
 43692.65567		 537.27032			43155.38535		213.62200		875.00000 
 43692.65567		 305.27265			43387.38302		70.13800		324.00000 
 43692.65567		 537.27032			43155.38535		213.62200		875.00000 
 43692.65567		 305.27265			43387.38302		70.13800		324.00000 
 43692.65567		 537.27032			43155.38535		213.62200		875.00000 
 43692.65567		 305.27265			43387.38302		70.13800		324.00000 
 43692.65567		 537.27032			43155.38535		213.62200		875.00000 
 43692.65567		 305.27265			43387.38302		70.13800		324.00000 
 43692.65567		 537.27032			43155.38535		213.62200		875.00000 
 43692.65567		 305.27265			43387.38302		70.13800		324.00000 
 43692.65567		 537.27032			43155.38535		213.62200		875.00000 
 43692.65567		 305.27265			43387.38302		70.13800		324.00000 
 43692.65567		 537.27032			43155.38535		213.62200		875.00000 
 43692.65567		 305.27265			43387.38302		70.13800		324.00000 
 43692.65567		 537.27032			43155.38535		213.62200		875.00000 
 43692.65567		 305.27265			43387.38302		70.13800		324.00000 
 43692.65567		 537.27032			43155.38535		213.62200		875.00000 
 43692.65567		 305.27265			43387.38302		70.13800		324.00000 
 43692.65567		 537.27032			43155.38535		213.62200		875.00000 
 43692.65567		 305.27265			43387.38302		70.13800		324.00000 
 43692.65567		 537.27032			43155.38535		213.62200		875.00000 
 43692.65567		 305.27265			43387.38302		70.13800		324.00000 
 43692.65567		 537.27032			43155.38535		213.62200		875.00000 
 43692.65567		 305.27265			43387.38302		70.13800		324.00000 
 43692.65567		 537.27032			43155.38535		213.62200		875.00000 
 43692.65567		 305.27265			43387.38302		70.13800		324.00000 
 43692.65567		 537.27032			43155.38535		213.62200		875.00000 
 43692.65567		 305.27265			43387.38302		70.13800		324.00000 
 43692.65567		 537.27032			43155.38535		213.62200		875.00000 
 43692.65567		 305.27265			43387.38302		70.13800		324.00000 
 43692.65567		 529.63254			43163.02313		213.62200		875.00000 
 43692.65567		 305.27265			43387.38302		70.13800		324.00000 
 43692.65567		 525.81365			43166.84203		213.62200		875.00000 
 43692.65567		 293.81598			43398.83969		70.13800		324.00000 
 43692.65567		 261.35540			43431.30027		213.62200		875.00000 
 43692.65567		 261.35540			43431.30027		70.13800		324.00000 
