Memory Total (MiB) 	 Memory Used (MiB) 	    Memory Free (MiB) 	 Power Drawed (W) 	 Clocks (Mhz) 	 
 43692.65567		 261.35540			43431.30027		182.31800		875.00000 
 43692.65567		 261.35540			43431.30027		68.12000		324.00000 
 43692.65567		 261.35540			43431.30027		182.31800		875.00000 
 43692.65567		 261.35540			43431.30027		68.12000		324.00000 
 43692.65567		 261.35540			43431.30027		182.31800		875.00000 
 43692.65567		 261.35540			43431.30027		68.12000		324.00000 
 43692.65567		 261.35540			43431.30027		182.31800		875.00000 
 43692.65567		 261.35540			43431.30027		68.12000		324.00000 
 43692.65567		 261.35540			43431.30027		182.31800		875.00000 
 43692.65567		 261.35540			43431.30027		68.12000		324.00000 
 43692.65567		 261.35540			43431.30027		182.31800		875.00000 
 43692.65567		 261.35540			43431.30027		68.12000		324.00000 
 43692.65567		 261.35540			43431.30027		182.31800		875.00000 
 43692.65567		 261.35540			43431.30027		68.12000		324.00000 
 43692.65567		 261.35540			43431.30027		182.31800		875.00000 
 43692.65567		 261.35540			43431.30027		68.12000		324.00000 
 43692.65567		 261.35540			43431.30027		182.31800		875.00000 
 43692.65567		 261.35540			43431.30027		68.12000		324.00000 
 43692.65567		 261.35540			43431.30027		182.31800		875.00000 
 43692.65567		 261.35540			43431.30027		68.12000		324.00000 
 43692.65567		 261.35540			43431.30027		182.31800		875.00000 
 43692.65567		 261.35540			43431.30027		68.12000		324.00000 
 43692.65567		 261.35540			43431.30027		182.31800		875.00000 
 43692.65567		 261.35540			43431.30027		68.12000		324.00000 
 43692.65567		 261.35540			43431.30027		182.31800		875.00000 
 43692.65567		 261.35540			43431.30027		68.12000		324.00000 
 43692.65567		 261.35540			43431.30027		182.31800		875.00000 
 43692.65567		 261.35540			43431.30027		68.12000		324.00000 
 43692.65567		 261.35540			43431.30027		182.31800		875.00000 
 43692.65567		 261.35540			43431.30027		68.12000		324.00000 
 43692.65567		 261.35540			43431.30027		182.31800		875.00000 
 43692.65567		 261.35540			43431.30027		68.12000		324.00000 
 43692.65567		 261.35540			43431.30027		182.31800		875.00000 
 43692.65567		 261.35540			43431.30027		68.12000		324.00000 
 43692.65567		 261.35540			43431.30027		182.31800		875.00000 
 43692.65567		 261.35540			43431.30027		68.12000		324.00000 
 43692.65567		 265.17429			43427.48138		182.31800		875.00000 
 43692.65567		 261.35540			43431.30027		68.12000		324.00000 
 43692.65567		 265.17429			43427.48138		182.31800		875.00000 
 43692.65567		 261.35540			43431.30027		68.12000		324.00000 
 43692.65567		 272.81207			43419.84360		182.31800		875.00000 
 43692.65567		 261.35540			43431.30027		68.12000		324.00000 
 43692.65567		 272.81207			43419.84360		182.31800		875.00000 
 43692.65567		 261.35540			43431.30027		68.12000		324.00000 
 43692.65567		 272.81207			43419.84360		182.31800		875.00000 
 43692.65567		 265.17429			43427.48138		68.12000		324.00000 
 43692.65567		 272.81207			43419.84360		150.59600		875.00000 
 43692.65567		 265.17429			43427.48138		68.12000		324.00000 
 43692.65567		 272.81207			43419.84360		150.59600		875.00000 
 43692.65567		 272.81207			43419.84360		68.12000		324.00000 
 43692.65567		 272.81207			43419.84360		150.59600		875.00000 
 43692.65567		 272.81207			43419.84360		68.12000		324.00000 
 43692.65567		 272.81207			43419.84360		150.59600		875.00000 
 43692.65567		 272.81207			43419.84360		68.12000		324.00000 
 43692.65567		 272.81207			43419.84360		150.59600		875.00000 
 43692.65567		 272.81207			43419.84360		68.12000		324.00000 
 43692.65567		 305.27265			43387.38302		150.59600		875.00000 
 43692.65567		 305.27265			43387.38302		68.12000		324.00000 
 43692.65567		 305.27265			43387.38302		150.59600		875.00000 
 43692.65567		 305.27265			43387.38302		68.12000		324.00000 
 43692.65567		 305.27265			43387.38302		150.59600		875.00000 
 43692.65567		 305.27265			43387.38302		68.12000		324.00000 
 43692.65567		 305.27265			43387.38302		150.59600		875.00000 
 43692.65567		 305.27265			43387.38302		68.12000		324.00000 
 43692.65567		 305.27265			43387.38302		150.59600		875.00000 
 43692.65567		 305.27265			43387.38302		68.12000		324.00000 
 43692.65567		 309.56891			43383.08677		150.59600		875.00000 
 43692.65567		 305.27265			43387.38302		68.12000		324.00000 
 43692.65567		 311.00099			43381.65468		150.59600		875.00000 
 43692.65567		 305.27265			43387.38302		68.12000		324.00000 
 43692.65567		 311.00099			43381.65468		150.59600		875.00000 
 43692.65567		 305.27265			43387.38302		68.12000		324.00000 
 43692.65567		 311.00099			43381.65468		150.59600		875.00000 
 43692.65567		 305.27265			43387.38302		68.12000		324.00000 
 43692.65567		 311.00099			43381.65468		150.59600		875.00000 
 43692.65567		 305.27265			43387.38302		68.12000		324.00000 
 43692.65567		 311.00099			43381.65468		150.59600		875.00000 
 43692.65567		 305.27265			43387.38302		68.12000		324.00000 
 43692.65567		 311.00099			43381.65468		150.59600		875.00000 
 43692.65567		 305.27265			43387.38302		68.12000		324.00000 
 43692.65567		 311.00099			43381.65468		150.59600		875.00000 
 43692.65567		 305.27265			43387.38302		68.12000		324.00000 
 43692.65567		 311.00099			43381.65468		150.59600		875.00000 
 43692.65567		 305.27265			43387.38302		68.12000		324.00000 
 43692.65567		 311.00099			43381.65468		150.59600		875.00000 
 43692.65567		 305.27265			43387.38302		68.12000		324.00000 
 43692.65567		 311.00099			43381.65468		150.59600		875.00000 
 43692.65567		 305.27265			43387.38302		68.12000		324.00000 
 43692.65567		 311.00099			43381.65468		150.59600		875.00000 
 43692.65567		 305.27265			43387.38302		68.12000		324.00000 
 43692.65567		 311.00099			43381.65468		150.59600		875.00000 
 43692.65567		 305.27265			43387.38302		68.12000		324.00000 
 43692.65567		 311.00099			43381.65468		150.59600		875.00000 
 43692.65567		 305.27265			43387.38302		68.12000		324.00000 
 43692.65567		 311.00099			43381.65468		150.59600		875.00000 
 43692.65567		 305.27265			43387.38302		68.12000		324.00000 
 43692.65567		 311.00099			43381.65468		150.59600		875.00000 
 43692.65567		 305.27265			43387.38302		68.12000		324.00000 
 43692.65567		 311.00099			43381.65468		150.59600		875.00000 
 43692.65567		 305.27265			43387.38302		68.12000		324.00000 
 43692.65567		 311.00099			43381.65468		150.59600		875.00000 
 43692.65567		 305.27265			43387.38302		68.12000		324.00000 
 43692.65567		 311.00099			43381.65468		150.59600		875.00000 
 43692.65567		 305.27265			43387.38302		68.12000		324.00000 
 43692.65567		 311.00099			43381.65468		150.59600		875.00000 
 43692.65567		 305.27265			43387.38302		68.12000		324.00000 
 43692.65567		 311.00099			43381.65468		150.59600		875.00000 
 43692.65567		 305.27265			43387.38302		68.12000		324.00000 
 43692.65567		 311.00099			43381.65468		150.59600		875.00000 
 43692.65567		 305.27265			43387.38302		68.12000		324.00000 
 43692.65567		 311.00099			43381.65468		150.59600		875.00000 
 43692.65567		 305.27265			43387.38302		68.12000		324.00000 
 43692.65567		 311.00099			43381.65468		138.16600		875.00000 
 43692.65567		 305.27265			43387.38302		68.12000		324.00000 
 43692.65567		 311.00099			43381.65468		138.16600		875.00000 
 43692.65567		 305.27265			43387.38302		68.12000		324.00000 
 43692.65567		 311.00099			43381.65468		138.16600		875.00000 
 43692.65567		 305.27265			43387.38302		68.12000		324.00000 
 43692.65567		 311.00099			43381.65468		138.16600		875.00000 
 43692.65567		 305.27265			43387.38302		68.12000		324.00000 
 43692.65567		 311.00099			43381.65468		138.16600		875.00000 
 43692.65567		 305.27265			43387.38302		68.12000		324.00000 
 43692.65567		 311.00099			43381.65468		138.16600		875.00000 
 43692.65567		 305.27265			43387.38302		68.12000		324.00000 
 43692.65567		 311.00099			43381.65468		138.16600		875.00000 
 43692.65567		 305.27265			43387.38302		68.12000		324.00000 
 43692.65567		 311.00099			43381.65468		138.16600		875.00000 
 43692.65567		 305.27265			43387.38302		68.12000		324.00000 
 43692.65567		 311.00099			43381.65468		138.16600		875.00000 
 43692.65567		 305.27265			43387.38302		68.12000		324.00000 
 43692.65567		 311.00099			43381.65468		138.16600		875.00000 
 43692.65567		 305.27265			43387.38302		68.12000		324.00000 
 43692.65567		 311.00099			43381.65468		138.16600		875.00000 
 43692.65567		 305.27265			43387.38302		68.12000		324.00000 
 43692.65567		 311.00099			43381.65468		138.16600		875.00000 
 43692.65567		 305.27265			43387.38302		68.12000		324.00000 
 43692.65567		 311.00099			43381.65468		138.16600		875.00000 
 43692.65567		 305.27265			43387.38302		68.12000		324.00000 
 43692.65567		 311.00099			43381.65468		138.16600		875.00000 
 43692.65567		 305.27265			43387.38302		68.12000		324.00000 
 43692.65567		 311.00099			43381.65468		138.16600		875.00000 
 43692.65567		 305.27265			43387.38302		68.12000		324.00000 
 43692.65567		 311.00099			43381.65468		138.16600		875.00000 
 43692.65567		 305.27265			43387.38302		68.12000		324.00000 
 43692.65567		 311.00099			43381.65468		138.16600		875.00000 
 43692.65567		 305.27265			43387.38302		68.12000		324.00000 
 43692.65567		 311.00099			43381.65468		138.16600		875.00000 
 43692.65567		 305.27265			43387.38302		68.12000		324.00000 
 43692.65567		 311.00099			43381.65468		138.16600		875.00000 
 43692.65567		 305.27265			43387.38302		68.12000		324.00000 
 43692.65567		 311.00099			43381.65468		138.16600		875.00000 
 43692.65567		 305.27265			43387.38302		68.12000		324.00000 
 43692.65567		 311.00099			43381.65468		138.16600		875.00000 
 43692.65567		 305.27265			43387.38302		68.12000		324.00000 
 43692.65567		 311.00099			43381.65468		138.16600		875.00000 
 43692.65567		 305.27265			43387.38302		68.12000		324.00000 
 43692.65567		 311.00099			43381.65468		138.16600		875.00000 
 43692.65567		 305.27265			43387.38302		68.12000		324.00000 
 43692.65567		 311.00099			43381.65468		138.16600		875.00000 
 43692.65567		 305.27265			43387.38302		68.12000		324.00000 
 43692.65567		 311.00099			43381.65468		138.16600		875.00000 
 43692.65567		 305.27265			43387.38302		68.12000		324.00000 
 43692.65567		 311.00099			43381.65468		138.16600		875.00000 
 43692.65567		 305.27265			43387.38302		68.12000		324.00000 
 43692.65567		 311.00099			43381.65468		138.16600		875.00000 
 43692.65567		 305.27265			43387.38302		68.12000		324.00000 
 43692.65567		 311.00099			43381.65468		138.16600		875.00000 
 43692.65567		 305.27265			43387.38302		68.12000		324.00000 
 43692.65567		 311.00099			43381.65468		138.16600		875.00000 
 43692.65567		 305.27265			43387.38302		68.12000		324.00000 
 43692.65567		 314.81988			43377.83579		138.16600		875.00000 
 43692.65567		 305.27265			43387.38302		65.61600		324.00000 
 43692.65567		 314.81988			43377.83579		138.16600		875.00000 
 43692.65567		 305.27265			43387.38302		65.61600		324.00000 
 43692.65567		 314.81988			43377.83579		133.07800		875.00000 
 43692.65567		 305.27265			43387.38302		65.61600		324.00000 
 43692.65567		 318.63877			43374.01690		133.07800		875.00000 
 43692.65567		 305.27265			43387.38302		65.61600		324.00000 
 43692.65567		 322.45767			43370.19801		133.07800		875.00000 
 43692.65567		 305.27265			43387.38302		65.61600		324.00000 
 43692.65567		 326.27656			43366.37912		133.07800		875.00000 
 43692.65567		 305.27265			43387.38302		65.61600		324.00000 
 43692.65567		 326.27656			43366.37912		133.07800		875.00000 
 43692.65567		 305.27265			43387.38302		65.61600		324.00000 
 43692.65567		 326.27656			43366.37912		133.07800		875.00000 
 43692.65567		 305.27265			43387.38302		65.61600		324.00000 
 43692.65567		 537.27032			43155.38535		133.07800		875.00000 
 43692.65567		 305.27265			43387.38302		65.61600		324.00000 
 43692.65567		 580.23285			43112.42282		133.07800		875.00000 
 43692.65567		 305.27265			43387.38302		65.61600		324.00000 
 43692.65567		 601.71412			43090.94155		133.07800		875.00000 
 43692.65567		 305.27265			43387.38302		65.61600		324.00000 
 43692.65567		 601.71412			43090.94155		133.07800		875.00000 
 43692.65567		 305.27265			43387.38302		65.61600		324.00000 
 43692.65567		 601.71412			43090.94155		133.07800		875.00000 
 43692.65567		 305.27265			43387.38302		65.61600		324.00000 
 43692.65567		 601.71412			43090.94155		133.07800		875.00000 
 43692.65567		 305.27265			43387.38302		65.61600		324.00000 
 43692.65567		 601.71412			43090.94155		133.07800		875.00000 
 43692.65567		 305.27265			43387.38302		65.61600		324.00000 
 43692.65567		 601.71412			43090.94155		133.07800		875.00000 
 43692.65567		 305.27265			43387.38302		65.61600		324.00000 
 43692.65567		 601.71412			43090.94155		133.07800		875.00000 
 43692.65567		 305.27265			43387.38302		65.61600		324.00000 
 43692.65567		 601.71412			43090.94155		133.07800		875.00000 
 43692.65567		 305.27265			43387.38302		65.61600		324.00000 
 43692.65567		 601.71412			43090.94155		133.07800		875.00000 
 43692.65567		 305.27265			43387.38302		65.61600		324.00000 
 43692.65567		 601.71412			43090.94155		133.07800		875.00000 
 43692.65567		 305.27265			43387.38302		65.61600		324.00000 
 43692.65567		 601.71412			43090.94155		133.07800		875.00000 
 43692.65567		 305.27265			43387.38302		65.61600		324.00000 
 43692.65567		 601.71412			43090.94155		133.07800		875.00000 
 43692.65567		 305.27265			43387.38302		65.61600		324.00000 
 43692.65567		 601.71412			43090.94155		133.07800		875.00000 
 43692.65567		 305.27265			43387.38302		65.61600		324.00000 
 43692.65567		 601.71412			43090.94155		133.07800		875.00000 
 43692.65567		 305.27265			43387.38302		65.61600		324.00000 
 43692.65567		 601.71412			43090.94155		133.07800		875.00000 
 43692.65567		 305.27265			43387.38302		65.61600		324.00000 
 43692.65567		 601.71412			43090.94155		133.07800		875.00000 
 43692.65567		 305.27265			43387.38302		65.61600		324.00000 
 43692.65567		 601.71412			43090.94155		133.07800		875.00000 
 43692.65567		 305.27265			43387.38302		65.61600		324.00000 
 43692.65567		 601.71412			43090.94155		133.07800		875.00000 
 43692.65567		 305.27265			43387.38302		65.61600		324.00000 
 43692.65567		 601.71412			43090.94155		133.07800		875.00000 
 43692.65567		 305.27265			43387.38302		65.61600		324.00000 
 43692.65567		 601.71412			43090.94155		133.07800		875.00000 
 43692.65567		 305.27265			43387.38302		65.61600		324.00000 
 43692.65567		 601.71412			43090.94155		133.07800		875.00000 
 43692.65567		 305.27265			43387.38302		65.61600		324.00000 
 43692.65567		 601.71412			43090.94155		133.07800		875.00000 
 43692.65567		 305.27265			43387.38302		65.61600		324.00000 
 43692.65567		 601.71412			43090.94155		133.07800		875.00000 
 43692.65567		 305.27265			43387.38302		65.61600		324.00000 
 43692.65567		 601.71412			43090.94155		133.07800		875.00000 
 43692.65567		 305.27265			43387.38302		65.61600		324.00000 
 43692.65567		 601.71412			43090.94155		133.07800		875.00000 
 43692.65567		 305.27265			43387.38302		65.61600		324.00000 
 43692.65567		 601.71412			43090.94155		133.07800		875.00000 
 43692.65567		 305.27265			43387.38302		65.61600		324.00000 
 43692.65567		 601.71412			43090.94155		133.07800		875.00000 
 43692.65567		 305.27265			43387.38302		65.61600		324.00000 
 43692.65567		 601.71412			43090.94155		133.07800		875.00000 
 43692.65567		 305.27265			43387.38302		65.61600		324.00000 
 43692.65567		 601.71412			43090.94155		133.07800		875.00000 
 43692.65567		 305.27265			43387.38302		65.61600		324.00000 
 43692.65567		 601.71412			43090.94155		133.07800		875.00000 
 43692.65567		 305.27265			43387.38302		65.61600		324.00000 
 43692.65567		 601.71412			43090.94155		133.07800		875.00000 
 43692.65567		 305.27265			43387.38302		65.61600		324.00000 
 43692.65567		 601.71412			43090.94155		133.07800		875.00000 
 43692.65567		 305.27265			43387.38302		65.61600		324.00000 
 43692.65567		 601.71412			43090.94155		133.07800		875.00000 
 43692.65567		 305.27265			43387.38302		65.61600		324.00000 
 43692.65567		 601.71412			43090.94155		133.07800		875.00000 
 43692.65567		 305.27265			43387.38302		65.61600		324.00000 
 43692.65567		 601.71412			43090.94155		133.07800		875.00000 
 43692.65567		 305.27265			43387.38302		65.61600		324.00000 
 43692.65567		 601.71412			43090.94155		133.07800		875.00000 
 43692.65567		 305.27265			43387.38302		65.61600		324.00000 
 43692.65567		 601.71412			43090.94155		133.07800		875.00000 
 43692.65567		 305.27265			43387.38302		65.61600		324.00000 
 43692.65567		 601.71412			43090.94155		133.07800		875.00000 
 43692.65567		 305.27265			43387.38302		65.61600		324.00000 
 43692.65567		 601.71412			43090.94155		133.07800		875.00000 
 43692.65567		 305.27265			43387.38302		65.61600		324.00000 
 43692.65567		 601.71412			43090.94155		133.07800		875.00000 
 43692.65567		 305.27265			43387.38302		65.61600		324.00000 
 43692.65567		 601.71412			43090.94155		133.07800		875.00000 
 43692.65567		 305.27265			43387.38302		65.61600		324.00000 
 43692.65567		 601.71412			43090.94155		133.07800		875.00000 
 43692.65567		 305.27265			43387.38302		65.61600		324.00000 
 43692.65567		 601.71412			43090.94155		133.07800		875.00000 
 43692.65567		 305.27265			43387.38302		65.61600		324.00000 
 43692.65567		 601.71412			43090.94155		133.07800		875.00000 
 43692.65567		 305.27265			43387.38302		65.61600		324.00000 
 43692.65567		 601.71412			43090.94155		133.07800		875.00000 
 43692.65567		 305.27265			43387.38302		65.61600		324.00000 
 43692.65567		 601.71412			43090.94155		133.07800		875.00000 
 43692.65567		 305.27265			43387.38302		65.61600		324.00000 
 43692.65567		 601.71412			43090.94155		133.07800		875.00000 
 43692.65567		 305.27265			43387.38302		65.61600		324.00000 
 43692.65567		 601.71412			43090.94155		133.07800		875.00000 
 43692.65567		 305.27265			43387.38302		65.61600		324.00000 
 43692.65567		 601.71412			43090.94155		133.07800		875.00000 
 43692.65567		 305.27265			43387.38302		65.61600		324.00000 
 43692.65567		 601.71412			43090.94155		133.07800		875.00000 
 43692.65567		 305.27265			43387.38302		65.61600		324.00000 
 43692.65567		 601.71412			43090.94155		133.07800		875.00000 
 43692.65567		 305.27265			43387.38302		65.61600		324.00000 
 43692.65567		 601.71412			43090.94155		133.07800		875.00000 
 43692.65567		 305.27265			43387.38302		65.61600		324.00000 
 43692.65567		 601.71412			43090.94155		133.07800		875.00000 
 43692.65567		 305.27265			43387.38302		65.61600		324.00000 
 43692.65567		 601.71412			43090.94155		180.31400		875.00000 
 43692.65567		 305.27265			43387.38302		65.61600		324.00000 
 43692.65567		 601.71412			43090.94155		180.31400		875.00000 
 43692.65567		 305.27265			43387.38302		65.61600		324.00000 
 43692.65567		 601.71412			43090.94155		180.31400		875.00000 
 43692.65567		 305.27265			43387.38302		65.61600		324.00000 
 43692.65567		 601.71412			43090.94155		180.31400		875.00000 
 43692.65567		 305.27265			43387.38302		65.61600		324.00000 
 43692.65567		 601.71412			43090.94155		180.31400		875.00000 
 43692.65567		 305.27265			43387.38302		65.61600		324.00000 
 43692.65567		 601.71412			43090.94155		180.31400		875.00000 
 43692.65567		 305.27265			43387.38302		65.61600		324.00000 
 43692.65567		 601.71412			43090.94155		180.31400		875.00000 
 43692.65567		 305.27265			43387.38302		65.61600		324.00000 
 43692.65567		 601.71412			43090.94155		180.31400		875.00000 
 43692.65567		 305.27265			43387.38302		65.61600		324.00000 
 43692.65567		 601.71412			43090.94155		180.31400		875.00000 
 43692.65567		 305.27265			43387.38302		65.61600		324.00000 
 43692.65567		 601.71412			43090.94155		180.31400		875.00000 
 43692.65567		 305.27265			43387.38302		65.61600		324.00000 
 43692.65567		 601.71412			43090.94155		180.31400		875.00000 
 43692.65567		 305.27265			43387.38302		65.61600		324.00000 
 43692.65567		 601.71412			43090.94155		180.31400		875.00000 
 43692.65567		 305.27265			43387.38302		65.61600		324.00000 
 43692.65567		 601.71412			43090.94155		180.31400		875.00000 
 43692.65567		 305.27265			43387.38302		65.61600		324.00000 
 43692.65567		 601.71412			43090.94155		180.31400		875.00000 
 43692.65567		 305.27265			43387.38302		65.61600		324.00000 
 43692.65567		 601.71412			43090.94155		180.31400		875.00000 
 43692.65567		 305.27265			43387.38302		65.61600		324.00000 
 43692.65567		 601.71412			43090.94155		180.31400		875.00000 
 43692.65567		 305.27265			43387.38302		65.61600		324.00000 
 43692.65567		 601.71412			43090.94155		180.31400		875.00000 
 43692.65567		 305.27265			43387.38302		65.61600		324.00000 
 43692.65567		 601.71412			43090.94155		180.31400		875.00000 
 43692.65567		 305.27265			43387.38302		65.61600		324.00000 
 43692.65567		 601.71412			43090.94155		180.31400		875.00000 
 43692.65567		 305.27265			43387.38302		65.61600		324.00000 
 43692.65567		 601.71412			43090.94155		180.31400		875.00000 
 43692.65567		 305.27265			43387.38302		65.61600		324.00000 
 43692.65567		 601.71412			43090.94155		180.31400		875.00000 
 43692.65567		 305.27265			43387.38302		65.61600		324.00000 
 43692.65567		 601.71412			43090.94155		180.31400		875.00000 
 43692.65567		 305.27265			43387.38302		65.61600		324.00000 
 43692.65567		 601.71412			43090.94155		180.31400		875.00000 
 43692.65567		 305.27265			43387.38302		65.61600		324.00000 
 43692.65567		 601.71412			43090.94155		180.31400		875.00000 
 43692.65567		 305.27265			43387.38302		65.61600		324.00000 
 43692.65567		 601.71412			43090.94155		180.31400		875.00000 
 43692.65567		 305.27265			43387.38302		65.61600		324.00000 
 43692.65567		 601.71412			43090.94155		180.31400		875.00000 
 43692.65567		 305.27265			43387.38302		65.61600		324.00000 
 43692.65567		 601.71412			43090.94155		180.31400		875.00000 
 43692.65567		 305.27265			43387.38302		65.61600		324.00000 
 43692.65567		 601.71412			43090.94155		180.31400		875.00000 
 43692.65567		 305.27265			43387.38302		65.61600		324.00000 
 43692.65567		 601.71412			43090.94155		180.31400		875.00000 
 43692.65567		 305.27265			43387.38302		65.61600		324.00000 
 43692.65567		 601.71412			43090.94155		180.31400		875.00000 
 43692.65567		 305.27265			43387.38302		65.61600		324.00000 
 43692.65567		 601.71412			43090.94155		180.31400		875.00000 
 43692.65567		 305.27265			43387.38302		65.61600		324.00000 
 43692.65567		 601.71412			43090.94155		180.31400		875.00000 
 43692.65567		 305.27265			43387.38302		65.61600		324.00000 
 43692.65567		 601.71412			43090.94155		180.31400		875.00000 
 43692.65567		 305.27265			43387.38302		65.61600		324.00000 
 43692.65567		 601.71412			43090.94155		180.31400		875.00000 
 43692.65567		 305.27265			43387.38302		65.61600		324.00000 
 43692.65567		 601.71412			43090.94155		180.31400		875.00000 
 43692.65567		 305.27265			43387.38302		65.61600		324.00000 
 43692.65567		 601.71412			43090.94155		180.31400		875.00000 
 43692.65567		 305.27265			43387.38302		65.61600		324.00000 
 43692.65567		 601.71412			43090.94155		180.31400		875.00000 
 43692.65567		 305.27265			43387.38302		65.61600		324.00000 
 43692.65567		 601.71412			43090.94155		180.31400		875.00000 
 43692.65567		 305.27265			43387.38302		65.61600		324.00000 
 43692.65567		 601.71412			43090.94155		180.31400		875.00000 
 43692.65567		 305.27265			43387.38302		65.61600		324.00000 
 43692.65567		 601.71412			43090.94155		180.31400		875.00000 
 43692.65567		 305.27265			43387.38302		65.61600		324.00000 
 43692.65567		 601.71412			43090.94155		180.31400		875.00000 
 43692.65567		 305.27265			43387.38302		65.61600		324.00000 
 43692.65567		 601.71412			43090.94155		180.31400		875.00000 
 43692.65567		 305.27265			43387.38302		65.61600		324.00000 
 43692.65567		 601.71412			43090.94155		180.31400		875.00000 
 43692.65567		 305.27265			43387.38302		65.61600		324.00000 
 43692.65567		 601.71412			43090.94155		180.31400		875.00000 
 43692.65567		 305.27265			43387.38302		65.61600		324.00000 
 43692.65567		 601.71412			43090.94155		180.31400		875.00000 
 43692.65567		 305.27265			43387.38302		65.61600		324.00000 
 43692.65567		 601.71412			43090.94155		180.31400		875.00000 
 43692.65567		 305.27265			43387.38302		65.61600		324.00000 
 43692.65567		 601.71412			43090.94155		180.31400		875.00000 
 43692.65567		 305.27265			43387.38302		65.61600		324.00000 
 43692.65567		 601.71412			43090.94155		180.31400		875.00000 
 43692.65567		 305.27265			43387.38302		65.61600		324.00000 
 43692.65567		 601.71412			43090.94155		180.31400		875.00000 
 43692.65567		 305.27265			43387.38302		65.61600		324.00000 
 43692.65567		 601.71412			43090.94155		180.31400		875.00000 
 43692.65567		 305.27265			43387.38302		65.61600		324.00000 
 43692.65567		 601.71412			43090.94155		180.31400		875.00000 
 43692.65567		 305.27265			43387.38302		65.61600		324.00000 
 43692.65567		 601.71412			43090.94155		180.31400		875.00000 
 43692.65567		 305.27265			43387.38302		65.61600		324.00000 
 43692.65567		 601.71412			43090.94155		180.31400		875.00000 
 43692.65567		 305.27265			43387.38302		65.61600		324.00000 
 43692.65567		 601.71412			43090.94155		180.31400		875.00000 
 43692.65567		 305.27265			43387.38302		65.61600		324.00000 
 43692.65567		 601.71412			43090.94155		180.31400		875.00000 
 43692.65567		 305.27265			43387.38302		65.61600		324.00000 
 43692.65567		 601.71412			43090.94155		180.31400		875.00000 
 43692.65567		 305.27265			43387.38302		65.61600		324.00000 
 43692.65567		 601.71412			43090.94155		180.31400		875.00000 
 43692.65567		 305.27265			43387.38302		65.61600		324.00000 
 43692.65567		 601.71412			43090.94155		180.31400		875.00000 
 43692.65567		 305.27265			43387.38302		65.61600		324.00000 
 43692.65567		 601.71412			43090.94155		180.31400		875.00000 
 43692.65567		 305.27265			43387.38302		65.61600		324.00000 
 43692.65567		 601.71412			43090.94155		180.31400		875.00000 
 43692.65567		 305.27265			43387.38302		65.61600		324.00000 
 43692.65567		 601.71412			43090.94155		180.31400		875.00000 
 43692.65567		 305.27265			43387.38302		65.61600		324.00000 
 43692.65567		 601.71412			43090.94155		180.31400		875.00000 
 43692.65567		 305.27265			43387.38302		65.61600		324.00000 
 43692.65567		 601.71412			43090.94155		180.31400		875.00000 
 43692.65567		 305.27265			43387.38302		65.61600		324.00000 
 43692.65567		 601.71412			43090.94155		180.31400		875.00000 
 43692.65567		 305.27265			43387.38302		65.61600		324.00000 
 43692.65567		 601.71412			43090.94155		204.77000		875.00000 
 43692.65567		 305.27265			43387.38302		65.61600		324.00000 
 43692.65567		 601.71412			43090.94155		204.77000		875.00000 
 43692.65567		 305.27265			43387.38302		65.61600		324.00000 
 43692.65567		 601.71412			43090.94155		204.77000		875.00000 
 43692.65567		 305.27265			43387.38302		65.61600		324.00000 
 43692.65567		 601.71412			43090.94155		204.77000		875.00000 
 43692.65567		 305.27265			43387.38302		65.61600		324.00000 
 43692.65567		 601.71412			43090.94155		204.77000		875.00000 
 43692.65567		 305.27265			43387.38302		65.61600		324.00000 
 43692.65567		 601.71412			43090.94155		204.77000		875.00000 
 43692.65567		 305.27265			43387.38302		65.61600		324.00000 
 43692.65567		 601.71412			43090.94155		204.77000		875.00000 
 43692.65567		 305.27265			43387.38302		65.61600		324.00000 
 43692.65567		 601.71412			43090.94155		204.77000		875.00000 
 43692.65567		 305.27265			43387.38302		65.61600		324.00000 
 43692.65567		 601.71412			43090.94155		204.77000		875.00000 
 43692.65567		 305.27265			43387.38302		65.61600		324.00000 
 43692.65567		 601.71412			43090.94155		204.77000		875.00000 
 43692.65567		 305.27265			43387.38302		65.61600		324.00000 
 43692.65567		 601.71412			43090.94155		204.77000		875.00000 
 43692.65567		 305.27265			43387.38302		65.61600		324.00000 
 43692.65567		 601.71412			43090.94155		204.77000		875.00000 
 43692.65567		 305.27265			43387.38302		65.61600		324.00000 
 43692.65567		 601.71412			43090.94155		204.77000		875.00000 
 43692.65567		 305.27265			43387.38302		65.61600		324.00000 
 43692.65567		 601.71412			43090.94155		204.77000		875.00000 
 43692.65567		 305.27265			43387.38302		65.61600		324.00000 
 43692.65567		 601.71412			43090.94155		204.77000		875.00000 
 43692.65567		 305.27265			43387.38302		65.61600		324.00000 
 43692.65567		 601.71412			43090.94155		204.77000		875.00000 
 43692.65567		 305.27265			43387.38302		65.61600		324.00000 
 43692.65567		 601.71412			43090.94155		204.77000		875.00000 
 43692.65567		 305.27265			43387.38302		65.61600		324.00000 
 43692.65567		 601.71412			43090.94155		204.77000		875.00000 
 43692.65567		 305.27265			43387.38302		65.61600		324.00000 
 43692.65567		 601.71412			43090.94155		204.77000		875.00000 
 43692.65567		 305.27265			43387.38302		65.61600		324.00000 
 43692.65567		 601.71412			43090.94155		204.77000		875.00000 
 43692.65567		 305.27265			43387.38302		65.61600		324.00000 
 43692.65567		 601.71412			43090.94155		204.77000		875.00000 
 43692.65567		 305.27265			43387.38302		65.61600		324.00000 
 43692.65567		 601.71412			43090.94155		204.77000		875.00000 
 43692.65567		 305.27265			43387.38302		65.61600		324.00000 
 43692.65567		 601.71412			43090.94155		204.77000		875.00000 
 43692.65567		 305.27265			43387.38302		65.61600		324.00000 
 43692.65567		 601.71412			43090.94155		204.77000		875.00000 
 43692.65567		 305.27265			43387.38302		65.61600		324.00000 
 43692.65567		 601.71412			43090.94155		204.77000		875.00000 
 43692.65567		 305.27265			43387.38302		65.61600		324.00000 
 43692.65567		 601.71412			43090.94155		204.77000		875.00000 
 43692.65567		 305.27265			43387.38302		65.61600		324.00000 
 43692.65567		 601.71412			43090.94155		204.77000		875.00000 
 43692.65567		 305.27265			43387.38302		65.61600		324.00000 
 43692.65567		 601.71412			43090.94155		204.77000		875.00000 
 43692.65567		 305.27265			43387.38302		65.61600		324.00000 
 43692.65567		 601.71412			43090.94155		204.77000		875.00000 
 43692.65567		 305.27265			43387.38302		65.61600		324.00000 
 43692.65567		 601.71412			43090.94155		204.77000		875.00000 
 43692.65567		 305.27265			43387.38302		65.61600		324.00000 
 43692.65567		 601.71412			43090.94155		204.77000		875.00000 
 43692.65567		 305.27265			43387.38302		65.61600		324.00000 
 43692.65567		 601.71412			43090.94155		204.77000		875.00000 
 43692.65567		 305.27265			43387.38302		65.61600		324.00000 
 43692.65567		 601.71412			43090.94155		204.77000		875.00000 
 43692.65567		 305.27265			43387.38302		65.61600		324.00000 
 43692.65567		 601.71412			43090.94155		204.77000		875.00000 
 43692.65567		 305.27265			43387.38302		65.61600		324.00000 
 43692.65567		 601.71412			43090.94155		204.77000		875.00000 
 43692.65567		 305.27265			43387.38302		65.61600		324.00000 
 43692.65567		 601.71412			43090.94155		204.77000		875.00000 
 43692.65567		 305.27265			43387.38302		65.61600		324.00000 
 43692.65567		 601.71412			43090.94155		204.77000		875.00000 
 43692.65567		 305.27265			43387.38302		65.61600		324.00000 
 43692.65567		 601.71412			43090.94155		204.77000		875.00000 
 43692.65567		 305.27265			43387.38302		65.61600		324.00000 
 43692.65567		 601.71412			43090.94155		204.77000		875.00000 
 43692.65567		 305.27265			43387.38302		65.61600		324.00000 
 43692.65567		 601.71412			43090.94155		204.77000		875.00000 
 43692.65567		 305.27265			43387.38302		65.61600		324.00000 
 43692.65567		 601.71412			43090.94155		204.77000		875.00000 
 43692.65567		 305.27265			43387.38302		65.61600		324.00000 
 43692.65567		 601.71412			43090.94155		204.77000		875.00000 
 43692.65567		 305.27265			43387.38302		65.61600		324.00000 
 43692.65567		 601.71412			43090.94155		204.77000		875.00000 
 43692.65567		 305.27265			43387.38302		65.61600		324.00000 
 43692.65567		 601.71412			43090.94155		204.77000		875.00000 
 43692.65567		 305.27265			43387.38302		65.61600		324.00000 
 43692.65567		 601.71412			43090.94155		204.77000		875.00000 
 43692.65567		 305.27265			43387.38302		65.61600		324.00000 
 43692.65567		 601.71412			43090.94155		204.77000		875.00000 
 43692.65567		 305.27265			43387.38302		65.61600		324.00000 
 43692.65567		 601.71412			43090.94155		204.77000		875.00000 
 43692.65567		 305.27265			43387.38302		65.61600		324.00000 
 43692.65567		 601.71412			43090.94155		204.77000		875.00000 
 43692.65567		 305.27265			43387.38302		65.61600		324.00000 
 43692.65567		 601.71412			43090.94155		204.77000		875.00000 
 43692.65567		 305.27265			43387.38302		65.61600		324.00000 
 43692.65567		 601.71412			43090.94155		204.77000		875.00000 
 43692.65567		 305.27265			43387.38302		65.61600		324.00000 
 43692.65567		 601.71412			43090.94155		204.77000		875.00000 
 43692.65567		 305.27265			43387.38302		65.61600		324.00000 
 43692.65567		 601.71412			43090.94155		204.77000		875.00000 
 43692.65567		 305.27265			43387.38302		65.61600		324.00000 
 43692.65567		 601.71412			43090.94155		204.77000		875.00000 
 43692.65567		 305.27265			43387.38302		65.61600		324.00000 
 43692.65567		 601.71412			43090.94155		204.77000		875.00000 
 43692.65567		 305.27265			43387.38302		65.61600		324.00000 
 43692.65567		 601.71412			43090.94155		204.77000		875.00000 
 43692.65567		 305.27265			43387.38302		65.61600		324.00000 
 43692.65567		 601.71412			43090.94155		204.77000		875.00000 
 43692.65567		 305.27265			43387.38302		65.61600		324.00000 
 43692.65567		 601.71412			43090.94155		204.77000		875.00000 
 43692.65567		 305.27265			43387.38302		65.61600		324.00000 
 43692.65567		 601.71412			43090.94155		204.77000		875.00000 
 43692.65567		 305.27265			43387.38302		65.61600		324.00000 
 43692.65567		 601.71412			43090.94155		204.77000		875.00000 
 43692.65567		 305.27265			43387.38302		65.61600		324.00000 
 43692.65567		 601.71412			43090.94155		204.77000		875.00000 
 43692.65567		 305.27265			43387.38302		65.61600		324.00000 
 43692.65567		 601.71412			43090.94155		204.77000		875.00000 
 43692.65567		 305.27265			43387.38302		65.61600		324.00000 
 43692.65567		 601.71412			43090.94155		204.77000		875.00000 
 43692.65567		 305.27265			43387.38302		65.61600		324.00000 
 43692.65567		 601.71412			43090.94155		204.77000		875.00000 
 43692.65567		 305.27265			43387.38302		65.61600		324.00000 
 43692.65567		 601.71412			43090.94155		213.55200		875.00000 
 43692.65567		 305.27265			43387.38302		65.61600		324.00000 
 43692.65567		 601.71412			43090.94155		213.55200		875.00000 
 43692.65567		 305.27265			43387.38302		65.61600		324.00000 
 43692.65567		 601.71412			43090.94155		213.55200		875.00000 
 43692.65567		 305.27265			43387.38302		65.61600		324.00000 
 43692.65567		 601.71412			43090.94155		213.55200		875.00000 
 43692.65567		 305.27265			43387.38302		65.61600		324.00000 
 43692.65567		 601.71412			43090.94155		213.55200		875.00000 
 43692.65567		 305.27265			43387.38302		65.61600		324.00000 
 43692.65567		 601.71412			43090.94155		213.55200		875.00000 
 43692.65567		 305.27265			43387.38302		65.61600		324.00000 
 43692.65567		 601.71412			43090.94155		213.55200		875.00000 
 43692.65567		 305.27265			43387.38302		65.61600		324.00000 
 43692.65567		 601.71412			43090.94155		213.55200		875.00000 
 43692.65567		 305.27265			43387.38302		65.61600		324.00000 
 43692.65567		 601.71412			43090.94155		213.55200		875.00000 
 43692.65567		 305.27265			43387.38302		65.61600		324.00000 
 43692.65567		 601.71412			43090.94155		213.55200		875.00000 
 43692.65567		 305.27265			43387.38302		65.61600		324.00000 
 43692.65567		 601.71412			43090.94155		213.55200		875.00000 
 43692.65567		 305.27265			43387.38302		65.61600		324.00000 
 43692.65567		 601.71412			43090.94155		213.55200		875.00000 
 43692.65567		 305.27265			43387.38302		65.61600		324.00000 
 43692.65567		 601.71412			43090.94155		213.55200		875.00000 
 43692.65567		 305.27265			43387.38302		65.61600		324.00000 
 43692.65567		 601.71412			43090.94155		213.55200		875.00000 
 43692.65567		 305.27265			43387.38302		65.61600		324.00000 
 43692.65567		 601.71412			43090.94155		213.55200		875.00000 
 43692.65567		 305.27265			43387.38302		65.61600		324.00000 
 43692.65567		 601.71412			43090.94155		213.55200		875.00000 
 43692.65567		 305.27265			43387.38302		65.61600		324.00000 
 43692.65567		 601.71412			43090.94155		213.55200		875.00000 
 43692.65567		 305.27265			43387.38302		65.61600		324.00000 
 43692.65567		 601.71412			43090.94155		213.55200		875.00000 
 43692.65567		 305.27265			43387.38302		65.61600		324.00000 
 43692.65567		 601.71412			43090.94155		213.55200		875.00000 
 43692.65567		 305.27265			43387.38302		65.61600		324.00000 
 43692.65567		 601.71412			43090.94155		213.55200		875.00000 
 43692.65567		 305.27265			43387.38302		65.61600		324.00000 
 43692.65567		 601.71412			43090.94155		213.55200		875.00000 
 43692.65567		 305.27265			43387.38302		65.61600		324.00000 
 43692.65567		 601.71412			43090.94155		213.55200		875.00000 
 43692.65567		 305.27265			43387.38302		65.61600		324.00000 
 43692.65567		 601.71412			43090.94155		213.55200		875.00000 
 43692.65567		 305.27265			43387.38302		65.61600		324.00000 
 43692.65567		 601.71412			43090.94155		213.55200		875.00000 
 43692.65567		 305.27265			43387.38302		65.61600		324.00000 
 43692.65567		 601.71412			43090.94155		213.55200		875.00000 
 43692.65567		 305.27265			43387.38302		65.61600		324.00000 
 43692.65567		 601.71412			43090.94155		213.55200		875.00000 
 43692.65567		 305.27265			43387.38302		65.61600		324.00000 
 43692.65567		 601.71412			43090.94155		213.55200		875.00000 
 43692.65567		 305.27265			43387.38302		65.61600		324.00000 
 43692.65567		 601.71412			43090.94155		213.55200		875.00000 
 43692.65567		 305.27265			43387.38302		65.61600		324.00000 
 43692.65567		 601.71412			43090.94155		213.55200		875.00000 
 43692.65567		 305.27265			43387.38302		65.61600		324.00000 
 43692.65567		 601.71412			43090.94155		213.55200		875.00000 
 43692.65567		 305.27265			43387.38302		65.61600		324.00000 
 43692.65567		 601.71412			43090.94155		213.55200		875.00000 
 43692.65567		 305.27265			43387.38302		65.61600		324.00000 
 43692.65567		 601.71412			43090.94155		213.55200		875.00000 
 43692.65567		 305.27265			43387.38302		65.61600		324.00000 
 43692.65567		 601.71412			43090.94155		213.55200		875.00000 
 43692.65567		 305.27265			43387.38302		65.61600		324.00000 
 43692.65567		 601.71412			43090.94155		213.55200		875.00000 
 43692.65567		 305.27265			43387.38302		65.61600		324.00000 
 43692.65567		 601.71412			43090.94155		213.55200		875.00000 
 43692.65567		 305.27265			43387.38302		65.61600		324.00000 
 43692.65567		 601.71412			43090.94155		213.55200		875.00000 
 43692.65567		 305.27265			43387.38302		65.61600		324.00000 
 43692.65567		 601.71412			43090.94155		213.55200		875.00000 
 43692.65567		 305.27265			43387.38302		65.61600		324.00000 
 43692.65567		 601.71412			43090.94155		213.55200		875.00000 
 43692.65567		 305.27265			43387.38302		65.61600		324.00000 
 43692.65567		 601.71412			43090.94155		213.55200		875.00000 
 43692.65567		 305.27265			43387.38302		65.61600		324.00000 
 43692.65567		 601.71412			43090.94155		213.55200		875.00000 
 43692.65567		 305.27265			43387.38302		65.61600		324.00000 
 43692.65567		 601.71412			43090.94155		213.55200		875.00000 
 43692.65567		 305.27265			43387.38302		65.61600		324.00000 
 43692.65567		 601.71412			43090.94155		213.55200		875.00000 
 43692.65567		 305.27265			43387.38302		65.61600		324.00000 
 43692.65567		 601.71412			43090.94155		213.55200		875.00000 
 43692.65567		 305.27265			43387.38302		65.61600		324.00000 
 43692.65567		 601.71412			43090.94155		213.55200		875.00000 
 43692.65567		 305.27265			43387.38302		65.61600		324.00000 
 43692.65567		 601.71412			43090.94155		213.55200		875.00000 
 43692.65567		 305.27265			43387.38302		65.61600		324.00000 
 43692.65567		 601.71412			43090.94155		213.55200		875.00000 
 43692.65567		 305.27265			43387.38302		65.61600		324.00000 
 43692.65567		 601.71412			43090.94155		213.55200		875.00000 
 43692.65567		 305.27265			43387.38302		65.61600		324.00000 
 43692.65567		 601.71412			43090.94155		213.55200		875.00000 
 43692.65567		 305.27265			43387.38302		65.61600		324.00000 
 43692.65567		 601.71412			43090.94155		213.55200		875.00000 
 43692.65567		 305.27265			43387.38302		65.61600		324.00000 
 43692.65567		 601.71412			43090.94155		213.55200		875.00000 
 43692.65567		 305.27265			43387.38302		65.61600		324.00000 
 43692.65567		 601.71412			43090.94155		213.55200		875.00000 
 43692.65567		 305.27265			43387.38302		65.61600		324.00000 
 43692.65567		 601.71412			43090.94155		213.55200		875.00000 
 43692.65567		 305.27265			43387.38302		65.61600		324.00000 
 43692.65567		 601.71412			43090.94155		213.55200		875.00000 
 43692.65567		 305.27265			43387.38302		65.61600		324.00000 
 43692.65567		 601.71412			43090.94155		213.55200		875.00000 
 43692.65567		 305.27265			43387.38302		65.61600		324.00000 
 43692.65567		 601.71412			43090.94155		213.55200		875.00000 
 43692.65567		 305.27265			43387.38302		65.61600		324.00000 
 43692.65567		 601.71412			43090.94155		213.55200		875.00000 
 43692.65567		 305.27265			43387.38302		65.61600		324.00000 
 43692.65567		 601.71412			43090.94155		213.55200		875.00000 
 43692.65567		 305.27265			43387.38302		65.61600		324.00000 
 43692.65567		 601.71412			43090.94155		213.55200		875.00000 
 43692.65567		 305.27265			43387.38302		65.61600		324.00000 
 43692.65567		 601.71412			43090.94155		213.55200		875.00000 
 43692.65567		 305.27265			43387.38302		65.61600		324.00000 
 43692.65567		 601.71412			43090.94155		213.55200		875.00000 
 43692.65567		 305.27265			43387.38302		65.61600		324.00000 
 43692.65567		 601.71412			43090.94155		213.55200		875.00000 
 43692.65567		 305.27265			43387.38302		65.61600		324.00000 
 43692.65567		 601.71412			43090.94155		213.55200		875.00000 
 43692.65567		 305.27265			43387.38302		65.61600		324.00000 
 43692.65567		 601.71412			43090.94155		213.55200		875.00000 
 43692.65567		 305.27265			43387.38302		65.61600		324.00000 
 43692.65567		 601.71412			43090.94155		213.55200		875.00000 
 43692.65567		 305.27265			43387.38302		65.61600		324.00000 
 43692.65567		 601.71412			43090.94155		213.55200		875.00000 
 43692.65567		 305.27265			43387.38302		65.61600		324.00000 
 43692.65567		 601.71412			43090.94155		217.50800		875.00000 
 43692.65567		 305.27265			43387.38302		65.61600		324.00000 
 43692.65567		 537.27032			43155.38535		217.50800		875.00000 
 43692.65567		 305.27265			43387.38302		65.61600		324.00000 
 43692.65567		 537.27032			43155.38535		217.50800		875.00000 
 43692.65567		 305.27265			43387.38302		65.61600		324.00000 
 43692.65567		 537.27032			43155.38535		217.50800		875.00000 
 43692.65567		 305.27265			43387.38302		65.61600		324.00000 
 43692.65567		 537.27032			43155.38535		217.50800		875.00000 
 43692.65567		 305.27265			43387.38302		65.61600		324.00000 
 43692.65567		 537.27032			43155.38535		217.50800		875.00000 
 43692.65567		 305.27265			43387.38302		65.61600		324.00000 
 43692.65567		 537.27032			43155.38535		217.50800		875.00000 
 43692.65567		 305.27265			43387.38302		65.61600		324.00000 
 43692.65567		 537.27032			43155.38535		217.50800		875.00000 
 43692.65567		 305.27265			43387.38302		65.61600		324.00000 
 43692.65567		 537.27032			43155.38535		217.50800		875.00000 
 43692.65567		 305.27265			43387.38302		65.61600		324.00000 
 43692.65567		 537.27032			43155.38535		217.50800		875.00000 
 43692.65567		 305.27265			43387.38302		65.61600		324.00000 
 43692.65567		 537.27032			43155.38535		217.50800		875.00000 
 43692.65567		 305.27265			43387.38302		65.61600		324.00000 
 43692.65567		 537.27032			43155.38535		217.50800		875.00000 
 43692.65567		 305.27265			43387.38302		65.61600		324.00000 
 43692.65567		 537.27032			43155.38535		217.50800		875.00000 
 43692.65567		 305.27265			43387.38302		65.61600		324.00000 
 43692.65567		 537.27032			43155.38535		217.50800		875.00000 
 43692.65567		 305.27265			43387.38302		65.61600		324.00000 
 43692.65567		 537.27032			43155.38535		217.50800		875.00000 
 43692.65567		 305.27265			43387.38302		65.61600		324.00000 
 43692.65567		 537.27032			43155.38535		217.50800		875.00000 
 43692.65567		 305.27265			43387.38302		65.61600		324.00000 
 43692.65567		 537.27032			43155.38535		217.50800		875.00000 
 43692.65567		 305.27265			43387.38302		65.61600		324.00000 
 43692.65567		 537.27032			43155.38535		217.50800		875.00000 
 43692.65567		 305.27265			43387.38302		65.61600		324.00000 
 43692.65567		 537.27032			43155.38535		217.50800		875.00000 
 43692.65567		 305.27265			43387.38302		65.61600		324.00000 
 43692.65567		 537.27032			43155.38535		217.50800		875.00000 
 43692.65567		 305.27265			43387.38302		65.61600		324.00000 
 43692.65567		 537.27032			43155.38535		217.50800		875.00000 
 43692.65567		 305.27265			43387.38302		65.61600		324.00000 
 43692.65567		 529.63254			43163.02313		217.50800		875.00000 
 43692.65567		 305.27265			43387.38302		65.61600		324.00000 
 43692.65567		 525.81365			43166.84203		217.50800		875.00000 
 43692.65567		 305.27265			43387.38302		65.61600		324.00000 
 43692.65567		 525.81365			43166.84203		217.50800		875.00000 
 43692.65567		 261.35540			43431.30027		65.61600		324.00000 
