Memory Total (MiB) 	 Memory Used (MiB) 	    Memory Free (MiB) 	 Power Drawed (W) 	 Clocks (Mhz) 	 
 43692.65567		 261.35540			43431.30027		179.12400		875.00000 
 43692.65567		 261.35540			43431.30027		69.64400		324.00000 
 43692.65567		 261.35540			43431.30027		179.12400		875.00000 
 43692.65567		 261.35540			43431.30027		69.64400		324.00000 
 43692.65567		 261.35540			43431.30027		179.12400		875.00000 
 43692.65567		 261.35540			43431.30027		69.64400		324.00000 
 43692.65567		 261.35540			43431.30027		179.12400		875.00000 
 43692.65567		 261.35540			43431.30027		69.64400		324.00000 
 43692.65567		 261.35540			43431.30027		179.12400		875.00000 
 43692.65567		 261.35540			43431.30027		69.64400		324.00000 
 43692.65567		 261.35540			43431.30027		179.12400		875.00000 
 43692.65567		 261.35540			43431.30027		69.64400		324.00000 
 43692.65567		 261.35540			43431.30027		179.12400		875.00000 
 43692.65567		 261.35540			43431.30027		69.64400		324.00000 
 43692.65567		 261.35540			43431.30027		179.12400		875.00000 
 43692.65567		 261.35540			43431.30027		69.64400		324.00000 
 43692.65567		 261.35540			43431.30027		179.12400		875.00000 
 43692.65567		 261.35540			43431.30027		69.64400		324.00000 
 43692.65567		 261.35540			43431.30027		179.12400		875.00000 
 43692.65567		 261.35540			43431.30027		69.64400		324.00000 
 43692.65567		 261.35540			43431.30027		179.12400		875.00000 
 43692.65567		 261.35540			43431.30027		69.64400		324.00000 
 43692.65567		 261.35540			43431.30027		179.12400		875.00000 
 43692.65567		 261.35540			43431.30027		69.64400		324.00000 
 43692.65567		 261.35540			43431.30027		179.12400		875.00000 
 43692.65567		 261.35540			43431.30027		69.64400		324.00000 
 43692.65567		 261.35540			43431.30027		179.12400		875.00000 
 43692.65567		 261.35540			43431.30027		69.64400		324.00000 
 43692.65567		 261.35540			43431.30027		149.66000		875.00000 
 43692.65567		 261.35540			43431.30027		69.64400		324.00000 
 43692.65567		 261.35540			43431.30027		149.66000		875.00000 
 43692.65567		 261.35540			43431.30027		69.64400		324.00000 
 43692.65567		 261.35540			43431.30027		149.66000		875.00000 
 43692.65567		 261.35540			43431.30027		69.64400		324.00000 
 43692.65567		 261.35540			43431.30027		149.66000		875.00000 
 43692.65567		 261.35540			43431.30027		69.64400		324.00000 
 43692.65567		 265.17429			43427.48138		149.66000		875.00000 
 43692.65567		 261.35540			43431.30027		69.64400		324.00000 
 43692.65567		 265.17429			43427.48138		149.66000		875.00000 
 43692.65567		 261.35540			43431.30027		69.64400		324.00000 
 43692.65567		 272.81207			43419.84360		149.66000		875.00000 
 43692.65567		 261.35540			43431.30027		69.64400		324.00000 
 43692.65567		 272.81207			43419.84360		149.66000		875.00000 
 43692.65567		 261.35540			43431.30027		69.64400		324.00000 
 43692.65567		 272.81207			43419.84360		149.66000		875.00000 
 43692.65567		 265.17429			43427.48138		69.64400		324.00000 
 43692.65567		 272.81207			43419.84360		149.66000		875.00000 
 43692.65567		 265.17429			43427.48138		69.64400		324.00000 
 43692.65567		 272.81207			43419.84360		149.66000		875.00000 
 43692.65567		 265.17429			43427.48138		69.64400		324.00000 
 43692.65567		 272.81207			43419.84360		149.66000		875.00000 
 43692.65567		 272.81207			43419.84360		69.64400		324.00000 
 43692.65567		 272.81207			43419.84360		149.66000		875.00000 
 43692.65567		 272.81207			43419.84360		69.64400		324.00000 
 43692.65567		 272.81207			43419.84360		149.66000		875.00000 
 43692.65567		 272.81207			43419.84360		69.64400		324.00000 
 43692.65567		 305.27265			43387.38302		149.66000		875.00000 
 43692.65567		 305.27265			43387.38302		69.64400		324.00000 
 43692.65567		 305.27265			43387.38302		149.66000		875.00000 
 43692.65567		 305.27265			43387.38302		69.64400		324.00000 
 43692.65567		 305.27265			43387.38302		149.66000		875.00000 
 43692.65567		 305.27265			43387.38302		69.64400		324.00000 
 43692.65567		 305.27265			43387.38302		149.66000		875.00000 
 43692.65567		 305.27265			43387.38302		69.64400		324.00000 
 43692.65567		 305.27265			43387.38302		149.66000		875.00000 
 43692.65567		 305.27265			43387.38302		69.64400		324.00000 
 43692.65567		 309.56891			43383.08677		149.66000		875.00000 
 43692.65567		 305.27265			43387.38302		69.64400		324.00000 
 43692.65567		 311.00099			43381.65468		149.66000		875.00000 
 43692.65567		 305.27265			43387.38302		69.64400		324.00000 
 43692.65567		 311.00099			43381.65468		149.66000		875.00000 
 43692.65567		 305.27265			43387.38302		69.64400		324.00000 
 43692.65567		 311.00099			43381.65468		149.66000		875.00000 
 43692.65567		 305.27265			43387.38302		69.64400		324.00000 
 43692.65567		 311.00099			43381.65468		149.66000		875.00000 
 43692.65567		 305.27265			43387.38302		69.64400		324.00000 
 43692.65567		 311.00099			43381.65468		149.66000		875.00000 
 43692.65567		 305.27265			43387.38302		69.64400		324.00000 
 43692.65567		 311.00099			43381.65468		149.66000		875.00000 
 43692.65567		 305.27265			43387.38302		69.64400		324.00000 
 43692.65567		 311.00099			43381.65468		149.66000		875.00000 
 43692.65567		 305.27265			43387.38302		69.64400		324.00000 
 43692.65567		 311.00099			43381.65468		149.66000		875.00000 
 43692.65567		 305.27265			43387.38302		69.64400		324.00000 
 43692.65567		 311.00099			43381.65468		149.66000		875.00000 
 43692.65567		 305.27265			43387.38302		69.64400		324.00000 
 43692.65567		 311.00099			43381.65468		149.66000		875.00000 
 43692.65567		 305.27265			43387.38302		69.64400		324.00000 
 43692.65567		 311.00099			43381.65468		149.66000		875.00000 
 43692.65567		 305.27265			43387.38302		69.64400		324.00000 
 43692.65567		 311.00099			43381.65468		138.68600		875.00000 
 43692.65567		 305.27265			43387.38302		69.64400		324.00000 
 43692.65567		 311.00099			43381.65468		138.68600		875.00000 
 43692.65567		 305.27265			43387.38302		69.64400		324.00000 
 43692.65567		 311.00099			43381.65468		138.68600		875.00000 
 43692.65567		 305.27265			43387.38302		69.64400		324.00000 
 43692.65567		 311.00099			43381.65468		138.68600		875.00000 
 43692.65567		 305.27265			43387.38302		69.64400		324.00000 
 43692.65567		 311.00099			43381.65468		138.68600		875.00000 
 43692.65567		 305.27265			43387.38302		69.64400		324.00000 
 43692.65567		 311.00099			43381.65468		138.68600		875.00000 
 43692.65567		 305.27265			43387.38302		69.64400		324.00000 
 43692.65567		 311.00099			43381.65468		138.68600		875.00000 
 43692.65567		 305.27265			43387.38302		69.64400		324.00000 
 43692.65567		 311.00099			43381.65468		138.68600		875.00000 
 43692.65567		 305.27265			43387.38302		69.64400		324.00000 
 43692.65567		 311.00099			43381.65468		138.68600		875.00000 
 43692.65567		 305.27265			43387.38302		69.64400		324.00000 
 43692.65567		 311.00099			43381.65468		138.68600		875.00000 
 43692.65567		 305.27265			43387.38302		69.64400		324.00000 
 43692.65567		 311.00099			43381.65468		138.68600		875.00000 
 43692.65567		 305.27265			43387.38302		69.64400		324.00000 
 43692.65567		 311.00099			43381.65468		138.68600		875.00000 
 43692.65567		 305.27265			43387.38302		69.64400		324.00000 
 43692.65567		 311.00099			43381.65468		138.68600		875.00000 
 43692.65567		 305.27265			43387.38302		69.64400		324.00000 
 43692.65567		 311.00099			43381.65468		138.68600		875.00000 
 43692.65567		 305.27265			43387.38302		69.64400		324.00000 
 43692.65567		 311.00099			43381.65468		138.68600		875.00000 
 43692.65567		 305.27265			43387.38302		69.64400		324.00000 
 43692.65567		 311.00099			43381.65468		138.68600		875.00000 
 43692.65567		 305.27265			43387.38302		69.64400		324.00000 
 43692.65567		 311.00099			43381.65468		138.68600		875.00000 
 43692.65567		 305.27265			43387.38302		69.64400		324.00000 
 43692.65567		 311.00099			43381.65468		138.68600		875.00000 
 43692.65567		 305.27265			43387.38302		69.64400		324.00000 
 43692.65567		 311.00099			43381.65468		138.68600		875.00000 
 43692.65567		 305.27265			43387.38302		69.64400		324.00000 
 43692.65567		 311.00099			43381.65468		138.68600		875.00000 
 43692.65567		 305.27265			43387.38302		69.64400		324.00000 
 43692.65567		 311.00099			43381.65468		138.68600		875.00000 
 43692.65567		 305.27265			43387.38302		69.64400		324.00000 
 43692.65567		 311.00099			43381.65468		138.68600		875.00000 
 43692.65567		 305.27265			43387.38302		69.64400		324.00000 
 43692.65567		 311.00099			43381.65468		138.68600		875.00000 
 43692.65567		 305.27265			43387.38302		69.64400		324.00000 
 43692.65567		 311.00099			43381.65468		138.68600		875.00000 
 43692.65567		 305.27265			43387.38302		69.64400		324.00000 
 43692.65567		 311.00099			43381.65468		138.68600		875.00000 
 43692.65567		 305.27265			43387.38302		69.64400		324.00000 
 43692.65567		 311.00099			43381.65468		138.68600		875.00000 
 43692.65567		 305.27265			43387.38302		69.64400		324.00000 
 43692.65567		 311.00099			43381.65468		138.68600		875.00000 
 43692.65567		 305.27265			43387.38302		69.64400		324.00000 
 43692.65567		 311.00099			43381.65468		138.68600		875.00000 
 43692.65567		 305.27265			43387.38302		69.64400		324.00000 
 43692.65567		 311.00099			43381.65468		138.68600		875.00000 
 43692.65567		 305.27265			43387.38302		69.64400		324.00000 
 43692.65567		 311.00099			43381.65468		138.68600		875.00000 
 43692.65567		 305.27265			43387.38302		69.64400		324.00000 
 43692.65567		 311.00099			43381.65468		138.68600		875.00000 
 43692.65567		 305.27265			43387.38302		69.64400		324.00000 
 43692.65567		 311.00099			43381.65468		135.12400		875.00000 
 43692.65567		 305.27265			43387.38302		69.64400		324.00000 
 43692.65567		 311.00099			43381.65468		135.12400		875.00000 
 43692.65567		 305.27265			43387.38302		69.64400		324.00000 
 43692.65567		 311.00099			43381.65468		135.12400		875.00000 
 43692.65567		 305.27265			43387.38302		69.64400		324.00000 
 43692.65567		 311.00099			43381.65468		135.12400		875.00000 
 43692.65567		 305.27265			43387.38302		69.64400		324.00000 
 43692.65567		 311.00099			43381.65468		135.12400		875.00000 
 43692.65567		 305.27265			43387.38302		69.64400		324.00000 
 43692.65567		 311.00099			43381.65468		135.12400		875.00000 
 43692.65567		 305.27265			43387.38302		69.64400		324.00000 
 43692.65567		 311.00099			43381.65468		135.12400		875.00000 
 43692.65567		 305.27265			43387.38302		69.64400		324.00000 
 43692.65567		 311.00099			43381.65468		135.12400		875.00000 
 43692.65567		 305.27265			43387.38302		69.64400		324.00000 
 43692.65567		 311.00099			43381.65468		135.12400		875.00000 
 43692.65567		 305.27265			43387.38302		69.64400		324.00000 
 43692.65567		 311.00099			43381.65468		135.12400		875.00000 
 43692.65567		 305.27265			43387.38302		69.64400		324.00000 
 43692.65567		 314.81988			43377.83579		135.12400		875.00000 
 43692.65567		 305.27265			43387.38302		69.64400		324.00000 
 43692.65567		 314.81988			43377.83579		135.12400		875.00000 
 43692.65567		 305.27265			43387.38302		69.64400		324.00000 
 43692.65567		 314.81988			43377.83579		135.12400		875.00000 
 43692.65567		 305.27265			43387.38302		69.64400		324.00000 
 43692.65567		 318.63877			43374.01690		135.12400		875.00000 
 43692.65567		 305.27265			43387.38302		69.64400		324.00000 
 43692.65567		 322.45767			43370.19801		135.12400		875.00000 
 43692.65567		 305.27265			43387.38302		69.64400		324.00000 
 43692.65567		 326.27656			43366.37912		135.12400		875.00000 
 43692.65567		 305.27265			43387.38302		69.64400		324.00000 
 43692.65567		 326.27656			43366.37912		135.12400		875.00000 
 43692.65567		 305.27265			43387.38302		69.64400		324.00000 
 43692.65567		 326.27656			43366.37912		135.12400		875.00000 
 43692.65567		 305.27265			43387.38302		69.64400		324.00000 
 43692.65567		 537.27032			43155.38535		135.12400		875.00000 
 43692.65567		 305.27265			43387.38302		69.64400		324.00000 
 43692.65567		 819.86831			42872.78737		135.12400		875.00000 
 43692.65567		 305.27265			43387.38302		69.64400		324.00000 
 43692.65567		 961.16730			42731.48837		135.12400		875.00000 
 43692.65567		 305.27265			43387.38302		69.64400		324.00000 
 43692.65567		 961.16730			42731.48837		135.12400		875.00000 
 43692.65567		 305.27265			43387.38302		69.64400		324.00000 
 43692.65567		 961.16730			42731.48837		135.12400		875.00000 
 43692.65567		 305.27265			43387.38302		69.64400		324.00000 
 43692.65567		 961.16730			42731.48837		135.12400		875.00000 
 43692.65567		 305.27265			43387.38302		69.64400		324.00000 
 43692.65567		 961.16730			42731.48837		135.12400		875.00000 
 43692.65567		 305.27265			43387.38302		69.64400		324.00000 
 43692.65567		 961.16730			42731.48837		135.12400		875.00000 
 43692.65567		 305.27265			43387.38302		69.64400		324.00000 
 43692.65567		 961.16730			42731.48837		135.12400		875.00000 
 43692.65567		 305.27265			43387.38302		69.64400		324.00000 
 43692.65567		 961.16730			42731.48837		135.12400		875.00000 
 43692.65567		 305.27265			43387.38302		69.64400		324.00000 
 43692.65567		 961.16730			42731.48837		135.12400		875.00000 
 43692.65567		 305.27265			43387.38302		69.64400		324.00000 
 43692.65567		 961.16730			42731.48837		135.12400		875.00000 
 43692.65567		 305.27265			43387.38302		69.64400		324.00000 
 43692.65567		 961.16730			42731.48837		135.12400		875.00000 
 43692.65567		 305.27265			43387.38302		69.64400		324.00000 
 43692.65567		 961.16730			42731.48837		135.12400		875.00000 
 43692.65567		 305.27265			43387.38302		69.64400		324.00000 
 43692.65567		 961.16730			42731.48837		135.12400		875.00000 
 43692.65567		 305.27265			43387.38302		69.64400		324.00000 
 43692.65567		 961.16730			42731.48837		135.12400		875.00000 
 43692.65567		 305.27265			43387.38302		69.64400		324.00000 
 43692.65567		 961.16730			42731.48837		135.12400		875.00000 
 43692.65567		 305.27265			43387.38302		69.64400		324.00000 
 43692.65567		 961.16730			42731.48837		135.12400		875.00000 
 43692.65567		 305.27265			43387.38302		69.64400		324.00000 
 43692.65567		 961.16730			42731.48837		135.12400		875.00000 
 43692.65567		 305.27265			43387.38302		69.64400		324.00000 
 43692.65567		 961.16730			42731.48837		135.12400		875.00000 
 43692.65567		 305.27265			43387.38302		69.64400		324.00000 
 43692.65567		 961.16730			42731.48837		135.12400		875.00000 
 43692.65567		 305.27265			43387.38302		69.64400		324.00000 
 43692.65567		 961.16730			42731.48837		135.12400		875.00000 
 43692.65567		 305.27265			43387.38302		69.64400		324.00000 
 43692.65567		 961.16730			42731.48837		135.12400		875.00000 
 43692.65567		 305.27265			43387.38302		69.64400		324.00000 
 43692.65567		 961.16730			42731.48837		135.12400		875.00000 
 43692.65567		 305.27265			43387.38302		69.64400		324.00000 
 43692.65567		 961.16730			42731.48837		135.12400		875.00000 
 43692.65567		 305.27265			43387.38302		69.64400		324.00000 
 43692.65567		 961.16730			42731.48837		135.12400		875.00000 
 43692.65567		 305.27265			43387.38302		69.64400		324.00000 
 43692.65567		 961.16730			42731.48837		135.12400		875.00000 
 43692.65567		 305.27265			43387.38302		69.64400		324.00000 
 43692.65567		 961.16730			42731.48837		135.12400		875.00000 
 43692.65567		 305.27265			43387.38302		69.64400		324.00000 
 43692.65567		 961.16730			42731.48837		135.12400		875.00000 
 43692.65567		 305.27265			43387.38302		69.64400		324.00000 
 43692.65567		 961.16730			42731.48837		135.12400		875.00000 
 43692.65567		 305.27265			43387.38302		69.64400		324.00000 
 43692.65567		 961.16730			42731.48837		167.39600		875.00000 
 43692.65567		 305.27265			43387.38302		69.64400		324.00000 
 43692.65567		 961.16730			42731.48837		167.39600		875.00000 
 43692.65567		 305.27265			43387.38302		69.64400		324.00000 
 43692.65567		 961.16730			42731.48837		167.39600		875.00000 
 43692.65567		 305.27265			43387.38302		69.64400		324.00000 
 43692.65567		 961.16730			42731.48837		167.39600		875.00000 
 43692.65567		 305.27265			43387.38302		69.64400		324.00000 
 43692.65567		 961.16730			42731.48837		167.39600		875.00000 
 43692.65567		 305.27265			43387.38302		69.64400		324.00000 
 43692.65567		 961.16730			42731.48837		167.39600		875.00000 
 43692.65567		 305.27265			43387.38302		69.64400		324.00000 
 43692.65567		 961.16730			42731.48837		167.39600		875.00000 
 43692.65567		 305.27265			43387.38302		69.64400		324.00000 
 43692.65567		 961.16730			42731.48837		167.39600		875.00000 
 43692.65567		 305.27265			43387.38302		69.64400		324.00000 
 43692.65567		 961.16730			42731.48837		167.39600		875.00000 
 43692.65567		 305.27265			43387.38302		69.64400		324.00000 
 43692.65567		 961.16730			42731.48837		167.39600		875.00000 
 43692.65567		 305.27265			43387.38302		69.64400		324.00000 
 43692.65567		 961.16730			42731.48837		167.39600		875.00000 
 43692.65567		 305.27265			43387.38302		69.64400		324.00000 
 43692.65567		 961.16730			42731.48837		167.39600		875.00000 
 43692.65567		 305.27265			43387.38302		69.64400		324.00000 
 43692.65567		 961.16730			42731.48837		167.39600		875.00000 
 43692.65567		 305.27265			43387.38302		69.64400		324.00000 
 43692.65567		 961.16730			42731.48837		167.39600		875.00000 
 43692.65567		 305.27265			43387.38302		69.64400		324.00000 
 43692.65567		 961.16730			42731.48837		167.39600		875.00000 
 43692.65567		 305.27265			43387.38302		69.64400		324.00000 
 43692.65567		 961.16730			42731.48837		167.39600		875.00000 
 43692.65567		 305.27265			43387.38302		69.64400		324.00000 
 43692.65567		 961.16730			42731.48837		167.39600		875.00000 
 43692.65567		 305.27265			43387.38302		69.64400		324.00000 
 43692.65567		 961.16730			42731.48837		167.39600		875.00000 
 43692.65567		 305.27265			43387.38302		69.64400		324.00000 
 43692.65567		 961.16730			42731.48837		167.39600		875.00000 
 43692.65567		 305.27265			43387.38302		69.64400		324.00000 
 43692.65567		 961.16730			42731.48837		167.39600		875.00000 
 43692.65567		 305.27265			43387.38302		69.64400		324.00000 
 43692.65567		 961.16730			42731.48837		167.39600		875.00000 
 43692.65567		 305.27265			43387.38302		69.64400		324.00000 
 43692.65567		 961.16730			42731.48837		167.39600		875.00000 
 43692.65567		 305.27265			43387.38302		69.64400		324.00000 
 43692.65567		 961.16730			42731.48837		167.39600		875.00000 
 43692.65567		 305.27265			43387.38302		69.64400		324.00000 
 43692.65567		 961.16730			42731.48837		167.39600		875.00000 
 43692.65567		 305.27265			43387.38302		69.64400		324.00000 
 43692.65567		 961.16730			42731.48837		167.39600		875.00000 
 43692.65567		 305.27265			43387.38302		69.64400		324.00000 
 43692.65567		 961.16730			42731.48837		167.39600		875.00000 
 43692.65567		 305.27265			43387.38302		69.64400		324.00000 
 43692.65567		 961.16730			42731.48837		167.39600		875.00000 
 43692.65567		 305.27265			43387.38302		69.64400		324.00000 
 43692.65567		 961.16730			42731.48837		167.39600		875.00000 
 43692.65567		 305.27265			43387.38302		69.64400		324.00000 
 43692.65567		 961.16730			42731.48837		167.39600		875.00000 
 43692.65567		 305.27265			43387.38302		69.64400		324.00000 
 43692.65567		 961.16730			42731.48837		167.39600		875.00000 
 43692.65567		 305.27265			43387.38302		69.64400		324.00000 
 43692.65567		 961.16730			42731.48837		167.39600		875.00000 
 43692.65567		 305.27265			43387.38302		69.64400		324.00000 
 43692.65567		 961.16730			42731.48837		167.39600		875.00000 
 43692.65567		 305.27265			43387.38302		69.64400		324.00000 
 43692.65567		 961.16730			42731.48837		167.39600		875.00000 
 43692.65567		 305.27265			43387.38302		69.64400		324.00000 
 43692.65567		 961.16730			42731.48837		167.39600		875.00000 
 43692.65567		 305.27265			43387.38302		69.64400		324.00000 
 43692.65567		 961.16730			42731.48837		167.39600		875.00000 
 43692.65567		 305.27265			43387.38302		69.64400		324.00000 
 43692.65567		 961.16730			42731.48837		167.39600		875.00000 
 43692.65567		 305.27265			43387.38302		69.64400		324.00000 
 43692.65567		 961.16730			42731.48837		167.39600		875.00000 
 43692.65567		 305.27265			43387.38302		69.64400		324.00000 
 43692.65567		 961.16730			42731.48837		167.39600		875.00000 
 43692.65567		 305.27265			43387.38302		69.64400		324.00000 
 43692.65567		 961.16730			42731.48837		167.39600		875.00000 
 43692.65567		 305.27265			43387.38302		69.64400		324.00000 
 43692.65567		 961.16730			42731.48837		167.39600		875.00000 
 43692.65567		 305.27265			43387.38302		69.64400		324.00000 
 43692.65567		 961.16730			42731.48837		167.39600		875.00000 
 43692.65567		 305.27265			43387.38302		69.64400		324.00000 
 43692.65567		 961.16730			42731.48837		167.39600		875.00000 
 43692.65567		 305.27265			43387.38302		69.64400		324.00000 
 43692.65567		 961.16730			42731.48837		167.39600		875.00000 
 43692.65567		 305.27265			43387.38302		69.64400		324.00000 
 43692.65567		 961.16730			42731.48837		167.39600		875.00000 
 43692.65567		 305.27265			43387.38302		69.64400		324.00000 
 43692.65567		 961.16730			42731.48837		167.39600		875.00000 
 43692.65567		 305.27265			43387.38302		69.64400		324.00000 
 43692.65567		 961.16730			42731.48837		167.39600		875.00000 
 43692.65567		 305.27265			43387.38302		69.64400		324.00000 
 43692.65567		 961.16730			42731.48837		167.39600		875.00000 
 43692.65567		 305.27265			43387.38302		69.64400		324.00000 
 43692.65567		 961.16730			42731.48837		167.39600		875.00000 
 43692.65567		 305.27265			43387.38302		69.64400		324.00000 
 43692.65567		 961.16730			42731.48837		167.39600		875.00000 
 43692.65567		 305.27265			43387.38302		69.64400		324.00000 
 43692.65567		 961.16730			42731.48837		167.39600		875.00000 
 43692.65567		 305.27265			43387.38302		69.64400		324.00000 
 43692.65567		 961.16730			42731.48837		167.39600		875.00000 
 43692.65567		 305.27265			43387.38302		69.64400		324.00000 
 43692.65567		 961.16730			42731.48837		167.39600		875.00000 
 43692.65567		 305.27265			43387.38302		69.64400		324.00000 
 43692.65567		 961.16730			42731.48837		167.39600		875.00000 
 43692.65567		 305.27265			43387.38302		69.64400		324.00000 
 43692.65567		 961.16730			42731.48837		167.39600		875.00000 
 43692.65567		 305.27265			43387.38302		69.64400		324.00000 
 43692.65567		 961.16730			42731.48837		167.39600		875.00000 
 43692.65567		 305.27265			43387.38302		69.64400		324.00000 
 43692.65567		 961.16730			42731.48837		167.39600		875.00000 
 43692.65567		 305.27265			43387.38302		69.64400		324.00000 
 43692.65567		 961.16730			42731.48837		167.39600		875.00000 
 43692.65567		 305.27265			43387.38302		69.64400		324.00000 
 43692.65567		 961.16730			42731.48837		167.39600		875.00000 
 43692.65567		 305.27265			43387.38302		69.64400		324.00000 
 43692.65567		 961.16730			42731.48837		167.39600		875.00000 
 43692.65567		 305.27265			43387.38302		69.64400		324.00000 
 43692.65567		 961.16730			42731.48837		167.39600		875.00000 
 43692.65567		 305.27265			43387.38302		69.64400		324.00000 
 43692.65567		 961.16730			42731.48837		167.39600		875.00000 
 43692.65567		 305.27265			43387.38302		69.64400		324.00000 
 43692.65567		 961.16730			42731.48837		167.39600		875.00000 
 43692.65567		 305.27265			43387.38302		69.64400		324.00000 
 43692.65567		 961.16730			42731.48837		167.39600		875.00000 
 43692.65567		 305.27265			43387.38302		69.64400		324.00000 
 43692.65567		 961.16730			42731.48837		167.39600		875.00000 
 43692.65567		 305.27265			43387.38302		69.64400		324.00000 
 43692.65567		 961.16730			42731.48837		207.80000		875.00000 
 43692.65567		 305.27265			43387.38302		69.64400		324.00000 
 43692.65567		 961.16730			42731.48837		207.80000		875.00000 
 43692.65567		 305.27265			43387.38302		69.64400		324.00000 
 43692.65567		 961.16730			42731.48837		207.80000		875.00000 
 43692.65567		 305.27265			43387.38302		69.64400		324.00000 
 43692.65567		 961.16730			42731.48837		207.80000		875.00000 
 43692.65567		 305.27265			43387.38302		69.64400		324.00000 
 43692.65567		 961.16730			42731.48837		207.80000		875.00000 
 43692.65567		 305.27265			43387.38302		69.64400		324.00000 
 43692.65567		 961.16730			42731.48837		207.80000		875.00000 
 43692.65567		 305.27265			43387.38302		69.64400		324.00000 
 43692.65567		 961.16730			42731.48837		207.80000		875.00000 
 43692.65567		 305.27265			43387.38302		69.64400		324.00000 
 43692.65567		 961.16730			42731.48837		207.80000		875.00000 
 43692.65567		 305.27265			43387.38302		69.64400		324.00000 
 43692.65567		 961.16730			42731.48837		207.80000		875.00000 
 43692.65567		 305.27265			43387.38302		69.64400		324.00000 
 43692.65567		 961.16730			42731.48837		207.80000		875.00000 
 43692.65567		 305.27265			43387.38302		69.64400		324.00000 
 43692.65567		 961.16730			42731.48837		207.80000		875.00000 
 43692.65567		 305.27265			43387.38302		69.64400		324.00000 
 43692.65567		 961.16730			42731.48837		207.80000		875.00000 
 43692.65567		 305.27265			43387.38302		69.64400		324.00000 
 43692.65567		 961.16730			42731.48837		207.80000		875.00000 
 43692.65567		 305.27265			43387.38302		69.64400		324.00000 
 43692.65567		 961.16730			42731.48837		207.80000		875.00000 
 43692.65567		 305.27265			43387.38302		69.64400		324.00000 
 43692.65567		 961.16730			42731.48837		207.80000		875.00000 
 43692.65567		 305.27265			43387.38302		69.64400		324.00000 
 43692.65567		 961.16730			42731.48837		207.80000		875.00000 
 43692.65567		 305.27265			43387.38302		69.64400		324.00000 
 43692.65567		 961.16730			42731.48837		207.80000		875.00000 
 43692.65567		 305.27265			43387.38302		69.64400		324.00000 
 43692.65567		 961.16730			42731.48837		207.80000		875.00000 
 43692.65567		 305.27265			43387.38302		69.64400		324.00000 
 43692.65567		 961.16730			42731.48837		207.80000		875.00000 
 43692.65567		 305.27265			43387.38302		69.64400		324.00000 
 43692.65567		 961.16730			42731.48837		207.80000		875.00000 
 43692.65567		 305.27265			43387.38302		69.64400		324.00000 
 43692.65567		 961.16730			42731.48837		207.80000		875.00000 
 43692.65567		 305.27265			43387.38302		69.64400		324.00000 
 43692.65567		 961.16730			42731.48837		207.80000		875.00000 
 43692.65567		 305.27265			43387.38302		69.64400		324.00000 
 43692.65567		 961.16730			42731.48837		207.80000		875.00000 
 43692.65567		 305.27265			43387.38302		69.64400		324.00000 
 43692.65567		 961.16730			42731.48837		207.80000		875.00000 
 43692.65567		 305.27265			43387.38302		69.64400		324.00000 
 43692.65567		 961.16730			42731.48837		207.80000		875.00000 
 43692.65567		 305.27265			43387.38302		69.64400		324.00000 
 43692.65567		 961.16730			42731.48837		207.80000		875.00000 
 43692.65567		 305.27265			43387.38302		69.64400		324.00000 
 43692.65567		 961.16730			42731.48837		207.80000		875.00000 
 43692.65567		 305.27265			43387.38302		69.64400		324.00000 
 43692.65567		 961.16730			42731.48837		207.80000		875.00000 
 43692.65567		 305.27265			43387.38302		69.64400		324.00000 
 43692.65567		 961.16730			42731.48837		207.80000		875.00000 
 43692.65567		 305.27265			43387.38302		69.64400		324.00000 
 43692.65567		 961.16730			42731.48837		207.80000		875.00000 
 43692.65567		 305.27265			43387.38302		69.64400		324.00000 
 43692.65567		 961.16730			42731.48837		207.80000		875.00000 
 43692.65567		 305.27265			43387.38302		69.64400		324.00000 
 43692.65567		 961.16730			42731.48837		207.80000		875.00000 
 43692.65567		 305.27265			43387.38302		69.64400		324.00000 
 43692.65567		 961.16730			42731.48837		207.80000		875.00000 
 43692.65567		 305.27265			43387.38302		69.64400		324.00000 
 43692.65567		 961.16730			42731.48837		207.80000		875.00000 
 43692.65567		 305.27265			43387.38302		69.64400		324.00000 
 43692.65567		 961.16730			42731.48837		207.80000		875.00000 
 43692.65567		 305.27265			43387.38302		69.64400		324.00000 
 43692.65567		 961.16730			42731.48837		207.80000		875.00000 
 43692.65567		 305.27265			43387.38302		69.64400		324.00000 
 43692.65567		 961.16730			42731.48837		207.80000		875.00000 
 43692.65567		 305.27265			43387.38302		69.64400		324.00000 
 43692.65567		 961.16730			42731.48837		207.80000		875.00000 
 43692.65567		 305.27265			43387.38302		69.64400		324.00000 
 43692.65567		 961.16730			42731.48837		207.80000		875.00000 
 43692.65567		 305.27265			43387.38302		69.64400		324.00000 
 43692.65567		 961.16730			42731.48837		207.80000		875.00000 
 43692.65567		 305.27265			43387.38302		69.64400		324.00000 
 43692.65567		 961.16730			42731.48837		207.80000		875.00000 
 43692.65567		 305.27265			43387.38302		69.64400		324.00000 
 43692.65567		 961.16730			42731.48837		207.80000		875.00000 
 43692.65567		 305.27265			43387.38302		69.64400		324.00000 
 43692.65567		 961.16730			42731.48837		207.80000		875.00000 
 43692.65567		 305.27265			43387.38302		69.64400		324.00000 
 43692.65567		 961.16730			42731.48837		207.80000		875.00000 
 43692.65567		 305.27265			43387.38302		69.64400		324.00000 
 43692.65567		 961.16730			42731.48837		207.80000		875.00000 
 43692.65567		 305.27265			43387.38302		69.64400		324.00000 
 43692.65567		 961.16730			42731.48837		207.80000		875.00000 
 43692.65567		 305.27265			43387.38302		69.64400		324.00000 
 43692.65567		 961.16730			42731.48837		207.80000		875.00000 
 43692.65567		 305.27265			43387.38302		69.64400		324.00000 
 43692.65567		 961.16730			42731.48837		207.80000		875.00000 
 43692.65567		 305.27265			43387.38302		69.64400		324.00000 
 43692.65567		 961.16730			42731.48837		207.80000		875.00000 
 43692.65567		 305.27265			43387.38302		69.64400		324.00000 
 43692.65567		 961.16730			42731.48837		207.80000		875.00000 
 43692.65567		 305.27265			43387.38302		69.64400		324.00000 
 43692.65567		 961.16730			42731.48837		207.80000		875.00000 
 43692.65567		 305.27265			43387.38302		69.64400		324.00000 
 43692.65567		 961.16730			42731.48837		207.80000		875.00000 
 43692.65567		 305.27265			43387.38302		69.64400		324.00000 
 43692.65567		 961.16730			42731.48837		207.80000		875.00000 
 43692.65567		 305.27265			43387.38302		69.64400		324.00000 
 43692.65567		 961.16730			42731.48837		207.80000		875.00000 
 43692.65567		 305.27265			43387.38302		69.64400		324.00000 
 43692.65567		 961.16730			42731.48837		207.80000		875.00000 
 43692.65567		 305.27265			43387.38302		69.64400		324.00000 
 43692.65567		 961.16730			42731.48837		207.80000		875.00000 
 43692.65567		 305.27265			43387.38302		69.64400		324.00000 
 43692.65567		 961.16730			42731.48837		207.80000		875.00000 
 43692.65567		 305.27265			43387.38302		69.64400		324.00000 
 43692.65567		 961.16730			42731.48837		207.80000		875.00000 
 43692.65567		 305.27265			43387.38302		69.64400		324.00000 
 43692.65567		 961.16730			42731.48837		207.80000		875.00000 
 43692.65567		 305.27265			43387.38302		69.64400		324.00000 
 43692.65567		 961.16730			42731.48837		207.80000		875.00000 
 43692.65567		 305.27265			43387.38302		69.64400		324.00000 
 43692.65567		 961.16730			42731.48837		207.80000		875.00000 
 43692.65567		 305.27265			43387.38302		69.64400		324.00000 
 43692.65567		 961.16730			42731.48837		207.80000		875.00000 
 43692.65567		 305.27265			43387.38302		69.64400		324.00000 
 43692.65567		 961.16730			42731.48837		207.80000		875.00000 
 43692.65567		 305.27265			43387.38302		69.64400		324.00000 
 43692.65567		 961.16730			42731.48837		207.80000		875.00000 
 43692.65567		 305.27265			43387.38302		69.64400		324.00000 
 43692.65567		 961.16730			42731.48837		222.59600		875.00000 
 43692.65567		 305.27265			43387.38302		69.64400		324.00000 
 43692.65567		 961.16730			42731.48837		222.59600		875.00000 
 43692.65567		 305.27265			43387.38302		69.64400		324.00000 
 43692.65567		 961.16730			42731.48837		222.59600		875.00000 
 43692.65567		 305.27265			43387.38302		69.64400		324.00000 
 43692.65567		 961.16730			42731.48837		222.59600		875.00000 
 43692.65567		 305.27265			43387.38302		69.64400		324.00000 
 43692.65567		 961.16730			42731.48837		222.59600		875.00000 
 43692.65567		 305.27265			43387.38302		69.64400		324.00000 
 43692.65567		 961.16730			42731.48837		222.59600		875.00000 
 43692.65567		 305.27265			43387.38302		69.64400		324.00000 
 43692.65567		 961.16730			42731.48837		222.59600		875.00000 
 43692.65567		 305.27265			43387.38302		69.64400		324.00000 
 43692.65567		 961.16730			42731.48837		222.59600		875.00000 
 43692.65567		 305.27265			43387.38302		69.64400		324.00000 
 43692.65567		 961.16730			42731.48837		222.59600		875.00000 
 43692.65567		 305.27265			43387.38302		69.64400		324.00000 
 43692.65567		 961.16730			42731.48837		222.59600		875.00000 
 43692.65567		 305.27265			43387.38302		69.64400		324.00000 
 43692.65567		 961.16730			42731.48837		222.59600		875.00000 
 43692.65567		 305.27265			43387.38302		69.64400		324.00000 
 43692.65567		 961.16730			42731.48837		222.59600		875.00000 
 43692.65567		 305.27265			43387.38302		69.64400		324.00000 
 43692.65567		 961.16730			42731.48837		222.59600		875.00000 
 43692.65567		 305.27265			43387.38302		69.64400		324.00000 
 43692.65567		 961.16730			42731.48837		222.59600		875.00000 
 43692.65567		 305.27265			43387.38302		69.64400		324.00000 
 43692.65567		 961.16730			42731.48837		222.59600		875.00000 
 43692.65567		 305.27265			43387.38302		69.64400		324.00000 
 43692.65567		 961.16730			42731.48837		222.59600		875.00000 
 43692.65567		 305.27265			43387.38302		69.64400		324.00000 
 43692.65567		 961.16730			42731.48837		222.59600		875.00000 
 43692.65567		 305.27265			43387.38302		69.64400		324.00000 
 43692.65567		 961.16730			42731.48837		222.59600		875.00000 
 43692.65567		 305.27265			43387.38302		69.64400		324.00000 
 43692.65567		 961.16730			42731.48837		222.59600		875.00000 
 43692.65567		 305.27265			43387.38302		69.64400		324.00000 
 43692.65567		 961.16730			42731.48837		222.59600		875.00000 
 43692.65567		 305.27265			43387.38302		69.64400		324.00000 
 43692.65567		 961.16730			42731.48837		222.59600		875.00000 
 43692.65567		 305.27265			43387.38302		69.64400		324.00000 
 43692.65567		 961.16730			42731.48837		222.59600		875.00000 
 43692.65567		 305.27265			43387.38302		69.64400		324.00000 
 43692.65567		 961.16730			42731.48837		222.59600		875.00000 
 43692.65567		 305.27265			43387.38302		69.64400		324.00000 
 43692.65567		 961.16730			42731.48837		222.59600		875.00000 
 43692.65567		 305.27265			43387.38302		69.64400		324.00000 
 43692.65567		 961.16730			42731.48837		222.59600		875.00000 
 43692.65567		 305.27265			43387.38302		69.64400		324.00000 
 43692.65567		 961.16730			42731.48837		222.59600		875.00000 
 43692.65567		 305.27265			43387.38302		69.64400		324.00000 
 43692.65567		 961.16730			42731.48837		222.59600		875.00000 
 43692.65567		 305.27265			43387.38302		69.64400		324.00000 
 43692.65567		 961.16730			42731.48837		222.59600		875.00000 
 43692.65567		 305.27265			43387.38302		69.64400		324.00000 
 43692.65567		 961.16730			42731.48837		222.59600		875.00000 
 43692.65567		 305.27265			43387.38302		69.64400		324.00000 
 43692.65567		 961.16730			42731.48837		222.59600		875.00000 
 43692.65567		 305.27265			43387.38302		69.64400		324.00000 
 43692.65567		 961.16730			42731.48837		222.59600		875.00000 
 43692.65567		 305.27265			43387.38302		69.64400		324.00000 
 43692.65567		 961.16730			42731.48837		222.59600		875.00000 
 43692.65567		 305.27265			43387.38302		69.64400		324.00000 
 43692.65567		 961.16730			42731.48837		222.59600		875.00000 
 43692.65567		 305.27265			43387.38302		69.64400		324.00000 
 43692.65567		 961.16730			42731.48837		222.59600		875.00000 
 43692.65567		 305.27265			43387.38302		69.64400		324.00000 
 43692.65567		 961.16730			42731.48837		222.59600		875.00000 
 43692.65567		 305.27265			43387.38302		69.64400		324.00000 
 43692.65567		 961.16730			42731.48837		222.59600		875.00000 
 43692.65567		 305.27265			43387.38302		69.64400		324.00000 
 43692.65567		 961.16730			42731.48837		222.59600		875.00000 
 43692.65567		 305.27265			43387.38302		69.64400		324.00000 
 43692.65567		 961.16730			42731.48837		222.59600		875.00000 
 43692.65567		 305.27265			43387.38302		69.64400		324.00000 
 43692.65567		 961.16730			42731.48837		222.59600		875.00000 
 43692.65567		 305.27265			43387.38302		69.64400		324.00000 
 43692.65567		 961.16730			42731.48837		222.59600		875.00000 
 43692.65567		 305.27265			43387.38302		69.64400		324.00000 
 43692.65567		 961.16730			42731.48837		222.59600		875.00000 
 43692.65567		 305.27265			43387.38302		69.64400		324.00000 
 43692.65567		 961.16730			42731.48837		222.59600		875.00000 
 43692.65567		 305.27265			43387.38302		69.64400		324.00000 
 43692.65567		 961.16730			42731.48837		222.59600		875.00000 
 43692.65567		 305.27265			43387.38302		69.64400		324.00000 
 43692.65567		 961.16730			42731.48837		222.59600		875.00000 
 43692.65567		 305.27265			43387.38302		69.64400		324.00000 
 43692.65567		 961.16730			42731.48837		222.59600		875.00000 
 43692.65567		 305.27265			43387.38302		69.64400		324.00000 
 43692.65567		 961.16730			42731.48837		222.59600		875.00000 
 43692.65567		 305.27265			43387.38302		69.64400		324.00000 
 43692.65567		 961.16730			42731.48837		222.59600		875.00000 
 43692.65567		 305.27265			43387.38302		69.64400		324.00000 
 43692.65567		 961.16730			42731.48837		222.59600		875.00000 
 43692.65567		 305.27265			43387.38302		69.64400		324.00000 
 43692.65567		 961.16730			42731.48837		222.59600		875.00000 
 43692.65567		 305.27265			43387.38302		69.64400		324.00000 
 43692.65567		 961.16730			42731.48837		222.59600		875.00000 
 43692.65567		 305.27265			43387.38302		69.64400		324.00000 
 43692.65567		 961.16730			42731.48837		222.59600		875.00000 
 43692.65567		 305.27265			43387.38302		69.64400		324.00000 
 43692.65567		 961.16730			42731.48837		222.59600		875.00000 
 43692.65567		 305.27265			43387.38302		69.64400		324.00000 
 43692.65567		 961.16730			42731.48837		222.59600		875.00000 
 43692.65567		 305.27265			43387.38302		69.64400		324.00000 
 43692.65567		 961.16730			42731.48837		222.59600		875.00000 
 43692.65567		 305.27265			43387.38302		69.64400		324.00000 
 43692.65567		 961.16730			42731.48837		222.59600		875.00000 
 43692.65567		 305.27265			43387.38302		69.64400		324.00000 
 43692.65567		 961.16730			42731.48837		222.59600		875.00000 
 43692.65567		 305.27265			43387.38302		69.64400		324.00000 
 43692.65567		 961.16730			42731.48837		222.59600		875.00000 
 43692.65567		 305.27265			43387.38302		69.64400		324.00000 
 43692.65567		 961.16730			42731.48837		222.59600		875.00000 
 43692.65567		 305.27265			43387.38302		69.64400		324.00000 
 43692.65567		 961.16730			42731.48837		222.59600		875.00000 
 43692.65567		 305.27265			43387.38302		69.64400		324.00000 
 43692.65567		 961.16730			42731.48837		222.59600		875.00000 
 43692.65567		 305.27265			43387.38302		69.64400		324.00000 
 43692.65567		 961.16730			42731.48837		222.59600		875.00000 
 43692.65567		 305.27265			43387.38302		69.64400		324.00000 
 43692.65567		 961.16730			42731.48837		222.59600		875.00000 
 43692.65567		 305.27265			43387.38302		69.64400		324.00000 
 43692.65567		 961.16730			42731.48837		222.59600		875.00000 
 43692.65567		 305.27265			43387.38302		69.64400		324.00000 
 43692.65567		 961.16730			42731.48837		227.26600		875.00000 
 43692.65567		 305.27265			43387.38302		69.64400		324.00000 
 43692.65567		 961.16730			42731.48837		227.26600		875.00000 
 43692.65567		 305.27265			43387.38302		69.64400		324.00000 
 43692.65567		 961.16730			42731.48837		227.26600		875.00000 
 43692.65567		 305.27265			43387.38302		69.64400		324.00000 
 43692.65567		 961.16730			42731.48837		227.26600		875.00000 
 43692.65567		 305.27265			43387.38302		69.64400		324.00000 
 43692.65567		 961.16730			42731.48837		227.26600		875.00000 
 43692.65567		 305.27265			43387.38302		69.64400		324.00000 
 43692.65567		 961.16730			42731.48837		227.26600		875.00000 
 43692.65567		 305.27265			43387.38302		69.64400		324.00000 
 43692.65567		 961.16730			42731.48837		227.26600		875.00000 
 43692.65567		 305.27265			43387.38302		69.64400		324.00000 
 43692.65567		 961.16730			42731.48837		227.26600		875.00000 
 43692.65567		 305.27265			43387.38302		69.64400		324.00000 
 43692.65567		 961.16730			42731.48837		227.26600		875.00000 
 43692.65567		 305.27265			43387.38302		69.64400		324.00000 
 43692.65567		 961.16730			42731.48837		227.26600		875.00000 
 43692.65567		 305.27265			43387.38302		69.64400		324.00000 
 43692.65567		 961.16730			42731.48837		227.26600		875.00000 
 43692.65567		 305.27265			43387.38302		69.16200		324.00000 
 43692.65567		 961.16730			42731.48837		227.26600		875.00000 
 43692.65567		 305.27265			43387.38302		69.16200		324.00000 
 43692.65567		 961.16730			42731.48837		227.26600		875.00000 
 43692.65567		 305.27265			43387.38302		69.16200		324.00000 
 43692.65567		 961.16730			42731.48837		227.26600		875.00000 
 43692.65567		 305.27265			43387.38302		69.16200		324.00000 
 43692.65567		 961.16730			42731.48837		227.26600		875.00000 
 43692.65567		 305.27265			43387.38302		69.16200		324.00000 
 43692.65567		 961.16730			42731.48837		227.26600		875.00000 
 43692.65567		 305.27265			43387.38302		69.16200		324.00000 
 43692.65567		 961.16730			42731.48837		227.26600		875.00000 
 43692.65567		 305.27265			43387.38302		69.16200		324.00000 
 43692.65567		 961.16730			42731.48837		227.26600		875.00000 
 43692.65567		 305.27265			43387.38302		69.16200		324.00000 
 43692.65567		 961.16730			42731.48837		227.26600		875.00000 
 43692.65567		 305.27265			43387.38302		69.16200		324.00000 
 43692.65567		 961.16730			42731.48837		227.26600		875.00000 
 43692.65567		 305.27265			43387.38302		69.16200		324.00000 
 43692.65567		 961.16730			42731.48837		227.26600		875.00000 
 43692.65567		 305.27265			43387.38302		69.16200		324.00000 
 43692.65567		 961.16730			42731.48837		227.26600		875.00000 
 43692.65567		 305.27265			43387.38302		69.16200		324.00000 
 43692.65567		 961.16730			42731.48837		227.26600		875.00000 
 43692.65567		 305.27265			43387.38302		69.16200		324.00000 
 43692.65567		 961.16730			42731.48837		227.26600		875.00000 
 43692.65567		 305.27265			43387.38302		69.16200		324.00000 
 43692.65567		 961.16730			42731.48837		227.26600		875.00000 
 43692.65567		 305.27265			43387.38302		69.16200		324.00000 
 43692.65567		 961.16730			42731.48837		227.26600		875.00000 
 43692.65567		 305.27265			43387.38302		69.16200		324.00000 
 43692.65567		 961.16730			42731.48837		227.26600		875.00000 
 43692.65567		 305.27265			43387.38302		69.16200		324.00000 
 43692.65567		 961.16730			42731.48837		227.26600		875.00000 
 43692.65567		 305.27265			43387.38302		69.16200		324.00000 
 43692.65567		 961.16730			42731.48837		227.26600		875.00000 
 43692.65567		 305.27265			43387.38302		69.16200		324.00000 
 43692.65567		 961.16730			42731.48837		227.26600		875.00000 
 43692.65567		 305.27265			43387.38302		69.16200		324.00000 
 43692.65567		 961.16730			42731.48837		227.26600		875.00000 
 43692.65567		 305.27265			43387.38302		69.16200		324.00000 
 43692.65567		 961.16730			42731.48837		227.26600		875.00000 
 43692.65567		 305.27265			43387.38302		69.16200		324.00000 
 43692.65567		 961.16730			42731.48837		227.26600		875.00000 
 43692.65567		 305.27265			43387.38302		69.16200		324.00000 
 43692.65567		 961.16730			42731.48837		227.26600		875.00000 
 43692.65567		 305.27265			43387.38302		69.16200		324.00000 
 43692.65567		 961.16730			42731.48837		227.26600		875.00000 
 43692.65567		 305.27265			43387.38302		69.16200		324.00000 
 43692.65567		 961.16730			42731.48837		227.26600		875.00000 
 43692.65567		 305.27265			43387.38302		69.16200		324.00000 
 43692.65567		 961.16730			42731.48837		227.26600		875.00000 
 43692.65567		 305.27265			43387.38302		69.16200		324.00000 
 43692.65567		 961.16730			42731.48837		227.26600		875.00000 
 43692.65567		 305.27265			43387.38302		69.16200		324.00000 
 43692.65567		 961.16730			42731.48837		227.26600		875.00000 
 43692.65567		 305.27265			43387.38302		69.16200		324.00000 
 43692.65567		 961.16730			42731.48837		227.26600		875.00000 
 43692.65567		 305.27265			43387.38302		69.16200		324.00000 
 43692.65567		 961.16730			42731.48837		227.26600		875.00000 
 43692.65567		 305.27265			43387.38302		69.16200		324.00000 
 43692.65567		 961.16730			42731.48837		227.26600		875.00000 
 43692.65567		 305.27265			43387.38302		69.16200		324.00000 
 43692.65567		 961.16730			42731.48837		227.26600		875.00000 
 43692.65567		 305.27265			43387.38302		69.16200		324.00000 
 43692.65567		 961.16730			42731.48837		227.26600		875.00000 
 43692.65567		 305.27265			43387.38302		69.16200		324.00000 
 43692.65567		 961.16730			42731.48837		227.26600		875.00000 
 43692.65567		 305.27265			43387.38302		69.16200		324.00000 
 43692.65567		 961.16730			42731.48837		227.26600		875.00000 
 43692.65567		 305.27265			43387.38302		69.16200		324.00000 
 43692.65567		 961.16730			42731.48837		227.26600		875.00000 
 43692.65567		 305.27265			43387.38302		69.16200		324.00000 
 43692.65567		 961.16730			42731.48837		227.26600		875.00000 
 43692.65567		 305.27265			43387.38302		69.16200		324.00000 
 43692.65567		 961.16730			42731.48837		227.26600		875.00000 
 43692.65567		 305.27265			43387.38302		69.16200		324.00000 
 43692.65567		 961.16730			42731.48837		227.26600		875.00000 
 43692.65567		 305.27265			43387.38302		69.16200		324.00000 
 43692.65567		 961.16730			42731.48837		227.26600		875.00000 
 43692.65567		 305.27265			43387.38302		69.16200		324.00000 
 43692.65567		 961.16730			42731.48837		227.26600		875.00000 
 43692.65567		 305.27265			43387.38302		69.16200		324.00000 
 43692.65567		 961.16730			42731.48837		227.26600		875.00000 
 43692.65567		 305.27265			43387.38302		69.16200		324.00000 
 43692.65567		 961.16730			42731.48837		227.26600		875.00000 
 43692.65567		 305.27265			43387.38302		69.16200		324.00000 
 43692.65567		 961.16730			42731.48837		227.26600		875.00000 
 43692.65567		 305.27265			43387.38302		69.16200		324.00000 
 43692.65567		 961.16730			42731.48837		227.26600		875.00000 
 43692.65567		 305.27265			43387.38302		69.16200		324.00000 
 43692.65567		 961.16730			42731.48837		227.26600		875.00000 
 43692.65567		 305.27265			43387.38302		69.16200		324.00000 
 43692.65567		 961.16730			42731.48837		227.26600		875.00000 
 43692.65567		 305.27265			43387.38302		69.16200		324.00000 
 43692.65567		 961.16730			42731.48837		227.26600		875.00000 
 43692.65567		 305.27265			43387.38302		69.16200		324.00000 
 43692.65567		 961.16730			42731.48837		227.26600		875.00000 
 43692.65567		 305.27265			43387.38302		69.16200		324.00000 
 43692.65567		 961.16730			42731.48837		227.26600		875.00000 
 43692.65567		 305.27265			43387.38302		69.16200		324.00000 
 43692.65567		 961.16730			42731.48837		230.23400		875.00000 
 43692.65567		 305.27265			43387.38302		69.16200		324.00000 
 43692.65567		 961.16730			42731.48837		230.23400		875.00000 
 43692.65567		 305.27265			43387.38302		69.16200		324.00000 
 43692.65567		 961.16730			42731.48837		230.23400		875.00000 
 43692.65567		 305.27265			43387.38302		69.16200		324.00000 
 43692.65567		 961.16730			42731.48837		230.23400		875.00000 
 43692.65567		 305.27265			43387.38302		69.16200		324.00000 
 43692.65567		 961.16730			42731.48837		230.23400		875.00000 
 43692.65567		 305.27265			43387.38302		69.16200		324.00000 
 43692.65567		 961.16730			42731.48837		230.23400		875.00000 
 43692.65567		 305.27265			43387.38302		69.16200		324.00000 
 43692.65567		 961.16730			42731.48837		230.23400		875.00000 
 43692.65567		 305.27265			43387.38302		69.16200		324.00000 
 43692.65567		 961.16730			42731.48837		230.23400		875.00000 
 43692.65567		 305.27265			43387.38302		69.16200		324.00000 
 43692.65567		 961.16730			42731.48837		230.23400		875.00000 
 43692.65567		 305.27265			43387.38302		69.16200		324.00000 
 43692.65567		 961.16730			42731.48837		230.23400		875.00000 
 43692.65567		 305.27265			43387.38302		69.16200		324.00000 
 43692.65567		 961.16730			42731.48837		230.23400		875.00000 
 43692.65567		 305.27265			43387.38302		69.16200		324.00000 
 43692.65567		 961.16730			42731.48837		230.23400		875.00000 
 43692.65567		 305.27265			43387.38302		69.16200		324.00000 
 43692.65567		 961.16730			42731.48837		230.23400		875.00000 
 43692.65567		 305.27265			43387.38302		69.16200		324.00000 
 43692.65567		 961.16730			42731.48837		230.23400		875.00000 
 43692.65567		 305.27265			43387.38302		69.16200		324.00000 
 43692.65567		 961.16730			42731.48837		230.23400		875.00000 
 43692.65567		 305.27265			43387.38302		69.16200		324.00000 
 43692.65567		 961.16730			42731.48837		230.23400		875.00000 
 43692.65567		 305.27265			43387.38302		69.16200		324.00000 
 43692.65567		 961.16730			42731.48837		230.23400		875.00000 
 43692.65567		 305.27265			43387.38302		69.16200		324.00000 
 43692.65567		 961.16730			42731.48837		230.23400		875.00000 
 43692.65567		 305.27265			43387.38302		69.16200		324.00000 
 43692.65567		 961.16730			42731.48837		230.23400		875.00000 
 43692.65567		 305.27265			43387.38302		69.16200		324.00000 
 43692.65567		 961.16730			42731.48837		230.23400		875.00000 
 43692.65567		 305.27265			43387.38302		69.16200		324.00000 
 43692.65567		 961.16730			42731.48837		230.23400		875.00000 
 43692.65567		 305.27265			43387.38302		69.16200		324.00000 
 43692.65567		 961.16730			42731.48837		230.23400		875.00000 
 43692.65567		 305.27265			43387.38302		69.16200		324.00000 
 43692.65567		 961.16730			42731.48837		230.23400		875.00000 
 43692.65567		 305.27265			43387.38302		69.16200		324.00000 
 43692.65567		 961.16730			42731.48837		230.23400		875.00000 
 43692.65567		 305.27265			43387.38302		69.16200		324.00000 
 43692.65567		 961.16730			42731.48837		230.23400		875.00000 
 43692.65567		 305.27265			43387.38302		69.16200		324.00000 
 43692.65567		 961.16730			42731.48837		230.23400		875.00000 
 43692.65567		 305.27265			43387.38302		69.16200		324.00000 
 43692.65567		 961.16730			42731.48837		230.23400		875.00000 
 43692.65567		 305.27265			43387.38302		69.16200		324.00000 
 43692.65567		 961.16730			42731.48837		230.23400		875.00000 
 43692.65567		 305.27265			43387.38302		69.16200		324.00000 
 43692.65567		 961.16730			42731.48837		230.23400		875.00000 
 43692.65567		 305.27265			43387.38302		69.16200		324.00000 
 43692.65567		 961.16730			42731.48837		230.23400		875.00000 
 43692.65567		 305.27265			43387.38302		69.16200		324.00000 
 43692.65567		 961.16730			42731.48837		230.23400		875.00000 
 43692.65567		 305.27265			43387.38302		69.16200		324.00000 
 43692.65567		 961.16730			42731.48837		230.23400		875.00000 
 43692.65567		 305.27265			43387.38302		69.16200		324.00000 
 43692.65567		 961.16730			42731.48837		230.23400		875.00000 
 43692.65567		 305.27265			43387.38302		69.16200		324.00000 
 43692.65567		 961.16730			42731.48837		230.23400		875.00000 
 43692.65567		 305.27265			43387.38302		69.16200		324.00000 
 43692.65567		 961.16730			42731.48837		230.23400		875.00000 
 43692.65567		 305.27265			43387.38302		69.16200		324.00000 
 43692.65567		 961.16730			42731.48837		230.23400		875.00000 
 43692.65567		 305.27265			43387.38302		69.16200		324.00000 
 43692.65567		 961.16730			42731.48837		230.23400		875.00000 
 43692.65567		 305.27265			43387.38302		69.16200		324.00000 
 43692.65567		 961.16730			42731.48837		230.23400		875.00000 
 43692.65567		 305.27265			43387.38302		69.16200		324.00000 
 43692.65567		 961.16730			42731.48837		230.23400		875.00000 
 43692.65567		 305.27265			43387.38302		69.16200		324.00000 
 43692.65567		 961.16730			42731.48837		230.23400		875.00000 
 43692.65567		 305.27265			43387.38302		69.16200		324.00000 
 43692.65567		 961.16730			42731.48837		230.23400		875.00000 
 43692.65567		 305.27265			43387.38302		69.16200		324.00000 
 43692.65567		 961.16730			42731.48837		230.23400		875.00000 
 43692.65567		 305.27265			43387.38302		69.16200		324.00000 
 43692.65567		 961.16730			42731.48837		230.23400		875.00000 
 43692.65567		 305.27265			43387.38302		69.16200		324.00000 
 43692.65567		 961.16730			42731.48837		230.23400		875.00000 
 43692.65567		 305.27265			43387.38302		69.16200		324.00000 
 43692.65567		 961.16730			42731.48837		230.23400		875.00000 
 43692.65567		 305.27265			43387.38302		69.16200		324.00000 
 43692.65567		 961.16730			42731.48837		230.23400		875.00000 
 43692.65567		 305.27265			43387.38302		69.16200		324.00000 
 43692.65567		 961.16730			42731.48837		230.23400		875.00000 
 43692.65567		 305.27265			43387.38302		69.16200		324.00000 
 43692.65567		 961.16730			42731.48837		230.23400		875.00000 
 43692.65567		 305.27265			43387.38302		69.16200		324.00000 
 43692.65567		 961.16730			42731.48837		230.23400		875.00000 
 43692.65567		 305.27265			43387.38302		69.16200		324.00000 
 43692.65567		 961.16730			42731.48837		230.23400		875.00000 
 43692.65567		 305.27265			43387.38302		69.16200		324.00000 
 43692.65567		 961.16730			42731.48837		230.23400		875.00000 
 43692.65567		 305.27265			43387.38302		69.16200		324.00000 
 43692.65567		 961.16730			42731.48837		230.23400		875.00000 
 43692.65567		 305.27265			43387.38302		69.16200		324.00000 
 43692.65567		 961.16730			42731.48837		230.23400		875.00000 
 43692.65567		 305.27265			43387.38302		69.16200		324.00000 
 43692.65567		 961.16730			42731.48837		230.23400		875.00000 
 43692.65567		 305.27265			43387.38302		69.16200		324.00000 
 43692.65567		 961.16730			42731.48837		230.23400		875.00000 
 43692.65567		 305.27265			43387.38302		69.16200		324.00000 
 43692.65567		 961.16730			42731.48837		230.23400		875.00000 
 43692.65567		 305.27265			43387.38302		69.16200		324.00000 
 43692.65567		 961.16730			42731.48837		230.23400		875.00000 
 43692.65567		 305.27265			43387.38302		69.16200		324.00000 
 43692.65567		 961.16730			42731.48837		230.23400		875.00000 
 43692.65567		 305.27265			43387.38302		69.16200		324.00000 
 43692.65567		 961.16730			42731.48837		230.23400		875.00000 
 43692.65567		 305.27265			43387.38302		69.16200		324.00000 
 43692.65567		 961.16730			42731.48837		230.23400		875.00000 
 43692.65567		 305.27265			43387.38302		69.16200		324.00000 
 43692.65567		 961.16730			42731.48837		230.23400		875.00000 
 43692.65567		 305.27265			43387.38302		69.16200		324.00000 
 43692.65567		 961.16730			42731.48837		230.23400		875.00000 
 43692.65567		 305.27265			43387.38302		69.16200		324.00000 
 43692.65567		 961.16730			42731.48837		230.23400		875.00000 
 43692.65567		 305.27265			43387.38302		69.16200		324.00000 
 43692.65567		 961.16730			42731.48837		230.23400		875.00000 
 43692.65567		 305.27265			43387.38302		69.16200		324.00000 
 43692.65567		 961.16730			42731.48837		230.23400		875.00000 
 43692.65567		 305.27265			43387.38302		69.16200		324.00000 
 43692.65567		 961.16730			42731.48837		230.49200		875.00000 
 43692.65567		 305.27265			43387.38302		69.16200		324.00000 
 43692.65567		 961.16730			42731.48837		230.49200		875.00000 
 43692.65567		 305.27265			43387.38302		69.16200		324.00000 
 43692.65567		 961.16730			42731.48837		230.49200		875.00000 
 43692.65567		 305.27265			43387.38302		69.16200		324.00000 
 43692.65567		 961.16730			42731.48837		230.49200		875.00000 
 43692.65567		 305.27265			43387.38302		69.16200		324.00000 
 43692.65567		 961.16730			42731.48837		230.49200		875.00000 
 43692.65567		 305.27265			43387.38302		69.16200		324.00000 
 43692.65567		 961.16730			42731.48837		230.49200		875.00000 
 43692.65567		 305.27265			43387.38302		69.16200		324.00000 
 43692.65567		 961.16730			42731.48837		230.49200		875.00000 
 43692.65567		 305.27265			43387.38302		69.16200		324.00000 
 43692.65567		 961.16730			42731.48837		230.49200		875.00000 
 43692.65567		 305.27265			43387.38302		69.16200		324.00000 
 43692.65567		 961.16730			42731.48837		230.49200		875.00000 
 43692.65567		 305.27265			43387.38302		69.16200		324.00000 
 43692.65567		 961.16730			42731.48837		230.49200		875.00000 
 43692.65567		 305.27265			43387.38302		69.16200		324.00000 
 43692.65567		 961.16730			42731.48837		230.49200		875.00000 
 43692.65567		 305.27265			43387.38302		69.16200		324.00000 
 43692.65567		 961.16730			42731.48837		230.49200		875.00000 
 43692.65567		 305.27265			43387.38302		69.16200		324.00000 
 43692.65567		 961.16730			42731.48837		230.49200		875.00000 
 43692.65567		 305.27265			43387.38302		69.16200		324.00000 
 43692.65567		 961.16730			42731.48837		230.49200		875.00000 
 43692.65567		 305.27265			43387.38302		69.16200		324.00000 
 43692.65567		 961.16730			42731.48837		230.49200		875.00000 
 43692.65567		 305.27265			43387.38302		69.16200		324.00000 
 43692.65567		 961.16730			42731.48837		230.49200		875.00000 
 43692.65567		 305.27265			43387.38302		69.16200		324.00000 
 43692.65567		 961.16730			42731.48837		230.49200		875.00000 
 43692.65567		 305.27265			43387.38302		69.16200		324.00000 
 43692.65567		 961.16730			42731.48837		230.49200		875.00000 
 43692.65567		 305.27265			43387.38302		69.16200		324.00000 
 43692.65567		 961.16730			42731.48837		230.49200		875.00000 
 43692.65567		 305.27265			43387.38302		69.16200		324.00000 
 43692.65567		 961.16730			42731.48837		230.49200		875.00000 
 43692.65567		 305.27265			43387.38302		69.16200		324.00000 
 43692.65567		 961.16730			42731.48837		230.49200		875.00000 
 43692.65567		 305.27265			43387.38302		69.16200		324.00000 
 43692.65567		 961.16730			42731.48837		230.49200		875.00000 
 43692.65567		 305.27265			43387.38302		69.16200		324.00000 
 43692.65567		 961.16730			42731.48837		230.49200		875.00000 
 43692.65567		 305.27265			43387.38302		69.16200		324.00000 
 43692.65567		 961.16730			42731.48837		230.49200		875.00000 
 43692.65567		 305.27265			43387.38302		69.16200		324.00000 
 43692.65567		 961.16730			42731.48837		230.49200		875.00000 
 43692.65567		 305.27265			43387.38302		69.16200		324.00000 
 43692.65567		 961.16730			42731.48837		230.49200		875.00000 
 43692.65567		 305.27265			43387.38302		69.16200		324.00000 
 43692.65567		 961.16730			42731.48837		230.49200		875.00000 
 43692.65567		 305.27265			43387.38302		69.16200		324.00000 
 43692.65567		 961.16730			42731.48837		230.49200		875.00000 
 43692.65567		 305.27265			43387.38302		69.16200		324.00000 
 43692.65567		 961.16730			42731.48837		230.49200		875.00000 
 43692.65567		 305.27265			43387.38302		69.16200		324.00000 
 43692.65567		 961.16730			42731.48837		230.49200		875.00000 
 43692.65567		 305.27265			43387.38302		69.16200		324.00000 
 43692.65567		 961.16730			42731.48837		230.49200		875.00000 
 43692.65567		 305.27265			43387.38302		69.16200		324.00000 
 43692.65567		 961.16730			42731.48837		230.49200		875.00000 
 43692.65567		 305.27265			43387.38302		69.16200		324.00000 
 43692.65567		 961.16730			42731.48837		230.49200		875.00000 
 43692.65567		 305.27265			43387.38302		69.16200		324.00000 
 43692.65567		 961.16730			42731.48837		230.49200		875.00000 
 43692.65567		 305.27265			43387.38302		69.16200		324.00000 
 43692.65567		 961.16730			42731.48837		230.49200		875.00000 
 43692.65567		 305.27265			43387.38302		69.16200		324.00000 
 43692.65567		 961.16730			42731.48837		230.49200		875.00000 
 43692.65567		 305.27265			43387.38302		69.16200		324.00000 
 43692.65567		 961.16730			42731.48837		230.49200		875.00000 
 43692.65567		 305.27265			43387.38302		69.16200		324.00000 
 43692.65567		 961.16730			42731.48837		230.49200		875.00000 
 43692.65567		 305.27265			43387.38302		69.16200		324.00000 
 43692.65567		 961.16730			42731.48837		230.49200		875.00000 
 43692.65567		 305.27265			43387.38302		69.16200		324.00000 
 43692.65567		 961.16730			42731.48837		230.49200		875.00000 
 43692.65567		 305.27265			43387.38302		69.16200		324.00000 
 43692.65567		 961.16730			42731.48837		230.49200		875.00000 
 43692.65567		 305.27265			43387.38302		69.16200		324.00000 
 43692.65567		 961.16730			42731.48837		230.49200		875.00000 
 43692.65567		 305.27265			43387.38302		69.16200		324.00000 
 43692.65567		 961.16730			42731.48837		230.49200		875.00000 
 43692.65567		 305.27265			43387.38302		69.16200		324.00000 
 43692.65567		 961.16730			42731.48837		230.49200		875.00000 
 43692.65567		 305.27265			43387.38302		69.16200		324.00000 
 43692.65567		 961.16730			42731.48837		230.49200		875.00000 
 43692.65567		 305.27265			43387.38302		69.16200		324.00000 
 43692.65567		 961.16730			42731.48837		230.49200		875.00000 
 43692.65567		 305.27265			43387.38302		69.16200		324.00000 
 43692.65567		 961.16730			42731.48837		230.49200		875.00000 
 43692.65567		 305.27265			43387.38302		69.16200		324.00000 
 43692.65567		 961.16730			42731.48837		230.49200		875.00000 
 43692.65567		 305.27265			43387.38302		69.16200		324.00000 
 43692.65567		 961.16730			42731.48837		230.49200		875.00000 
 43692.65567		 305.27265			43387.38302		69.16200		324.00000 
 43692.65567		 961.16730			42731.48837		230.49200		875.00000 
 43692.65567		 305.27265			43387.38302		69.16200		324.00000 
 43692.65567		 961.16730			42731.48837		230.49200		875.00000 
 43692.65567		 305.27265			43387.38302		69.16200		324.00000 
 43692.65567		 961.16730			42731.48837		230.49200		875.00000 
 43692.65567		 305.27265			43387.38302		69.16200		324.00000 
 43692.65567		 961.16730			42731.48837		230.49200		875.00000 
 43692.65567		 305.27265			43387.38302		69.16200		324.00000 
 43692.65567		 961.16730			42731.48837		230.49200		875.00000 
 43692.65567		 305.27265			43387.38302		69.16200		324.00000 
 43692.65567		 961.16730			42731.48837		230.49200		875.00000 
 43692.65567		 305.27265			43387.38302		69.16200		324.00000 
 43692.65567		 961.16730			42731.48837		230.49200		875.00000 
 43692.65567		 305.27265			43387.38302		69.16200		324.00000 
 43692.65567		 961.16730			42731.48837		230.49200		875.00000 
 43692.65567		 305.27265			43387.38302		69.16200		324.00000 
 43692.65567		 961.16730			42731.48837		230.49200		875.00000 
 43692.65567		 305.27265			43387.38302		69.16200		324.00000 
 43692.65567		 961.16730			42731.48837		230.49200		875.00000 
 43692.65567		 305.27265			43387.38302		69.16200		324.00000 
 43692.65567		 961.16730			42731.48837		230.49200		875.00000 
 43692.65567		 305.27265			43387.38302		69.16200		324.00000 
 43692.65567		 961.16730			42731.48837		230.49200		875.00000 
 43692.65567		 305.27265			43387.38302		69.16200		324.00000 
 43692.65567		 961.16730			42731.48837		230.49200		875.00000 
 43692.65567		 305.27265			43387.38302		69.16200		324.00000 
 43692.65567		 961.16730			42731.48837		230.49200		875.00000 
 43692.65567		 305.27265			43387.38302		69.16200		324.00000 
 43692.65567		 961.16730			42731.48837		230.49200		875.00000 
 43692.65567		 305.27265			43387.38302		69.16200		324.00000 
 43692.65567		 961.16730			42731.48837		230.14400		875.00000 
 43692.65567		 305.27265			43387.38302		69.16200		324.00000 
 43692.65567		 961.16730			42731.48837		230.14400		875.00000 
 43692.65567		 305.27265			43387.38302		69.16200		324.00000 
 43692.65567		 961.16730			42731.48837		230.14400		875.00000 
 43692.65567		 305.27265			43387.38302		69.16200		324.00000 
 43692.65567		 961.16730			42731.48837		230.14400		875.00000 
 43692.65567		 305.27265			43387.38302		69.16200		324.00000 
 43692.65567		 961.16730			42731.48837		230.14400		875.00000 
 43692.65567		 305.27265			43387.38302		69.16200		324.00000 
 43692.65567		 961.16730			42731.48837		230.14400		875.00000 
 43692.65567		 305.27265			43387.38302		69.16200		324.00000 
 43692.65567		 961.16730			42731.48837		230.14400		875.00000 
 43692.65567		 305.27265			43387.38302		69.16200		324.00000 
 43692.65567		 961.16730			42731.48837		230.14400		875.00000 
 43692.65567		 305.27265			43387.38302		69.16200		324.00000 
 43692.65567		 961.16730			42731.48837		230.14400		875.00000 
 43692.65567		 305.27265			43387.38302		69.16200		324.00000 
 43692.65567		 961.16730			42731.48837		230.14400		875.00000 
 43692.65567		 305.27265			43387.38302		69.16200		324.00000 
 43692.65567		 961.16730			42731.48837		230.14400		875.00000 
 43692.65567		 305.27265			43387.38302		69.16200		324.00000 
 43692.65567		 961.16730			42731.48837		230.14400		875.00000 
 43692.65567		 305.27265			43387.38302		69.16200		324.00000 
 43692.65567		 961.16730			42731.48837		230.14400		875.00000 
 43692.65567		 305.27265			43387.38302		69.16200		324.00000 
 43692.65567		 961.16730			42731.48837		230.14400		875.00000 
 43692.65567		 305.27265			43387.38302		69.16200		324.00000 
 43692.65567		 961.16730			42731.48837		230.14400		875.00000 
 43692.65567		 305.27265			43387.38302		69.16200		324.00000 
 43692.65567		 961.16730			42731.48837		230.14400		875.00000 
 43692.65567		 305.27265			43387.38302		69.16200		324.00000 
 43692.65567		 961.16730			42731.48837		230.14400		875.00000 
 43692.65567		 305.27265			43387.38302		69.16200		324.00000 
 43692.65567		 961.16730			42731.48837		230.14400		875.00000 
 43692.65567		 305.27265			43387.38302		69.16200		324.00000 
 43692.65567		 961.16730			42731.48837		230.14400		875.00000 
 43692.65567		 305.27265			43387.38302		69.16200		324.00000 
 43692.65567		 961.16730			42731.48837		230.14400		875.00000 
 43692.65567		 305.27265			43387.38302		69.16200		324.00000 
 43692.65567		 961.16730			42731.48837		230.14400		875.00000 
 43692.65567		 305.27265			43387.38302		69.16200		324.00000 
 43692.65567		 961.16730			42731.48837		230.14400		875.00000 
 43692.65567		 305.27265			43387.38302		69.16200		324.00000 
 43692.65567		 961.16730			42731.48837		230.14400		875.00000 
 43692.65567		 305.27265			43387.38302		69.16200		324.00000 
 43692.65567		 961.16730			42731.48837		230.14400		875.00000 
 43692.65567		 305.27265			43387.38302		69.16200		324.00000 
 43692.65567		 961.16730			42731.48837		230.14400		875.00000 
 43692.65567		 305.27265			43387.38302		69.16200		324.00000 
 43692.65567		 961.16730			42731.48837		230.14400		875.00000 
 43692.65567		 305.27265			43387.38302		69.16200		324.00000 
 43692.65567		 961.16730			42731.48837		230.14400		875.00000 
 43692.65567		 305.27265			43387.38302		69.16200		324.00000 
 43692.65567		 961.16730			42731.48837		230.14400		875.00000 
 43692.65567		 305.27265			43387.38302		69.16200		324.00000 
 43692.65567		 961.16730			42731.48837		230.14400		875.00000 
 43692.65567		 305.27265			43387.38302		69.16200		324.00000 
 43692.65567		 961.16730			42731.48837		230.14400		875.00000 
 43692.65567		 305.27265			43387.38302		69.16200		324.00000 
 43692.65567		 961.16730			42731.48837		230.14400		875.00000 
 43692.65567		 305.27265			43387.38302		69.16200		324.00000 
 43692.65567		 961.16730			42731.48837		230.14400		875.00000 
 43692.65567		 305.27265			43387.38302		69.16200		324.00000 
 43692.65567		 961.16730			42731.48837		230.14400		875.00000 
 43692.65567		 305.27265			43387.38302		69.16200		324.00000 
 43692.65567		 961.16730			42731.48837		230.14400		875.00000 
 43692.65567		 305.27265			43387.38302		69.16200		324.00000 
 43692.65567		 961.16730			42731.48837		230.14400		875.00000 
 43692.65567		 305.27265			43387.38302		69.16200		324.00000 
 43692.65567		 961.16730			42731.48837		230.14400		875.00000 
 43692.65567		 305.27265			43387.38302		69.16200		324.00000 
 43692.65567		 961.16730			42731.48837		230.14400		875.00000 
 43692.65567		 305.27265			43387.38302		69.16200		324.00000 
 43692.65567		 961.16730			42731.48837		230.14400		875.00000 
 43692.65567		 305.27265			43387.38302		69.16200		324.00000 
 43692.65567		 961.16730			42731.48837		230.14400		875.00000 
 43692.65567		 305.27265			43387.38302		69.16200		324.00000 
 43692.65567		 961.16730			42731.48837		230.14400		875.00000 
 43692.65567		 305.27265			43387.38302		69.16200		324.00000 
 43692.65567		 961.16730			42731.48837		230.14400		875.00000 
 43692.65567		 305.27265			43387.38302		69.16200		324.00000 
 43692.65567		 961.16730			42731.48837		230.14400		875.00000 
 43692.65567		 305.27265			43387.38302		69.16200		324.00000 
 43692.65567		 961.16730			42731.48837		230.14400		875.00000 
 43692.65567		 305.27265			43387.38302		69.16200		324.00000 
 43692.65567		 961.16730			42731.48837		230.14400		875.00000 
 43692.65567		 305.27265			43387.38302		69.16200		324.00000 
 43692.65567		 961.16730			42731.48837		230.14400		875.00000 
 43692.65567		 305.27265			43387.38302		69.16200		324.00000 
 43692.65567		 961.16730			42731.48837		230.14400		875.00000 
 43692.65567		 305.27265			43387.38302		69.16200		324.00000 
 43692.65567		 961.16730			42731.48837		230.14400		875.00000 
 43692.65567		 305.27265			43387.38302		69.16200		324.00000 
 43692.65567		 961.16730			42731.48837		230.14400		875.00000 
 43692.65567		 305.27265			43387.38302		69.16200		324.00000 
 43692.65567		 961.16730			42731.48837		230.14400		875.00000 
 43692.65567		 305.27265			43387.38302		69.16200		324.00000 
 43692.65567		 961.16730			42731.48837		230.14400		875.00000 
 43692.65567		 305.27265			43387.38302		69.16200		324.00000 
 43692.65567		 961.16730			42731.48837		230.14400		875.00000 
 43692.65567		 305.27265			43387.38302		69.16200		324.00000 
 43692.65567		 961.16730			42731.48837		230.14400		875.00000 
 43692.65567		 305.27265			43387.38302		69.16200		324.00000 
 43692.65567		 961.16730			42731.48837		230.14400		875.00000 
 43692.65567		 305.27265			43387.38302		69.16200		324.00000 
 43692.65567		 961.16730			42731.48837		230.14400		875.00000 
 43692.65567		 305.27265			43387.38302		69.16200		324.00000 
 43692.65567		 961.16730			42731.48837		230.14400		875.00000 
 43692.65567		 305.27265			43387.38302		69.16200		324.00000 
 43692.65567		 961.16730			42731.48837		230.14400		875.00000 
 43692.65567		 305.27265			43387.38302		69.16200		324.00000 
 43692.65567		 961.16730			42731.48837		230.14400		875.00000 
 43692.65567		 305.27265			43387.38302		69.16200		324.00000 
 43692.65567		 961.16730			42731.48837		230.14400		875.00000 
 43692.65567		 305.27265			43387.38302		69.16200		324.00000 
 43692.65567		 961.16730			42731.48837		230.14400		875.00000 
 43692.65567		 305.27265			43387.38302		69.16200		324.00000 
 43692.65567		 961.16730			42731.48837		230.14400		875.00000 
 43692.65567		 305.27265			43387.38302		69.16200		324.00000 
 43692.65567		 961.16730			42731.48837		230.14400		875.00000 
 43692.65567		 305.27265			43387.38302		69.16200		324.00000 
 43692.65567		 961.16730			42731.48837		230.14400		875.00000 
 43692.65567		 305.27265			43387.38302		69.16200		324.00000 
 43692.65567		 961.16730			42731.48837		230.14400		875.00000 
 43692.65567		 305.27265			43387.38302		69.16200		324.00000 
 43692.65567		 961.16730			42731.48837		230.14400		875.00000 
 43692.65567		 305.27265			43387.38302		69.16200		324.00000 
 43692.65567		 961.16730			42731.48837		230.14400		875.00000 
 43692.65567		 305.27265			43387.38302		69.16200		324.00000 
 43692.65567		 961.16730			42731.48837		229.54400		875.00000 
 43692.65567		 305.27265			43387.38302		69.16200		324.00000 
 43692.65567		 961.16730			42731.48837		229.54400		875.00000 
 43692.65567		 305.27265			43387.38302		69.16200		324.00000 
 43692.65567		 961.16730			42731.48837		229.54400		875.00000 
 43692.65567		 305.27265			43387.38302		69.16200		324.00000 
 43692.65567		 961.16730			42731.48837		229.54400		875.00000 
 43692.65567		 305.27265			43387.38302		69.16200		324.00000 
 43692.65567		 961.16730			42731.48837		229.54400		875.00000 
 43692.65567		 305.27265			43387.38302		69.16200		324.00000 
 43692.65567		 961.16730			42731.48837		229.54400		875.00000 
 43692.65567		 305.27265			43387.38302		69.16200		324.00000 
 43692.65567		 961.16730			42731.48837		229.54400		875.00000 
 43692.65567		 305.27265			43387.38302		69.16200		324.00000 
 43692.65567		 961.16730			42731.48837		229.54400		875.00000 
 43692.65567		 305.27265			43387.38302		69.16200		324.00000 
 43692.65567		 961.16730			42731.48837		229.54400		875.00000 
 43692.65567		 305.27265			43387.38302		69.16200		324.00000 
 43692.65567		 961.16730			42731.48837		229.54400		875.00000 
 43692.65567		 305.27265			43387.38302		69.16200		324.00000 
 43692.65567		 961.16730			42731.48837		229.54400		875.00000 
 43692.65567		 305.27265			43387.38302		69.16200		324.00000 
 43692.65567		 961.16730			42731.48837		229.54400		875.00000 
 43692.65567		 305.27265			43387.38302		69.16200		324.00000 
 43692.65567		 961.16730			42731.48837		229.54400		875.00000 
 43692.65567		 305.27265			43387.38302		69.16200		324.00000 
 43692.65567		 961.16730			42731.48837		229.54400		875.00000 
 43692.65567		 305.27265			43387.38302		69.16200		324.00000 
 43692.65567		 961.16730			42731.48837		229.54400		875.00000 
 43692.65567		 305.27265			43387.38302		69.16200		324.00000 
 43692.65567		 961.16730			42731.48837		229.54400		875.00000 
 43692.65567		 305.27265			43387.38302		69.16200		324.00000 
 43692.65567		 961.16730			42731.48837		229.54400		875.00000 
 43692.65567		 305.27265			43387.38302		69.16200		324.00000 
 43692.65567		 961.16730			42731.48837		229.54400		875.00000 
 43692.65567		 305.27265			43387.38302		69.16200		324.00000 
 43692.65567		 961.16730			42731.48837		229.54400		875.00000 
 43692.65567		 305.27265			43387.38302		69.16200		324.00000 
 43692.65567		 961.16730			42731.48837		229.54400		875.00000 
 43692.65567		 305.27265			43387.38302		69.16200		324.00000 
 43692.65567		 961.16730			42731.48837		229.54400		875.00000 
 43692.65567		 305.27265			43387.38302		69.16200		324.00000 
 43692.65567		 961.16730			42731.48837		229.54400		875.00000 
 43692.65567		 305.27265			43387.38302		69.16200		324.00000 
 43692.65567		 961.16730			42731.48837		229.54400		875.00000 
 43692.65567		 305.27265			43387.38302		69.16200		324.00000 
 43692.65567		 961.16730			42731.48837		229.54400		875.00000 
 43692.65567		 305.27265			43387.38302		69.16200		324.00000 
 43692.65567		 961.16730			42731.48837		229.54400		875.00000 
 43692.65567		 305.27265			43387.38302		69.16200		324.00000 
 43692.65567		 961.16730			42731.48837		229.54400		875.00000 
 43692.65567		 305.27265			43387.38302		69.16200		324.00000 
 43692.65567		 961.16730			42731.48837		229.54400		875.00000 
 43692.65567		 305.27265			43387.38302		69.16200		324.00000 
 43692.65567		 961.16730			42731.48837		229.54400		875.00000 
 43692.65567		 305.27265			43387.38302		69.16200		324.00000 
 43692.65567		 961.16730			42731.48837		229.54400		875.00000 
 43692.65567		 305.27265			43387.38302		69.16200		324.00000 
 43692.65567		 961.16730			42731.48837		229.54400		875.00000 
 43692.65567		 305.27265			43387.38302		69.16200		324.00000 
 43692.65567		 961.16730			42731.48837		229.54400		875.00000 
 43692.65567		 305.27265			43387.38302		69.16200		324.00000 
 43692.65567		 961.16730			42731.48837		229.54400		875.00000 
 43692.65567		 305.27265			43387.38302		69.16200		324.00000 
 43692.65567		 961.16730			42731.48837		229.54400		875.00000 
 43692.65567		 305.27265			43387.38302		69.16200		324.00000 
 43692.65567		 961.16730			42731.48837		229.54400		875.00000 
 43692.65567		 305.27265			43387.38302		69.16200		324.00000 
 43692.65567		 961.16730			42731.48837		229.54400		875.00000 
 43692.65567		 305.27265			43387.38302		69.16200		324.00000 
 43692.65567		 961.16730			42731.48837		229.54400		875.00000 
 43692.65567		 305.27265			43387.38302		69.16200		324.00000 
 43692.65567		 961.16730			42731.48837		229.54400		875.00000 
 43692.65567		 305.27265			43387.38302		69.16200		324.00000 
 43692.65567		 961.16730			42731.48837		229.54400		875.00000 
 43692.65567		 305.27265			43387.38302		69.16200		324.00000 
 43692.65567		 961.16730			42731.48837		229.54400		875.00000 
 43692.65567		 305.27265			43387.38302		69.16200		324.00000 
 43692.65567		 961.16730			42731.48837		229.54400		875.00000 
 43692.65567		 305.27265			43387.38302		69.16200		324.00000 
 43692.65567		 961.16730			42731.48837		229.54400		875.00000 
 43692.65567		 305.27265			43387.38302		69.16200		324.00000 
 43692.65567		 961.16730			42731.48837		229.54400		875.00000 
 43692.65567		 305.27265			43387.38302		69.16200		324.00000 
 43692.65567		 961.16730			42731.48837		229.54400		875.00000 
 43692.65567		 305.27265			43387.38302		69.16200		324.00000 
 43692.65567		 961.16730			42731.48837		229.54400		875.00000 
 43692.65567		 305.27265			43387.38302		69.16200		324.00000 
 43692.65567		 961.16730			42731.48837		229.54400		875.00000 
 43692.65567		 305.27265			43387.38302		69.16200		324.00000 
 43692.65567		 961.16730			42731.48837		229.54400		875.00000 
 43692.65567		 305.27265			43387.38302		69.16200		324.00000 
 43692.65567		 961.16730			42731.48837		229.54400		875.00000 
 43692.65567		 305.27265			43387.38302		69.16200		324.00000 
 43692.65567		 961.16730			42731.48837		229.54400		875.00000 
 43692.65567		 305.27265			43387.38302		69.16200		324.00000 
 43692.65567		 961.16730			42731.48837		229.54400		875.00000 
 43692.65567		 305.27265			43387.38302		69.16200		324.00000 
 43692.65567		 961.16730			42731.48837		229.54400		875.00000 
 43692.65567		 305.27265			43387.38302		69.16200		324.00000 
 43692.65567		 961.16730			42731.48837		229.54400		875.00000 
 43692.65567		 305.27265			43387.38302		69.16200		324.00000 
 43692.65567		 961.16730			42731.48837		229.54400		875.00000 
 43692.65567		 305.27265			43387.38302		69.16200		324.00000 
 43692.65567		 961.16730			42731.48837		229.54400		875.00000 
 43692.65567		 305.27265			43387.38302		69.16200		324.00000 
 43692.65567		 961.16730			42731.48837		229.54400		875.00000 
 43692.65567		 305.27265			43387.38302		69.16200		324.00000 
 43692.65567		 961.16730			42731.48837		229.54400		875.00000 
 43692.65567		 305.27265			43387.38302		69.16200		324.00000 
 43692.65567		 961.16730			42731.48837		229.54400		875.00000 
 43692.65567		 305.27265			43387.38302		69.16200		324.00000 
 43692.65567		 961.16730			42731.48837		229.54400		875.00000 
 43692.65567		 305.27265			43387.38302		69.16200		324.00000 
 43692.65567		 961.16730			42731.48837		229.54400		875.00000 
 43692.65567		 305.27265			43387.38302		69.16200		324.00000 
 43692.65567		 961.16730			42731.48837		229.54400		875.00000 
 43692.65567		 305.27265			43387.38302		69.16200		324.00000 
 43692.65567		 961.16730			42731.48837		229.54400		875.00000 
 43692.65567		 305.27265			43387.38302		69.16200		324.00000 
 43692.65567		 961.16730			42731.48837		229.54400		875.00000 
 43692.65567		 305.27265			43387.38302		69.16200		324.00000 
 43692.65567		 961.16730			42731.48837		229.54400		875.00000 
 43692.65567		 305.27265			43387.38302		69.16200		324.00000 
 43692.65567		 961.16730			42731.48837		229.54400		875.00000 
 43692.65567		 305.27265			43387.38302		69.16200		324.00000 
 43692.65567		 961.16730			42731.48837		229.54400		875.00000 
 43692.65567		 305.27265			43387.38302		69.16200		324.00000 
 43692.65567		 961.16730			42731.48837		229.54400		875.00000 
 43692.65567		 305.27265			43387.38302		69.16200		324.00000 
 43692.65567		 961.16730			42731.48837		229.54400		875.00000 
 43692.65567		 305.27265			43387.38302		69.16200		324.00000 
 43692.65567		 961.16730			42731.48837		229.54400		875.00000 
 43692.65567		 305.27265			43387.38302		69.16200		324.00000 
 43692.65567		 961.16730			42731.48837		229.54400		875.00000 
 43692.65567		 305.27265			43387.38302		69.16200		324.00000 
 43692.65567		 961.16730			42731.48837		229.54400		875.00000 
 43692.65567		 305.27265			43387.38302		69.16200		324.00000 
 43692.65567		 961.16730			42731.48837		229.54400		875.00000 
 43692.65567		 305.27265			43387.38302		69.16200		324.00000 
 43692.65567		 961.16730			42731.48837		229.54400		875.00000 
 43692.65567		 305.27265			43387.38302		69.16200		324.00000 
 43692.65567		 961.16730			42731.48837		229.54400		875.00000 
 43692.65567		 305.27265			43387.38302		69.16200		324.00000 
 43692.65567		 961.16730			42731.48837		229.54400		875.00000 
 43692.65567		 305.27265			43387.38302		69.16200		324.00000 
 43692.65567		 961.16730			42731.48837		229.54400		875.00000 
 43692.65567		 305.27265			43387.38302		69.16200		324.00000 
 43692.65567		 961.16730			42731.48837		229.54400		875.00000 
 43692.65567		 305.27265			43387.38302		69.16200		324.00000 
 43692.65567		 961.16730			42731.48837		229.54400		875.00000 
 43692.65567		 305.27265			43387.38302		69.16200		324.00000 
 43692.65567		 961.16730			42731.48837		229.54400		875.00000 
 43692.65567		 305.27265			43387.38302		69.16200		324.00000 
 43692.65567		 961.16730			42731.48837		229.54400		875.00000 
 43692.65567		 305.27265			43387.38302		69.16200		324.00000 
 43692.65567		 961.16730			42731.48837		229.54400		875.00000 
 43692.65567		 305.27265			43387.38302		69.16200		324.00000 
 43692.65567		 961.16730			42731.48837		229.54400		875.00000 
 43692.65567		 305.27265			43387.38302		69.16200		324.00000 
 43692.65567		 961.16730			42731.48837		229.54400		875.00000 
 43692.65567		 305.27265			43387.38302		69.16200		324.00000 
 43692.65567		 961.16730			42731.48837		229.54400		875.00000 
 43692.65567		 305.27265			43387.38302		69.16200		324.00000 
 43692.65567		 961.16730			42731.48837		229.54400		875.00000 
 43692.65567		 305.27265			43387.38302		69.16200		324.00000 
 43692.65567		 961.16730			42731.48837		229.54400		875.00000 
 43692.65567		 305.27265			43387.38302		69.16200		324.00000 
 43692.65567		 961.16730			42731.48837		229.54400		875.00000 
 43692.65567		 305.27265			43387.38302		69.16200		324.00000 
 43692.65567		 961.16730			42731.48837		229.54400		875.00000 
 43692.65567		 305.27265			43387.38302		69.16200		324.00000 
 43692.65567		 961.16730			42731.48837		229.54400		875.00000 
 43692.65567		 305.27265			43387.38302		69.16200		324.00000 
 43692.65567		 961.16730			42731.48837		229.54400		875.00000 
 43692.65567		 305.27265			43387.38302		69.16200		324.00000 
 43692.65567		 961.16730			42731.48837		229.54400		875.00000 
 43692.65567		 305.27265			43387.38302		69.16200		324.00000 
 43692.65567		 961.16730			42731.48837		229.54400		875.00000 
 43692.65567		 305.27265			43387.38302		69.16200		324.00000 
 43692.65567		 961.16730			42731.48837		229.54400		875.00000 
 43692.65567		 305.27265			43387.38302		69.16200		324.00000 
 43692.65567		 961.16730			42731.48837		229.54400		875.00000 
 43692.65567		 305.27265			43387.38302		69.16200		324.00000 
 43692.65567		 961.16730			42731.48837		229.54400		875.00000 
 43692.65567		 305.27265			43387.38302		69.16200		324.00000 
 43692.65567		 961.16730			42731.48837		229.54400		875.00000 
 43692.65567		 305.27265			43387.38302		69.16200		324.00000 
 43692.65567		 961.16730			42731.48837		229.54400		875.00000 
 43692.65567		 305.27265			43387.38302		69.16200		324.00000 
 43692.65567		 961.16730			42731.48837		229.54400		875.00000 
 43692.65567		 305.27265			43387.38302		69.16200		324.00000 
 43692.65567		 961.16730			42731.48837		229.54400		875.00000 
 43692.65567		 305.27265			43387.38302		69.16200		324.00000 
 43692.65567		 961.16730			42731.48837		229.54400		875.00000 
 43692.65567		 305.27265			43387.38302		69.16200		324.00000 
 43692.65567		 961.16730			42731.48837		229.54400		875.00000 
 43692.65567		 305.27265			43387.38302		69.16200		324.00000 
 43692.65567		 961.16730			42731.48837		229.54400		875.00000 
 43692.65567		 305.27265			43387.38302		69.16200		324.00000 
 43692.65567		 961.16730			42731.48837		229.54400		875.00000 
 43692.65567		 305.27265			43387.38302		69.16200		324.00000 
 43692.65567		 961.16730			42731.48837		229.54400		875.00000 
 43692.65567		 305.27265			43387.38302		69.16200		324.00000 
 43692.65567		 961.16730			42731.48837		229.54400		875.00000 
 43692.65567		 305.27265			43387.38302		69.16200		324.00000 
 43692.65567		 961.16730			42731.48837		229.54400		875.00000 
 43692.65567		 305.27265			43387.38302		69.16200		324.00000 
 43692.65567		 961.16730			42731.48837		229.54400		875.00000 
 43692.65567		 305.27265			43387.38302		69.16200		324.00000 
 43692.65567		 961.16730			42731.48837		229.54400		875.00000 
 43692.65567		 305.27265			43387.38302		69.16200		324.00000 
 43692.65567		 961.16730			42731.48837		229.54400		875.00000 
 43692.65567		 305.27265			43387.38302		69.16200		324.00000 
 43692.65567		 961.16730			42731.48837		229.54400		875.00000 
 43692.65567		 305.27265			43387.38302		69.16200		324.00000 
 43692.65567		 961.16730			42731.48837		229.54400		875.00000 
 43692.65567		 305.27265			43387.38302		69.16200		324.00000 
 43692.65567		 961.16730			42731.48837		229.54400		875.00000 
 43692.65567		 305.27265			43387.38302		69.16200		324.00000 
 43692.65567		 961.16730			42731.48837		229.54400		875.00000 
 43692.65567		 305.27265			43387.38302		69.16200		324.00000 
 43692.65567		 961.16730			42731.48837		229.54400		875.00000 
 43692.65567		 305.27265			43387.38302		69.16200		324.00000 
 43692.65567		 961.16730			42731.48837		229.54400		875.00000 
 43692.65567		 305.27265			43387.38302		69.16200		324.00000 
 43692.65567		 961.16730			42731.48837		229.54400		875.00000 
 43692.65567		 305.27265			43387.38302		69.16200		324.00000 
 43692.65567		 961.16730			42731.48837		229.54400		875.00000 
 43692.65567		 305.27265			43387.38302		69.16200		324.00000 
 43692.65567		 961.16730			42731.48837		229.54400		875.00000 
 43692.65567		 305.27265			43387.38302		69.16200		324.00000 
 43692.65567		 961.16730			42731.48837		229.54400		875.00000 
 43692.65567		 305.27265			43387.38302		69.16200		324.00000 
 43692.65567		 961.16730			42731.48837		229.54400		875.00000 
 43692.65567		 305.27265			43387.38302		69.16200		324.00000 
 43692.65567		 961.16730			42731.48837		229.54400		875.00000 
 43692.65567		 305.27265			43387.38302		69.16200		324.00000 
 43692.65567		 961.16730			42731.48837		229.54400		875.00000 
 43692.65567		 305.27265			43387.38302		69.16200		324.00000 
 43692.65567		 961.16730			42731.48837		229.54400		875.00000 
 43692.65567		 305.27265			43387.38302		69.16200		324.00000 
 43692.65567		 961.16730			42731.48837		229.54400		875.00000 
 43692.65567		 305.27265			43387.38302		69.16200		324.00000 
 43692.65567		 961.16730			42731.48837		229.54400		875.00000 
 43692.65567		 305.27265			43387.38302		69.16200		324.00000 
 43692.65567		 961.16730			42731.48837		229.54400		875.00000 
 43692.65567		 305.27265			43387.38302		69.16200		324.00000 
 43692.65567		 961.16730			42731.48837		229.54400		875.00000 
 43692.65567		 305.27265			43387.38302		69.16200		324.00000 
 43692.65567		 961.16730			42731.48837		229.54400		875.00000 
 43692.65567		 305.27265			43387.38302		69.16200		324.00000 
 43692.65567		 961.16730			42731.48837		229.54400		875.00000 
 43692.65567		 305.27265			43387.38302		69.16200		324.00000 
 43692.65567		 961.16730			42731.48837		229.54400		875.00000 
 43692.65567		 305.27265			43387.38302		69.16200		324.00000 
 43692.65567		 961.16730			42731.48837		229.54400		875.00000 
 43692.65567		 305.27265			43387.38302		69.16200		324.00000 
 43692.65567		 961.16730			42731.48837		229.54400		875.00000 
 43692.65567		 305.27265			43387.38302		69.16200		324.00000 
 43692.65567		 961.16730			42731.48837		229.54400		875.00000 
 43692.65567		 305.27265			43387.38302		69.16200		324.00000 
 43692.65567		 961.16730			42731.48837		229.54400		875.00000 
 43692.65567		 305.27265			43387.38302		69.16200		324.00000 
 43692.65567		 961.16730			42731.48837		229.54400		875.00000 
 43692.65567		 305.27265			43387.38302		69.16200		324.00000 
 43692.65567		 961.16730			42731.48837		229.54400		875.00000 
 43692.65567		 305.27265			43387.38302		69.16200		324.00000 
 43692.65567		 961.16730			42731.48837		229.54400		875.00000 
 43692.65567		 305.27265			43387.38302		69.16200		324.00000 
 43692.65567		 961.16730			42731.48837		229.54400		875.00000 
 43692.65567		 305.27265			43387.38302		69.16200		324.00000 
 43692.65567		 961.16730			42731.48837		229.54400		875.00000 
 43692.65567		 305.27265			43387.38302		69.16200		324.00000 
 43692.65567		 961.16730			42731.48837		229.54400		875.00000 
 43692.65567		 305.27265			43387.38302		69.16200		324.00000 
 43692.65567		 961.16730			42731.48837		229.54400		875.00000 
 43692.65567		 305.27265			43387.38302		69.16200		324.00000 
 43692.65567		 961.16730			42731.48837		229.54400		875.00000 
 43692.65567		 305.27265			43387.38302		69.16200		324.00000 
 43692.65567		 961.16730			42731.48837		229.54400		875.00000 
 43692.65567		 305.27265			43387.38302		69.16200		324.00000 
 43692.65567		 961.16730			42731.48837		229.54400		875.00000 
 43692.65567		 305.27265			43387.38302		69.16200		324.00000 
 43692.65567		 961.16730			42731.48837		229.54400		875.00000 
 43692.65567		 305.27265			43387.38302		69.16200		324.00000 
 43692.65567		 961.16730			42731.48837		229.54400		875.00000 
 43692.65567		 305.27265			43387.38302		69.16200		324.00000 
 43692.65567		 961.16730			42731.48837		229.54400		875.00000 
 43692.65567		 305.27265			43387.38302		69.16200		324.00000 
 43692.65567		 961.16730			42731.48837		229.54400		875.00000 
 43692.65567		 305.27265			43387.38302		69.16200		324.00000 
 43692.65567		 961.16730			42731.48837		229.54400		875.00000 
 43692.65567		 305.27265			43387.38302		69.16200		324.00000 
 43692.65567		 961.16730			42731.48837		229.54400		875.00000 
 43692.65567		 305.27265			43387.38302		69.16200		324.00000 
 43692.65567		 961.16730			42731.48837		229.54400		875.00000 
 43692.65567		 305.27265			43387.38302		69.16200		324.00000 
 43692.65567		 961.16730			42731.48837		229.54400		875.00000 
 43692.65567		 305.27265			43387.38302		69.16200		324.00000 
 43692.65567		 961.16730			42731.48837		229.54400		875.00000 
 43692.65567		 305.27265			43387.38302		69.16200		324.00000 
 43692.65567		 961.16730			42731.48837		229.54400		875.00000 
 43692.65567		 305.27265			43387.38302		69.16200		324.00000 
 43692.65567		 961.16730			42731.48837		229.54400		875.00000 
 43692.65567		 305.27265			43387.38302		69.16200		324.00000 
 43692.65567		 961.16730			42731.48837		229.54400		875.00000 
 43692.65567		 305.27265			43387.38302		69.16200		324.00000 
 43692.65567		 961.16730			42731.48837		229.54400		875.00000 
 43692.65567		 305.27265			43387.38302		69.16200		324.00000 
 43692.65567		 961.16730			42731.48837		229.54400		875.00000 
 43692.65567		 305.27265			43387.38302		69.16200		324.00000 
 43692.65567		 961.16730			42731.48837		229.54400		875.00000 
 43692.65567		 305.27265			43387.38302		69.16200		324.00000 
 43692.65567		 961.16730			42731.48837		229.54400		875.00000 
 43692.65567		 305.27265			43387.38302		69.16200		324.00000 
 43692.65567		 961.16730			42731.48837		229.54400		875.00000 
 43692.65567		 305.27265			43387.38302		69.16200		324.00000 
 43692.65567		 961.16730			42731.48837		229.54400		875.00000 
 43692.65567		 305.27265			43387.38302		69.16200		324.00000 
 43692.65567		 961.16730			42731.48837		229.54400		875.00000 
 43692.65567		 305.27265			43387.38302		69.16200		324.00000 
 43692.65567		 961.16730			42731.48837		229.54400		875.00000 
 43692.65567		 305.27265			43387.38302		69.16200		324.00000 
 43692.65567		 961.16730			42731.48837		229.54400		875.00000 
 43692.65567		 305.27265			43387.38302		69.16200		324.00000 
 43692.65567		 961.16730			42731.48837		229.54400		875.00000 
 43692.65567		 305.27265			43387.38302		69.16200		324.00000 
 43692.65567		 961.16730			42731.48837		229.54400		875.00000 
 43692.65567		 305.27265			43387.38302		69.16200		324.00000 
 43692.65567		 961.16730			42731.48837		229.54400		875.00000 
 43692.65567		 305.27265			43387.38302		69.16200		324.00000 
 43692.65567		 961.16730			42731.48837		229.54400		875.00000 
 43692.65567		 305.27265			43387.38302		69.16200		324.00000 
 43692.65567		 961.16730			42731.48837		229.54400		875.00000 
 43692.65567		 305.27265			43387.38302		69.16200		324.00000 
 43692.65567		 961.16730			42731.48837		229.54400		875.00000 
 43692.65567		 305.27265			43387.38302		69.16200		324.00000 
 43692.65567		 961.16730			42731.48837		229.54400		875.00000 
 43692.65567		 305.27265			43387.38302		69.16200		324.00000 
 43692.65567		 961.16730			42731.48837		229.54400		875.00000 
 43692.65567		 305.27265			43387.38302		69.16200		324.00000 
 43692.65567		 961.16730			42731.48837		229.54400		875.00000 
 43692.65567		 305.27265			43387.38302		69.16200		324.00000 
 43692.65567		 961.16730			42731.48837		229.54400		875.00000 
 43692.65567		 305.27265			43387.38302		69.16200		324.00000 
 43692.65567		 961.16730			42731.48837		229.54400		875.00000 
 43692.65567		 305.27265			43387.38302		69.16200		324.00000 
 43692.65567		 961.16730			42731.48837		229.54400		875.00000 
 43692.65567		 305.27265			43387.38302		69.16200		324.00000 
 43692.65567		 961.16730			42731.48837		229.54400		875.00000 
 43692.65567		 305.27265			43387.38302		69.16200		324.00000 
 43692.65567		 961.16730			42731.48837		229.54400		875.00000 
 43692.65567		 305.27265			43387.38302		69.16200		324.00000 
 43692.65567		 961.16730			42731.48837		229.54400		875.00000 
 43692.65567		 305.27265			43387.38302		69.16200		324.00000 
 43692.65567		 961.16730			42731.48837		229.54400		875.00000 
 43692.65567		 305.27265			43387.38302		69.16200		324.00000 
 43692.65567		 961.16730			42731.48837		229.54400		875.00000 
 43692.65567		 305.27265			43387.38302		69.16200		324.00000 
 43692.65567		 961.16730			42731.48837		229.54400		875.00000 
 43692.65567		 305.27265			43387.38302		69.16200		324.00000 
 43692.65567		 961.16730			42731.48837		229.54400		875.00000 
 43692.65567		 305.27265			43387.38302		69.16200		324.00000 
 43692.65567		 961.16730			42731.48837		229.54400		875.00000 
 43692.65567		 305.27265			43387.38302		69.16200		324.00000 
 43692.65567		 961.16730			42731.48837		229.54400		875.00000 
 43692.65567		 305.27265			43387.38302		69.16200		324.00000 
 43692.65567		 961.16730			42731.48837		229.54400		875.00000 
 43692.65567		 305.27265			43387.38302		69.16200		324.00000 
 43692.65567		 961.16730			42731.48837		229.54400		875.00000 
 43692.65567		 305.27265			43387.38302		69.16200		324.00000 
 43692.65567		 961.16730			42731.48837		229.54400		875.00000 
 43692.65567		 305.27265			43387.38302		69.16200		324.00000 
 43692.65567		 961.16730			42731.48837		229.54400		875.00000 
 43692.65567		 305.27265			43387.38302		69.16200		324.00000 
 43692.65567		 961.16730			42731.48837		229.54400		875.00000 
 43692.65567		 305.27265			43387.38302		69.16200		324.00000 
 43692.65567		 961.16730			42731.48837		229.54400		875.00000 
 43692.65567		 305.27265			43387.38302		69.16200		324.00000 
 43692.65567		 961.16730			42731.48837		229.54400		875.00000 
 43692.65567		 305.27265			43387.38302		69.16200		324.00000 
 43692.65567		 961.16730			42731.48837		229.54400		875.00000 
 43692.65567		 305.27265			43387.38302		69.16200		324.00000 
 43692.65567		 961.16730			42731.48837		229.54400		875.00000 
 43692.65567		 305.27265			43387.38302		69.16200		324.00000 
 43692.65567		 961.16730			42731.48837		229.54400		875.00000 
 43692.65567		 305.27265			43387.38302		69.16200		324.00000 
 43692.65567		 961.16730			42731.48837		229.54400		875.00000 
 43692.65567		 305.27265			43387.38302		69.16200		324.00000 
 43692.65567		 961.16730			42731.48837		229.54400		875.00000 
 43692.65567		 305.27265			43387.38302		69.16200		324.00000 
 43692.65567		 961.16730			42731.48837		229.54400		875.00000 
 43692.65567		 305.27265			43387.38302		69.16200		324.00000 
 43692.65567		 961.16730			42731.48837		229.54400		875.00000 
 43692.65567		 305.27265			43387.38302		69.16200		324.00000 
 43692.65567		 961.16730			42731.48837		229.54400		875.00000 
 43692.65567		 305.27265			43387.38302		69.16200		324.00000 
 43692.65567		 961.16730			42731.48837		229.54400		875.00000 
 43692.65567		 305.27265			43387.38302		69.16200		324.00000 
 43692.65567		 961.16730			42731.48837		229.54400		875.00000 
 43692.65567		 305.27265			43387.38302		69.16200		324.00000 
 43692.65567		 961.16730			42731.48837		229.54400		875.00000 
 43692.65567		 305.27265			43387.38302		69.16200		324.00000 
 43692.65567		 961.16730			42731.48837		229.54400		875.00000 
 43692.65567		 305.27265			43387.38302		69.16200		324.00000 
 43692.65567		 961.16730			42731.48837		229.54400		875.00000 
 43692.65567		 305.27265			43387.38302		69.16200		324.00000 
 43692.65567		 961.16730			42731.48837		229.54400		875.00000 
 43692.65567		 305.27265			43387.38302		69.16200		324.00000 
 43692.65567		 961.16730			42731.48837		229.54400		875.00000 
 43692.65567		 305.27265			43387.38302		69.16200		324.00000 
 43692.65567		 961.16730			42731.48837		229.54400		875.00000 
 43692.65567		 305.27265			43387.38302		69.16200		324.00000 
 43692.65567		 961.16730			42731.48837		229.54400		875.00000 
 43692.65567		 305.27265			43387.38302		69.16200		324.00000 
 43692.65567		 961.16730			42731.48837		229.54400		875.00000 
 43692.65567		 305.27265			43387.38302		69.16200		324.00000 
 43692.65567		 961.16730			42731.48837		229.54400		875.00000 
 43692.65567		 305.27265			43387.38302		69.16200		324.00000 
 43692.65567		 961.16730			42731.48837		229.54400		875.00000 
 43692.65567		 305.27265			43387.38302		69.16200		324.00000 
 43692.65567		 961.16730			42731.48837		229.54400		875.00000 
 43692.65567		 305.27265			43387.38302		69.16200		324.00000 
 43692.65567		 961.16730			42731.48837		229.54400		875.00000 
 43692.65567		 305.27265			43387.38302		69.16200		324.00000 
 43692.65567		 961.16730			42731.48837		229.54400		875.00000 
 43692.65567		 305.27265			43387.38302		69.16200		324.00000 
 43692.65567		 961.16730			42731.48837		229.54400		875.00000 
 43692.65567		 305.27265			43387.38302		69.16200		324.00000 
 43692.65567		 961.16730			42731.48837		229.54400		875.00000 
 43692.65567		 305.27265			43387.38302		69.16200		324.00000 
 43692.65567		 961.16730			42731.48837		229.54400		875.00000 
 43692.65567		 305.27265			43387.38302		69.16200		324.00000 
 43692.65567		 961.16730			42731.48837		229.54400		875.00000 
 43692.65567		 305.27265			43387.38302		69.16200		324.00000 
 43692.65567		 961.16730			42731.48837		229.54400		875.00000 
 43692.65567		 305.27265			43387.38302		69.16200		324.00000 
 43692.65567		 961.16730			42731.48837		229.54400		875.00000 
 43692.65567		 305.27265			43387.38302		69.16200		324.00000 
 43692.65567		 961.16730			42731.48837		229.54400		875.00000 
 43692.65567		 305.27265			43387.38302		69.16200		324.00000 
 43692.65567		 961.16730			42731.48837		229.54400		875.00000 
 43692.65567		 305.27265			43387.38302		69.16200		324.00000 
 43692.65567		 961.16730			42731.48837		229.54400		875.00000 
 43692.65567		 305.27265			43387.38302		69.16200		324.00000 
 43692.65567		 961.16730			42731.48837		229.54400		875.00000 
 43692.65567		 305.27265			43387.38302		69.16200		324.00000 
 43692.65567		 961.16730			42731.48837		229.54400		875.00000 
 43692.65567		 305.27265			43387.38302		69.16200		324.00000 
 43692.65567		 961.16730			42731.48837		229.54400		875.00000 
 43692.65567		 305.27265			43387.38302		69.16200		324.00000 
 43692.65567		 961.16730			42731.48837		229.54400		875.00000 
 43692.65567		 305.27265			43387.38302		69.16200		324.00000 
 43692.65567		 961.16730			42731.48837		229.54400		875.00000 
 43692.65567		 305.27265			43387.38302		69.16200		324.00000 
 43692.65567		 961.16730			42731.48837		229.54400		875.00000 
 43692.65567		 305.27265			43387.38302		69.16200		324.00000 
 43692.65567		 961.16730			42731.48837		229.54400		875.00000 
 43692.65567		 305.27265			43387.38302		69.16200		324.00000 
 43692.65567		 961.16730			42731.48837		229.54400		875.00000 
 43692.65567		 305.27265			43387.38302		69.16200		324.00000 
 43692.65567		 961.16730			42731.48837		229.54400		875.00000 
 43692.65567		 305.27265			43387.38302		69.16200		324.00000 
 43692.65567		 961.16730			42731.48837		229.54400		875.00000 
 43692.65567		 305.27265			43387.38302		69.16200		324.00000 
 43692.65567		 961.16730			42731.48837		229.54400		875.00000 
 43692.65567		 305.27265			43387.38302		69.16200		324.00000 
 43692.65567		 961.16730			42731.48837		229.54400		875.00000 
 43692.65567		 305.27265			43387.38302		69.16200		324.00000 
 43692.65567		 961.16730			42731.48837		229.54400		875.00000 
 43692.65567		 305.27265			43387.38302		69.16200		324.00000 
 43692.65567		 961.16730			42731.48837		229.54400		875.00000 
 43692.65567		 305.27265			43387.38302		69.16200		324.00000 
 43692.65567		 961.16730			42731.48837		229.54400		875.00000 
 43692.65567		 305.27265			43387.38302		69.16200		324.00000 
 43692.65567		 961.16730			42731.48837		229.54400		875.00000 
 43692.65567		 305.27265			43387.38302		69.16200		324.00000 
 43692.65567		 961.16730			42731.48837		229.54400		875.00000 
 43692.65567		 305.27265			43387.38302		69.16200		324.00000 
 43692.65567		 961.16730			42731.48837		229.54400		875.00000 
 43692.65567		 305.27265			43387.38302		69.16200		324.00000 
 43692.65567		 961.16730			42731.48837		229.54400		875.00000 
 43692.65567		 305.27265			43387.38302		69.16200		324.00000 
 43692.65567		 961.16730			42731.48837		229.54400		875.00000 
 43692.65567		 305.27265			43387.38302		69.16200		324.00000 
 43692.65567		 961.16730			42731.48837		229.54400		875.00000 
 43692.65567		 305.27265			43387.38302		69.16200		324.00000 
 43692.65567		 961.16730			42731.48837		229.54400		875.00000 
 43692.65567		 305.27265			43387.38302		69.16200		324.00000 
 43692.65567		 961.16730			42731.48837		229.54400		875.00000 
 43692.65567		 305.27265			43387.38302		69.16200		324.00000 
 43692.65567		 961.16730			42731.48837		229.54400		875.00000 
 43692.65567		 305.27265			43387.38302		69.16200		324.00000 
 43692.65567		 961.16730			42731.48837		229.54400		875.00000 
 43692.65567		 305.27265			43387.38302		69.16200		324.00000 
 43692.65567		 961.16730			42731.48837		229.54400		875.00000 
 43692.65567		 305.27265			43387.38302		69.16200		324.00000 
 43692.65567		 961.16730			42731.48837		229.54400		875.00000 
 43692.65567		 305.27265			43387.38302		69.16200		324.00000 
 43692.65567		 961.16730			42731.48837		229.54400		875.00000 
 43692.65567		 305.27265			43387.38302		69.16200		324.00000 
 43692.65567		 961.16730			42731.48837		229.54400		875.00000 
 43692.65567		 305.27265			43387.38302		69.16200		324.00000 
 43692.65567		 961.16730			42731.48837		229.54400		875.00000 
 43692.65567		 305.27265			43387.38302		69.16200		324.00000 
 43692.65567		 961.16730			42731.48837		229.54400		875.00000 
 43692.65567		 305.27265			43387.38302		69.16200		324.00000 
 43692.65567		 961.16730			42731.48837		229.54400		875.00000 
 43692.65567		 305.27265			43387.38302		69.16200		324.00000 
 43692.65567		 961.16730			42731.48837		229.54400		875.00000 
 43692.65567		 305.27265			43387.38302		69.16200		324.00000 
 43692.65567		 961.16730			42731.48837		229.54400		875.00000 
 43692.65567		 305.27265			43387.38302		69.16200		324.00000 
 43692.65567		 961.16730			42731.48837		229.54400		875.00000 
 43692.65567		 305.27265			43387.38302		69.16200		324.00000 
 43692.65567		 961.16730			42731.48837		229.54400		875.00000 
 43692.65567		 305.27265			43387.38302		69.16200		324.00000 
 43692.65567		 961.16730			42731.48837		229.54400		875.00000 
 43692.65567		 305.27265			43387.38302		69.16200		324.00000 
 43692.65567		 961.16730			42731.48837		229.54400		875.00000 
 43692.65567		 305.27265			43387.38302		69.16200		324.00000 
 43692.65567		 961.16730			42731.48837		229.54400		875.00000 
 43692.65567		 305.27265			43387.38302		69.16200		324.00000 
 43692.65567		 961.16730			42731.48837		229.54400		875.00000 
 43692.65567		 305.27265			43387.38302		69.16200		324.00000 
 43692.65567		 961.16730			42731.48837		229.54400		875.00000 
 43692.65567		 305.27265			43387.38302		69.16200		324.00000 
 43692.65567		 961.16730			42731.48837		229.54400		875.00000 
 43692.65567		 305.27265			43387.38302		69.16200		324.00000 
 43692.65567		 961.16730			42731.48837		229.54400		875.00000 
 43692.65567		 305.27265			43387.38302		69.16200		324.00000 
 43692.65567		 961.16730			42731.48837		229.54400		875.00000 
 43692.65567		 305.27265			43387.38302		69.16200		324.00000 
 43692.65567		 961.16730			42731.48837		229.54400		875.00000 
 43692.65567		 305.27265			43387.38302		69.16200		324.00000 
 43692.65567		 961.16730			42731.48837		229.54400		875.00000 
 43692.65567		 305.27265			43387.38302		69.16200		324.00000 
 43692.65567		 961.16730			42731.48837		229.54400		875.00000 
 43692.65567		 305.27265			43387.38302		69.16200		324.00000 
 43692.65567		 961.16730			42731.48837		229.54400		875.00000 
 43692.65567		 305.27265			43387.38302		69.16200		324.00000 
 43692.65567		 961.16730			42731.48837		229.54400		875.00000 
 43692.65567		 305.27265			43387.38302		69.16200		324.00000 
 43692.65567		 961.16730			42731.48837		229.54400		875.00000 
 43692.65567		 305.27265			43387.38302		69.16200		324.00000 
 43692.65567		 961.16730			42731.48837		229.54400		875.00000 
 43692.65567		 305.27265			43387.38302		69.16200		324.00000 
 43692.65567		 961.16730			42731.48837		229.54400		875.00000 
 43692.65567		 305.27265			43387.38302		69.16200		324.00000 
 43692.65567		 961.16730			42731.48837		229.54400		875.00000 
 43692.65567		 305.27265			43387.38302		69.16200		324.00000 
 43692.65567		 961.16730			42731.48837		229.54400		875.00000 
 43692.65567		 305.27265			43387.38302		69.16200		324.00000 
 43692.65567		 961.16730			42731.48837		229.54400		875.00000 
 43692.65567		 305.27265			43387.38302		69.16200		324.00000 
 43692.65567		 961.16730			42731.48837		229.54400		875.00000 
 43692.65567		 305.27265			43387.38302		69.16200		324.00000 
 43692.65567		 961.16730			42731.48837		229.54400		875.00000 
 43692.65567		 305.27265			43387.38302		69.16200		324.00000 
 43692.65567		 961.16730			42731.48837		229.54400		875.00000 
 43692.65567		 305.27265			43387.38302		69.16200		324.00000 
 43692.65567		 961.16730			42731.48837		229.54400		875.00000 
 43692.65567		 305.27265			43387.38302		69.16200		324.00000 
 43692.65567		 961.16730			42731.48837		229.54400		875.00000 
 43692.65567		 305.27265			43387.38302		69.16200		324.00000 
 43692.65567		 961.16730			42731.48837		229.54400		875.00000 
 43692.65567		 305.27265			43387.38302		69.16200		324.00000 
 43692.65567		 961.16730			42731.48837		229.54400		875.00000 
 43692.65567		 305.27265			43387.38302		69.16200		324.00000 
 43692.65567		 961.16730			42731.48837		229.54400		875.00000 
 43692.65567		 305.27265			43387.38302		69.16200		324.00000 
 43692.65567		 961.16730			42731.48837		229.54400		875.00000 
 43692.65567		 305.27265			43387.38302		69.16200		324.00000 
 43692.65567		 961.16730			42731.48837		229.54400		875.00000 
 43692.65567		 305.27265			43387.38302		69.16200		324.00000 
 43692.65567		 961.16730			42731.48837		229.54400		875.00000 
 43692.65567		 305.27265			43387.38302		69.16200		324.00000 
 43692.65567		 961.16730			42731.48837		229.54400		875.00000 
 43692.65567		 305.27265			43387.38302		69.16200		324.00000 
 43692.65567		 961.16730			42731.48837		229.54400		875.00000 
 43692.65567		 305.27265			43387.38302		69.16200		324.00000 
 43692.65567		 961.16730			42731.48837		229.54400		875.00000 
 43692.65567		 305.27265			43387.38302		69.16200		324.00000 
 43692.65567		 961.16730			42731.48837		229.54400		875.00000 
 43692.65567		 305.27265			43387.38302		69.16200		324.00000 
 43692.65567		 961.16730			42731.48837		229.54400		875.00000 
 43692.65567		 305.27265			43387.38302		69.16200		324.00000 
 43692.65567		 961.16730			42731.48837		229.54400		875.00000 
 43692.65567		 305.27265			43387.38302		69.16200		324.00000 
 43692.65567		 961.16730			42731.48837		229.54400		875.00000 
 43692.65567		 305.27265			43387.38302		69.16200		324.00000 
 43692.65567		 961.16730			42731.48837		229.54400		875.00000 
 43692.65567		 305.27265			43387.38302		69.16200		324.00000 
 43692.65567		 961.16730			42731.48837		229.54400		875.00000 
 43692.65567		 305.27265			43387.38302		69.16200		324.00000 
 43692.65567		 961.16730			42731.48837		229.54400		875.00000 
 43692.65567		 305.27265			43387.38302		69.16200		324.00000 
 43692.65567		 961.16730			42731.48837		229.54400		875.00000 
 43692.65567		 305.27265			43387.38302		69.16200		324.00000 
 43692.65567		 961.16730			42731.48837		229.54400		875.00000 
 43692.65567		 305.27265			43387.38302		69.16200		324.00000 
 43692.65567		 961.16730			42731.48837		229.54400		875.00000 
 43692.65567		 305.27265			43387.38302		69.16200		324.00000 
 43692.65567		 961.16730			42731.48837		229.54400		875.00000 
 43692.65567		 305.27265			43387.38302		69.16200		324.00000 
 43692.65567		 961.16730			42731.48837		229.54400		875.00000 
 43692.65567		 305.27265			43387.38302		69.16200		324.00000 
 43692.65567		 961.16730			42731.48837		229.54400		875.00000 
 43692.65567		 305.27265			43387.38302		69.16200		324.00000 
 43692.65567		 961.16730			42731.48837		229.54400		875.00000 
 43692.65567		 305.27265			43387.38302		69.16200		324.00000 
 43692.65567		 961.16730			42731.48837		229.54400		875.00000 
 43692.65567		 305.27265			43387.38302		69.16200		324.00000 
 43692.65567		 961.16730			42731.48837		229.54400		875.00000 
 43692.65567		 305.27265			43387.38302		69.16200		324.00000 
 43692.65567		 961.16730			42731.48837		229.54400		875.00000 
 43692.65567		 305.27265			43387.38302		69.16200		324.00000 
 43692.65567		 961.16730			42731.48837		229.54400		875.00000 
 43692.65567		 305.27265			43387.38302		69.16200		324.00000 
 43692.65567		 961.16730			42731.48837		229.54400		875.00000 
 43692.65567		 305.27265			43387.38302		69.16200		324.00000 
 43692.65567		 961.16730			42731.48837		229.54400		875.00000 
 43692.65567		 305.27265			43387.38302		69.16200		324.00000 
 43692.65567		 961.16730			42731.48837		229.54400		875.00000 
 43692.65567		 305.27265			43387.38302		69.16200		324.00000 
 43692.65567		 961.16730			42731.48837		229.54400		875.00000 
 43692.65567		 305.27265			43387.38302		69.16200		324.00000 
 43692.65567		 961.16730			42731.48837		229.54400		875.00000 
 43692.65567		 305.27265			43387.38302		69.16200		324.00000 
 43692.65567		 961.16730			42731.48837		229.54400		875.00000 
 43692.65567		 305.27265			43387.38302		69.16200		324.00000 
 43692.65567		 961.16730			42731.48837		229.54400		875.00000 
 43692.65567		 305.27265			43387.38302		69.16200		324.00000 
 43692.65567		 961.16730			42731.48837		229.54400		875.00000 
 43692.65567		 305.27265			43387.38302		69.16200		324.00000 
 43692.65567		 961.16730			42731.48837		229.54400		875.00000 
 43692.65567		 305.27265			43387.38302		69.16200		324.00000 
 43692.65567		 961.16730			42731.48837		229.54400		875.00000 
 43692.65567		 305.27265			43387.38302		69.16200		324.00000 
 43692.65567		 961.16730			42731.48837		229.54400		875.00000 
 43692.65567		 305.27265			43387.38302		69.16200		324.00000 
 43692.65567		 961.16730			42731.48837		229.54400		875.00000 
 43692.65567		 305.27265			43387.38302		69.16200		324.00000 
 43692.65567		 961.16730			42731.48837		229.54400		875.00000 
 43692.65567		 305.27265			43387.38302		69.16200		324.00000 
 43692.65567		 961.16730			42731.48837		229.54400		875.00000 
 43692.65567		 305.27265			43387.38302		69.16200		324.00000 
 43692.65567		 961.16730			42731.48837		229.54400		875.00000 
 43692.65567		 305.27265			43387.38302		69.16200		324.00000 
 43692.65567		 961.16730			42731.48837		229.54400		875.00000 
 43692.65567		 305.27265			43387.38302		69.16200		324.00000 
 43692.65567		 961.16730			42731.48837		229.54400		875.00000 
 43692.65567		 305.27265			43387.38302		69.16200		324.00000 
 43692.65567		 961.16730			42731.48837		229.54400		875.00000 
 43692.65567		 305.27265			43387.38302		69.16200		324.00000 
 43692.65567		 961.16730			42731.48837		229.54400		875.00000 
 43692.65567		 305.27265			43387.38302		69.16200		324.00000 
 43692.65567		 961.16730			42731.48837		229.54400		875.00000 
 43692.65567		 305.27265			43387.38302		69.16200		324.00000 
 43692.65567		 961.16730			42731.48837		229.54400		875.00000 
 43692.65567		 305.27265			43387.38302		69.16200		324.00000 
 43692.65567		 961.16730			42731.48837		229.54400		875.00000 
 43692.65567		 305.27265			43387.38302		69.16200		324.00000 
 43692.65567		 961.16730			42731.48837		229.54400		875.00000 
 43692.65567		 305.27265			43387.38302		69.16200		324.00000 
 43692.65567		 961.16730			42731.48837		229.54400		875.00000 
 43692.65567		 305.27265			43387.38302		69.16200		324.00000 
 43692.65567		 961.16730			42731.48837		229.54400		875.00000 
 43692.65567		 305.27265			43387.38302		69.16200		324.00000 
 43692.65567		 961.16730			42731.48837		229.54400		875.00000 
 43692.65567		 305.27265			43387.38302		69.16200		324.00000 
 43692.65567		 961.16730			42731.48837		229.54400		875.00000 
 43692.65567		 305.27265			43387.38302		69.16200		324.00000 
 43692.65567		 961.16730			42731.48837		229.54400		875.00000 
 43692.65567		 305.27265			43387.38302		69.16200		324.00000 
 43692.65567		 961.16730			42731.48837		229.54400		875.00000 
 43692.65567		 305.27265			43387.38302		69.16200		324.00000 
 43692.65567		 961.16730			42731.48837		229.54400		875.00000 
 43692.65567		 305.27265			43387.38302		69.16200		324.00000 
 43692.65567		 961.16730			42731.48837		229.54400		875.00000 
 43692.65567		 305.27265			43387.38302		69.16200		324.00000 
 43692.65567		 961.16730			42731.48837		229.54400		875.00000 
 43692.65567		 305.27265			43387.38302		69.16200		324.00000 
 43692.65567		 961.16730			42731.48837		229.54400		875.00000 
 43692.65567		 305.27265			43387.38302		69.16200		324.00000 
 43692.65567		 961.16730			42731.48837		229.54400		875.00000 
 43692.65567		 305.27265			43387.38302		69.16200		324.00000 
 43692.65567		 961.16730			42731.48837		229.54400		875.00000 
 43692.65567		 305.27265			43387.38302		69.16200		324.00000 
 43692.65567		 961.16730			42731.48837		229.54400		875.00000 
 43692.65567		 305.27265			43387.38302		69.16200		324.00000 
 43692.65567		 961.16730			42731.48837		229.54400		875.00000 
 43692.65567		 305.27265			43387.38302		69.16200		324.00000 
 43692.65567		 961.16730			42731.48837		229.54400		875.00000 
 43692.65567		 305.27265			43387.38302		69.16200		324.00000 
 43692.65567		 961.16730			42731.48837		229.54400		875.00000 
 43692.65567		 305.27265			43387.38302		69.16200		324.00000 
 43692.65567		 961.16730			42731.48837		229.54400		875.00000 
 43692.65567		 305.27265			43387.38302		69.16200		324.00000 
 43692.65567		 961.16730			42731.48837		229.54400		875.00000 
 43692.65567		 305.27265			43387.38302		69.16200		324.00000 
 43692.65567		 961.16730			42731.48837		229.54400		875.00000 
 43692.65567		 305.27265			43387.38302		69.16200		324.00000 
 43692.65567		 961.16730			42731.48837		229.54400		875.00000 
 43692.65567		 305.27265			43387.38302		69.16200		324.00000 
 43692.65567		 961.16730			42731.48837		229.54400		875.00000 
 43692.65567		 305.27265			43387.38302		69.16200		324.00000 
 43692.65567		 961.16730			42731.48837		229.54400		875.00000 
 43692.65567		 305.27265			43387.38302		69.16200		324.00000 
 43692.65567		 961.16730			42731.48837		229.54400		875.00000 
 43692.65567		 305.27265			43387.38302		69.16200		324.00000 
 43692.65567		 961.16730			42731.48837		229.54400		875.00000 
 43692.65567		 305.27265			43387.38302		69.16200		324.00000 
 43692.65567		 961.16730			42731.48837		229.54400		875.00000 
 43692.65567		 305.27265			43387.38302		69.16200		324.00000 
 43692.65567		 961.16730			42731.48837		229.54400		875.00000 
 43692.65567		 305.27265			43387.38302		69.16200		324.00000 
 43692.65567		 961.16730			42731.48837		229.54400		875.00000 
 43692.65567		 305.27265			43387.38302		69.16200		324.00000 
 43692.65567		 961.16730			42731.48837		229.54400		875.00000 
 43692.65567		 305.27265			43387.38302		69.16200		324.00000 
 43692.65567		 961.16730			42731.48837		229.54400		875.00000 
 43692.65567		 305.27265			43387.38302		69.16200		324.00000 
 43692.65567		 961.16730			42731.48837		229.54400		875.00000 
 43692.65567		 305.27265			43387.38302		69.16200		324.00000 
 43692.65567		 961.16730			42731.48837		229.54400		875.00000 
 43692.65567		 305.27265			43387.38302		69.16200		324.00000 
 43692.65567		 961.16730			42731.48837		229.54400		875.00000 
 43692.65567		 305.27265			43387.38302		69.16200		324.00000 
 43692.65567		 961.16730			42731.48837		229.54400		875.00000 
 43692.65567		 305.27265			43387.38302		69.16200		324.00000 
 43692.65567		 961.16730			42731.48837		229.54400		875.00000 
 43692.65567		 305.27265			43387.38302		69.16200		324.00000 
 43692.65567		 961.16730			42731.48837		229.54400		875.00000 
 43692.65567		 305.27265			43387.38302		69.16200		324.00000 
 43692.65567		 961.16730			42731.48837		229.54400		875.00000 
 43692.65567		 305.27265			43387.38302		69.16200		324.00000 
 43692.65567		 961.16730			42731.48837		229.54400		875.00000 
 43692.65567		 305.27265			43387.38302		69.16200		324.00000 
 43692.65567		 961.16730			42731.48837		229.54400		875.00000 
 43692.65567		 305.27265			43387.38302		69.16200		324.00000 
 43692.65567		 961.16730			42731.48837		229.54400		875.00000 
 43692.65567		 305.27265			43387.38302		69.16200		324.00000 
 43692.65567		 961.16730			42731.48837		229.54400		875.00000 
 43692.65567		 305.27265			43387.38302		69.16200		324.00000 
 43692.65567		 961.16730			42731.48837		229.54400		875.00000 
 43692.65567		 305.27265			43387.38302		69.16200		324.00000 
 43692.65567		 961.16730			42731.48837		229.54400		875.00000 
 43692.65567		 305.27265			43387.38302		69.16200		324.00000 
 43692.65567		 961.16730			42731.48837		229.54400		875.00000 
 43692.65567		 305.27265			43387.38302		69.16200		324.00000 
 43692.65567		 961.16730			42731.48837		229.54400		875.00000 
 43692.65567		 305.27265			43387.38302		69.16200		324.00000 
 43692.65567		 961.16730			42731.48837		229.54400		875.00000 
 43692.65567		 305.27265			43387.38302		69.16200		324.00000 
 43692.65567		 961.16730			42731.48837		229.54400		875.00000 
 43692.65567		 305.27265			43387.38302		69.16200		324.00000 
 43692.65567		 961.16730			42731.48837		229.54400		875.00000 
 43692.65567		 305.27265			43387.38302		69.16200		324.00000 
 43692.65567		 961.16730			42731.48837		229.54400		875.00000 
 43692.65567		 305.27265			43387.38302		69.16200		324.00000 
 43692.65567		 961.16730			42731.48837		229.54400		875.00000 
 43692.65567		 305.27265			43387.38302		69.16200		324.00000 
 43692.65567		 961.16730			42731.48837		229.54400		875.00000 
 43692.65567		 305.27265			43387.38302		69.16200		324.00000 
 43692.65567		 961.16730			42731.48837		229.54400		875.00000 
 43692.65567		 305.27265			43387.38302		69.16200		324.00000 
 43692.65567		 961.16730			42731.48837		229.54400		875.00000 
 43692.65567		 305.27265			43387.38302		69.16200		324.00000 
 43692.65567		 961.16730			42731.48837		229.54400		875.00000 
 43692.65567		 305.27265			43387.38302		69.16200		324.00000 
 43692.65567		 961.16730			42731.48837		229.54400		875.00000 
 43692.65567		 305.27265			43387.38302		69.16200		324.00000 
 43692.65567		 961.16730			42731.48837		229.54400		875.00000 
 43692.65567		 305.27265			43387.38302		69.16200		324.00000 
 43692.65567		 961.16730			42731.48837		229.54400		875.00000 
 43692.65567		 305.27265			43387.38302		69.16200		324.00000 
 43692.65567		 961.16730			42731.48837		229.54400		875.00000 
 43692.65567		 305.27265			43387.38302		69.16200		324.00000 
 43692.65567		 961.16730			42731.48837		229.54400		875.00000 
 43692.65567		 305.27265			43387.38302		69.16200		324.00000 
 43692.65567		 961.16730			42731.48837		229.54400		875.00000 
 43692.65567		 305.27265			43387.38302		69.16200		324.00000 
 43692.65567		 961.16730			42731.48837		229.54400		875.00000 
 43692.65567		 305.27265			43387.38302		69.16200		324.00000 
 43692.65567		 961.16730			42731.48837		229.54400		875.00000 
 43692.65567		 305.27265			43387.38302		69.16200		324.00000 
 43692.65567		 961.16730			42731.48837		229.54400		875.00000 
 43692.65567		 305.27265			43387.38302		69.16200		324.00000 
 43692.65567		 961.16730			42731.48837		229.54400		875.00000 
 43692.65567		 305.27265			43387.38302		69.16200		324.00000 
 43692.65567		 961.16730			42731.48837		229.54400		875.00000 
 43692.65567		 305.27265			43387.38302		69.16200		324.00000 
 43692.65567		 961.16730			42731.48837		229.54400		875.00000 
 43692.65567		 305.27265			43387.38302		69.16200		324.00000 
 43692.65567		 961.16730			42731.48837		229.54400		875.00000 
 43692.65567		 305.27265			43387.38302		69.16200		324.00000 
 43692.65567		 961.16730			42731.48837		229.54400		875.00000 
 43692.65567		 305.27265			43387.38302		69.16200		324.00000 
 43692.65567		 961.16730			42731.48837		229.54400		875.00000 
 43692.65567		 305.27265			43387.38302		69.16200		324.00000 
 43692.65567		 961.16730			42731.48837		229.54400		875.00000 
 43692.65567		 305.27265			43387.38302		69.16200		324.00000 
 43692.65567		 961.16730			42731.48837		229.54400		875.00000 
 43692.65567		 305.27265			43387.38302		69.16200		324.00000 
 43692.65567		 961.16730			42731.48837		229.54400		875.00000 
 43692.65567		 305.27265			43387.38302		69.16200		324.00000 
 43692.65567		 961.16730			42731.48837		229.54400		875.00000 
 43692.65567		 305.27265			43387.38302		69.16200		324.00000 
 43692.65567		 961.16730			42731.48837		229.54400		875.00000 
 43692.65567		 305.27265			43387.38302		69.16200		324.00000 
 43692.65567		 961.16730			42731.48837		229.54400		875.00000 
 43692.65567		 305.27265			43387.38302		69.16200		324.00000 
 43692.65567		 961.16730			42731.48837		229.54400		875.00000 
 43692.65567		 305.27265			43387.38302		69.16200		324.00000 
 43692.65567		 961.16730			42731.48837		229.54400		875.00000 
 43692.65567		 305.27265			43387.38302		69.16200		324.00000 
 43692.65567		 961.16730			42731.48837		229.54400		875.00000 
 43692.65567		 305.27265			43387.38302		69.16200		324.00000 
 43692.65567		 961.16730			42731.48837		229.54400		875.00000 
 43692.65567		 305.27265			43387.38302		69.16200		324.00000 
 43692.65567		 961.16730			42731.48837		229.54400		875.00000 
 43692.65567		 305.27265			43387.38302		69.16200		324.00000 
 43692.65567		 961.16730			42731.48837		229.54400		875.00000 
 43692.65567		 305.27265			43387.38302		69.16200		324.00000 
 43692.65567		 961.16730			42731.48837		229.54400		875.00000 
 43692.65567		 305.27265			43387.38302		69.16200		324.00000 
 43692.65567		 961.16730			42731.48837		229.54400		875.00000 
 43692.65567		 305.27265			43387.38302		69.16200		324.00000 
 43692.65567		 961.16730			42731.48837		229.54400		875.00000 
 43692.65567		 305.27265			43387.38302		68.68200		324.00000 
 43692.65567		 961.16730			42731.48837		229.54400		875.00000 
 43692.65567		 305.27265			43387.38302		68.68200		324.00000 
 43692.65567		 961.16730			42731.48837		229.54400		875.00000 
 43692.65567		 305.27265			43387.38302		68.68200		324.00000 
 43692.65567		 961.16730			42731.48837		229.54400		875.00000 
 43692.65567		 305.27265			43387.38302		68.68200		324.00000 
 43692.65567		 961.16730			42731.48837		229.54400		875.00000 
 43692.65567		 305.27265			43387.38302		68.68200		324.00000 
 43692.65567		 961.16730			42731.48837		229.54400		875.00000 
 43692.65567		 305.27265			43387.38302		68.68200		324.00000 
 43692.65567		 961.16730			42731.48837		229.54400		875.00000 
 43692.65567		 305.27265			43387.38302		68.68200		324.00000 
 43692.65567		 961.16730			42731.48837		229.54400		875.00000 
 43692.65567		 305.27265			43387.38302		68.68200		324.00000 
 43692.65567		 961.16730			42731.48837		229.54400		875.00000 
 43692.65567		 305.27265			43387.38302		68.68200		324.00000 
 43692.65567		 961.16730			42731.48837		229.54400		875.00000 
 43692.65567		 305.27265			43387.38302		68.68200		324.00000 
 43692.65567		 961.16730			42731.48837		229.54400		875.00000 
 43692.65567		 305.27265			43387.38302		68.68200		324.00000 
 43692.65567		 961.16730			42731.48837		229.54400		875.00000 
 43692.65567		 305.27265			43387.38302		68.68200		324.00000 
 43692.65567		 961.16730			42731.48837		229.54400		875.00000 
 43692.65567		 305.27265			43387.38302		68.68200		324.00000 
 43692.65567		 961.16730			42731.48837		229.54400		875.00000 
 43692.65567		 305.27265			43387.38302		68.68200		324.00000 
 43692.65567		 961.16730			42731.48837		229.54400		875.00000 
 43692.65567		 305.27265			43387.38302		68.68200		324.00000 
 43692.65567		 961.16730			42731.48837		229.54400		875.00000 
 43692.65567		 305.27265			43387.38302		68.68200		324.00000 
 43692.65567		 961.16730			42731.48837		229.54400		875.00000 
 43692.65567		 305.27265			43387.38302		68.68200		324.00000 
 43692.65567		 961.16730			42731.48837		229.54400		875.00000 
 43692.65567		 305.27265			43387.38302		68.68200		324.00000 
 43692.65567		 961.16730			42731.48837		229.54400		875.00000 
 43692.65567		 305.27265			43387.38302		68.68200		324.00000 
 43692.65567		 961.16730			42731.48837		229.54400		875.00000 
 43692.65567		 305.27265			43387.38302		68.68200		324.00000 
 43692.65567		 961.16730			42731.48837		229.54400		875.00000 
 43692.65567		 305.27265			43387.38302		68.68200		324.00000 
 43692.65567		 961.16730			42731.48837		229.54400		875.00000 
 43692.65567		 305.27265			43387.38302		68.68200		324.00000 
 43692.65567		 961.16730			42731.48837		229.54400		875.00000 
 43692.65567		 305.27265			43387.38302		68.68200		324.00000 
 43692.65567		 961.16730			42731.48837		229.54400		875.00000 
 43692.65567		 305.27265			43387.38302		68.68200		324.00000 
 43692.65567		 961.16730			42731.48837		229.54400		875.00000 
 43692.65567		 305.27265			43387.38302		68.68200		324.00000 
 43692.65567		 961.16730			42731.48837		229.54400		875.00000 
 43692.65567		 305.27265			43387.38302		68.68200		324.00000 
 43692.65567		 961.16730			42731.48837		229.54400		875.00000 
 43692.65567		 305.27265			43387.38302		68.68200		324.00000 
 43692.65567		 961.16730			42731.48837		229.54400		875.00000 
 43692.65567		 305.27265			43387.38302		68.68200		324.00000 
 43692.65567		 961.16730			42731.48837		229.54400		875.00000 
 43692.65567		 305.27265			43387.38302		68.68200		324.00000 
 43692.65567		 961.16730			42731.48837		229.54400		875.00000 
 43692.65567		 305.27265			43387.38302		68.68200		324.00000 
 43692.65567		 961.16730			42731.48837		229.54400		875.00000 
 43692.65567		 305.27265			43387.38302		68.68200		324.00000 
 43692.65567		 961.16730			42731.48837		229.54400		875.00000 
 43692.65567		 305.27265			43387.38302		68.68200		324.00000 
 43692.65567		 961.16730			42731.48837		229.54400		875.00000 
 43692.65567		 305.27265			43387.38302		68.68200		324.00000 
 43692.65567		 961.16730			42731.48837		228.94600		875.00000 
 43692.65567		 305.27265			43387.38302		68.68200		324.00000 
 43692.65567		 961.16730			42731.48837		228.94600		875.00000 
 43692.65567		 305.27265			43387.38302		68.68200		324.00000 
 43692.65567		 961.16730			42731.48837		228.94600		875.00000 
 43692.65567		 305.27265			43387.38302		68.68200		324.00000 
 43692.65567		 961.16730			42731.48837		228.94600		875.00000 
 43692.65567		 305.27265			43387.38302		68.68200		324.00000 
 43692.65567		 961.16730			42731.48837		228.94600		875.00000 
 43692.65567		 305.27265			43387.38302		68.68200		324.00000 
 43692.65567		 961.16730			42731.48837		228.94600		875.00000 
 43692.65567		 305.27265			43387.38302		68.68200		324.00000 
 43692.65567		 961.16730			42731.48837		228.94600		875.00000 
 43692.65567		 305.27265			43387.38302		68.68200		324.00000 
 43692.65567		 961.16730			42731.48837		228.94600		875.00000 
 43692.65567		 305.27265			43387.38302		68.68200		324.00000 
 43692.65567		 961.16730			42731.48837		228.94600		875.00000 
 43692.65567		 305.27265			43387.38302		68.68200		324.00000 
 43692.65567		 961.16730			42731.48837		228.94600		875.00000 
 43692.65567		 305.27265			43387.38302		68.68200		324.00000 
 43692.65567		 961.16730			42731.48837		228.94600		875.00000 
 43692.65567		 305.27265			43387.38302		68.68200		324.00000 
 43692.65567		 961.16730			42731.48837		228.94600		875.00000 
 43692.65567		 305.27265			43387.38302		68.68200		324.00000 
 43692.65567		 961.16730			42731.48837		228.94600		875.00000 
 43692.65567		 305.27265			43387.38302		68.68200		324.00000 
 43692.65567		 961.16730			42731.48837		228.94600		875.00000 
 43692.65567		 305.27265			43387.38302		68.68200		324.00000 
 43692.65567		 961.16730			42731.48837		228.94600		875.00000 
 43692.65567		 305.27265			43387.38302		68.68200		324.00000 
 43692.65567		 961.16730			42731.48837		228.94600		875.00000 
 43692.65567		 305.27265			43387.38302		68.68200		324.00000 
 43692.65567		 961.16730			42731.48837		228.94600		875.00000 
 43692.65567		 305.27265			43387.38302		68.68200		324.00000 
 43692.65567		 961.16730			42731.48837		228.94600		875.00000 
 43692.65567		 305.27265			43387.38302		68.68200		324.00000 
 43692.65567		 961.16730			42731.48837		228.94600		875.00000 
 43692.65567		 305.27265			43387.38302		68.68200		324.00000 
 43692.65567		 961.16730			42731.48837		228.94600		875.00000 
 43692.65567		 305.27265			43387.38302		68.68200		324.00000 
 43692.65567		 961.16730			42731.48837		228.94600		875.00000 
 43692.65567		 305.27265			43387.38302		68.68200		324.00000 
 43692.65567		 961.16730			42731.48837		228.94600		875.00000 
 43692.65567		 305.27265			43387.38302		68.68200		324.00000 
 43692.65567		 961.16730			42731.48837		228.94600		875.00000 
 43692.65567		 305.27265			43387.38302		68.68200		324.00000 
 43692.65567		 961.16730			42731.48837		228.94600		875.00000 
 43692.65567		 305.27265			43387.38302		68.68200		324.00000 
 43692.65567		 961.16730			42731.48837		228.94600		875.00000 
 43692.65567		 305.27265			43387.38302		68.68200		324.00000 
 43692.65567		 961.16730			42731.48837		228.94600		875.00000 
 43692.65567		 305.27265			43387.38302		68.68200		324.00000 
 43692.65567		 961.16730			42731.48837		228.94600		875.00000 
 43692.65567		 305.27265			43387.38302		68.68200		324.00000 
 43692.65567		 961.16730			42731.48837		228.94600		875.00000 
 43692.65567		 305.27265			43387.38302		68.68200		324.00000 
 43692.65567		 961.16730			42731.48837		228.94600		875.00000 
 43692.65567		 305.27265			43387.38302		68.68200		324.00000 
 43692.65567		 961.16730			42731.48837		228.94600		875.00000 
 43692.65567		 305.27265			43387.38302		68.68200		324.00000 
 43692.65567		 961.16730			42731.48837		228.94600		875.00000 
 43692.65567		 305.27265			43387.38302		68.68200		324.00000 
 43692.65567		 961.16730			42731.48837		228.94600		875.00000 
 43692.65567		 305.27265			43387.38302		68.68200		324.00000 
 43692.65567		 961.16730			42731.48837		228.94600		875.00000 
 43692.65567		 305.27265			43387.38302		68.68200		324.00000 
 43692.65567		 961.16730			42731.48837		228.94600		875.00000 
 43692.65567		 305.27265			43387.38302		68.68200		324.00000 
 43692.65567		 961.16730			42731.48837		228.94600		875.00000 
 43692.65567		 305.27265			43387.38302		68.68200		324.00000 
 43692.65567		 961.16730			42731.48837		228.94600		875.00000 
 43692.65567		 305.27265			43387.38302		68.68200		324.00000 
 43692.65567		 961.16730			42731.48837		228.94600		875.00000 
 43692.65567		 305.27265			43387.38302		68.68200		324.00000 
 43692.65567		 961.16730			42731.48837		228.94600		875.00000 
 43692.65567		 305.27265			43387.38302		68.68200		324.00000 
 43692.65567		 961.16730			42731.48837		228.94600		875.00000 
 43692.65567		 305.27265			43387.38302		68.68200		324.00000 
 43692.65567		 961.16730			42731.48837		228.94600		875.00000 
 43692.65567		 305.27265			43387.38302		68.68200		324.00000 
 43692.65567		 961.16730			42731.48837		228.94600		875.00000 
 43692.65567		 305.27265			43387.38302		68.68200		324.00000 
 43692.65567		 961.16730			42731.48837		228.94600		875.00000 
 43692.65567		 305.27265			43387.38302		68.68200		324.00000 
 43692.65567		 961.16730			42731.48837		228.94600		875.00000 
 43692.65567		 305.27265			43387.38302		68.68200		324.00000 
 43692.65567		 961.16730			42731.48837		228.94600		875.00000 
 43692.65567		 305.27265			43387.38302		68.68200		324.00000 
 43692.65567		 961.16730			42731.48837		228.94600		875.00000 
 43692.65567		 305.27265			43387.38302		68.68200		324.00000 
 43692.65567		 961.16730			42731.48837		228.94600		875.00000 
 43692.65567		 305.27265			43387.38302		68.68200		324.00000 
 43692.65567		 961.16730			42731.48837		228.94600		875.00000 
 43692.65567		 305.27265			43387.38302		68.68200		324.00000 
 43692.65567		 961.16730			42731.48837		228.94600		875.00000 
 43692.65567		 305.27265			43387.38302		68.68200		324.00000 
 43692.65567		 961.16730			42731.48837		228.94600		875.00000 
 43692.65567		 305.27265			43387.38302		68.68200		324.00000 
 43692.65567		 961.16730			42731.48837		228.94600		875.00000 
 43692.65567		 305.27265			43387.38302		68.68200		324.00000 
 43692.65567		 961.16730			42731.48837		228.94600		875.00000 
 43692.65567		 305.27265			43387.38302		68.68200		324.00000 
 43692.65567		 961.16730			42731.48837		228.94600		875.00000 
 43692.65567		 305.27265			43387.38302		68.68200		324.00000 
 43692.65567		 961.16730			42731.48837		228.94600		875.00000 
 43692.65567		 305.27265			43387.38302		68.68200		324.00000 
 43692.65567		 961.16730			42731.48837		228.94600		875.00000 
 43692.65567		 305.27265			43387.38302		68.68200		324.00000 
 43692.65567		 961.16730			42731.48837		228.94600		875.00000 
 43692.65567		 305.27265			43387.38302		68.68200		324.00000 
 43692.65567		 961.16730			42731.48837		228.94600		875.00000 
 43692.65567		 305.27265			43387.38302		68.68200		324.00000 
 43692.65567		 961.16730			42731.48837		228.94600		875.00000 
 43692.65567		 305.27265			43387.38302		68.68200		324.00000 
 43692.65567		 961.16730			42731.48837		228.94600		875.00000 
 43692.65567		 305.27265			43387.38302		68.68200		324.00000 
 43692.65567		 961.16730			42731.48837		228.94600		875.00000 
 43692.65567		 305.27265			43387.38302		68.68200		324.00000 
 43692.65567		 961.16730			42731.48837		228.94600		875.00000 
 43692.65567		 305.27265			43387.38302		68.68200		324.00000 
 43692.65567		 961.16730			42731.48837		228.94600		875.00000 
 43692.65567		 305.27265			43387.38302		68.68200		324.00000 
 43692.65567		 961.16730			42731.48837		228.94600		875.00000 
 43692.65567		 305.27265			43387.38302		68.68200		324.00000 
 43692.65567		 961.16730			42731.48837		228.94600		875.00000 
 43692.65567		 305.27265			43387.38302		68.68200		324.00000 
 43692.65567		 961.16730			42731.48837		228.94600		875.00000 
 43692.65567		 305.27265			43387.38302		68.68200		324.00000 
 43692.65567		 961.16730			42731.48837		228.94600		875.00000 
 43692.65567		 305.27265			43387.38302		68.68200		324.00000 
 43692.65567		 961.16730			42731.48837		228.94600		875.00000 
 43692.65567		 305.27265			43387.38302		68.68200		324.00000 
 43692.65567		 961.16730			42731.48837		228.94600		875.00000 
 43692.65567		 305.27265			43387.38302		68.68200		324.00000 
 43692.65567		 961.16730			42731.48837		228.94600		875.00000 
 43692.65567		 305.27265			43387.38302		68.68200		324.00000 
 43692.65567		 961.16730			42731.48837		228.94600		875.00000 
 43692.65567		 305.27265			43387.38302		68.68200		324.00000 
 43692.65567		 961.16730			42731.48837		228.94600		875.00000 
 43692.65567		 305.27265			43387.38302		68.68200		324.00000 
 43692.65567		 961.16730			42731.48837		228.94600		875.00000 
 43692.65567		 305.27265			43387.38302		68.68200		324.00000 
 43692.65567		 961.16730			42731.48837		228.94600		875.00000 
 43692.65567		 305.27265			43387.38302		68.68200		324.00000 
 43692.65567		 961.16730			42731.48837		228.94600		875.00000 
 43692.65567		 305.27265			43387.38302		68.68200		324.00000 
 43692.65567		 961.16730			42731.48837		228.94600		875.00000 
 43692.65567		 305.27265			43387.38302		68.68200		324.00000 
 43692.65567		 961.16730			42731.48837		228.94600		875.00000 
 43692.65567		 305.27265			43387.38302		68.68200		324.00000 
 43692.65567		 961.16730			42731.48837		228.94600		875.00000 
 43692.65567		 305.27265			43387.38302		68.68200		324.00000 
 43692.65567		 961.16730			42731.48837		228.94600		875.00000 
 43692.65567		 305.27265			43387.38302		68.68200		324.00000 
 43692.65567		 961.16730			42731.48837		228.94600		875.00000 
 43692.65567		 305.27265			43387.38302		68.68200		324.00000 
 43692.65567		 961.16730			42731.48837		228.94600		875.00000 
 43692.65567		 305.27265			43387.38302		68.68200		324.00000 
 43692.65567		 961.16730			42731.48837		228.94600		875.00000 
 43692.65567		 305.27265			43387.38302		68.68200		324.00000 
 43692.65567		 961.16730			42731.48837		228.94600		875.00000 
 43692.65567		 305.27265			43387.38302		68.68200		324.00000 
 43692.65567		 961.16730			42731.48837		228.94600		875.00000 
 43692.65567		 305.27265			43387.38302		68.68200		324.00000 
 43692.65567		 961.16730			42731.48837		228.94600		875.00000 
 43692.65567		 305.27265			43387.38302		68.68200		324.00000 
 43692.65567		 961.16730			42731.48837		228.94600		875.00000 
 43692.65567		 305.27265			43387.38302		68.68200		324.00000 
 43692.65567		 961.16730			42731.48837		228.94600		875.00000 
 43692.65567		 305.27265			43387.38302		68.68200		324.00000 
 43692.65567		 961.16730			42731.48837		228.94600		875.00000 
 43692.65567		 305.27265			43387.38302		68.68200		324.00000 
 43692.65567		 961.16730			42731.48837		228.94600		875.00000 
 43692.65567		 305.27265			43387.38302		68.68200		324.00000 
 43692.65567		 961.16730			42731.48837		228.94600		875.00000 
 43692.65567		 305.27265			43387.38302		68.68200		324.00000 
 43692.65567		 961.16730			42731.48837		228.94600		875.00000 
 43692.65567		 305.27265			43387.38302		68.68200		324.00000 
 43692.65567		 961.16730			42731.48837		228.94600		875.00000 
 43692.65567		 305.27265			43387.38302		68.68200		324.00000 
 43692.65567		 961.16730			42731.48837		228.94600		875.00000 
 43692.65567		 305.27265			43387.38302		68.68200		324.00000 
 43692.65567		 961.16730			42731.48837		228.94600		875.00000 
 43692.65567		 305.27265			43387.38302		68.68200		324.00000 
 43692.65567		 961.16730			42731.48837		228.94600		875.00000 
 43692.65567		 305.27265			43387.38302		68.68200		324.00000 
 43692.65567		 961.16730			42731.48837		228.94600		875.00000 
 43692.65567		 305.27265			43387.38302		68.68200		324.00000 
 43692.65567		 961.16730			42731.48837		228.94600		875.00000 
 43692.65567		 305.27265			43387.38302		68.68200		324.00000 
 43692.65567		 961.16730			42731.48837		228.94600		875.00000 
 43692.65567		 305.27265			43387.38302		68.68200		324.00000 
 43692.65567		 961.16730			42731.48837		228.94600		875.00000 
 43692.65567		 305.27265			43387.38302		68.68200		324.00000 
 43692.65567		 961.16730			42731.48837		228.94600		875.00000 
 43692.65567		 305.27265			43387.38302		68.68200		324.00000 
 43692.65567		 961.16730			42731.48837		228.94600		875.00000 
 43692.65567		 305.27265			43387.38302		68.68200		324.00000 
 43692.65567		 961.16730			42731.48837		228.94600		875.00000 
 43692.65567		 305.27265			43387.38302		68.68200		324.00000 
 43692.65567		 961.16730			42731.48837		228.94600		875.00000 
 43692.65567		 305.27265			43387.38302		68.68200		324.00000 
 43692.65567		 961.16730			42731.48837		228.94600		875.00000 
 43692.65567		 305.27265			43387.38302		68.68200		324.00000 
 43692.65567		 961.16730			42731.48837		228.94600		875.00000 
 43692.65567		 305.27265			43387.38302		68.68200		324.00000 
 43692.65567		 961.16730			42731.48837		228.94600		875.00000 
 43692.65567		 305.27265			43387.38302		68.68200		324.00000 
 43692.65567		 961.16730			42731.48837		228.94600		875.00000 
 43692.65567		 305.27265			43387.38302		68.68200		324.00000 
 43692.65567		 961.16730			42731.48837		228.94600		875.00000 
 43692.65567		 305.27265			43387.38302		68.68200		324.00000 
 43692.65567		 961.16730			42731.48837		228.94600		875.00000 
 43692.65567		 305.27265			43387.38302		68.68200		324.00000 
 43692.65567		 961.16730			42731.48837		228.94600		875.00000 
 43692.65567		 305.27265			43387.38302		68.68200		324.00000 
 43692.65567		 961.16730			42731.48837		228.94600		875.00000 
 43692.65567		 305.27265			43387.38302		68.68200		324.00000 
 43692.65567		 961.16730			42731.48837		228.94600		875.00000 
 43692.65567		 305.27265			43387.38302		68.68200		324.00000 
 43692.65567		 961.16730			42731.48837		228.94600		875.00000 
 43692.65567		 305.27265			43387.38302		68.68200		324.00000 
 43692.65567		 961.16730			42731.48837		228.94600		875.00000 
 43692.65567		 305.27265			43387.38302		68.68200		324.00000 
 43692.65567		 961.16730			42731.48837		228.94600		875.00000 
 43692.65567		 305.27265			43387.38302		68.68200		324.00000 
 43692.65567		 961.16730			42731.48837		228.94600		875.00000 
 43692.65567		 305.27265			43387.38302		68.68200		324.00000 
 43692.65567		 961.16730			42731.48837		228.94600		875.00000 
 43692.65567		 305.27265			43387.38302		68.68200		324.00000 
 43692.65567		 961.16730			42731.48837		228.94600		875.00000 
 43692.65567		 305.27265			43387.38302		68.68200		324.00000 
 43692.65567		 961.16730			42731.48837		228.94600		875.00000 
 43692.65567		 305.27265			43387.38302		68.68200		324.00000 
 43692.65567		 961.16730			42731.48837		228.94600		875.00000 
 43692.65567		 305.27265			43387.38302		68.68200		324.00000 
 43692.65567		 961.16730			42731.48837		228.94600		875.00000 
 43692.65567		 305.27265			43387.38302		68.68200		324.00000 
 43692.65567		 961.16730			42731.48837		228.94600		875.00000 
 43692.65567		 305.27265			43387.38302		68.68200		324.00000 
 43692.65567		 961.16730			42731.48837		228.94600		875.00000 
 43692.65567		 305.27265			43387.38302		68.68200		324.00000 
 43692.65567		 961.16730			42731.48837		228.94600		875.00000 
 43692.65567		 305.27265			43387.38302		68.68200		324.00000 
 43692.65567		 961.16730			42731.48837		228.94600		875.00000 
 43692.65567		 305.27265			43387.38302		68.68200		324.00000 
 43692.65567		 961.16730			42731.48837		228.94600		875.00000 
 43692.65567		 305.27265			43387.38302		68.68200		324.00000 
 43692.65567		 961.16730			42731.48837		228.94600		875.00000 
 43692.65567		 305.27265			43387.38302		68.68200		324.00000 
 43692.65567		 961.16730			42731.48837		228.94600		875.00000 
 43692.65567		 305.27265			43387.38302		68.68200		324.00000 
 43692.65567		 961.16730			42731.48837		228.94600		875.00000 
 43692.65567		 305.27265			43387.38302		68.68200		324.00000 
 43692.65567		 961.16730			42731.48837		228.94600		875.00000 
 43692.65567		 305.27265			43387.38302		68.68200		324.00000 
 43692.65567		 961.16730			42731.48837		228.94600		875.00000 
 43692.65567		 305.27265			43387.38302		68.68200		324.00000 
 43692.65567		 961.16730			42731.48837		229.54400		875.00000 
 43692.65567		 305.27265			43387.38302		68.68200		324.00000 
 43692.65567		 961.16730			42731.48837		229.54400		875.00000 
 43692.65567		 305.27265			43387.38302		68.68200		324.00000 
 43692.65567		 961.16730			42731.48837		229.54400		875.00000 
 43692.65567		 305.27265			43387.38302		68.68200		324.00000 
 43692.65567		 961.16730			42731.48837		229.54400		875.00000 
 43692.65567		 305.27265			43387.38302		68.68200		324.00000 
 43692.65567		 961.16730			42731.48837		229.54400		875.00000 
 43692.65567		 305.27265			43387.38302		68.68200		324.00000 
 43692.65567		 961.16730			42731.48837		229.54400		875.00000 
 43692.65567		 305.27265			43387.38302		68.68200		324.00000 
 43692.65567		 961.16730			42731.48837		229.54400		875.00000 
 43692.65567		 305.27265			43387.38302		68.68200		324.00000 
 43692.65567		 961.16730			42731.48837		229.54400		875.00000 
 43692.65567		 305.27265			43387.38302		68.68200		324.00000 
 43692.65567		 961.16730			42731.48837		229.54400		875.00000 
 43692.65567		 305.27265			43387.38302		68.68200		324.00000 
 43692.65567		 961.16730			42731.48837		229.54400		875.00000 
 43692.65567		 305.27265			43387.38302		68.68200		324.00000 
 43692.65567		 961.16730			42731.48837		229.54400		875.00000 
 43692.65567		 305.27265			43387.38302		68.68200		324.00000 
 43692.65567		 961.16730			42731.48837		229.54400		875.00000 
 43692.65567		 305.27265			43387.38302		68.68200		324.00000 
 43692.65567		 961.16730			42731.48837		229.54400		875.00000 
 43692.65567		 305.27265			43387.38302		68.68200		324.00000 
 43692.65567		 961.16730			42731.48837		229.54400		875.00000 
 43692.65567		 305.27265			43387.38302		68.68200		324.00000 
 43692.65567		 961.16730			42731.48837		229.54400		875.00000 
 43692.65567		 305.27265			43387.38302		68.68200		324.00000 
 43692.65567		 961.16730			42731.48837		229.54400		875.00000 
 43692.65567		 305.27265			43387.38302		68.68200		324.00000 
 43692.65567		 961.16730			42731.48837		229.54400		875.00000 
 43692.65567		 305.27265			43387.38302		68.68200		324.00000 
 43692.65567		 961.16730			42731.48837		229.54400		875.00000 
 43692.65567		 305.27265			43387.38302		68.68200		324.00000 
 43692.65567		 961.16730			42731.48837		229.54400		875.00000 
 43692.65567		 305.27265			43387.38302		68.68200		324.00000 
 43692.65567		 961.16730			42731.48837		229.54400		875.00000 
 43692.65567		 305.27265			43387.38302		68.68200		324.00000 
 43692.65567		 961.16730			42731.48837		229.54400		875.00000 
 43692.65567		 305.27265			43387.38302		68.68200		324.00000 
 43692.65567		 961.16730			42731.48837		229.54400		875.00000 
 43692.65567		 305.27265			43387.38302		68.68200		324.00000 
 43692.65567		 961.16730			42731.48837		229.54400		875.00000 
 43692.65567		 305.27265			43387.38302		68.68200		324.00000 
 43692.65567		 961.16730			42731.48837		229.54400		875.00000 
 43692.65567		 305.27265			43387.38302		68.68200		324.00000 
 43692.65567		 961.16730			42731.48837		229.54400		875.00000 
 43692.65567		 305.27265			43387.38302		68.68200		324.00000 
 43692.65567		 961.16730			42731.48837		229.54400		875.00000 
 43692.65567		 305.27265			43387.38302		68.68200		324.00000 
 43692.65567		 961.16730			42731.48837		229.54400		875.00000 
 43692.65567		 305.27265			43387.38302		68.68200		324.00000 
 43692.65567		 961.16730			42731.48837		229.54400		875.00000 
 43692.65567		 305.27265			43387.38302		68.68200		324.00000 
 43692.65567		 961.16730			42731.48837		229.54400		875.00000 
 43692.65567		 305.27265			43387.38302		68.68200		324.00000 
 43692.65567		 961.16730			42731.48837		229.54400		875.00000 
 43692.65567		 305.27265			43387.38302		68.68200		324.00000 
 43692.65567		 961.16730			42731.48837		229.54400		875.00000 
 43692.65567		 305.27265			43387.38302		68.68200		324.00000 
 43692.65567		 961.16730			42731.48837		229.54400		875.00000 
 43692.65567		 305.27265			43387.38302		68.68200		324.00000 
 43692.65567		 961.16730			42731.48837		229.54400		875.00000 
 43692.65567		 305.27265			43387.38302		68.68200		324.00000 
 43692.65567		 961.16730			42731.48837		229.54400		875.00000 
 43692.65567		 305.27265			43387.38302		68.68200		324.00000 
 43692.65567		 961.16730			42731.48837		229.54400		875.00000 
 43692.65567		 305.27265			43387.38302		68.68200		324.00000 
 43692.65567		 961.16730			42731.48837		229.54400		875.00000 
 43692.65567		 305.27265			43387.38302		68.68200		324.00000 
 43692.65567		 961.16730			42731.48837		229.54400		875.00000 
 43692.65567		 305.27265			43387.38302		68.68200		324.00000 
 43692.65567		 961.16730			42731.48837		229.54400		875.00000 
 43692.65567		 305.27265			43387.38302		68.68200		324.00000 
 43692.65567		 961.16730			42731.48837		229.54400		875.00000 
 43692.65567		 305.27265			43387.38302		68.68200		324.00000 
 43692.65567		 961.16730			42731.48837		229.54400		875.00000 
 43692.65567		 305.27265			43387.38302		68.68200		324.00000 
 43692.65567		 961.16730			42731.48837		229.54400		875.00000 
 43692.65567		 305.27265			43387.38302		68.68200		324.00000 
 43692.65567		 961.16730			42731.48837		229.54400		875.00000 
 43692.65567		 305.27265			43387.38302		68.68200		324.00000 
 43692.65567		 961.16730			42731.48837		229.54400		875.00000 
 43692.65567		 305.27265			43387.38302		68.68200		324.00000 
 43692.65567		 961.16730			42731.48837		229.54400		875.00000 
 43692.65567		 305.27265			43387.38302		68.68200		324.00000 
 43692.65567		 961.16730			42731.48837		229.54400		875.00000 
 43692.65567		 305.27265			43387.38302		68.68200		324.00000 
 43692.65567		 961.16730			42731.48837		229.54400		875.00000 
 43692.65567		 305.27265			43387.38302		68.68200		324.00000 
 43692.65567		 961.16730			42731.48837		229.54400		875.00000 
 43692.65567		 305.27265			43387.38302		68.68200		324.00000 
 43692.65567		 961.16730			42731.48837		229.54400		875.00000 
 43692.65567		 305.27265			43387.38302		68.68200		324.00000 
 43692.65567		 961.16730			42731.48837		229.54400		875.00000 
 43692.65567		 305.27265			43387.38302		68.68200		324.00000 
 43692.65567		 961.16730			42731.48837		229.54400		875.00000 
 43692.65567		 305.27265			43387.38302		68.68200		324.00000 
 43692.65567		 961.16730			42731.48837		229.54400		875.00000 
 43692.65567		 305.27265			43387.38302		68.68200		324.00000 
 43692.65567		 961.16730			42731.48837		229.54400		875.00000 
 43692.65567		 305.27265			43387.38302		68.68200		324.00000 
 43692.65567		 961.16730			42731.48837		229.54400		875.00000 
 43692.65567		 305.27265			43387.38302		68.68200		324.00000 
 43692.65567		 961.16730			42731.48837		229.54400		875.00000 
 43692.65567		 305.27265			43387.38302		68.68200		324.00000 
 43692.65567		 961.16730			42731.48837		229.54400		875.00000 
 43692.65567		 305.27265			43387.38302		68.68200		324.00000 
 43692.65567		 961.16730			42731.48837		229.54400		875.00000 
 43692.65567		 305.27265			43387.38302		68.68200		324.00000 
 43692.65567		 961.16730			42731.48837		229.54400		875.00000 
 43692.65567		 305.27265			43387.38302		68.68200		324.00000 
 43692.65567		 961.16730			42731.48837		229.54400		875.00000 
 43692.65567		 305.27265			43387.38302		68.68200		324.00000 
 43692.65567		 961.16730			42731.48837		229.54400		875.00000 
 43692.65567		 305.27265			43387.38302		68.68200		324.00000 
 43692.65567		 961.16730			42731.48837		229.54400		875.00000 
 43692.65567		 305.27265			43387.38302		68.68200		324.00000 
 43692.65567		 961.16730			42731.48837		229.54400		875.00000 
 43692.65567		 305.27265			43387.38302		68.68200		324.00000 
 43692.65567		 961.16730			42731.48837		229.54400		875.00000 
 43692.65567		 305.27265			43387.38302		68.68200		324.00000 
 43692.65567		 961.16730			42731.48837		229.54400		875.00000 
 43692.65567		 305.27265			43387.38302		68.68200		324.00000 
 43692.65567		 961.16730			42731.48837		229.54400		875.00000 
 43692.65567		 305.27265			43387.38302		68.68200		324.00000 
 43692.65567		 961.16730			42731.48837		229.54400		875.00000 
 43692.65567		 305.27265			43387.38302		68.68200		324.00000 
 43692.65567		 961.16730			42731.48837		229.54400		875.00000 
 43692.65567		 305.27265			43387.38302		68.68200		324.00000 
 43692.65567		 961.16730			42731.48837		229.54400		875.00000 
 43692.65567		 305.27265			43387.38302		68.68200		324.00000 
 43692.65567		 961.16730			42731.48837		229.54400		875.00000 
 43692.65567		 305.27265			43387.38302		68.68200		324.00000 
 43692.65567		 961.16730			42731.48837		229.54400		875.00000 
 43692.65567		 305.27265			43387.38302		68.68200		324.00000 
 43692.65567		 961.16730			42731.48837		229.54400		875.00000 
 43692.65567		 305.27265			43387.38302		68.68200		324.00000 
 43692.65567		 961.16730			42731.48837		229.54400		875.00000 
 43692.65567		 305.27265			43387.38302		68.68200		324.00000 
 43692.65567		 961.16730			42731.48837		229.54400		875.00000 
 43692.65567		 305.27265			43387.38302		68.68200		324.00000 
 43692.65567		 961.16730			42731.48837		229.54400		875.00000 
 43692.65567		 305.27265			43387.38302		68.68200		324.00000 
 43692.65567		 961.16730			42731.48837		229.54400		875.00000 
 43692.65567		 305.27265			43387.38302		68.68200		324.00000 
 43692.65567		 961.16730			42731.48837		229.54400		875.00000 
 43692.65567		 305.27265			43387.38302		68.68200		324.00000 
 43692.65567		 961.16730			42731.48837		229.54400		875.00000 
 43692.65567		 305.27265			43387.38302		68.68200		324.00000 
 43692.65567		 961.16730			42731.48837		229.54400		875.00000 
 43692.65567		 305.27265			43387.38302		68.68200		324.00000 
 43692.65567		 961.16730			42731.48837		229.54400		875.00000 
 43692.65567		 305.27265			43387.38302		68.68200		324.00000 
 43692.65567		 961.16730			42731.48837		229.54400		875.00000 
 43692.65567		 305.27265			43387.38302		68.68200		324.00000 
 43692.65567		 961.16730			42731.48837		229.54400		875.00000 
 43692.65567		 305.27265			43387.38302		68.68200		324.00000 
 43692.65567		 961.16730			42731.48837		229.54400		875.00000 
 43692.65567		 305.27265			43387.38302		68.68200		324.00000 
 43692.65567		 961.16730			42731.48837		229.54400		875.00000 
 43692.65567		 305.27265			43387.38302		68.68200		324.00000 
 43692.65567		 961.16730			42731.48837		229.54400		875.00000 
 43692.65567		 305.27265			43387.38302		68.68200		324.00000 
 43692.65567		 961.16730			42731.48837		229.54400		875.00000 
 43692.65567		 305.27265			43387.38302		68.68200		324.00000 
 43692.65567		 961.16730			42731.48837		229.54400		875.00000 
 43692.65567		 305.27265			43387.38302		68.68200		324.00000 
 43692.65567		 961.16730			42731.48837		229.54400		875.00000 
 43692.65567		 305.27265			43387.38302		68.68200		324.00000 
 43692.65567		 961.16730			42731.48837		229.54400		875.00000 
 43692.65567		 305.27265			43387.38302		68.68200		324.00000 
 43692.65567		 961.16730			42731.48837		229.54400		875.00000 
 43692.65567		 305.27265			43387.38302		68.68200		324.00000 
 43692.65567		 961.16730			42731.48837		229.54400		875.00000 
 43692.65567		 305.27265			43387.38302		68.68200		324.00000 
 43692.65567		 961.16730			42731.48837		229.54400		875.00000 
 43692.65567		 305.27265			43387.38302		68.68200		324.00000 
 43692.65567		 961.16730			42731.48837		229.54400		875.00000 
 43692.65567		 305.27265			43387.38302		68.68200		324.00000 
 43692.65567		 961.16730			42731.48837		229.54400		875.00000 
 43692.65567		 305.27265			43387.38302		68.68200		324.00000 
 43692.65567		 961.16730			42731.48837		229.54400		875.00000 
 43692.65567		 305.27265			43387.38302		68.68200		324.00000 
 43692.65567		 961.16730			42731.48837		229.54400		875.00000 
 43692.65567		 305.27265			43387.38302		68.68200		324.00000 
 43692.65567		 961.16730			42731.48837		229.54400		875.00000 
 43692.65567		 305.27265			43387.38302		68.68200		324.00000 
 43692.65567		 961.16730			42731.48837		229.54400		875.00000 
 43692.65567		 305.27265			43387.38302		68.68200		324.00000 
 43692.65567		 961.16730			42731.48837		229.54400		875.00000 
 43692.65567		 305.27265			43387.38302		68.68200		324.00000 
 43692.65567		 961.16730			42731.48837		229.54400		875.00000 
 43692.65567		 305.27265			43387.38302		68.68200		324.00000 
 43692.65567		 961.16730			42731.48837		229.54400		875.00000 
 43692.65567		 305.27265			43387.38302		68.68200		324.00000 
 43692.65567		 961.16730			42731.48837		229.54400		875.00000 
 43692.65567		 305.27265			43387.38302		68.68200		324.00000 
 43692.65567		 961.16730			42731.48837		229.54400		875.00000 
 43692.65567		 305.27265			43387.38302		68.68200		324.00000 
 43692.65567		 961.16730			42731.48837		229.54400		875.00000 
 43692.65567		 305.27265			43387.38302		68.68200		324.00000 
 43692.65567		 961.16730			42731.48837		229.54400		875.00000 
 43692.65567		 305.27265			43387.38302		68.68200		324.00000 
 43692.65567		 961.16730			42731.48837		229.54400		875.00000 
 43692.65567		 305.27265			43387.38302		68.68200		324.00000 
 43692.65567		 961.16730			42731.48837		229.54400		875.00000 
 43692.65567		 305.27265			43387.38302		68.68200		324.00000 
 43692.65567		 961.16730			42731.48837		229.54400		875.00000 
 43692.65567		 305.27265			43387.38302		68.68200		324.00000 
 43692.65567		 961.16730			42731.48837		229.54400		875.00000 
 43692.65567		 305.27265			43387.38302		68.68200		324.00000 
 43692.65567		 961.16730			42731.48837		229.54400		875.00000 
 43692.65567		 305.27265			43387.38302		68.68200		324.00000 
 43692.65567		 961.16730			42731.48837		229.54400		875.00000 
 43692.65567		 305.27265			43387.38302		68.68200		324.00000 
 43692.65567		 961.16730			42731.48837		229.54400		875.00000 
 43692.65567		 305.27265			43387.38302		68.68200		324.00000 
 43692.65567		 961.16730			42731.48837		229.54400		875.00000 
 43692.65567		 305.27265			43387.38302		68.68200		324.00000 
 43692.65567		 961.16730			42731.48837		229.54400		875.00000 
 43692.65567		 305.27265			43387.38302		68.68200		324.00000 
 43692.65567		 961.16730			42731.48837		229.54400		875.00000 
 43692.65567		 305.27265			43387.38302		68.68200		324.00000 
 43692.65567		 961.16730			42731.48837		229.54400		875.00000 
 43692.65567		 305.27265			43387.38302		68.68200		324.00000 
 43692.65567		 961.16730			42731.48837		229.54400		875.00000 
 43692.65567		 305.27265			43387.38302		68.68200		324.00000 
 43692.65567		 961.16730			42731.48837		229.54400		875.00000 
 43692.65567		 305.27265			43387.38302		68.68200		324.00000 
 43692.65567		 961.16730			42731.48837		229.54400		875.00000 
 43692.65567		 305.27265			43387.38302		68.68200		324.00000 
 43692.65567		 961.16730			42731.48837		229.54400		875.00000 
 43692.65567		 305.27265			43387.38302		68.68200		324.00000 
 43692.65567		 961.16730			42731.48837		229.54400		875.00000 
 43692.65567		 305.27265			43387.38302		68.68200		324.00000 
 43692.65567		 961.16730			42731.48837		229.54400		875.00000 
 43692.65567		 305.27265			43387.38302		68.68200		324.00000 
 43692.65567		 961.16730			42731.48837		229.54400		875.00000 
 43692.65567		 305.27265			43387.38302		68.68200		324.00000 
 43692.65567		 961.16730			42731.48837		229.54400		875.00000 
 43692.65567		 305.27265			43387.38302		68.68200		324.00000 
 43692.65567		 961.16730			42731.48837		229.54400		875.00000 
 43692.65567		 305.27265			43387.38302		68.68200		324.00000 
 43692.65567		 961.16730			42731.48837		229.54400		875.00000 
 43692.65567		 305.27265			43387.38302		68.68200		324.00000 
 43692.65567		 961.16730			42731.48837		229.54400		875.00000 
 43692.65567		 305.27265			43387.38302		68.68200		324.00000 
 43692.65567		 961.16730			42731.48837		229.54400		875.00000 
 43692.65567		 305.27265			43387.38302		68.68200		324.00000 
 43692.65567		 961.16730			42731.48837		229.54400		875.00000 
 43692.65567		 305.27265			43387.38302		68.68200		324.00000 
 43692.65567		 961.16730			42731.48837		229.54400		875.00000 
 43692.65567		 305.27265			43387.38302		68.68200		324.00000 
 43692.65567		 961.16730			42731.48837		229.54400		875.00000 
 43692.65567		 305.27265			43387.38302		68.68200		324.00000 
 43692.65567		 961.16730			42731.48837		229.54400		875.00000 
 43692.65567		 305.27265			43387.38302		68.68200		324.00000 
 43692.65567		 961.16730			42731.48837		229.54400		875.00000 
 43692.65567		 305.27265			43387.38302		68.68200		324.00000 
 43692.65567		 961.16730			42731.48837		229.54400		875.00000 
 43692.65567		 305.27265			43387.38302		68.68200		324.00000 
 43692.65567		 961.16730			42731.48837		229.54400		875.00000 
 43692.65567		 305.27265			43387.38302		68.68200		324.00000 
 43692.65567		 961.16730			42731.48837		229.54400		875.00000 
 43692.65567		 305.27265			43387.38302		68.68200		324.00000 
 43692.65567		 961.16730			42731.48837		229.54400		875.00000 
 43692.65567		 305.27265			43387.38302		68.68200		324.00000 
 43692.65567		 961.16730			42731.48837		229.54400		875.00000 
 43692.65567		 305.27265			43387.38302		68.68200		324.00000 
 43692.65567		 961.16730			42731.48837		229.54400		875.00000 
 43692.65567		 305.27265			43387.38302		68.68200		324.00000 
 43692.65567		 961.16730			42731.48837		229.54400		875.00000 
 43692.65567		 305.27265			43387.38302		68.68200		324.00000 
 43692.65567		 961.16730			42731.48837		229.54400		875.00000 
 43692.65567		 305.27265			43387.38302		68.68200		324.00000 
 43692.65567		 961.16730			42731.48837		229.54400		875.00000 
 43692.65567		 305.27265			43387.38302		68.68200		324.00000 
 43692.65567		 961.16730			42731.48837		229.54400		875.00000 
 43692.65567		 305.27265			43387.38302		68.68200		324.00000 
 43692.65567		 961.16730			42731.48837		229.54400		875.00000 
 43692.65567		 305.27265			43387.38302		68.68200		324.00000 
 43692.65567		 961.16730			42731.48837		229.54400		875.00000 
 43692.65567		 305.27265			43387.38302		68.68200		324.00000 
 43692.65567		 961.16730			42731.48837		229.54400		875.00000 
 43692.65567		 305.27265			43387.38302		68.68200		324.00000 
 43692.65567		 961.16730			42731.48837		229.54400		875.00000 
 43692.65567		 305.27265			43387.38302		68.68200		324.00000 
 43692.65567		 961.16730			42731.48837		229.54400		875.00000 
 43692.65567		 305.27265			43387.38302		68.68200		324.00000 
 43692.65567		 961.16730			42731.48837		229.54400		875.00000 
 43692.65567		 305.27265			43387.38302		68.68200		324.00000 
 43692.65567		 961.16730			42731.48837		229.54400		875.00000 
 43692.65567		 305.27265			43387.38302		68.68200		324.00000 
 43692.65567		 961.16730			42731.48837		229.54400		875.00000 
 43692.65567		 305.27265			43387.38302		68.68200		324.00000 
 43692.65567		 961.16730			42731.48837		229.54400		875.00000 
 43692.65567		 305.27265			43387.38302		68.68200		324.00000 
 43692.65567		 961.16730			42731.48837		229.54400		875.00000 
 43692.65567		 305.27265			43387.38302		68.68200		324.00000 
 43692.65567		 961.16730			42731.48837		229.54400		875.00000 
 43692.65567		 305.27265			43387.38302		68.68200		324.00000 
 43692.65567		 961.16730			42731.48837		229.54400		875.00000 
 43692.65567		 305.27265			43387.38302		68.68200		324.00000 
 43692.65567		 961.16730			42731.48837		229.54400		875.00000 
 43692.65567		 305.27265			43387.38302		68.68200		324.00000 
 43692.65567		 961.16730			42731.48837		229.54400		875.00000 
 43692.65567		 305.27265			43387.38302		68.68200		324.00000 
 43692.65567		 961.16730			42731.48837		229.54400		875.00000 
 43692.65567		 305.27265			43387.38302		68.68200		324.00000 
 43692.65567		 961.16730			42731.48837		229.54400		875.00000 
 43692.65567		 305.27265			43387.38302		68.68200		324.00000 
 43692.65567		 961.16730			42731.48837		229.54400		875.00000 
 43692.65567		 305.27265			43387.38302		68.68200		324.00000 
 43692.65567		 961.16730			42731.48837		229.54400		875.00000 
 43692.65567		 305.27265			43387.38302		68.68200		324.00000 
 43692.65567		 961.16730			42731.48837		229.54400		875.00000 
 43692.65567		 305.27265			43387.38302		68.68200		324.00000 
 43692.65567		 961.16730			42731.48837		229.54400		875.00000 
 43692.65567		 305.27265			43387.38302		68.68200		324.00000 
 43692.65567		 961.16730			42731.48837		229.54400		875.00000 
 43692.65567		 305.27265			43387.38302		68.68200		324.00000 
 43692.65567		 961.16730			42731.48837		229.54400		875.00000 
 43692.65567		 305.27265			43387.38302		68.68200		324.00000 
 43692.65567		 961.16730			42731.48837		229.54400		875.00000 
 43692.65567		 305.27265			43387.38302		68.68200		324.00000 
 43692.65567		 961.16730			42731.48837		229.54400		875.00000 
 43692.65567		 305.27265			43387.38302		68.68200		324.00000 
 43692.65567		 961.16730			42731.48837		229.54400		875.00000 
 43692.65567		 305.27265			43387.38302		68.68200		324.00000 
 43692.65567		 961.16730			42731.48837		229.54400		875.00000 
 43692.65567		 305.27265			43387.38302		68.68200		324.00000 
 43692.65567		 961.16730			42731.48837		229.54400		875.00000 
 43692.65567		 305.27265			43387.38302		68.68200		324.00000 
 43692.65567		 961.16730			42731.48837		229.54400		875.00000 
 43692.65567		 305.27265			43387.38302		68.68200		324.00000 
 43692.65567		 961.16730			42731.48837		229.54400		875.00000 
 43692.65567		 305.27265			43387.38302		68.68200		324.00000 
 43692.65567		 961.16730			42731.48837		229.54400		875.00000 
 43692.65567		 305.27265			43387.38302		68.68200		324.00000 
 43692.65567		 961.16730			42731.48837		229.54400		875.00000 
 43692.65567		 305.27265			43387.38302		68.68200		324.00000 
 43692.65567		 961.16730			42731.48837		229.54400		875.00000 
 43692.65567		 305.27265			43387.38302		68.68200		324.00000 
 43692.65567		 961.16730			42731.48837		229.54400		875.00000 
 43692.65567		 305.27265			43387.38302		68.68200		324.00000 
 43692.65567		 961.16730			42731.48837		229.54400		875.00000 
 43692.65567		 305.27265			43387.38302		68.68200		324.00000 
 43692.65567		 961.16730			42731.48837		229.54400		875.00000 
 43692.65567		 305.27265			43387.38302		68.68200		324.00000 
 43692.65567		 961.16730			42731.48837		229.54400		875.00000 
 43692.65567		 305.27265			43387.38302		68.68200		324.00000 
 43692.65567		 961.16730			42731.48837		229.54400		875.00000 
 43692.65567		 305.27265			43387.38302		68.68200		324.00000 
 43692.65567		 961.16730			42731.48837		229.54400		875.00000 
 43692.65567		 305.27265			43387.38302		68.68200		324.00000 
 43692.65567		 961.16730			42731.48837		229.54400		875.00000 
 43692.65567		 305.27265			43387.38302		68.68200		324.00000 
 43692.65567		 961.16730			42731.48837		229.54400		875.00000 
 43692.65567		 305.27265			43387.38302		68.68200		324.00000 
 43692.65567		 961.16730			42731.48837		229.54400		875.00000 
 43692.65567		 305.27265			43387.38302		68.68200		324.00000 
 43692.65567		 961.16730			42731.48837		229.54400		875.00000 
 43692.65567		 305.27265			43387.38302		68.68200		324.00000 
 43692.65567		 961.16730			42731.48837		229.54400		875.00000 
 43692.65567		 305.27265			43387.38302		68.68200		324.00000 
 43692.65567		 961.16730			42731.48837		229.54400		875.00000 
 43692.65567		 305.27265			43387.38302		68.68200		324.00000 
 43692.65567		 961.16730			42731.48837		229.54400		875.00000 
 43692.65567		 305.27265			43387.38302		68.68200		324.00000 
 43692.65567		 961.16730			42731.48837		229.54400		875.00000 
 43692.65567		 305.27265			43387.38302		68.68200		324.00000 
 43692.65567		 961.16730			42731.48837		229.54400		875.00000 
 43692.65567		 305.27265			43387.38302		68.68200		324.00000 
 43692.65567		 961.16730			42731.48837		229.54400		875.00000 
 43692.65567		 305.27265			43387.38302		68.68200		324.00000 
 43692.65567		 961.16730			42731.48837		229.54400		875.00000 
 43692.65567		 305.27265			43387.38302		68.68200		324.00000 
 43692.65567		 961.16730			42731.48837		229.54400		875.00000 
 43692.65567		 305.27265			43387.38302		68.68200		324.00000 
 43692.65567		 961.16730			42731.48837		229.54400		875.00000 
 43692.65567		 305.27265			43387.38302		68.68200		324.00000 
 43692.65567		 961.16730			42731.48837		229.54400		875.00000 
 43692.65567		 305.27265			43387.38302		68.68200		324.00000 
 43692.65567		 961.16730			42731.48837		229.54400		875.00000 
 43692.65567		 305.27265			43387.38302		68.68200		324.00000 
 43692.65567		 961.16730			42731.48837		229.54400		875.00000 
 43692.65567		 305.27265			43387.38302		68.68200		324.00000 
 43692.65567		 961.16730			42731.48837		229.54400		875.00000 
 43692.65567		 305.27265			43387.38302		68.68200		324.00000 
 43692.65567		 961.16730			42731.48837		229.54400		875.00000 
 43692.65567		 305.27265			43387.38302		68.68200		324.00000 
 43692.65567		 961.16730			42731.48837		229.54400		875.00000 
 43692.65567		 305.27265			43387.38302		68.68200		324.00000 
 43692.65567		 961.16730			42731.48837		229.54400		875.00000 
 43692.65567		 305.27265			43387.38302		68.68200		324.00000 
 43692.65567		 961.16730			42731.48837		229.54400		875.00000 
 43692.65567		 305.27265			43387.38302		68.68200		324.00000 
 43692.65567		 961.16730			42731.48837		229.54400		875.00000 
 43692.65567		 305.27265			43387.38302		68.68200		324.00000 
 43692.65567		 961.16730			42731.48837		229.54400		875.00000 
 43692.65567		 305.27265			43387.38302		68.68200		324.00000 
 43692.65567		 961.16730			42731.48837		229.54400		875.00000 
 43692.65567		 305.27265			43387.38302		68.68200		324.00000 
 43692.65567		 961.16730			42731.48837		229.54400		875.00000 
 43692.65567		 305.27265			43387.38302		68.68200		324.00000 
 43692.65567		 961.16730			42731.48837		229.54400		875.00000 
 43692.65567		 305.27265			43387.38302		68.68200		324.00000 
 43692.65567		 961.16730			42731.48837		229.54400		875.00000 
 43692.65567		 305.27265			43387.38302		68.68200		324.00000 
 43692.65567		 961.16730			42731.48837		229.54400		875.00000 
 43692.65567		 305.27265			43387.38302		68.68200		324.00000 
 43692.65567		 961.16730			42731.48837		229.54400		875.00000 
 43692.65567		 305.27265			43387.38302		68.68200		324.00000 
 43692.65567		 961.16730			42731.48837		229.54400		875.00000 
 43692.65567		 305.27265			43387.38302		68.68200		324.00000 
 43692.65567		 961.16730			42731.48837		229.54400		875.00000 
 43692.65567		 305.27265			43387.38302		68.68200		324.00000 
 43692.65567		 961.16730			42731.48837		229.54400		875.00000 
 43692.65567		 305.27265			43387.38302		68.68200		324.00000 
 43692.65567		 961.16730			42731.48837		229.54400		875.00000 
 43692.65567		 305.27265			43387.38302		68.68200		324.00000 
 43692.65567		 961.16730			42731.48837		229.54400		875.00000 
 43692.65567		 305.27265			43387.38302		68.68200		324.00000 
 43692.65567		 961.16730			42731.48837		229.54400		875.00000 
 43692.65567		 305.27265			43387.38302		68.68200		324.00000 
 43692.65567		 961.16730			42731.48837		229.54400		875.00000 
 43692.65567		 305.27265			43387.38302		68.68200		324.00000 
 43692.65567		 961.16730			42731.48837		229.54400		875.00000 
 43692.65567		 305.27265			43387.38302		68.68200		324.00000 
 43692.65567		 961.16730			42731.48837		229.54400		875.00000 
 43692.65567		 305.27265			43387.38302		68.68200		324.00000 
 43692.65567		 961.16730			42731.48837		229.54400		875.00000 
 43692.65567		 305.27265			43387.38302		68.68200		324.00000 
 43692.65567		 961.16730			42731.48837		229.54400		875.00000 
 43692.65567		 305.27265			43387.38302		68.68200		324.00000 
 43692.65567		 961.16730			42731.48837		229.54400		875.00000 
 43692.65567		 305.27265			43387.38302		68.68200		324.00000 
 43692.65567		 961.16730			42731.48837		229.54400		875.00000 
 43692.65567		 305.27265			43387.38302		68.68200		324.00000 
 43692.65567		 961.16730			42731.48837		229.54400		875.00000 
 43692.65567		 305.27265			43387.38302		68.68200		324.00000 
 43692.65567		 961.16730			42731.48837		229.54400		875.00000 
 43692.65567		 305.27265			43387.38302		68.68200		324.00000 
 43692.65567		 961.16730			42731.48837		229.54400		875.00000 
 43692.65567		 305.27265			43387.38302		68.68200		324.00000 
 43692.65567		 961.16730			42731.48837		229.54400		875.00000 
 43692.65567		 305.27265			43387.38302		68.68200		324.00000 
 43692.65567		 961.16730			42731.48837		229.54400		875.00000 
 43692.65567		 305.27265			43387.38302		68.68200		324.00000 
 43692.65567		 961.16730			42731.48837		229.54400		875.00000 
 43692.65567		 305.27265			43387.38302		68.68200		324.00000 
 43692.65567		 961.16730			42731.48837		229.54400		875.00000 
 43692.65567		 305.27265			43387.38302		68.68200		324.00000 
 43692.65567		 961.16730			42731.48837		229.54400		875.00000 
 43692.65567		 305.27265			43387.38302		68.68200		324.00000 
 43692.65567		 961.16730			42731.48837		229.54400		875.00000 
 43692.65567		 305.27265			43387.38302		68.68200		324.00000 
 43692.65567		 961.16730			42731.48837		229.54400		875.00000 
 43692.65567		 305.27265			43387.38302		68.68200		324.00000 
 43692.65567		 961.16730			42731.48837		229.54400		875.00000 
 43692.65567		 305.27265			43387.38302		68.68200		324.00000 
 43692.65567		 961.16730			42731.48837		229.54400		875.00000 
 43692.65567		 305.27265			43387.38302		68.68200		324.00000 
 43692.65567		 961.16730			42731.48837		229.54400		875.00000 
 43692.65567		 305.27265			43387.38302		68.68200		324.00000 
 43692.65567		 961.16730			42731.48837		229.54400		875.00000 
 43692.65567		 305.27265			43387.38302		68.68200		324.00000 
 43692.65567		 961.16730			42731.48837		229.54400		875.00000 
 43692.65567		 305.27265			43387.38302		68.68200		324.00000 
 43692.65567		 961.16730			42731.48837		229.54400		875.00000 
 43692.65567		 305.27265			43387.38302		68.68200		324.00000 
 43692.65567		 961.16730			42731.48837		229.54400		875.00000 
 43692.65567		 305.27265			43387.38302		68.68200		324.00000 
 43692.65567		 961.16730			42731.48837		229.54400		875.00000 
 43692.65567		 305.27265			43387.38302		68.68200		324.00000 
 43692.65567		 961.16730			42731.48837		229.54400		875.00000 
 43692.65567		 305.27265			43387.38302		68.68200		324.00000 
 43692.65567		 961.16730			42731.48837		229.54400		875.00000 
 43692.65567		 305.27265			43387.38302		68.68200		324.00000 
 43692.65567		 961.16730			42731.48837		229.54400		875.00000 
 43692.65567		 305.27265			43387.38302		68.68200		324.00000 
 43692.65567		 961.16730			42731.48837		229.54400		875.00000 
 43692.65567		 305.27265			43387.38302		68.68200		324.00000 
 43692.65567		 961.16730			42731.48837		229.54400		875.00000 
 43692.65567		 305.27265			43387.38302		68.68200		324.00000 
 43692.65567		 961.16730			42731.48837		229.54400		875.00000 
 43692.65567		 305.27265			43387.38302		68.68200		324.00000 
 43692.65567		 961.16730			42731.48837		229.54400		875.00000 
 43692.65567		 305.27265			43387.38302		68.68200		324.00000 
 43692.65567		 961.16730			42731.48837		229.54400		875.00000 
 43692.65567		 305.27265			43387.38302		68.68200		324.00000 
 43692.65567		 961.16730			42731.48837		229.54400		875.00000 
 43692.65567		 305.27265			43387.38302		68.68200		324.00000 
 43692.65567		 961.16730			42731.48837		229.54400		875.00000 
 43692.65567		 305.27265			43387.38302		68.68200		324.00000 
 43692.65567		 961.16730			42731.48837		229.54400		875.00000 
 43692.65567		 305.27265			43387.38302		68.68200		324.00000 
 43692.65567		 961.16730			42731.48837		229.54400		875.00000 
 43692.65567		 305.27265			43387.38302		68.68200		324.00000 
 43692.65567		 961.16730			42731.48837		229.54400		875.00000 
 43692.65567		 305.27265			43387.38302		68.68200		324.00000 
 43692.65567		 961.16730			42731.48837		229.54400		875.00000 
 43692.65567		 305.27265			43387.38302		68.68200		324.00000 
 43692.65567		 961.16730			42731.48837		229.54400		875.00000 
 43692.65567		 305.27265			43387.38302		68.68200		324.00000 
 43692.65567		 961.16730			42731.48837		229.54400		875.00000 
 43692.65567		 305.27265			43387.38302		68.68200		324.00000 
 43692.65567		 961.16730			42731.48837		229.54400		875.00000 
 43692.65567		 305.27265			43387.38302		68.68200		324.00000 
 43692.65567		 961.16730			42731.48837		229.54400		875.00000 
 43692.65567		 305.27265			43387.38302		68.68200		324.00000 
 43692.65567		 961.16730			42731.48837		229.54400		875.00000 
 43692.65567		 305.27265			43387.38302		68.68200		324.00000 
 43692.65567		 961.16730			42731.48837		229.54400		875.00000 
 43692.65567		 305.27265			43387.38302		68.68200		324.00000 
 43692.65567		 961.16730			42731.48837		229.54400		875.00000 
 43692.65567		 305.27265			43387.38302		68.68200		324.00000 
 43692.65567		 961.16730			42731.48837		229.54400		875.00000 
 43692.65567		 305.27265			43387.38302		68.68200		324.00000 
 43692.65567		 961.16730			42731.48837		229.54400		875.00000 
 43692.65567		 305.27265			43387.38302		68.68200		324.00000 
 43692.65567		 961.16730			42731.48837		229.54400		875.00000 
 43692.65567		 305.27265			43387.38302		68.68200		324.00000 
 43692.65567		 961.16730			42731.48837		229.54400		875.00000 
 43692.65567		 305.27265			43387.38302		68.68200		324.00000 
 43692.65567		 961.16730			42731.48837		229.54400		875.00000 
 43692.65567		 305.27265			43387.38302		68.68200		324.00000 
 43692.65567		 961.16730			42731.48837		229.54400		875.00000 
 43692.65567		 305.27265			43387.38302		68.68200		324.00000 
 43692.65567		 961.16730			42731.48837		229.54400		875.00000 
 43692.65567		 305.27265			43387.38302		68.68200		324.00000 
 43692.65567		 961.16730			42731.48837		229.54400		875.00000 
 43692.65567		 305.27265			43387.38302		68.68200		324.00000 
 43692.65567		 961.16730			42731.48837		229.54400		875.00000 
 43692.65567		 305.27265			43387.38302		68.68200		324.00000 
 43692.65567		 961.16730			42731.48837		229.54400		875.00000 
 43692.65567		 305.27265			43387.38302		68.68200		324.00000 
 43692.65567		 961.16730			42731.48837		229.54400		875.00000 
 43692.65567		 305.27265			43387.38302		68.68200		324.00000 
 43692.65567		 961.16730			42731.48837		229.54400		875.00000 
 43692.65567		 305.27265			43387.38302		68.68200		324.00000 
 43692.65567		 961.16730			42731.48837		229.54400		875.00000 
 43692.65567		 305.27265			43387.38302		68.68200		324.00000 
 43692.65567		 961.16730			42731.48837		229.54400		875.00000 
 43692.65567		 305.27265			43387.38302		68.68200		324.00000 
 43692.65567		 961.16730			42731.48837		229.54400		875.00000 
 43692.65567		 305.27265			43387.38302		68.68200		324.00000 
 43692.65567		 961.16730			42731.48837		229.54400		875.00000 
 43692.65567		 305.27265			43387.38302		68.68200		324.00000 
 43692.65567		 961.16730			42731.48837		229.54400		875.00000 
 43692.65567		 305.27265			43387.38302		68.68200		324.00000 
 43692.65567		 961.16730			42731.48837		229.54400		875.00000 
 43692.65567		 305.27265			43387.38302		68.68200		324.00000 
 43692.65567		 961.16730			42731.48837		229.54400		875.00000 
 43692.65567		 305.27265			43387.38302		68.68200		324.00000 
 43692.65567		 961.16730			42731.48837		229.54400		875.00000 
 43692.65567		 305.27265			43387.38302		68.68200		324.00000 
 43692.65567		 961.16730			42731.48837		229.54400		875.00000 
 43692.65567		 305.27265			43387.38302		68.68200		324.00000 
 43692.65567		 961.16730			42731.48837		229.54400		875.00000 
 43692.65567		 305.27265			43387.38302		68.68200		324.00000 
 43692.65567		 961.16730			42731.48837		229.54400		875.00000 
 43692.65567		 305.27265			43387.38302		68.68200		324.00000 
 43692.65567		 961.16730			42731.48837		229.54400		875.00000 
 43692.65567		 305.27265			43387.38302		68.68200		324.00000 
 43692.65567		 961.16730			42731.48837		229.54400		875.00000 
 43692.65567		 305.27265			43387.38302		68.68200		324.00000 
 43692.65567		 961.16730			42731.48837		229.54400		875.00000 
 43692.65567		 305.27265			43387.38302		68.68200		324.00000 
 43692.65567		 961.16730			42731.48837		229.54400		875.00000 
 43692.65567		 305.27265			43387.38302		68.68200		324.00000 
 43692.65567		 961.16730			42731.48837		229.54400		875.00000 
 43692.65567		 305.27265			43387.38302		68.68200		324.00000 
 43692.65567		 961.16730			42731.48837		229.54400		875.00000 
 43692.65567		 305.27265			43387.38302		68.68200		324.00000 
 43692.65567		 961.16730			42731.48837		229.54400		875.00000 
 43692.65567		 305.27265			43387.38302		68.68200		324.00000 
 43692.65567		 961.16730			42731.48837		229.54400		875.00000 
 43692.65567		 305.27265			43387.38302		68.68200		324.00000 
 43692.65567		 961.16730			42731.48837		229.54400		875.00000 
 43692.65567		 305.27265			43387.38302		68.68200		324.00000 
 43692.65567		 961.16730			42731.48837		229.54400		875.00000 
 43692.65567		 305.27265			43387.38302		68.68200		324.00000 
 43692.65567		 961.16730			42731.48837		229.54400		875.00000 
 43692.65567		 305.27265			43387.38302		68.68200		324.00000 
 43692.65567		 961.16730			42731.48837		229.54400		875.00000 
 43692.65567		 305.27265			43387.38302		68.68200		324.00000 
 43692.65567		 961.16730			42731.48837		229.54400		875.00000 
 43692.65567		 305.27265			43387.38302		68.68200		324.00000 
 43692.65567		 961.16730			42731.48837		229.54400		875.00000 
 43692.65567		 305.27265			43387.38302		68.68200		324.00000 
 43692.65567		 961.16730			42731.48837		229.54400		875.00000 
 43692.65567		 305.27265			43387.38302		68.68200		324.00000 
 43692.65567		 961.16730			42731.48837		229.54400		875.00000 
 43692.65567		 305.27265			43387.38302		68.68200		324.00000 
 43692.65567		 961.16730			42731.48837		229.54400		875.00000 
 43692.65567		 305.27265			43387.38302		68.68200		324.00000 
 43692.65567		 961.16730			42731.48837		229.54400		875.00000 
 43692.65567		 305.27265			43387.38302		68.68200		324.00000 
 43692.65567		 961.16730			42731.48837		229.54400		875.00000 
 43692.65567		 305.27265			43387.38302		68.68200		324.00000 
 43692.65567		 961.16730			42731.48837		229.54400		875.00000 
 43692.65567		 305.27265			43387.38302		68.68200		324.00000 
 43692.65567		 961.16730			42731.48837		229.54400		875.00000 
 43692.65567		 305.27265			43387.38302		68.68200		324.00000 
 43692.65567		 961.16730			42731.48837		229.54400		875.00000 
 43692.65567		 305.27265			43387.38302		68.68200		324.00000 
 43692.65567		 961.16730			42731.48837		229.54400		875.00000 
 43692.65567		 305.27265			43387.38302		68.68200		324.00000 
 43692.65567		 961.16730			42731.48837		229.54400		875.00000 
 43692.65567		 305.27265			43387.38302		68.68200		324.00000 
 43692.65567		 961.16730			42731.48837		229.54400		875.00000 
 43692.65567		 305.27265			43387.38302		68.68200		324.00000 
 43692.65567		 961.16730			42731.48837		229.54400		875.00000 
 43692.65567		 305.27265			43387.38302		68.68200		324.00000 
 43692.65567		 961.16730			42731.48837		229.54400		875.00000 
 43692.65567		 305.27265			43387.38302		68.68200		324.00000 
 43692.65567		 961.16730			42731.48837		229.54400		875.00000 
 43692.65567		 305.27265			43387.38302		68.68200		324.00000 
 43692.65567		 961.16730			42731.48837		229.54400		875.00000 
 43692.65567		 305.27265			43387.38302		68.68200		324.00000 
 43692.65567		 961.16730			42731.48837		229.54400		875.00000 
 43692.65567		 305.27265			43387.38302		68.68200		324.00000 
 43692.65567		 961.16730			42731.48837		229.54400		875.00000 
 43692.65567		 305.27265			43387.38302		68.68200		324.00000 
 43692.65567		 961.16730			42731.48837		229.54400		875.00000 
 43692.65567		 305.27265			43387.38302		68.68200		324.00000 
 43692.65567		 961.16730			42731.48837		229.54400		875.00000 
 43692.65567		 305.27265			43387.38302		68.68200		324.00000 
 43692.65567		 961.16730			42731.48837		229.54400		875.00000 
 43692.65567		 305.27265			43387.38302		68.68200		324.00000 
 43692.65567		 961.16730			42731.48837		229.54400		875.00000 
 43692.65567		 305.27265			43387.38302		68.68200		324.00000 
 43692.65567		 961.16730			42731.48837		229.54400		875.00000 
 43692.65567		 305.27265			43387.38302		68.68200		324.00000 
 43692.65567		 961.16730			42731.48837		229.54400		875.00000 
 43692.65567		 305.27265			43387.38302		68.68200		324.00000 
 43692.65567		 961.16730			42731.48837		229.54400		875.00000 
 43692.65567		 305.27265			43387.38302		68.68200		324.00000 
 43692.65567		 961.16730			42731.48837		229.54400		875.00000 
 43692.65567		 305.27265			43387.38302		68.68200		324.00000 
 43692.65567		 961.16730			42731.48837		229.54400		875.00000 
 43692.65567		 305.27265			43387.38302		68.68200		324.00000 
 43692.65567		 961.16730			42731.48837		229.54400		875.00000 
 43692.65567		 305.27265			43387.38302		68.68200		324.00000 
 43692.65567		 961.16730			42731.48837		229.54400		875.00000 
 43692.65567		 305.27265			43387.38302		68.68200		324.00000 
 43692.65567		 961.16730			42731.48837		229.54400		875.00000 
 43692.65567		 305.27265			43387.38302		68.68200		324.00000 
 43692.65567		 961.16730			42731.48837		229.54400		875.00000 
 43692.65567		 305.27265			43387.38302		68.68200		324.00000 
 43692.65567		 961.16730			42731.48837		229.54400		875.00000 
 43692.65567		 305.27265			43387.38302		68.68200		324.00000 
 43692.65567		 961.16730			42731.48837		229.54400		875.00000 
 43692.65567		 305.27265			43387.38302		68.68200		324.00000 
 43692.65567		 961.16730			42731.48837		229.54400		875.00000 
 43692.65567		 305.27265			43387.38302		68.68200		324.00000 
 43692.65567		 961.16730			42731.48837		229.54400		875.00000 
 43692.65567		 305.27265			43387.38302		68.68200		324.00000 
 43692.65567		 961.16730			42731.48837		229.54400		875.00000 
 43692.65567		 305.27265			43387.38302		68.68200		324.00000 
 43692.65567		 961.16730			42731.48837		229.54400		875.00000 
 43692.65567		 305.27265			43387.38302		68.68200		324.00000 
 43692.65567		 961.16730			42731.48837		229.54400		875.00000 
 43692.65567		 305.27265			43387.38302		68.68200		324.00000 
 43692.65567		 961.16730			42731.48837		229.54400		875.00000 
 43692.65567		 305.27265			43387.38302		68.68200		324.00000 
 43692.65567		 961.16730			42731.48837		229.54400		875.00000 
 43692.65567		 305.27265			43387.38302		68.68200		324.00000 
 43692.65567		 961.16730			42731.48837		229.54400		875.00000 
 43692.65567		 305.27265			43387.38302		68.68200		324.00000 
 43692.65567		 961.16730			42731.48837		229.54400		875.00000 
 43692.65567		 305.27265			43387.38302		68.68200		324.00000 
 43692.65567		 961.16730			42731.48837		229.54400		875.00000 
 43692.65567		 305.27265			43387.38302		68.68200		324.00000 
 43692.65567		 961.16730			42731.48837		229.54400		875.00000 
 43692.65567		 305.27265			43387.38302		68.68200		324.00000 
 43692.65567		 961.16730			42731.48837		229.54400		875.00000 
 43692.65567		 305.27265			43387.38302		68.68200		324.00000 
 43692.65567		 961.16730			42731.48837		229.54400		875.00000 
 43692.65567		 305.27265			43387.38302		68.68200		324.00000 
 43692.65567		 961.16730			42731.48837		229.54400		875.00000 
 43692.65567		 305.27265			43387.38302		68.68200		324.00000 
 43692.65567		 961.16730			42731.48837		229.54400		875.00000 
 43692.65567		 305.27265			43387.38302		68.68200		324.00000 
 43692.65567		 961.16730			42731.48837		229.54400		875.00000 
 43692.65567		 305.27265			43387.38302		68.68200		324.00000 
 43692.65567		 961.16730			42731.48837		229.54400		875.00000 
 43692.65567		 305.27265			43387.38302		68.68200		324.00000 
 43692.65567		 961.16730			42731.48837		229.54400		875.00000 
 43692.65567		 305.27265			43387.38302		68.68200		324.00000 
 43692.65567		 961.16730			42731.48837		229.54400		875.00000 
 43692.65567		 305.27265			43387.38302		68.68200		324.00000 
 43692.65567		 961.16730			42731.48837		229.54400		875.00000 
 43692.65567		 305.27265			43387.38302		68.68200		324.00000 
 43692.65567		 961.16730			42731.48837		229.54400		875.00000 
 43692.65567		 305.27265			43387.38302		68.68200		324.00000 
 43692.65567		 961.16730			42731.48837		229.54400		875.00000 
 43692.65567		 305.27265			43387.38302		68.68200		324.00000 
 43692.65567		 961.16730			42731.48837		229.54400		875.00000 
 43692.65567		 305.27265			43387.38302		68.68200		324.00000 
 43692.65567		 961.16730			42731.48837		229.54400		875.00000 
 43692.65567		 305.27265			43387.38302		68.68200		324.00000 
 43692.65567		 961.16730			42731.48837		229.54400		875.00000 
 43692.65567		 305.27265			43387.38302		68.68200		324.00000 
 43692.65567		 961.16730			42731.48837		229.54400		875.00000 
 43692.65567		 305.27265			43387.38302		68.68200		324.00000 
 43692.65567		 961.16730			42731.48837		229.54400		875.00000 
 43692.65567		 305.27265			43387.38302		68.68200		324.00000 
 43692.65567		 961.16730			42731.48837		229.54400		875.00000 
 43692.65567		 305.27265			43387.38302		68.68200		324.00000 
 43692.65567		 961.16730			42731.48837		229.54400		875.00000 
 43692.65567		 305.27265			43387.38302		68.68200		324.00000 
 43692.65567		 961.16730			42731.48837		229.54400		875.00000 
 43692.65567		 305.27265			43387.38302		68.68200		324.00000 
 43692.65567		 961.16730			42731.48837		229.54400		875.00000 
 43692.65567		 305.27265			43387.38302		68.68200		324.00000 
 43692.65567		 961.16730			42731.48837		229.54400		875.00000 
 43692.65567		 305.27265			43387.38302		68.68200		324.00000 
 43692.65567		 961.16730			42731.48837		229.54400		875.00000 
 43692.65567		 305.27265			43387.38302		68.68200		324.00000 
 43692.65567		 961.16730			42731.48837		229.54400		875.00000 
 43692.65567		 305.27265			43387.38302		68.68200		324.00000 
 43692.65567		 961.16730			42731.48837		229.54400		875.00000 
 43692.65567		 305.27265			43387.38302		68.68200		324.00000 
 43692.65567		 961.16730			42731.48837		229.54400		875.00000 
 43692.65567		 305.27265			43387.38302		68.68200		324.00000 
 43692.65567		 961.16730			42731.48837		229.54400		875.00000 
 43692.65567		 305.27265			43387.38302		68.68200		324.00000 
 43692.65567		 961.16730			42731.48837		229.54400		875.00000 
 43692.65567		 305.27265			43387.38302		68.68200		324.00000 
 43692.65567		 961.16730			42731.48837		229.54400		875.00000 
 43692.65567		 305.27265			43387.38302		68.68200		324.00000 
 43692.65567		 961.16730			42731.48837		229.54400		875.00000 
 43692.65567		 305.27265			43387.38302		68.68200		324.00000 
 43692.65567		 961.16730			42731.48837		229.54400		875.00000 
 43692.65567		 305.27265			43387.38302		68.68200		324.00000 
 43692.65567		 961.16730			42731.48837		229.54400		875.00000 
 43692.65567		 305.27265			43387.38302		68.68200		324.00000 
 43692.65567		 961.16730			42731.48837		229.54400		875.00000 
 43692.65567		 305.27265			43387.38302		68.68200		324.00000 
 43692.65567		 961.16730			42731.48837		229.54400		875.00000 
 43692.65567		 305.27265			43387.38302		68.68200		324.00000 
 43692.65567		 961.16730			42731.48837		229.54400		875.00000 
 43692.65567		 305.27265			43387.38302		68.68200		324.00000 
 43692.65567		 961.16730			42731.48837		229.54400		875.00000 
 43692.65567		 305.27265			43387.38302		68.68200		324.00000 
 43692.65567		 961.16730			42731.48837		229.54400		875.00000 
 43692.65567		 305.27265			43387.38302		68.68200		324.00000 
 43692.65567		 961.16730			42731.48837		229.54400		875.00000 
 43692.65567		 305.27265			43387.38302		68.68200		324.00000 
 43692.65567		 961.16730			42731.48837		229.54400		875.00000 
 43692.65567		 305.27265			43387.38302		68.68200		324.00000 
 43692.65567		 961.16730			42731.48837		229.54400		875.00000 
 43692.65567		 305.27265			43387.38302		68.68200		324.00000 
 43692.65567		 961.16730			42731.48837		229.54400		875.00000 
 43692.65567		 305.27265			43387.38302		68.68200		324.00000 
 43692.65567		 961.16730			42731.48837		229.54400		875.00000 
 43692.65567		 305.27265			43387.38302		68.68200		324.00000 
 43692.65567		 961.16730			42731.48837		229.54400		875.00000 
 43692.65567		 305.27265			43387.38302		68.68200		324.00000 
 43692.65567		 961.16730			42731.48837		229.54400		875.00000 
 43692.65567		 305.27265			43387.38302		68.68200		324.00000 
 43692.65567		 961.16730			42731.48837		229.54400		875.00000 
 43692.65567		 305.27265			43387.38302		68.68200		324.00000 
 43692.65567		 961.16730			42731.48837		229.54400		875.00000 
 43692.65567		 305.27265			43387.38302		68.68200		324.00000 
 43692.65567		 961.16730			42731.48837		229.54400		875.00000 
 43692.65567		 305.27265			43387.38302		68.68200		324.00000 
 43692.65567		 961.16730			42731.48837		229.54400		875.00000 
 43692.65567		 305.27265			43387.38302		68.68200		324.00000 
 43692.65567		 961.16730			42731.48837		229.54400		875.00000 
 43692.65567		 305.27265			43387.38302		68.68200		324.00000 
 43692.65567		 961.16730			42731.48837		229.54400		875.00000 
 43692.65567		 305.27265			43387.38302		68.68200		324.00000 
 43692.65567		 961.16730			42731.48837		229.54400		875.00000 
 43692.65567		 305.27265			43387.38302		68.68200		324.00000 
 43692.65567		 961.16730			42731.48837		229.54400		875.00000 
 43692.65567		 305.27265			43387.38302		68.68200		324.00000 
 43692.65567		 961.16730			42731.48837		229.54400		875.00000 
 43692.65567		 305.27265			43387.38302		68.68200		324.00000 
 43692.65567		 961.16730			42731.48837		229.54400		875.00000 
 43692.65567		 305.27265			43387.38302		68.68200		324.00000 
 43692.65567		 961.16730			42731.48837		229.54400		875.00000 
 43692.65567		 305.27265			43387.38302		68.68200		324.00000 
 43692.65567		 961.16730			42731.48837		229.54400		875.00000 
 43692.65567		 305.27265			43387.38302		68.68200		324.00000 
 43692.65567		 961.16730			42731.48837		229.54400		875.00000 
 43692.65567		 305.27265			43387.38302		68.68200		324.00000 
 43692.65567		 961.16730			42731.48837		229.54400		875.00000 
 43692.65567		 305.27265			43387.38302		68.68200		324.00000 
 43692.65567		 961.16730			42731.48837		229.54400		875.00000 
 43692.65567		 305.27265			43387.38302		68.68200		324.00000 
 43692.65567		 961.16730			42731.48837		229.54400		875.00000 
 43692.65567		 305.27265			43387.38302		68.68200		324.00000 
 43692.65567		 961.16730			42731.48837		229.54400		875.00000 
 43692.65567		 305.27265			43387.38302		68.68200		324.00000 
 43692.65567		 961.16730			42731.48837		229.54400		875.00000 
 43692.65567		 305.27265			43387.38302		68.68200		324.00000 
 43692.65567		 961.16730			42731.48837		229.54400		875.00000 
 43692.65567		 305.27265			43387.38302		68.68200		324.00000 
 43692.65567		 961.16730			42731.48837		229.54400		875.00000 
 43692.65567		 305.27265			43387.38302		68.68200		324.00000 
 43692.65567		 961.16730			42731.48837		229.54400		875.00000 
 43692.65567		 305.27265			43387.38302		68.68200		324.00000 
 43692.65567		 961.16730			42731.48837		229.54400		875.00000 
 43692.65567		 305.27265			43387.38302		68.68200		324.00000 
 43692.65567		 961.16730			42731.48837		229.54400		875.00000 
 43692.65567		 305.27265			43387.38302		68.68200		324.00000 
 43692.65567		 961.16730			42731.48837		229.54400		875.00000 
 43692.65567		 305.27265			43387.38302		68.68200		324.00000 
 43692.65567		 961.16730			42731.48837		229.54400		875.00000 
 43692.65567		 305.27265			43387.38302		68.68200		324.00000 
 43692.65567		 961.16730			42731.48837		229.54400		875.00000 
 43692.65567		 305.27265			43387.38302		68.68200		324.00000 
 43692.65567		 961.16730			42731.48837		229.54400		875.00000 
 43692.65567		 305.27265			43387.38302		68.68200		324.00000 
 43692.65567		 961.16730			42731.48837		229.54400		875.00000 
 43692.65567		 305.27265			43387.38302		68.68200		324.00000 
 43692.65567		 961.16730			42731.48837		229.54400		875.00000 
 43692.65567		 305.27265			43387.38302		68.68200		324.00000 
 43692.65567		 961.16730			42731.48837		229.54400		875.00000 
 43692.65567		 305.27265			43387.38302		68.68200		324.00000 
 43692.65567		 961.16730			42731.48837		229.54400		875.00000 
 43692.65567		 305.27265			43387.38302		68.68200		324.00000 
 43692.65567		 961.16730			42731.48837		229.54400		875.00000 
 43692.65567		 305.27265			43387.38302		68.68200		324.00000 
 43692.65567		 961.16730			42731.48837		229.54400		875.00000 
 43692.65567		 305.27265			43387.38302		68.68200		324.00000 
 43692.65567		 961.16730			42731.48837		229.54400		875.00000 
 43692.65567		 305.27265			43387.38302		68.68200		324.00000 
 43692.65567		 961.16730			42731.48837		229.54400		875.00000 
 43692.65567		 305.27265			43387.38302		68.68200		324.00000 
 43692.65567		 961.16730			42731.48837		229.54400		875.00000 
 43692.65567		 305.27265			43387.38302		68.68200		324.00000 
 43692.65567		 819.86831			42872.78737		229.54400		875.00000 
 43692.65567		 305.27265			43387.38302		68.68200		324.00000 
 43692.65567		 819.86831			42872.78737		229.54400		875.00000 
 43692.65567		 305.27265			43387.38302		68.68200		324.00000 
 43692.65567		 678.56931			43014.08636		229.54400		875.00000 
 43692.65567		 305.27265			43387.38302		68.68200		324.00000 
 43692.65567		 678.56931			43014.08636		229.54400		875.00000 
 43692.65567		 305.27265			43387.38302		68.68200		324.00000 
 43692.65567		 678.56931			43014.08636		229.54400		875.00000 
 43692.65567		 305.27265			43387.38302		68.68200		324.00000 
 43692.65567		 537.27032			43155.38535		229.54400		875.00000 
 43692.65567		 305.27265			43387.38302		68.68200		324.00000 
 43692.65567		 537.27032			43155.38535		229.54400		875.00000 
 43692.65567		 305.27265			43387.38302		68.68200		324.00000 
 43692.65567		 537.27032			43155.38535		229.54400		875.00000 
 43692.65567		 305.27265			43387.38302		68.68200		324.00000 
 43692.65567		 537.27032			43155.38535		229.54400		875.00000 
 43692.65567		 305.27265			43387.38302		68.68200		324.00000 
 43692.65567		 537.27032			43155.38535		229.54400		875.00000 
 43692.65567		 305.27265			43387.38302		68.68200		324.00000 
 43692.65567		 537.27032			43155.38535		229.54400		875.00000 
 43692.65567		 305.27265			43387.38302		68.68200		324.00000 
 43692.65567		 537.27032			43155.38535		229.54400		875.00000 
 43692.65567		 305.27265			43387.38302		68.68200		324.00000 
 43692.65567		 537.27032			43155.38535		229.54400		875.00000 
 43692.65567		 305.27265			43387.38302		68.68200		324.00000 
 43692.65567		 537.27032			43155.38535		229.54400		875.00000 
 43692.65567		 305.27265			43387.38302		68.68200		324.00000 
 43692.65567		 537.27032			43155.38535		229.54400		875.00000 
 43692.65567		 305.27265			43387.38302		68.68200		324.00000 
 43692.65567		 537.27032			43155.38535		229.54400		875.00000 
 43692.65567		 305.27265			43387.38302		68.68200		324.00000 
 43692.65567		 537.27032			43155.38535		229.54400		875.00000 
 43692.65567		 305.27265			43387.38302		68.68200		324.00000 
 43692.65567		 537.27032			43155.38535		229.54400		875.00000 
 43692.65567		 305.27265			43387.38302		68.68200		324.00000 
 43692.65567		 537.27032			43155.38535		229.54400		875.00000 
 43692.65567		 305.27265			43387.38302		68.68200		324.00000 
 43692.65567		 537.27032			43155.38535		229.54400		875.00000 
 43692.65567		 305.27265			43387.38302		68.68200		324.00000 
 43692.65567		 537.27032			43155.38535		229.54400		875.00000 
 43692.65567		 305.27265			43387.38302		68.68200		324.00000 
 43692.65567		 537.27032			43155.38535		229.54400		875.00000 
 43692.65567		 305.27265			43387.38302		68.68200		324.00000 
 43692.65567		 537.27032			43155.38535		229.54400		875.00000 
 43692.65567		 305.27265			43387.38302		68.68200		324.00000 
 43692.65567		 537.27032			43155.38535		229.54400		875.00000 
 43692.65567		 305.27265			43387.38302		68.68200		324.00000 
 43692.65567		 537.27032			43155.38535		195.99000		875.00000 
 43692.65567		 305.27265			43387.38302		68.68200		324.00000 
 43692.65567		 525.81365			43166.84203		195.99000		875.00000 
 43692.65567		 305.27265			43387.38302		68.68200		324.00000 
 43692.65567		 525.81365			43166.84203		195.99000		875.00000 
 43692.65567		 293.81598			43398.83969		68.68200		324.00000 
 43692.65567		 261.35540			43431.30027		195.99000		875.00000 
 43692.65567		 261.35540			43431.30027		68.68200		324.00000 
