Memory Total (MiB) 	 Memory Used (MiB) 	    Memory Free (MiB) 	 Power Drawed (W) 	 Clocks (Mhz) 	 
 43692.65567		 261.35540			43431.30027		158.63800		875.00000 
 43692.65567		 261.35540			43431.30027		71.21000		324.00000 
 43692.65567		 261.35540			43431.30027		158.63800		875.00000 
 43692.65567		 261.35540			43431.30027		71.21000		324.00000 
 43692.65567		 261.35540			43431.30027		158.63800		875.00000 
 43692.65567		 261.35540			43431.30027		71.21000		324.00000 
 43692.65567		 261.35540			43431.30027		158.63800		875.00000 
 43692.65567		 261.35540			43431.30027		71.21000		324.00000 
 43692.65567		 261.35540			43431.30027		158.63800		875.00000 
 43692.65567		 261.35540			43431.30027		71.21000		324.00000 
 43692.65567		 261.35540			43431.30027		158.63800		875.00000 
 43692.65567		 261.35540			43431.30027		71.21000		324.00000 
 43692.65567		 261.35540			43431.30027		158.63800		875.00000 
 43692.65567		 261.35540			43431.30027		71.21000		324.00000 
 43692.65567		 261.35540			43431.30027		158.63800		875.00000 
 43692.65567		 261.35540			43431.30027		71.21000		324.00000 
 43692.65567		 261.35540			43431.30027		158.63800		875.00000 
 43692.65567		 261.35540			43431.30027		71.21000		324.00000 
 43692.65567		 261.35540			43431.30027		158.63800		875.00000 
 43692.65567		 261.35540			43431.30027		71.21000		324.00000 
 43692.65567		 261.35540			43431.30027		158.63800		875.00000 
 43692.65567		 261.35540			43431.30027		71.21000		324.00000 
 43692.65567		 261.35540			43431.30027		158.63800		875.00000 
 43692.65567		 261.35540			43431.30027		71.21000		324.00000 
 43692.65567		 261.35540			43431.30027		158.63800		875.00000 
 43692.65567		 261.35540			43431.30027		71.21000		324.00000 
 43692.65567		 261.35540			43431.30027		158.63800		875.00000 
 43692.65567		 261.35540			43431.30027		71.21000		324.00000 
 43692.65567		 261.35540			43431.30027		158.63800		875.00000 
 43692.65567		 261.35540			43431.30027		71.21000		324.00000 
 43692.65567		 261.35540			43431.30027		158.63800		875.00000 
 43692.65567		 261.35540			43431.30027		71.21000		324.00000 
 43692.65567		 261.35540			43431.30027		158.63800		875.00000 
 43692.65567		 261.35540			43431.30027		71.21000		324.00000 
 43692.65567		 261.35540			43431.30027		158.63800		875.00000 
 43692.65567		 261.35540			43431.30027		71.21000		324.00000 
 43692.65567		 265.17429			43427.48138		158.63800		875.00000 
 43692.65567		 261.35540			43431.30027		71.21000		324.00000 
 43692.65567		 265.17429			43427.48138		158.63800		875.00000 
 43692.65567		 261.35540			43431.30027		71.21000		324.00000 
 43692.65567		 272.81207			43419.84360		158.63800		875.00000 
 43692.65567		 261.35540			43431.30027		71.21000		324.00000 
 43692.65567		 272.81207			43419.84360		158.63800		875.00000 
 43692.65567		 261.35540			43431.30027		71.21000		324.00000 
 43692.65567		 272.81207			43419.84360		158.63800		875.00000 
 43692.65567		 265.17429			43427.48138		71.21000		324.00000 
 43692.65567		 272.81207			43419.84360		158.63800		875.00000 
 43692.65567		 265.17429			43427.48138		71.21000		324.00000 
 43692.65567		 272.81207			43419.84360		158.63800		875.00000 
 43692.65567		 265.17429			43427.48138		71.21000		324.00000 
 43692.65567		 272.81207			43419.84360		158.63800		875.00000 
 43692.65567		 272.81207			43419.84360		71.21000		324.00000 
 43692.65567		 272.81207			43419.84360		158.63800		875.00000 
 43692.65567		 272.81207			43419.84360		71.21000		324.00000 
 43692.65567		 272.81207			43419.84360		158.63800		875.00000 
 43692.65567		 272.81207			43419.84360		71.21000		324.00000 
 43692.65567		 305.27265			43387.38302		158.63800		875.00000 
 43692.65567		 305.27265			43387.38302		71.21000		324.00000 
 43692.65567		 305.27265			43387.38302		158.63800		875.00000 
 43692.65567		 305.27265			43387.38302		71.21000		324.00000 
 43692.65567		 305.27265			43387.38302		158.63800		875.00000 
 43692.65567		 305.27265			43387.38302		71.21000		324.00000 
 43692.65567		 305.27265			43387.38302		158.63800		875.00000 
 43692.65567		 305.27265			43387.38302		71.21000		324.00000 
 43692.65567		 305.27265			43387.38302		158.63800		875.00000 
 43692.65567		 305.27265			43387.38302		71.21000		324.00000 
 43692.65567		 310.04627			43382.60941		142.59000		875.00000 
 43692.65567		 305.27265			43387.38302		71.21000		324.00000 
 43692.65567		 311.00099			43381.65468		142.59000		875.00000 
 43692.65567		 305.27265			43387.38302		71.21000		324.00000 
 43692.65567		 311.00099			43381.65468		142.59000		875.00000 
 43692.65567		 305.27265			43387.38302		71.21000		324.00000 
 43692.65567		 311.00099			43381.65468		142.59000		875.00000 
 43692.65567		 305.27265			43387.38302		71.21000		324.00000 
 43692.65567		 311.00099			43381.65468		142.59000		875.00000 
 43692.65567		 305.27265			43387.38302		71.21000		324.00000 
 43692.65567		 311.00099			43381.65468		142.59000		875.00000 
 43692.65567		 305.27265			43387.38302		71.21000		324.00000 
 43692.65567		 311.00099			43381.65468		142.59000		875.00000 
 43692.65567		 305.27265			43387.38302		71.21000		324.00000 
 43692.65567		 311.00099			43381.65468		142.59000		875.00000 
 43692.65567		 305.27265			43387.38302		71.21000		324.00000 
 43692.65567		 311.00099			43381.65468		142.59000		875.00000 
 43692.65567		 305.27265			43387.38302		71.21000		324.00000 
 43692.65567		 311.00099			43381.65468		142.59000		875.00000 
 43692.65567		 305.27265			43387.38302		71.21000		324.00000 
 43692.65567		 311.00099			43381.65468		142.59000		875.00000 
 43692.65567		 305.27265			43387.38302		71.21000		324.00000 
 43692.65567		 311.00099			43381.65468		142.59000		875.00000 
 43692.65567		 305.27265			43387.38302		71.21000		324.00000 
 43692.65567		 311.00099			43381.65468		142.59000		875.00000 
 43692.65567		 305.27265			43387.38302		71.21000		324.00000 
 43692.65567		 311.00099			43381.65468		142.59000		875.00000 
 43692.65567		 305.27265			43387.38302		71.21000		324.00000 
 43692.65567		 311.00099			43381.65468		142.59000		875.00000 
 43692.65567		 305.27265			43387.38302		71.21000		324.00000 
 43692.65567		 311.00099			43381.65468		142.59000		875.00000 
 43692.65567		 305.27265			43387.38302		71.21000		324.00000 
 43692.65567		 311.00099			43381.65468		142.59000		875.00000 
 43692.65567		 305.27265			43387.38302		71.21000		324.00000 
 43692.65567		 311.00099			43381.65468		142.59000		875.00000 
 43692.65567		 305.27265			43387.38302		71.21000		324.00000 
 43692.65567		 311.00099			43381.65468		142.59000		875.00000 
 43692.65567		 305.27265			43387.38302		71.21000		324.00000 
 43692.65567		 311.00099			43381.65468		142.59000		875.00000 
 43692.65567		 305.27265			43387.38302		71.21000		324.00000 
 43692.65567		 311.00099			43381.65468		142.59000		875.00000 
 43692.65567		 305.27265			43387.38302		71.21000		324.00000 
 43692.65567		 311.00099			43381.65468		142.59000		875.00000 
 43692.65567		 305.27265			43387.38302		71.21000		324.00000 
 43692.65567		 311.00099			43381.65468		142.59000		875.00000 
 43692.65567		 305.27265			43387.38302		71.21000		324.00000 
 43692.65567		 311.00099			43381.65468		142.59000		875.00000 
 43692.65567		 305.27265			43387.38302		71.21000		324.00000 
 43692.65567		 311.00099			43381.65468		142.59000		875.00000 
 43692.65567		 305.27265			43387.38302		71.21000		324.00000 
 43692.65567		 311.00099			43381.65468		142.59000		875.00000 
 43692.65567		 305.27265			43387.38302		71.21000		324.00000 
 43692.65567		 311.00099			43381.65468		142.59000		875.00000 
 43692.65567		 305.27265			43387.38302		71.21000		324.00000 
 43692.65567		 311.00099			43381.65468		142.59000		875.00000 
 43692.65567		 305.27265			43387.38302		71.21000		324.00000 
 43692.65567		 311.00099			43381.65468		142.59000		875.00000 
 43692.65567		 305.27265			43387.38302		71.21000		324.00000 
 43692.65567		 311.00099			43381.65468		142.59000		875.00000 
 43692.65567		 305.27265			43387.38302		71.21000		324.00000 
 43692.65567		 311.00099			43381.65468		142.59000		875.00000 
 43692.65567		 305.27265			43387.38302		71.21000		324.00000 
 43692.65567		 311.00099			43381.65468		136.21600		875.00000 
 43692.65567		 305.27265			43387.38302		71.21000		324.00000 
 43692.65567		 311.00099			43381.65468		136.21600		875.00000 
 43692.65567		 305.27265			43387.38302		71.21000		324.00000 
 43692.65567		 311.00099			43381.65468		136.21600		875.00000 
 43692.65567		 305.27265			43387.38302		71.21000		324.00000 
 43692.65567		 311.00099			43381.65468		136.21600		875.00000 
 43692.65567		 305.27265			43387.38302		71.21000		324.00000 
 43692.65567		 311.00099			43381.65468		136.21600		875.00000 
 43692.65567		 305.27265			43387.38302		71.21000		324.00000 
 43692.65567		 311.00099			43381.65468		136.21600		875.00000 
 43692.65567		 305.27265			43387.38302		71.21000		324.00000 
 43692.65567		 311.00099			43381.65468		136.21600		875.00000 
 43692.65567		 305.27265			43387.38302		71.21000		324.00000 
 43692.65567		 311.00099			43381.65468		136.21600		875.00000 
 43692.65567		 305.27265			43387.38302		71.21000		324.00000 
 43692.65567		 311.00099			43381.65468		136.21600		875.00000 
 43692.65567		 305.27265			43387.38302		71.21000		324.00000 
 43692.65567		 311.00099			43381.65468		136.21600		875.00000 
 43692.65567		 305.27265			43387.38302		71.21000		324.00000 
 43692.65567		 311.00099			43381.65468		136.21600		875.00000 
 43692.65567		 305.27265			43387.38302		71.21000		324.00000 
 43692.65567		 311.00099			43381.65468		136.21600		875.00000 
 43692.65567		 305.27265			43387.38302		71.21000		324.00000 
 43692.65567		 311.00099			43381.65468		136.21600		875.00000 
 43692.65567		 305.27265			43387.38302		71.21000		324.00000 
 43692.65567		 311.00099			43381.65468		136.21600		875.00000 
 43692.65567		 305.27265			43387.38302		71.21000		324.00000 
 43692.65567		 311.00099			43381.65468		136.21600		875.00000 
 43692.65567		 305.27265			43387.38302		71.21000		324.00000 
 43692.65567		 311.00099			43381.65468		136.21600		875.00000 
 43692.65567		 305.27265			43387.38302		71.21000		324.00000 
 43692.65567		 311.00099			43381.65468		136.21600		875.00000 
 43692.65567		 305.27265			43387.38302		71.21000		324.00000 
 43692.65567		 311.00099			43381.65468		136.21600		875.00000 
 43692.65567		 305.27265			43387.38302		71.21000		324.00000 
 43692.65567		 311.00099			43381.65468		136.21600		875.00000 
 43692.65567		 305.27265			43387.38302		71.21000		324.00000 
 43692.65567		 311.00099			43381.65468		136.21600		875.00000 
 43692.65567		 305.27265			43387.38302		71.21000		324.00000 
 43692.65567		 311.00099			43381.65468		136.21600		875.00000 
 43692.65567		 305.27265			43387.38302		71.21000		324.00000 
 43692.65567		 314.81988			43377.83579		136.21600		875.00000 
 43692.65567		 305.27265			43387.38302		71.21000		324.00000 
 43692.65567		 314.81988			43377.83579		136.21600		875.00000 
 43692.65567		 305.27265			43387.38302		71.21000		324.00000 
 43692.65567		 314.81988			43377.83579		136.21600		875.00000 
 43692.65567		 305.27265			43387.38302		71.21000		324.00000 
 43692.65567		 318.63877			43374.01690		136.21600		875.00000 
 43692.65567		 305.27265			43387.38302		71.21000		324.00000 
 43692.65567		 322.45767			43370.19801		136.21600		875.00000 
 43692.65567		 305.27265			43387.38302		71.21000		324.00000 
 43692.65567		 326.27656			43366.37912		136.21600		875.00000 
 43692.65567		 305.27265			43387.38302		71.21000		324.00000 
 43692.65567		 326.27656			43366.37912		136.21600		875.00000 
 43692.65567		 305.27265			43387.38302		71.21000		324.00000 
 43692.65567		 326.27656			43366.37912		136.21600		875.00000 
 43692.65567		 305.27265			43387.38302		71.21000		324.00000 
 43692.65567		 537.27032			43155.38535		136.21600		875.00000 
 43692.65567		 305.27265			43387.38302		71.21000		324.00000 
 43692.65567		 813.18525			42879.47043		136.21600		875.00000 
 43692.65567		 305.27265			43387.38302		71.21000		324.00000 
 43692.65567		 951.14271			42741.51297		136.21600		875.00000 
 43692.65567		 305.27265			43387.38302		71.21000		324.00000 
 43692.65567		 951.14271			42741.51297		136.21600		875.00000 
 43692.65567		 305.27265			43387.38302		71.21000		324.00000 
 43692.65567		 951.14271			42741.51297		136.21600		875.00000 
 43692.65567		 305.27265			43387.38302		71.21000		324.00000 
 43692.65567		 951.14271			42741.51297		136.21600		875.00000 
 43692.65567		 305.27265			43387.38302		71.21000		324.00000 
 43692.65567		 951.14271			42741.51297		136.21600		875.00000 
 43692.65567		 305.27265			43387.38302		71.21000		324.00000 
 43692.65567		 951.14271			42741.51297		141.90400		875.00000 
 43692.65567		 305.27265			43387.38302		71.21000		324.00000 
 43692.65567		 951.14271			42741.51297		141.90400		875.00000 
 43692.65567		 305.27265			43387.38302		71.21000		324.00000 
 43692.65567		 951.14271			42741.51297		141.90400		875.00000 
 43692.65567		 305.27265			43387.38302		71.21000		324.00000 
 43692.65567		 951.14271			42741.51297		141.90400		875.00000 
 43692.65567		 305.27265			43387.38302		71.21000		324.00000 
 43692.65567		 951.14271			42741.51297		141.90400		875.00000 
 43692.65567		 305.27265			43387.38302		71.21000		324.00000 
 43692.65567		 951.14271			42741.51297		141.90400		875.00000 
 43692.65567		 305.27265			43387.38302		71.21000		324.00000 
 43692.65567		 951.14271			42741.51297		141.90400		875.00000 
 43692.65567		 305.27265			43387.38302		71.21000		324.00000 
 43692.65567		 951.14271			42741.51297		141.90400		875.00000 
 43692.65567		 305.27265			43387.38302		71.21000		324.00000 
 43692.65567		 951.14271			42741.51297		141.90400		875.00000 
 43692.65567		 305.27265			43387.38302		71.21000		324.00000 
 43692.65567		 951.14271			42741.51297		141.90400		875.00000 
 43692.65567		 305.27265			43387.38302		71.21000		324.00000 
 43692.65567		 951.14271			42741.51297		141.90400		875.00000 
 43692.65567		 305.27265			43387.38302		71.21000		324.00000 
 43692.65567		 951.14271			42741.51297		141.90400		875.00000 
 43692.65567		 305.27265			43387.38302		71.21000		324.00000 
 43692.65567		 951.14271			42741.51297		141.90400		875.00000 
 43692.65567		 305.27265			43387.38302		71.21000		324.00000 
 43692.65567		 951.14271			42741.51297		141.90400		875.00000 
 43692.65567		 305.27265			43387.38302		71.21000		324.00000 
 43692.65567		 951.14271			42741.51297		141.90400		875.00000 
 43692.65567		 305.27265			43387.38302		71.21000		324.00000 
 43692.65567		 951.14271			42741.51297		141.90400		875.00000 
 43692.65567		 305.27265			43387.38302		71.21000		324.00000 
 43692.65567		 951.14271			42741.51297		141.90400		875.00000 
 43692.65567		 305.27265			43387.38302		71.21000		324.00000 
 43692.65567		 951.14271			42741.51297		141.90400		875.00000 
 43692.65567		 305.27265			43387.38302		71.21000		324.00000 
 43692.65567		 951.14271			42741.51297		141.90400		875.00000 
 43692.65567		 305.27265			43387.38302		71.21000		324.00000 
 43692.65567		 951.14271			42741.51297		141.90400		875.00000 
 43692.65567		 305.27265			43387.38302		71.21000		324.00000 
 43692.65567		 951.14271			42741.51297		141.90400		875.00000 
 43692.65567		 305.27265			43387.38302		71.21000		324.00000 
 43692.65567		 951.14271			42741.51297		141.90400		875.00000 
 43692.65567		 305.27265			43387.38302		71.21000		324.00000 
 43692.65567		 951.14271			42741.51297		141.90400		875.00000 
 43692.65567		 305.27265			43387.38302		71.21000		324.00000 
 43692.65567		 951.14271			42741.51297		141.90400		875.00000 
 43692.65567		 305.27265			43387.38302		71.21000		324.00000 
 43692.65567		 951.14271			42741.51297		141.90400		875.00000 
 43692.65567		 305.27265			43387.38302		71.21000		324.00000 
 43692.65567		 951.14271			42741.51297		141.90400		875.00000 
 43692.65567		 305.27265			43387.38302		71.21000		324.00000 
 43692.65567		 951.14271			42741.51297		141.90400		875.00000 
 43692.65567		 305.27265			43387.38302		71.21000		324.00000 
 43692.65567		 951.14271			42741.51297		141.90400		875.00000 
 43692.65567		 305.27265			43387.38302		71.21000		324.00000 
 43692.65567		 951.14271			42741.51297		141.90400		875.00000 
 43692.65567		 305.27265			43387.38302		71.21000		324.00000 
 43692.65567		 951.14271			42741.51297		141.90400		875.00000 
 43692.65567		 305.27265			43387.38302		71.21000		324.00000 
 43692.65567		 951.14271			42741.51297		141.90400		875.00000 
 43692.65567		 305.27265			43387.38302		71.21000		324.00000 
 43692.65567		 951.14271			42741.51297		141.90400		875.00000 
 43692.65567		 305.27265			43387.38302		71.21000		324.00000 
 43692.65567		 951.14271			42741.51297		141.90400		875.00000 
 43692.65567		 305.27265			43387.38302		71.21000		324.00000 
 43692.65567		 951.14271			42741.51297		141.90400		875.00000 
 43692.65567		 305.27265			43387.38302		71.21000		324.00000 
 43692.65567		 951.14271			42741.51297		141.90400		875.00000 
 43692.65567		 305.27265			43387.38302		71.21000		324.00000 
 43692.65567		 951.14271			42741.51297		141.90400		875.00000 
 43692.65567		 305.27265			43387.38302		71.21000		324.00000 
 43692.65567		 951.14271			42741.51297		141.90400		875.00000 
 43692.65567		 305.27265			43387.38302		71.21000		324.00000 
 43692.65567		 951.14271			42741.51297		141.90400		875.00000 
 43692.65567		 305.27265			43387.38302		71.21000		324.00000 
 43692.65567		 951.14271			42741.51297		141.90400		875.00000 
 43692.65567		 305.27265			43387.38302		71.21000		324.00000 
 43692.65567		 951.14271			42741.51297		141.90400		875.00000 
 43692.65567		 305.27265			43387.38302		71.21000		324.00000 
 43692.65567		 951.14271			42741.51297		141.90400		875.00000 
 43692.65567		 305.27265			43387.38302		71.21000		324.00000 
 43692.65567		 951.14271			42741.51297		141.90400		875.00000 
 43692.65567		 305.27265			43387.38302		71.21000		324.00000 
 43692.65567		 951.14271			42741.51297		141.90400		875.00000 
 43692.65567		 305.27265			43387.38302		71.21000		324.00000 
 43692.65567		 951.14271			42741.51297		141.90400		875.00000 
 43692.65567		 305.27265			43387.38302		71.21000		324.00000 
 43692.65567		 951.14271			42741.51297		141.90400		875.00000 
 43692.65567		 305.27265			43387.38302		71.21000		324.00000 
 43692.65567		 951.14271			42741.51297		141.90400		875.00000 
 43692.65567		 305.27265			43387.38302		71.21000		324.00000 
 43692.65567		 951.14271			42741.51297		141.90400		875.00000 
 43692.65567		 305.27265			43387.38302		71.21000		324.00000 
 43692.65567		 951.14271			42741.51297		141.90400		875.00000 
 43692.65567		 305.27265			43387.38302		71.21000		324.00000 
 43692.65567		 951.14271			42741.51297		141.90400		875.00000 
 43692.65567		 305.27265			43387.38302		71.21000		324.00000 
 43692.65567		 951.14271			42741.51297		141.90400		875.00000 
 43692.65567		 305.27265			43387.38302		71.21000		324.00000 
 43692.65567		 951.14271			42741.51297		141.90400		875.00000 
 43692.65567		 305.27265			43387.38302		71.21000		324.00000 
 43692.65567		 951.14271			42741.51297		141.90400		875.00000 
 43692.65567		 305.27265			43387.38302		71.21000		324.00000 
 43692.65567		 951.14271			42741.51297		141.90400		875.00000 
 43692.65567		 305.27265			43387.38302		71.21000		324.00000 
 43692.65567		 951.14271			42741.51297		141.90400		875.00000 
 43692.65567		 305.27265			43387.38302		71.21000		324.00000 
 43692.65567		 951.14271			42741.51297		141.90400		875.00000 
 43692.65567		 305.27265			43387.38302		71.21000		324.00000 
 43692.65567		 951.14271			42741.51297		192.82200		875.00000 
 43692.65567		 305.27265			43387.38302		71.21000		324.00000 
 43692.65567		 951.14271			42741.51297		192.82200		875.00000 
 43692.65567		 305.27265			43387.38302		71.21000		324.00000 
 43692.65567		 951.14271			42741.51297		192.82200		875.00000 
 43692.65567		 305.27265			43387.38302		71.21000		324.00000 
 43692.65567		 951.14271			42741.51297		192.82200		875.00000 
 43692.65567		 305.27265			43387.38302		71.21000		324.00000 
 43692.65567		 951.14271			42741.51297		192.82200		875.00000 
 43692.65567		 305.27265			43387.38302		71.21000		324.00000 
 43692.65567		 951.14271			42741.51297		192.82200		875.00000 
 43692.65567		 305.27265			43387.38302		71.21000		324.00000 
 43692.65567		 951.14271			42741.51297		192.82200		875.00000 
 43692.65567		 305.27265			43387.38302		71.21000		324.00000 
 43692.65567		 951.14271			42741.51297		192.82200		875.00000 
 43692.65567		 305.27265			43387.38302		71.21000		324.00000 
 43692.65567		 951.14271			42741.51297		192.82200		875.00000 
 43692.65567		 305.27265			43387.38302		71.21000		324.00000 
 43692.65567		 951.14271			42741.51297		192.82200		875.00000 
 43692.65567		 305.27265			43387.38302		71.21000		324.00000 
 43692.65567		 951.14271			42741.51297		192.82200		875.00000 
 43692.65567		 305.27265			43387.38302		71.21000		324.00000 
 43692.65567		 951.14271			42741.51297		192.82200		875.00000 
 43692.65567		 305.27265			43387.38302		71.21000		324.00000 
 43692.65567		 951.14271			42741.51297		192.82200		875.00000 
 43692.65567		 305.27265			43387.38302		71.21000		324.00000 
 43692.65567		 951.14271			42741.51297		192.82200		875.00000 
 43692.65567		 305.27265			43387.38302		71.21000		324.00000 
 43692.65567		 951.14271			42741.51297		192.82200		875.00000 
 43692.65567		 305.27265			43387.38302		71.21000		324.00000 
 43692.65567		 951.14271			42741.51297		192.82200		875.00000 
 43692.65567		 305.27265			43387.38302		71.21000		324.00000 
 43692.65567		 951.14271			42741.51297		192.82200		875.00000 
 43692.65567		 305.27265			43387.38302		71.21000		324.00000 
 43692.65567		 951.14271			42741.51297		192.82200		875.00000 
 43692.65567		 305.27265			43387.38302		71.21000		324.00000 
 43692.65567		 951.14271			42741.51297		192.82200		875.00000 
 43692.65567		 305.27265			43387.38302		71.21000		324.00000 
 43692.65567		 951.14271			42741.51297		192.82200		875.00000 
 43692.65567		 305.27265			43387.38302		71.21000		324.00000 
 43692.65567		 951.14271			42741.51297		192.82200		875.00000 
 43692.65567		 305.27265			43387.38302		71.21000		324.00000 
 43692.65567		 951.14271			42741.51297		192.82200		875.00000 
 43692.65567		 305.27265			43387.38302		71.21000		324.00000 
 43692.65567		 951.14271			42741.51297		192.82200		875.00000 
 43692.65567		 305.27265			43387.38302		71.21000		324.00000 
 43692.65567		 951.14271			42741.51297		192.82200		875.00000 
 43692.65567		 305.27265			43387.38302		71.21000		324.00000 
 43692.65567		 951.14271			42741.51297		192.82200		875.00000 
 43692.65567		 305.27265			43387.38302		71.21000		324.00000 
 43692.65567		 951.14271			42741.51297		192.82200		875.00000 
 43692.65567		 305.27265			43387.38302		71.21000		324.00000 
 43692.65567		 951.14271			42741.51297		192.82200		875.00000 
 43692.65567		 305.27265			43387.38302		71.21000		324.00000 
 43692.65567		 951.14271			42741.51297		192.82200		875.00000 
 43692.65567		 305.27265			43387.38302		71.21000		324.00000 
 43692.65567		 951.14271			42741.51297		192.82200		875.00000 
 43692.65567		 305.27265			43387.38302		71.21000		324.00000 
 43692.65567		 951.14271			42741.51297		192.82200		875.00000 
 43692.65567		 305.27265			43387.38302		71.21000		324.00000 
 43692.65567		 951.14271			42741.51297		192.82200		875.00000 
 43692.65567		 305.27265			43387.38302		71.21000		324.00000 
 43692.65567		 951.14271			42741.51297		192.82200		875.00000 
 43692.65567		 305.27265			43387.38302		71.21000		324.00000 
 43692.65567		 951.14271			42741.51297		192.82200		875.00000 
 43692.65567		 305.27265			43387.38302		71.21000		324.00000 
 43692.65567		 951.14271			42741.51297		192.82200		875.00000 
 43692.65567		 305.27265			43387.38302		71.21000		324.00000 
 43692.65567		 951.14271			42741.51297		192.82200		875.00000 
 43692.65567		 305.27265			43387.38302		71.21000		324.00000 
 43692.65567		 951.14271			42741.51297		192.82200		875.00000 
 43692.65567		 305.27265			43387.38302		71.21000		324.00000 
 43692.65567		 951.14271			42741.51297		192.82200		875.00000 
 43692.65567		 305.27265			43387.38302		71.21000		324.00000 
 43692.65567		 951.14271			42741.51297		192.82200		875.00000 
 43692.65567		 305.27265			43387.38302		71.21000		324.00000 
 43692.65567		 951.14271			42741.51297		192.82200		875.00000 
 43692.65567		 305.27265			43387.38302		71.21000		324.00000 
 43692.65567		 951.14271			42741.51297		192.82200		875.00000 
 43692.65567		 305.27265			43387.38302		71.21000		324.00000 
 43692.65567		 951.14271			42741.51297		192.82200		875.00000 
 43692.65567		 305.27265			43387.38302		71.21000		324.00000 
 43692.65567		 951.14271			42741.51297		192.82200		875.00000 
 43692.65567		 305.27265			43387.38302		71.21000		324.00000 
 43692.65567		 951.14271			42741.51297		192.82200		875.00000 
 43692.65567		 305.27265			43387.38302		71.21000		324.00000 
 43692.65567		 951.14271			42741.51297		192.82200		875.00000 
 43692.65567		 305.27265			43387.38302		71.21000		324.00000 
 43692.65567		 951.14271			42741.51297		192.82200		875.00000 
 43692.65567		 305.27265			43387.38302		71.21000		324.00000 
 43692.65567		 951.14271			42741.51297		192.82200		875.00000 
 43692.65567		 305.27265			43387.38302		71.21000		324.00000 
 43692.65567		 951.14271			42741.51297		192.82200		875.00000 
 43692.65567		 305.27265			43387.38302		71.21000		324.00000 
 43692.65567		 951.14271			42741.51297		192.82200		875.00000 
 43692.65567		 305.27265			43387.38302		71.21000		324.00000 
 43692.65567		 951.14271			42741.51297		192.82200		875.00000 
 43692.65567		 305.27265			43387.38302		71.21000		324.00000 
 43692.65567		 951.14271			42741.51297		192.82200		875.00000 
 43692.65567		 305.27265			43387.38302		71.21000		324.00000 
 43692.65567		 951.14271			42741.51297		192.82200		875.00000 
 43692.65567		 305.27265			43387.38302		71.21000		324.00000 
 43692.65567		 951.14271			42741.51297		192.82200		875.00000 
 43692.65567		 305.27265			43387.38302		71.21000		324.00000 
 43692.65567		 951.14271			42741.51297		192.82200		875.00000 
 43692.65567		 305.27265			43387.38302		71.21000		324.00000 
 43692.65567		 951.14271			42741.51297		192.82200		875.00000 
 43692.65567		 305.27265			43387.38302		71.21000		324.00000 
 43692.65567		 951.14271			42741.51297		192.82200		875.00000 
 43692.65567		 305.27265			43387.38302		71.21000		324.00000 
 43692.65567		 951.14271			42741.51297		212.97200		875.00000 
 43692.65567		 305.27265			43387.38302		71.21000		324.00000 
 43692.65567		 951.14271			42741.51297		212.97200		875.00000 
 43692.65567		 305.27265			43387.38302		71.21000		324.00000 
 43692.65567		 951.14271			42741.51297		212.97200		875.00000 
 43692.65567		 305.27265			43387.38302		71.21000		324.00000 
 43692.65567		 951.14271			42741.51297		212.97200		875.00000 
 43692.65567		 305.27265			43387.38302		71.21000		324.00000 
 43692.65567		 951.14271			42741.51297		212.97200		875.00000 
 43692.65567		 305.27265			43387.38302		71.21000		324.00000 
 43692.65567		 951.14271			42741.51297		212.97200		875.00000 
 43692.65567		 305.27265			43387.38302		71.21000		324.00000 
 43692.65567		 951.14271			42741.51297		212.97200		875.00000 
 43692.65567		 305.27265			43387.38302		71.21000		324.00000 
 43692.65567		 951.14271			42741.51297		212.97200		875.00000 
 43692.65567		 305.27265			43387.38302		71.21000		324.00000 
 43692.65567		 951.14271			42741.51297		212.97200		875.00000 
 43692.65567		 305.27265			43387.38302		71.21000		324.00000 
 43692.65567		 951.14271			42741.51297		212.97200		875.00000 
 43692.65567		 305.27265			43387.38302		71.21000		324.00000 
 43692.65567		 951.14271			42741.51297		212.97200		875.00000 
 43692.65567		 305.27265			43387.38302		71.21000		324.00000 
 43692.65567		 951.14271			42741.51297		212.97200		875.00000 
 43692.65567		 305.27265			43387.38302		71.21000		324.00000 
 43692.65567		 951.14271			42741.51297		212.97200		875.00000 
 43692.65567		 305.27265			43387.38302		71.21000		324.00000 
 43692.65567		 951.14271			42741.51297		212.97200		875.00000 
 43692.65567		 305.27265			43387.38302		71.21000		324.00000 
 43692.65567		 951.14271			42741.51297		212.97200		875.00000 
 43692.65567		 305.27265			43387.38302		71.21000		324.00000 
 43692.65567		 951.14271			42741.51297		212.97200		875.00000 
 43692.65567		 305.27265			43387.38302		71.21000		324.00000 
 43692.65567		 951.14271			42741.51297		212.97200		875.00000 
 43692.65567		 305.27265			43387.38302		71.21000		324.00000 
 43692.65567		 951.14271			42741.51297		212.97200		875.00000 
 43692.65567		 305.27265			43387.38302		71.21000		324.00000 
 43692.65567		 951.14271			42741.51297		212.97200		875.00000 
 43692.65567		 305.27265			43387.38302		71.21000		324.00000 
 43692.65567		 951.14271			42741.51297		212.97200		875.00000 
 43692.65567		 305.27265			43387.38302		71.21000		324.00000 
 43692.65567		 951.14271			42741.51297		212.97200		875.00000 
 43692.65567		 305.27265			43387.38302		71.21000		324.00000 
 43692.65567		 951.14271			42741.51297		212.97200		875.00000 
 43692.65567		 305.27265			43387.38302		71.21000		324.00000 
 43692.65567		 951.14271			42741.51297		212.97200		875.00000 
 43692.65567		 305.27265			43387.38302		71.21000		324.00000 
 43692.65567		 951.14271			42741.51297		212.97200		875.00000 
 43692.65567		 305.27265			43387.38302		71.21000		324.00000 
 43692.65567		 951.14271			42741.51297		212.97200		875.00000 
 43692.65567		 305.27265			43387.38302		71.21000		324.00000 
 43692.65567		 951.14271			42741.51297		212.97200		875.00000 
 43692.65567		 305.27265			43387.38302		71.21000		324.00000 
 43692.65567		 951.14271			42741.51297		212.97200		875.00000 
 43692.65567		 305.27265			43387.38302		71.21000		324.00000 
 43692.65567		 951.14271			42741.51297		212.97200		875.00000 
 43692.65567		 305.27265			43387.38302		71.21000		324.00000 
 43692.65567		 951.14271			42741.51297		212.97200		875.00000 
 43692.65567		 305.27265			43387.38302		71.21000		324.00000 
 43692.65567		 951.14271			42741.51297		212.97200		875.00000 
 43692.65567		 305.27265			43387.38302		71.21000		324.00000 
 43692.65567		 951.14271			42741.51297		212.97200		875.00000 
 43692.65567		 305.27265			43387.38302		71.21000		324.00000 
 43692.65567		 951.14271			42741.51297		212.97200		875.00000 
 43692.65567		 305.27265			43387.38302		71.21000		324.00000 
 43692.65567		 951.14271			42741.51297		212.97200		875.00000 
 43692.65567		 305.27265			43387.38302		71.21000		324.00000 
 43692.65567		 951.14271			42741.51297		212.97200		875.00000 
 43692.65567		 305.27265			43387.38302		71.21000		324.00000 
 43692.65567		 951.14271			42741.51297		212.97200		875.00000 
 43692.65567		 305.27265			43387.38302		71.21000		324.00000 
 43692.65567		 951.14271			42741.51297		212.97200		875.00000 
 43692.65567		 305.27265			43387.38302		71.21000		324.00000 
 43692.65567		 951.14271			42741.51297		212.97200		875.00000 
 43692.65567		 305.27265			43387.38302		71.21000		324.00000 
 43692.65567		 951.14271			42741.51297		212.97200		875.00000 
 43692.65567		 305.27265			43387.38302		71.21000		324.00000 
 43692.65567		 951.14271			42741.51297		212.97200		875.00000 
 43692.65567		 305.27265			43387.38302		71.21000		324.00000 
 43692.65567		 951.14271			42741.51297		212.97200		875.00000 
 43692.65567		 305.27265			43387.38302		71.21000		324.00000 
 43692.65567		 951.14271			42741.51297		212.97200		875.00000 
 43692.65567		 305.27265			43387.38302		71.21000		324.00000 
 43692.65567		 951.14271			42741.51297		212.97200		875.00000 
 43692.65567		 305.27265			43387.38302		71.21000		324.00000 
 43692.65567		 951.14271			42741.51297		212.97200		875.00000 
 43692.65567		 305.27265			43387.38302		71.21000		324.00000 
 43692.65567		 951.14271			42741.51297		212.97200		875.00000 
 43692.65567		 305.27265			43387.38302		71.21000		324.00000 
 43692.65567		 951.14271			42741.51297		212.97200		875.00000 
 43692.65567		 305.27265			43387.38302		71.21000		324.00000 
 43692.65567		 951.14271			42741.51297		212.97200		875.00000 
 43692.65567		 305.27265			43387.38302		71.21000		324.00000 
 43692.65567		 951.14271			42741.51297		212.97200		875.00000 
 43692.65567		 305.27265			43387.38302		71.21000		324.00000 
 43692.65567		 951.14271			42741.51297		212.97200		875.00000 
 43692.65567		 305.27265			43387.38302		71.21000		324.00000 
 43692.65567		 951.14271			42741.51297		212.97200		875.00000 
 43692.65567		 305.27265			43387.38302		71.21000		324.00000 
 43692.65567		 951.14271			42741.51297		212.97200		875.00000 
 43692.65567		 305.27265			43387.38302		71.21000		324.00000 
 43692.65567		 951.14271			42741.51297		212.97200		875.00000 
 43692.65567		 305.27265			43387.38302		71.21000		324.00000 
 43692.65567		 951.14271			42741.51297		212.97200		875.00000 
 43692.65567		 305.27265			43387.38302		71.21000		324.00000 
 43692.65567		 951.14271			42741.51297		212.97200		875.00000 
 43692.65567		 305.27265			43387.38302		71.21000		324.00000 
 43692.65567		 951.14271			42741.51297		212.97200		875.00000 
 43692.65567		 305.27265			43387.38302		71.21000		324.00000 
 43692.65567		 951.14271			42741.51297		212.97200		875.00000 
 43692.65567		 305.27265			43387.38302		71.21000		324.00000 
 43692.65567		 951.14271			42741.51297		212.97200		875.00000 
 43692.65567		 305.27265			43387.38302		71.21000		324.00000 
 43692.65567		 951.14271			42741.51297		212.97200		875.00000 
 43692.65567		 305.27265			43387.38302		71.21000		324.00000 
 43692.65567		 951.14271			42741.51297		212.97200		875.00000 
 43692.65567		 305.27265			43387.38302		71.21000		324.00000 
 43692.65567		 951.14271			42741.51297		212.97200		875.00000 
 43692.65567		 305.27265			43387.38302		71.21000		324.00000 
 43692.65567		 951.14271			42741.51297		212.97200		875.00000 
 43692.65567		 305.27265			43387.38302		71.21000		324.00000 
 43692.65567		 951.14271			42741.51297		212.97200		875.00000 
 43692.65567		 305.27265			43387.38302		68.69200		324.00000 
 43692.65567		 951.14271			42741.51297		218.17000		875.00000 
 43692.65567		 305.27265			43387.38302		68.69200		324.00000 
 43692.65567		 951.14271			42741.51297		218.17000		875.00000 
 43692.65567		 305.27265			43387.38302		68.69200		324.00000 
 43692.65567		 951.14271			42741.51297		218.17000		875.00000 
 43692.65567		 305.27265			43387.38302		68.69200		324.00000 
 43692.65567		 951.14271			42741.51297		218.17000		875.00000 
 43692.65567		 305.27265			43387.38302		68.69200		324.00000 
 43692.65567		 951.14271			42741.51297		218.17000		875.00000 
 43692.65567		 305.27265			43387.38302		68.69200		324.00000 
 43692.65567		 951.14271			42741.51297		218.17000		875.00000 
 43692.65567		 305.27265			43387.38302		68.69200		324.00000 
 43692.65567		 951.14271			42741.51297		218.17000		875.00000 
 43692.65567		 305.27265			43387.38302		68.69200		324.00000 
 43692.65567		 951.14271			42741.51297		218.17000		875.00000 
 43692.65567		 305.27265			43387.38302		68.69200		324.00000 
 43692.65567		 951.14271			42741.51297		218.17000		875.00000 
 43692.65567		 305.27265			43387.38302		68.69200		324.00000 
 43692.65567		 951.14271			42741.51297		218.17000		875.00000 
 43692.65567		 305.27265			43387.38302		68.69200		324.00000 
 43692.65567		 951.14271			42741.51297		218.17000		875.00000 
 43692.65567		 305.27265			43387.38302		68.69200		324.00000 
 43692.65567		 951.14271			42741.51297		218.17000		875.00000 
 43692.65567		 305.27265			43387.38302		68.69200		324.00000 
 43692.65567		 951.14271			42741.51297		218.17000		875.00000 
 43692.65567		 305.27265			43387.38302		68.69200		324.00000 
 43692.65567		 951.14271			42741.51297		218.17000		875.00000 
 43692.65567		 305.27265			43387.38302		68.69200		324.00000 
 43692.65567		 951.14271			42741.51297		218.17000		875.00000 
 43692.65567		 305.27265			43387.38302		68.69200		324.00000 
 43692.65567		 951.14271			42741.51297		218.17000		875.00000 
 43692.65567		 305.27265			43387.38302		68.69200		324.00000 
 43692.65567		 951.14271			42741.51297		218.17000		875.00000 
 43692.65567		 305.27265			43387.38302		68.69200		324.00000 
 43692.65567		 951.14271			42741.51297		218.17000		875.00000 
 43692.65567		 305.27265			43387.38302		68.69200		324.00000 
 43692.65567		 951.14271			42741.51297		218.17000		875.00000 
 43692.65567		 305.27265			43387.38302		68.69200		324.00000 
 43692.65567		 951.14271			42741.51297		218.17000		875.00000 
 43692.65567		 305.27265			43387.38302		68.69200		324.00000 
 43692.65567		 951.14271			42741.51297		218.17000		875.00000 
 43692.65567		 305.27265			43387.38302		68.69200		324.00000 
 43692.65567		 951.14271			42741.51297		218.17000		875.00000 
 43692.65567		 305.27265			43387.38302		68.69200		324.00000 
 43692.65567		 951.14271			42741.51297		218.17000		875.00000 
 43692.65567		 305.27265			43387.38302		68.69200		324.00000 
 43692.65567		 951.14271			42741.51297		218.17000		875.00000 
 43692.65567		 305.27265			43387.38302		68.69200		324.00000 
 43692.65567		 951.14271			42741.51297		218.17000		875.00000 
 43692.65567		 305.27265			43387.38302		68.69200		324.00000 
 43692.65567		 951.14271			42741.51297		218.17000		875.00000 
 43692.65567		 305.27265			43387.38302		68.69200		324.00000 
 43692.65567		 951.14271			42741.51297		218.17000		875.00000 
 43692.65567		 305.27265			43387.38302		68.69200		324.00000 
 43692.65567		 951.14271			42741.51297		218.17000		875.00000 
 43692.65567		 305.27265			43387.38302		68.69200		324.00000 
 43692.65567		 951.14271			42741.51297		218.17000		875.00000 
 43692.65567		 305.27265			43387.38302		68.69200		324.00000 
 43692.65567		 951.14271			42741.51297		218.17000		875.00000 
 43692.65567		 305.27265			43387.38302		68.69200		324.00000 
 43692.65567		 951.14271			42741.51297		218.17000		875.00000 
 43692.65567		 305.27265			43387.38302		68.69200		324.00000 
 43692.65567		 951.14271			42741.51297		218.17000		875.00000 
 43692.65567		 305.27265			43387.38302		68.69200		324.00000 
 43692.65567		 951.14271			42741.51297		218.17000		875.00000 
 43692.65567		 305.27265			43387.38302		68.69200		324.00000 
 43692.65567		 951.14271			42741.51297		218.17000		875.00000 
 43692.65567		 305.27265			43387.38302		68.69200		324.00000 
 43692.65567		 951.14271			42741.51297		218.17000		875.00000 
 43692.65567		 305.27265			43387.38302		68.69200		324.00000 
 43692.65567		 951.14271			42741.51297		218.17000		875.00000 
 43692.65567		 305.27265			43387.38302		68.69200		324.00000 
 43692.65567		 951.14271			42741.51297		218.17000		875.00000 
 43692.65567		 305.27265			43387.38302		68.69200		324.00000 
 43692.65567		 951.14271			42741.51297		218.17000		875.00000 
 43692.65567		 305.27265			43387.38302		68.69200		324.00000 
 43692.65567		 951.14271			42741.51297		218.17000		875.00000 
 43692.65567		 305.27265			43387.38302		68.69200		324.00000 
 43692.65567		 951.14271			42741.51297		218.17000		875.00000 
 43692.65567		 305.27265			43387.38302		68.69200		324.00000 
 43692.65567		 951.14271			42741.51297		218.17000		875.00000 
 43692.65567		 305.27265			43387.38302		68.69200		324.00000 
 43692.65567		 951.14271			42741.51297		218.17000		875.00000 
 43692.65567		 305.27265			43387.38302		68.69200		324.00000 
 43692.65567		 951.14271			42741.51297		218.17000		875.00000 
 43692.65567		 305.27265			43387.38302		68.69200		324.00000 
 43692.65567		 951.14271			42741.51297		218.17000		875.00000 
 43692.65567		 305.27265			43387.38302		68.69200		324.00000 
 43692.65567		 951.14271			42741.51297		218.17000		875.00000 
 43692.65567		 305.27265			43387.38302		68.69200		324.00000 
 43692.65567		 951.14271			42741.51297		218.17000		875.00000 
 43692.65567		 305.27265			43387.38302		68.69200		324.00000 
 43692.65567		 951.14271			42741.51297		218.17000		875.00000 
 43692.65567		 305.27265			43387.38302		68.69200		324.00000 
 43692.65567		 951.14271			42741.51297		218.17000		875.00000 
 43692.65567		 305.27265			43387.38302		68.69200		324.00000 
 43692.65567		 951.14271			42741.51297		218.17000		875.00000 
 43692.65567		 305.27265			43387.38302		68.69200		324.00000 
 43692.65567		 951.14271			42741.51297		218.17000		875.00000 
 43692.65567		 305.27265			43387.38302		68.69200		324.00000 
 43692.65567		 951.14271			42741.51297		218.17000		875.00000 
 43692.65567		 305.27265			43387.38302		68.69200		324.00000 
 43692.65567		 951.14271			42741.51297		218.17000		875.00000 
 43692.65567		 305.27265			43387.38302		68.69200		324.00000 
 43692.65567		 951.14271			42741.51297		218.17000		875.00000 
 43692.65567		 305.27265			43387.38302		68.69200		324.00000 
 43692.65567		 951.14271			42741.51297		218.17000		875.00000 
 43692.65567		 305.27265			43387.38302		68.69200		324.00000 
 43692.65567		 951.14271			42741.51297		218.17000		875.00000 
 43692.65567		 305.27265			43387.38302		68.69200		324.00000 
 43692.65567		 951.14271			42741.51297		218.17000		875.00000 
 43692.65567		 305.27265			43387.38302		68.69200		324.00000 
 43692.65567		 951.14271			42741.51297		218.17000		875.00000 
 43692.65567		 305.27265			43387.38302		68.69200		324.00000 
 43692.65567		 951.14271			42741.51297		218.17000		875.00000 
 43692.65567		 305.27265			43387.38302		68.69200		324.00000 
 43692.65567		 951.14271			42741.51297		218.17000		875.00000 
 43692.65567		 305.27265			43387.38302		68.69200		324.00000 
 43692.65567		 951.14271			42741.51297		218.17000		875.00000 
 43692.65567		 305.27265			43387.38302		68.69200		324.00000 
 43692.65567		 951.14271			42741.51297		221.07600		875.00000 
 43692.65567		 305.27265			43387.38302		68.69200		324.00000 
 43692.65567		 951.14271			42741.51297		221.07600		875.00000 
 43692.65567		 305.27265			43387.38302		68.69200		324.00000 
 43692.65567		 951.14271			42741.51297		221.07600		875.00000 
 43692.65567		 305.27265			43387.38302		68.69200		324.00000 
 43692.65567		 951.14271			42741.51297		221.07600		875.00000 
 43692.65567		 305.27265			43387.38302		68.69200		324.00000 
 43692.65567		 951.14271			42741.51297		221.07600		875.00000 
 43692.65567		 305.27265			43387.38302		68.69200		324.00000 
 43692.65567		 951.14271			42741.51297		221.07600		875.00000 
 43692.65567		 305.27265			43387.38302		68.69200		324.00000 
 43692.65567		 951.14271			42741.51297		221.07600		875.00000 
 43692.65567		 305.27265			43387.38302		68.69200		324.00000 
 43692.65567		 951.14271			42741.51297		221.07600		875.00000 
 43692.65567		 305.27265			43387.38302		68.69200		324.00000 
 43692.65567		 951.14271			42741.51297		221.07600		875.00000 
 43692.65567		 305.27265			43387.38302		68.69200		324.00000 
 43692.65567		 951.14271			42741.51297		221.07600		875.00000 
 43692.65567		 305.27265			43387.38302		68.69200		324.00000 
 43692.65567		 951.14271			42741.51297		221.07600		875.00000 
 43692.65567		 305.27265			43387.38302		68.69200		324.00000 
 43692.65567		 951.14271			42741.51297		221.07600		875.00000 
 43692.65567		 305.27265			43387.38302		68.69200		324.00000 
 43692.65567		 951.14271			42741.51297		221.07600		875.00000 
 43692.65567		 305.27265			43387.38302		68.69200		324.00000 
 43692.65567		 951.14271			42741.51297		221.07600		875.00000 
 43692.65567		 305.27265			43387.38302		68.69200		324.00000 
 43692.65567		 951.14271			42741.51297		221.07600		875.00000 
 43692.65567		 305.27265			43387.38302		68.69200		324.00000 
 43692.65567		 951.14271			42741.51297		221.07600		875.00000 
 43692.65567		 305.27265			43387.38302		68.69200		324.00000 
 43692.65567		 951.14271			42741.51297		221.07600		875.00000 
 43692.65567		 305.27265			43387.38302		68.69200		324.00000 
 43692.65567		 951.14271			42741.51297		221.07600		875.00000 
 43692.65567		 305.27265			43387.38302		68.69200		324.00000 
 43692.65567		 951.14271			42741.51297		221.07600		875.00000 
 43692.65567		 305.27265			43387.38302		68.69200		324.00000 
 43692.65567		 951.14271			42741.51297		221.07600		875.00000 
 43692.65567		 305.27265			43387.38302		68.69200		324.00000 
 43692.65567		 951.14271			42741.51297		221.07600		875.00000 
 43692.65567		 305.27265			43387.38302		68.69200		324.00000 
 43692.65567		 951.14271			42741.51297		221.07600		875.00000 
 43692.65567		 305.27265			43387.38302		68.69200		324.00000 
 43692.65567		 951.14271			42741.51297		221.07600		875.00000 
 43692.65567		 305.27265			43387.38302		68.69200		324.00000 
 43692.65567		 951.14271			42741.51297		221.07600		875.00000 
 43692.65567		 305.27265			43387.38302		68.69200		324.00000 
 43692.65567		 951.14271			42741.51297		221.07600		875.00000 
 43692.65567		 305.27265			43387.38302		68.69200		324.00000 
 43692.65567		 951.14271			42741.51297		221.07600		875.00000 
 43692.65567		 305.27265			43387.38302		68.69200		324.00000 
 43692.65567		 951.14271			42741.51297		221.07600		875.00000 
 43692.65567		 305.27265			43387.38302		68.69200		324.00000 
 43692.65567		 951.14271			42741.51297		221.07600		875.00000 
 43692.65567		 305.27265			43387.38302		68.69200		324.00000 
 43692.65567		 951.14271			42741.51297		221.07600		875.00000 
 43692.65567		 305.27265			43387.38302		68.69200		324.00000 
 43692.65567		 951.14271			42741.51297		221.07600		875.00000 
 43692.65567		 305.27265			43387.38302		68.69200		324.00000 
 43692.65567		 951.14271			42741.51297		221.07600		875.00000 
 43692.65567		 305.27265			43387.38302		68.69200		324.00000 
 43692.65567		 951.14271			42741.51297		221.07600		875.00000 
 43692.65567		 305.27265			43387.38302		68.69200		324.00000 
 43692.65567		 951.14271			42741.51297		221.07600		875.00000 
 43692.65567		 305.27265			43387.38302		68.69200		324.00000 
 43692.65567		 951.14271			42741.51297		221.07600		875.00000 
 43692.65567		 305.27265			43387.38302		68.69200		324.00000 
 43692.65567		 951.14271			42741.51297		221.07600		875.00000 
 43692.65567		 305.27265			43387.38302		68.69200		324.00000 
 43692.65567		 951.14271			42741.51297		221.07600		875.00000 
 43692.65567		 305.27265			43387.38302		68.69200		324.00000 
 43692.65567		 951.14271			42741.51297		221.07600		875.00000 
 43692.65567		 305.27265			43387.38302		68.69200		324.00000 
 43692.65567		 951.14271			42741.51297		221.07600		875.00000 
 43692.65567		 305.27265			43387.38302		68.69200		324.00000 
 43692.65567		 951.14271			42741.51297		221.07600		875.00000 
 43692.65567		 305.27265			43387.38302		68.69200		324.00000 
 43692.65567		 951.14271			42741.51297		221.07600		875.00000 
 43692.65567		 305.27265			43387.38302		68.69200		324.00000 
 43692.65567		 951.14271			42741.51297		221.07600		875.00000 
 43692.65567		 305.27265			43387.38302		68.69200		324.00000 
 43692.65567		 951.14271			42741.51297		221.07600		875.00000 
 43692.65567		 305.27265			43387.38302		68.69200		324.00000 
 43692.65567		 951.14271			42741.51297		221.07600		875.00000 
 43692.65567		 305.27265			43387.38302		68.69200		324.00000 
 43692.65567		 951.14271			42741.51297		221.07600		875.00000 
 43692.65567		 305.27265			43387.38302		68.69200		324.00000 
 43692.65567		 951.14271			42741.51297		221.07600		875.00000 
 43692.65567		 305.27265			43387.38302		68.69200		324.00000 
 43692.65567		 951.14271			42741.51297		221.07600		875.00000 
 43692.65567		 305.27265			43387.38302		68.69200		324.00000 
 43692.65567		 951.14271			42741.51297		221.07600		875.00000 
 43692.65567		 305.27265			43387.38302		68.69200		324.00000 
 43692.65567		 951.14271			42741.51297		221.07600		875.00000 
 43692.65567		 305.27265			43387.38302		68.69200		324.00000 
 43692.65567		 951.14271			42741.51297		221.07600		875.00000 
 43692.65567		 305.27265			43387.38302		68.69200		324.00000 
 43692.65567		 951.14271			42741.51297		221.07600		875.00000 
 43692.65567		 305.27265			43387.38302		68.69200		324.00000 
 43692.65567		 951.14271			42741.51297		221.07600		875.00000 
 43692.65567		 305.27265			43387.38302		68.69200		324.00000 
 43692.65567		 951.14271			42741.51297		221.07600		875.00000 
 43692.65567		 305.27265			43387.38302		68.69200		324.00000 
 43692.65567		 951.14271			42741.51297		221.07600		875.00000 
 43692.65567		 305.27265			43387.38302		68.69200		324.00000 
 43692.65567		 951.14271			42741.51297		221.07600		875.00000 
 43692.65567		 305.27265			43387.38302		68.69200		324.00000 
 43692.65567		 951.14271			42741.51297		221.07600		875.00000 
 43692.65567		 305.27265			43387.38302		68.69200		324.00000 
 43692.65567		 951.14271			42741.51297		221.07600		875.00000 
 43692.65567		 305.27265			43387.38302		68.69200		324.00000 
 43692.65567		 951.14271			42741.51297		221.07600		875.00000 
 43692.65567		 305.27265			43387.38302		68.69200		324.00000 
 43692.65567		 951.14271			42741.51297		221.07600		875.00000 
 43692.65567		 305.27265			43387.38302		68.69200		324.00000 
 43692.65567		 951.14271			42741.51297		221.07600		875.00000 
 43692.65567		 305.27265			43387.38302		68.69200		324.00000 
 43692.65567		 951.14271			42741.51297		221.07600		875.00000 
 43692.65567		 305.27265			43387.38302		68.69200		324.00000 
 43692.65567		 951.14271			42741.51297		221.86800		875.00000 
 43692.65567		 305.27265			43387.38302		68.69200		324.00000 
 43692.65567		 951.14271			42741.51297		221.86800		875.00000 
 43692.65567		 305.27265			43387.38302		68.69200		324.00000 
 43692.65567		 951.14271			42741.51297		221.86800		875.00000 
 43692.65567		 305.27265			43387.38302		68.69200		324.00000 
 43692.65567		 951.14271			42741.51297		221.86800		875.00000 
 43692.65567		 305.27265			43387.38302		68.69200		324.00000 
 43692.65567		 951.14271			42741.51297		221.86800		875.00000 
 43692.65567		 305.27265			43387.38302		68.69200		324.00000 
 43692.65567		 951.14271			42741.51297		221.86800		875.00000 
 43692.65567		 305.27265			43387.38302		68.69200		324.00000 
 43692.65567		 951.14271			42741.51297		221.86800		875.00000 
 43692.65567		 305.27265			43387.38302		68.69200		324.00000 
 43692.65567		 951.14271			42741.51297		221.86800		875.00000 
 43692.65567		 305.27265			43387.38302		68.69200		324.00000 
 43692.65567		 951.14271			42741.51297		221.86800		875.00000 
 43692.65567		 305.27265			43387.38302		68.69200		324.00000 
 43692.65567		 951.14271			42741.51297		221.86800		875.00000 
 43692.65567		 305.27265			43387.38302		68.69200		324.00000 
 43692.65567		 951.14271			42741.51297		221.86800		875.00000 
 43692.65567		 305.27265			43387.38302		68.69200		324.00000 
 43692.65567		 951.14271			42741.51297		221.86800		875.00000 
 43692.65567		 305.27265			43387.38302		68.69200		324.00000 
 43692.65567		 951.14271			42741.51297		221.86800		875.00000 
 43692.65567		 305.27265			43387.38302		68.69200		324.00000 
 43692.65567		 951.14271			42741.51297		221.86800		875.00000 
 43692.65567		 305.27265			43387.38302		68.69200		324.00000 
 43692.65567		 951.14271			42741.51297		221.86800		875.00000 
 43692.65567		 305.27265			43387.38302		68.69200		324.00000 
 43692.65567		 951.14271			42741.51297		221.86800		875.00000 
 43692.65567		 305.27265			43387.38302		68.69200		324.00000 
 43692.65567		 951.14271			42741.51297		221.86800		875.00000 
 43692.65567		 305.27265			43387.38302		68.69200		324.00000 
 43692.65567		 951.14271			42741.51297		221.86800		875.00000 
 43692.65567		 305.27265			43387.38302		68.69200		324.00000 
 43692.65567		 951.14271			42741.51297		221.86800		875.00000 
 43692.65567		 305.27265			43387.38302		68.69200		324.00000 
 43692.65567		 951.14271			42741.51297		221.86800		875.00000 
 43692.65567		 305.27265			43387.38302		68.69200		324.00000 
 43692.65567		 951.14271			42741.51297		221.86800		875.00000 
 43692.65567		 305.27265			43387.38302		68.69200		324.00000 
 43692.65567		 951.14271			42741.51297		221.86800		875.00000 
 43692.65567		 305.27265			43387.38302		68.69200		324.00000 
 43692.65567		 951.14271			42741.51297		221.86800		875.00000 
 43692.65567		 305.27265			43387.38302		68.69200		324.00000 
 43692.65567		 951.14271			42741.51297		221.86800		875.00000 
 43692.65567		 305.27265			43387.38302		68.69200		324.00000 
 43692.65567		 951.14271			42741.51297		221.86800		875.00000 
 43692.65567		 305.27265			43387.38302		68.69200		324.00000 
 43692.65567		 951.14271			42741.51297		221.86800		875.00000 
 43692.65567		 305.27265			43387.38302		68.69200		324.00000 
 43692.65567		 951.14271			42741.51297		221.86800		875.00000 
 43692.65567		 305.27265			43387.38302		68.69200		324.00000 
 43692.65567		 951.14271			42741.51297		221.86800		875.00000 
 43692.65567		 305.27265			43387.38302		68.69200		324.00000 
 43692.65567		 951.14271			42741.51297		221.86800		875.00000 
 43692.65567		 305.27265			43387.38302		68.69200		324.00000 
 43692.65567		 951.14271			42741.51297		221.86800		875.00000 
 43692.65567		 305.27265			43387.38302		68.69200		324.00000 
 43692.65567		 951.14271			42741.51297		221.86800		875.00000 
 43692.65567		 305.27265			43387.38302		68.69200		324.00000 
 43692.65567		 951.14271			42741.51297		221.86800		875.00000 
 43692.65567		 305.27265			43387.38302		68.69200		324.00000 
 43692.65567		 951.14271			42741.51297		221.86800		875.00000 
 43692.65567		 305.27265			43387.38302		68.69200		324.00000 
 43692.65567		 951.14271			42741.51297		221.86800		875.00000 
 43692.65567		 305.27265			43387.38302		68.69200		324.00000 
 43692.65567		 951.14271			42741.51297		221.86800		875.00000 
 43692.65567		 305.27265			43387.38302		68.69200		324.00000 
 43692.65567		 951.14271			42741.51297		221.86800		875.00000 
 43692.65567		 305.27265			43387.38302		68.69200		324.00000 
 43692.65567		 951.14271			42741.51297		221.86800		875.00000 
 43692.65567		 305.27265			43387.38302		68.69200		324.00000 
 43692.65567		 951.14271			42741.51297		221.86800		875.00000 
 43692.65567		 305.27265			43387.38302		68.69200		324.00000 
 43692.65567		 951.14271			42741.51297		221.86800		875.00000 
 43692.65567		 305.27265			43387.38302		68.69200		324.00000 
 43692.65567		 951.14271			42741.51297		221.86800		875.00000 
 43692.65567		 305.27265			43387.38302		68.69200		324.00000 
 43692.65567		 951.14271			42741.51297		221.86800		875.00000 
 43692.65567		 305.27265			43387.38302		68.69200		324.00000 
 43692.65567		 951.14271			42741.51297		221.86800		875.00000 
 43692.65567		 305.27265			43387.38302		68.69200		324.00000 
 43692.65567		 951.14271			42741.51297		221.86800		875.00000 
 43692.65567		 305.27265			43387.38302		68.69200		324.00000 
 43692.65567		 951.14271			42741.51297		221.86800		875.00000 
 43692.65567		 305.27265			43387.38302		68.69200		324.00000 
 43692.65567		 951.14271			42741.51297		221.86800		875.00000 
 43692.65567		 305.27265			43387.38302		68.69200		324.00000 
 43692.65567		 951.14271			42741.51297		221.86800		875.00000 
 43692.65567		 305.27265			43387.38302		68.69200		324.00000 
 43692.65567		 951.14271			42741.51297		221.86800		875.00000 
 43692.65567		 305.27265			43387.38302		68.69200		324.00000 
 43692.65567		 951.14271			42741.51297		221.86800		875.00000 
 43692.65567		 305.27265			43387.38302		68.69200		324.00000 
 43692.65567		 951.14271			42741.51297		221.86800		875.00000 
 43692.65567		 305.27265			43387.38302		68.69200		324.00000 
 43692.65567		 951.14271			42741.51297		221.86800		875.00000 
 43692.65567		 305.27265			43387.38302		68.69200		324.00000 
 43692.65567		 951.14271			42741.51297		221.86800		875.00000 
 43692.65567		 305.27265			43387.38302		68.69200		324.00000 
 43692.65567		 951.14271			42741.51297		221.86800		875.00000 
 43692.65567		 305.27265			43387.38302		68.69200		324.00000 
 43692.65567		 951.14271			42741.51297		221.86800		875.00000 
 43692.65567		 305.27265			43387.38302		68.69200		324.00000 
 43692.65567		 951.14271			42741.51297		221.86800		875.00000 
 43692.65567		 305.27265			43387.38302		68.69200		324.00000 
 43692.65567		 951.14271			42741.51297		221.86800		875.00000 
 43692.65567		 305.27265			43387.38302		68.69200		324.00000 
 43692.65567		 951.14271			42741.51297		221.86800		875.00000 
 43692.65567		 305.27265			43387.38302		68.69200		324.00000 
 43692.65567		 951.14271			42741.51297		221.86800		875.00000 
 43692.65567		 305.27265			43387.38302		68.69200		324.00000 
 43692.65567		 951.14271			42741.51297		221.86800		875.00000 
 43692.65567		 305.27265			43387.38302		68.69200		324.00000 
 43692.65567		 951.14271			42741.51297		221.86800		875.00000 
 43692.65567		 305.27265			43387.38302		68.69200		324.00000 
 43692.65567		 951.14271			42741.51297		221.86800		875.00000 
 43692.65567		 305.27265			43387.38302		68.69200		324.00000 
 43692.65567		 951.14271			42741.51297		221.86800		875.00000 
 43692.65567		 305.27265			43387.38302		68.69200		324.00000 
 43692.65567		 951.14271			42741.51297		221.46000		875.00000 
 43692.65567		 305.27265			43387.38302		68.69200		324.00000 
 43692.65567		 951.14271			42741.51297		221.46000		875.00000 
 43692.65567		 305.27265			43387.38302		68.69200		324.00000 
 43692.65567		 951.14271			42741.51297		221.46000		875.00000 
 43692.65567		 305.27265			43387.38302		68.69200		324.00000 
 43692.65567		 951.14271			42741.51297		221.46000		875.00000 
 43692.65567		 305.27265			43387.38302		68.69200		324.00000 
 43692.65567		 951.14271			42741.51297		221.46000		875.00000 
 43692.65567		 305.27265			43387.38302		68.69200		324.00000 
 43692.65567		 951.14271			42741.51297		221.46000		875.00000 
 43692.65567		 305.27265			43387.38302		68.69200		324.00000 
 43692.65567		 951.14271			42741.51297		221.46000		875.00000 
 43692.65567		 305.27265			43387.38302		68.69200		324.00000 
 43692.65567		 951.14271			42741.51297		221.46000		875.00000 
 43692.65567		 305.27265			43387.38302		68.69200		324.00000 
 43692.65567		 951.14271			42741.51297		221.46000		875.00000 
 43692.65567		 305.27265			43387.38302		68.69200		324.00000 
 43692.65567		 951.14271			42741.51297		221.46000		875.00000 
 43692.65567		 305.27265			43387.38302		68.69200		324.00000 
 43692.65567		 951.14271			42741.51297		221.46000		875.00000 
 43692.65567		 305.27265			43387.38302		68.69200		324.00000 
 43692.65567		 951.14271			42741.51297		221.46000		875.00000 
 43692.65567		 305.27265			43387.38302		68.69200		324.00000 
 43692.65567		 951.14271			42741.51297		221.46000		875.00000 
 43692.65567		 305.27265			43387.38302		68.69200		324.00000 
 43692.65567		 951.14271			42741.51297		221.46000		875.00000 
 43692.65567		 305.27265			43387.38302		68.69200		324.00000 
 43692.65567		 951.14271			42741.51297		221.46000		875.00000 
 43692.65567		 305.27265			43387.38302		68.69200		324.00000 
 43692.65567		 951.14271			42741.51297		221.46000		875.00000 
 43692.65567		 305.27265			43387.38302		68.69200		324.00000 
 43692.65567		 951.14271			42741.51297		221.46000		875.00000 
 43692.65567		 305.27265			43387.38302		68.69200		324.00000 
 43692.65567		 951.14271			42741.51297		221.46000		875.00000 
 43692.65567		 305.27265			43387.38302		68.69200		324.00000 
 43692.65567		 951.14271			42741.51297		221.46000		875.00000 
 43692.65567		 305.27265			43387.38302		68.69200		324.00000 
 43692.65567		 951.14271			42741.51297		221.46000		875.00000 
 43692.65567		 305.27265			43387.38302		68.69200		324.00000 
 43692.65567		 951.14271			42741.51297		221.46000		875.00000 
 43692.65567		 305.27265			43387.38302		68.69200		324.00000 
 43692.65567		 951.14271			42741.51297		221.46000		875.00000 
 43692.65567		 305.27265			43387.38302		68.69200		324.00000 
 43692.65567		 951.14271			42741.51297		221.46000		875.00000 
 43692.65567		 305.27265			43387.38302		68.69200		324.00000 
 43692.65567		 951.14271			42741.51297		221.46000		875.00000 
 43692.65567		 305.27265			43387.38302		68.69200		324.00000 
 43692.65567		 951.14271			42741.51297		221.46000		875.00000 
 43692.65567		 305.27265			43387.38302		68.69200		324.00000 
 43692.65567		 951.14271			42741.51297		221.46000		875.00000 
 43692.65567		 305.27265			43387.38302		68.69200		324.00000 
 43692.65567		 951.14271			42741.51297		221.46000		875.00000 
 43692.65567		 305.27265			43387.38302		68.69200		324.00000 
 43692.65567		 951.14271			42741.51297		221.46000		875.00000 
 43692.65567		 305.27265			43387.38302		68.69200		324.00000 
 43692.65567		 951.14271			42741.51297		221.46000		875.00000 
 43692.65567		 305.27265			43387.38302		68.69200		324.00000 
 43692.65567		 951.14271			42741.51297		221.46000		875.00000 
 43692.65567		 305.27265			43387.38302		68.69200		324.00000 
 43692.65567		 951.14271			42741.51297		221.46000		875.00000 
 43692.65567		 305.27265			43387.38302		68.69200		324.00000 
 43692.65567		 951.14271			42741.51297		221.46000		875.00000 
 43692.65567		 305.27265			43387.38302		68.69200		324.00000 
 43692.65567		 951.14271			42741.51297		221.46000		875.00000 
 43692.65567		 305.27265			43387.38302		68.69200		324.00000 
 43692.65567		 951.14271			42741.51297		221.46000		875.00000 
 43692.65567		 305.27265			43387.38302		68.69200		324.00000 
 43692.65567		 951.14271			42741.51297		221.46000		875.00000 
 43692.65567		 305.27265			43387.38302		68.69200		324.00000 
 43692.65567		 951.14271			42741.51297		221.46000		875.00000 
 43692.65567		 305.27265			43387.38302		68.69200		324.00000 
 43692.65567		 951.14271			42741.51297		221.46000		875.00000 
 43692.65567		 305.27265			43387.38302		68.69200		324.00000 
 43692.65567		 951.14271			42741.51297		221.46000		875.00000 
 43692.65567		 305.27265			43387.38302		68.69200		324.00000 
 43692.65567		 951.14271			42741.51297		221.46000		875.00000 
 43692.65567		 305.27265			43387.38302		68.69200		324.00000 
 43692.65567		 951.14271			42741.51297		221.46000		875.00000 
 43692.65567		 305.27265			43387.38302		68.69200		324.00000 
 43692.65567		 951.14271			42741.51297		221.46000		875.00000 
 43692.65567		 305.27265			43387.38302		68.69200		324.00000 
 43692.65567		 951.14271			42741.51297		221.46000		875.00000 
 43692.65567		 305.27265			43387.38302		68.69200		324.00000 
 43692.65567		 951.14271			42741.51297		221.46000		875.00000 
 43692.65567		 305.27265			43387.38302		68.69200		324.00000 
 43692.65567		 951.14271			42741.51297		221.46000		875.00000 
 43692.65567		 305.27265			43387.38302		68.69200		324.00000 
 43692.65567		 951.14271			42741.51297		221.46000		875.00000 
 43692.65567		 305.27265			43387.38302		68.69200		324.00000 
 43692.65567		 951.14271			42741.51297		221.46000		875.00000 
 43692.65567		 305.27265			43387.38302		68.69200		324.00000 
 43692.65567		 951.14271			42741.51297		221.46000		875.00000 
 43692.65567		 305.27265			43387.38302		68.69200		324.00000 
 43692.65567		 951.14271			42741.51297		221.46000		875.00000 
 43692.65567		 305.27265			43387.38302		68.69200		324.00000 
 43692.65567		 951.14271			42741.51297		221.46000		875.00000 
 43692.65567		 305.27265			43387.38302		68.69200		324.00000 
 43692.65567		 951.14271			42741.51297		221.46000		875.00000 
 43692.65567		 305.27265			43387.38302		68.69200		324.00000 
 43692.65567		 951.14271			42741.51297		221.46000		875.00000 
 43692.65567		 305.27265			43387.38302		68.69200		324.00000 
 43692.65567		 951.14271			42741.51297		221.46000		875.00000 
 43692.65567		 305.27265			43387.38302		68.69200		324.00000 
 43692.65567		 951.14271			42741.51297		221.46000		875.00000 
 43692.65567		 305.27265			43387.38302		68.69200		324.00000 
 43692.65567		 951.14271			42741.51297		221.46000		875.00000 
 43692.65567		 305.27265			43387.38302		68.69200		324.00000 
 43692.65567		 951.14271			42741.51297		221.46000		875.00000 
 43692.65567		 305.27265			43387.38302		68.69200		324.00000 
 43692.65567		 951.14271			42741.51297		221.46000		875.00000 
 43692.65567		 305.27265			43387.38302		68.69200		324.00000 
 43692.65567		 951.14271			42741.51297		221.46000		875.00000 
 43692.65567		 305.27265			43387.38302		68.69200		324.00000 
 43692.65567		 951.14271			42741.51297		221.46000		875.00000 
 43692.65567		 305.27265			43387.38302		68.69200		324.00000 
 43692.65567		 951.14271			42741.51297		221.46000		875.00000 
 43692.65567		 305.27265			43387.38302		68.69200		324.00000 
 43692.65567		 951.14271			42741.51297		221.46000		875.00000 
 43692.65567		 305.27265			43387.38302		68.69200		324.00000 
 43692.65567		 951.14271			42741.51297		221.46000		875.00000 
 43692.65567		 305.27265			43387.38302		68.69200		324.00000 
 43692.65567		 951.14271			42741.51297		221.46000		875.00000 
 43692.65567		 305.27265			43387.38302		68.69200		324.00000 
 43692.65567		 951.14271			42741.51297		221.46000		875.00000 
 43692.65567		 305.27265			43387.38302		68.69200		324.00000 
 43692.65567		 951.14271			42741.51297		221.46000		875.00000 
 43692.65567		 305.27265			43387.38302		68.69200		324.00000 
 43692.65567		 951.14271			42741.51297		221.46000		875.00000 
 43692.65567		 305.27265			43387.38302		68.69200		324.00000 
 43692.65567		 951.14271			42741.51297		221.82600		875.00000 
 43692.65567		 305.27265			43387.38302		68.69200		324.00000 
 43692.65567		 951.14271			42741.51297		221.82600		875.00000 
 43692.65567		 305.27265			43387.38302		68.69200		324.00000 
 43692.65567		 951.14271			42741.51297		221.82600		875.00000 
 43692.65567		 305.27265			43387.38302		68.69200		324.00000 
 43692.65567		 951.14271			42741.51297		221.82600		875.00000 
 43692.65567		 305.27265			43387.38302		68.69200		324.00000 
 43692.65567		 951.14271			42741.51297		221.82600		875.00000 
 43692.65567		 305.27265			43387.38302		68.69200		324.00000 
 43692.65567		 951.14271			42741.51297		221.82600		875.00000 
 43692.65567		 305.27265			43387.38302		68.69200		324.00000 
 43692.65567		 951.14271			42741.51297		221.82600		875.00000 
 43692.65567		 305.27265			43387.38302		68.69200		324.00000 
 43692.65567		 951.14271			42741.51297		221.82600		875.00000 
 43692.65567		 305.27265			43387.38302		68.69200		324.00000 
 43692.65567		 951.14271			42741.51297		221.82600		875.00000 
 43692.65567		 305.27265			43387.38302		68.69200		324.00000 
 43692.65567		 951.14271			42741.51297		221.82600		875.00000 
 43692.65567		 305.27265			43387.38302		68.69200		324.00000 
 43692.65567		 951.14271			42741.51297		221.82600		875.00000 
 43692.65567		 305.27265			43387.38302		68.69200		324.00000 
 43692.65567		 951.14271			42741.51297		221.82600		875.00000 
 43692.65567		 305.27265			43387.38302		68.69200		324.00000 
 43692.65567		 951.14271			42741.51297		221.82600		875.00000 
 43692.65567		 305.27265			43387.38302		68.69200		324.00000 
 43692.65567		 951.14271			42741.51297		221.82600		875.00000 
 43692.65567		 305.27265			43387.38302		68.69200		324.00000 
 43692.65567		 951.14271			42741.51297		221.82600		875.00000 
 43692.65567		 305.27265			43387.38302		68.69200		324.00000 
 43692.65567		 951.14271			42741.51297		221.82600		875.00000 
 43692.65567		 305.27265			43387.38302		68.69200		324.00000 
 43692.65567		 951.14271			42741.51297		221.82600		875.00000 
 43692.65567		 305.27265			43387.38302		68.69200		324.00000 
 43692.65567		 951.14271			42741.51297		221.82600		875.00000 
 43692.65567		 305.27265			43387.38302		68.69200		324.00000 
 43692.65567		 951.14271			42741.51297		221.82600		875.00000 
 43692.65567		 305.27265			43387.38302		68.69200		324.00000 
 43692.65567		 951.14271			42741.51297		221.82600		875.00000 
 43692.65567		 305.27265			43387.38302		68.69200		324.00000 
 43692.65567		 951.14271			42741.51297		221.82600		875.00000 
 43692.65567		 305.27265			43387.38302		68.69200		324.00000 
 43692.65567		 951.14271			42741.51297		221.82600		875.00000 
 43692.65567		 305.27265			43387.38302		68.69200		324.00000 
 43692.65567		 951.14271			42741.51297		221.82600		875.00000 
 43692.65567		 305.27265			43387.38302		68.69200		324.00000 
 43692.65567		 951.14271			42741.51297		221.82600		875.00000 
 43692.65567		 305.27265			43387.38302		68.69200		324.00000 
 43692.65567		 951.14271			42741.51297		221.82600		875.00000 
 43692.65567		 305.27265			43387.38302		68.69200		324.00000 
 43692.65567		 951.14271			42741.51297		221.82600		875.00000 
 43692.65567		 305.27265			43387.38302		68.69200		324.00000 
 43692.65567		 951.14271			42741.51297		221.82600		875.00000 
 43692.65567		 305.27265			43387.38302		68.69200		324.00000 
 43692.65567		 951.14271			42741.51297		221.82600		875.00000 
 43692.65567		 305.27265			43387.38302		68.69200		324.00000 
 43692.65567		 951.14271			42741.51297		221.82600		875.00000 
 43692.65567		 305.27265			43387.38302		68.69200		324.00000 
 43692.65567		 951.14271			42741.51297		221.82600		875.00000 
 43692.65567		 305.27265			43387.38302		68.69200		324.00000 
 43692.65567		 951.14271			42741.51297		221.82600		875.00000 
 43692.65567		 305.27265			43387.38302		68.69200		324.00000 
 43692.65567		 951.14271			42741.51297		221.82600		875.00000 
 43692.65567		 305.27265			43387.38302		68.69200		324.00000 
 43692.65567		 951.14271			42741.51297		221.82600		875.00000 
 43692.65567		 305.27265			43387.38302		68.69200		324.00000 
 43692.65567		 951.14271			42741.51297		221.82600		875.00000 
 43692.65567		 305.27265			43387.38302		68.69200		324.00000 
 43692.65567		 951.14271			42741.51297		221.82600		875.00000 
 43692.65567		 305.27265			43387.38302		68.69200		324.00000 
 43692.65567		 951.14271			42741.51297		221.82600		875.00000 
 43692.65567		 305.27265			43387.38302		68.69200		324.00000 
 43692.65567		 951.14271			42741.51297		221.82600		875.00000 
 43692.65567		 305.27265			43387.38302		68.69200		324.00000 
 43692.65567		 951.14271			42741.51297		221.82600		875.00000 
 43692.65567		 305.27265			43387.38302		68.69200		324.00000 
 43692.65567		 951.14271			42741.51297		221.82600		875.00000 
 43692.65567		 305.27265			43387.38302		68.69200		324.00000 
 43692.65567		 951.14271			42741.51297		221.82600		875.00000 
 43692.65567		 305.27265			43387.38302		68.69200		324.00000 
 43692.65567		 951.14271			42741.51297		221.82600		875.00000 
 43692.65567		 305.27265			43387.38302		68.69200		324.00000 
 43692.65567		 951.14271			42741.51297		221.82600		875.00000 
 43692.65567		 305.27265			43387.38302		68.69200		324.00000 
 43692.65567		 951.14271			42741.51297		221.82600		875.00000 
 43692.65567		 305.27265			43387.38302		68.69200		324.00000 
 43692.65567		 951.14271			42741.51297		221.82600		875.00000 
 43692.65567		 305.27265			43387.38302		68.69200		324.00000 
 43692.65567		 951.14271			42741.51297		221.82600		875.00000 
 43692.65567		 305.27265			43387.38302		68.69200		324.00000 
 43692.65567		 951.14271			42741.51297		221.82600		875.00000 
 43692.65567		 305.27265			43387.38302		68.69200		324.00000 
 43692.65567		 951.14271			42741.51297		221.82600		875.00000 
 43692.65567		 305.27265			43387.38302		68.69200		324.00000 
 43692.65567		 951.14271			42741.51297		221.82600		875.00000 
 43692.65567		 305.27265			43387.38302		68.69200		324.00000 
 43692.65567		 951.14271			42741.51297		221.82600		875.00000 
 43692.65567		 305.27265			43387.38302		68.69200		324.00000 
 43692.65567		 951.14271			42741.51297		221.82600		875.00000 
 43692.65567		 305.27265			43387.38302		68.69200		324.00000 
 43692.65567		 951.14271			42741.51297		221.82600		875.00000 
 43692.65567		 305.27265			43387.38302		68.69200		324.00000 
 43692.65567		 951.14271			42741.51297		221.82600		875.00000 
 43692.65567		 305.27265			43387.38302		68.69200		324.00000 
 43692.65567		 951.14271			42741.51297		221.82600		875.00000 
 43692.65567		 305.27265			43387.38302		68.69200		324.00000 
 43692.65567		 951.14271			42741.51297		221.82600		875.00000 
 43692.65567		 305.27265			43387.38302		68.69200		324.00000 
 43692.65567		 951.14271			42741.51297		221.82600		875.00000 
 43692.65567		 305.27265			43387.38302		68.69200		324.00000 
 43692.65567		 951.14271			42741.51297		221.82600		875.00000 
 43692.65567		 305.27265			43387.38302		68.69200		324.00000 
 43692.65567		 951.14271			42741.51297		221.82600		875.00000 
 43692.65567		 305.27265			43387.38302		68.69200		324.00000 
 43692.65567		 951.14271			42741.51297		221.82600		875.00000 
 43692.65567		 305.27265			43387.38302		68.69200		324.00000 
 43692.65567		 951.14271			42741.51297		221.82600		875.00000 
 43692.65567		 305.27265			43387.38302		68.69200		324.00000 
 43692.65567		 951.14271			42741.51297		221.82600		875.00000 
 43692.65567		 305.27265			43387.38302		68.69200		324.00000 
 43692.65567		 951.14271			42741.51297		221.82600		875.00000 
 43692.65567		 305.27265			43387.38302		68.69200		324.00000 
 43692.65567		 951.14271			42741.51297		221.82600		875.00000 
 43692.65567		 305.27265			43387.38302		68.69200		324.00000 
 43692.65567		 951.14271			42741.51297		221.82600		875.00000 
 43692.65567		 305.27265			43387.38302		68.69200		324.00000 
 43692.65567		 951.14271			42741.51297		221.82600		875.00000 
 43692.65567		 305.27265			43387.38302		68.69200		324.00000 
 43692.65567		 951.14271			42741.51297		221.82600		875.00000 
 43692.65567		 305.27265			43387.38302		68.69200		324.00000 
 43692.65567		 951.14271			42741.51297		221.82600		875.00000 
 43692.65567		 305.27265			43387.38302		68.69200		324.00000 
 43692.65567		 951.14271			42741.51297		221.82600		875.00000 
 43692.65567		 305.27265			43387.38302		68.69200		324.00000 
 43692.65567		 951.14271			42741.51297		221.82600		875.00000 
 43692.65567		 305.27265			43387.38302		68.69200		324.00000 
 43692.65567		 951.14271			42741.51297		221.82600		875.00000 
 43692.65567		 305.27265			43387.38302		68.69200		324.00000 
 43692.65567		 951.14271			42741.51297		221.82600		875.00000 
 43692.65567		 305.27265			43387.38302		68.69200		324.00000 
 43692.65567		 951.14271			42741.51297		221.82600		875.00000 
 43692.65567		 305.27265			43387.38302		68.69200		324.00000 
 43692.65567		 951.14271			42741.51297		221.82600		875.00000 
 43692.65567		 305.27265			43387.38302		68.69200		324.00000 
 43692.65567		 951.14271			42741.51297		221.82600		875.00000 
 43692.65567		 305.27265			43387.38302		68.69200		324.00000 
 43692.65567		 951.14271			42741.51297		221.82600		875.00000 
 43692.65567		 305.27265			43387.38302		68.69200		324.00000 
 43692.65567		 951.14271			42741.51297		221.82600		875.00000 
 43692.65567		 305.27265			43387.38302		68.69200		324.00000 
 43692.65567		 951.14271			42741.51297		221.82600		875.00000 
 43692.65567		 305.27265			43387.38302		68.69200		324.00000 
 43692.65567		 951.14271			42741.51297		221.82600		875.00000 
 43692.65567		 305.27265			43387.38302		68.69200		324.00000 
 43692.65567		 951.14271			42741.51297		221.82600		875.00000 
 43692.65567		 305.27265			43387.38302		68.69200		324.00000 
 43692.65567		 951.14271			42741.51297		221.82600		875.00000 
 43692.65567		 305.27265			43387.38302		68.69200		324.00000 
 43692.65567		 951.14271			42741.51297		221.82600		875.00000 
 43692.65567		 305.27265			43387.38302		68.69200		324.00000 
 43692.65567		 951.14271			42741.51297		221.82600		875.00000 
 43692.65567		 305.27265			43387.38302		68.69200		324.00000 
 43692.65567		 951.14271			42741.51297		221.82600		875.00000 
 43692.65567		 305.27265			43387.38302		68.69200		324.00000 
 43692.65567		 951.14271			42741.51297		221.82600		875.00000 
 43692.65567		 305.27265			43387.38302		68.69200		324.00000 
 43692.65567		 951.14271			42741.51297		221.82600		875.00000 
 43692.65567		 305.27265			43387.38302		68.69200		324.00000 
 43692.65567		 951.14271			42741.51297		221.82600		875.00000 
 43692.65567		 305.27265			43387.38302		68.69200		324.00000 
 43692.65567		 951.14271			42741.51297		221.82600		875.00000 
 43692.65567		 305.27265			43387.38302		68.69200		324.00000 
 43692.65567		 951.14271			42741.51297		221.82600		875.00000 
 43692.65567		 305.27265			43387.38302		68.69200		324.00000 
 43692.65567		 951.14271			42741.51297		221.82600		875.00000 
 43692.65567		 305.27265			43387.38302		68.69200		324.00000 
 43692.65567		 951.14271			42741.51297		221.82600		875.00000 
 43692.65567		 305.27265			43387.38302		68.69200		324.00000 
 43692.65567		 951.14271			42741.51297		221.82600		875.00000 
 43692.65567		 305.27265			43387.38302		68.69200		324.00000 
 43692.65567		 951.14271			42741.51297		221.82600		875.00000 
 43692.65567		 305.27265			43387.38302		68.69200		324.00000 
 43692.65567		 951.14271			42741.51297		221.82600		875.00000 
 43692.65567		 305.27265			43387.38302		68.69200		324.00000 
 43692.65567		 951.14271			42741.51297		221.82600		875.00000 
 43692.65567		 305.27265			43387.38302		68.69200		324.00000 
 43692.65567		 951.14271			42741.51297		221.82600		875.00000 
 43692.65567		 305.27265			43387.38302		68.69200		324.00000 
 43692.65567		 951.14271			42741.51297		221.82600		875.00000 
 43692.65567		 305.27265			43387.38302		68.69200		324.00000 
 43692.65567		 951.14271			42741.51297		221.82600		875.00000 
 43692.65567		 305.27265			43387.38302		68.69200		324.00000 
 43692.65567		 951.14271			42741.51297		221.82600		875.00000 
 43692.65567		 305.27265			43387.38302		68.69200		324.00000 
 43692.65567		 951.14271			42741.51297		221.82600		875.00000 
 43692.65567		 305.27265			43387.38302		68.69200		324.00000 
 43692.65567		 951.14271			42741.51297		221.82600		875.00000 
 43692.65567		 305.27265			43387.38302		68.69200		324.00000 
 43692.65567		 951.14271			42741.51297		221.82600		875.00000 
 43692.65567		 305.27265			43387.38302		68.69200		324.00000 
 43692.65567		 951.14271			42741.51297		221.82600		875.00000 
 43692.65567		 305.27265			43387.38302		68.69200		324.00000 
 43692.65567		 951.14271			42741.51297		221.82600		875.00000 
 43692.65567		 305.27265			43387.38302		68.69200		324.00000 
 43692.65567		 951.14271			42741.51297		221.82600		875.00000 
 43692.65567		 305.27265			43387.38302		68.69200		324.00000 
 43692.65567		 951.14271			42741.51297		221.82600		875.00000 
 43692.65567		 305.27265			43387.38302		68.69200		324.00000 
 43692.65567		 951.14271			42741.51297		221.82600		875.00000 
 43692.65567		 305.27265			43387.38302		68.69200		324.00000 
 43692.65567		 951.14271			42741.51297		221.82600		875.00000 
 43692.65567		 305.27265			43387.38302		68.69200		324.00000 
 43692.65567		 951.14271			42741.51297		221.82600		875.00000 
 43692.65567		 305.27265			43387.38302		68.69200		324.00000 
 43692.65567		 951.14271			42741.51297		221.82600		875.00000 
 43692.65567		 305.27265			43387.38302		68.69200		324.00000 
 43692.65567		 951.14271			42741.51297		221.82600		875.00000 
 43692.65567		 305.27265			43387.38302		68.69200		324.00000 
 43692.65567		 951.14271			42741.51297		221.82600		875.00000 
 43692.65567		 305.27265			43387.38302		68.69200		324.00000 
 43692.65567		 951.14271			42741.51297		221.82600		875.00000 
 43692.65567		 305.27265			43387.38302		68.69200		324.00000 
 43692.65567		 951.14271			42741.51297		221.82600		875.00000 
 43692.65567		 305.27265			43387.38302		68.69200		324.00000 
 43692.65567		 951.14271			42741.51297		221.82600		875.00000 
 43692.65567		 305.27265			43387.38302		68.69200		324.00000 
 43692.65567		 951.14271			42741.51297		221.82600		875.00000 
 43692.65567		 305.27265			43387.38302		68.69200		324.00000 
 43692.65567		 951.14271			42741.51297		221.82600		875.00000 
 43692.65567		 305.27265			43387.38302		68.69200		324.00000 
 43692.65567		 951.14271			42741.51297		221.82600		875.00000 
 43692.65567		 305.27265			43387.38302		68.69200		324.00000 
 43692.65567		 951.14271			42741.51297		221.82600		875.00000 
 43692.65567		 305.27265			43387.38302		68.69200		324.00000 
 43692.65567		 951.14271			42741.51297		221.82600		875.00000 
 43692.65567		 305.27265			43387.38302		68.69200		324.00000 
 43692.65567		 951.14271			42741.51297		221.82600		875.00000 
 43692.65567		 305.27265			43387.38302		68.69200		324.00000 
 43692.65567		 951.14271			42741.51297		221.82600		875.00000 
 43692.65567		 305.27265			43387.38302		68.69200		324.00000 
 43692.65567		 951.14271			42741.51297		221.82600		875.00000 
 43692.65567		 305.27265			43387.38302		68.69200		324.00000 
 43692.65567		 951.14271			42741.51297		221.82600		875.00000 
 43692.65567		 305.27265			43387.38302		68.69200		324.00000 
 43692.65567		 951.14271			42741.51297		221.82600		875.00000 
 43692.65567		 305.27265			43387.38302		68.69200		324.00000 
 43692.65567		 951.14271			42741.51297		221.82600		875.00000 
 43692.65567		 305.27265			43387.38302		68.69200		324.00000 
 43692.65567		 951.14271			42741.51297		221.82600		875.00000 
 43692.65567		 305.27265			43387.38302		68.69200		324.00000 
 43692.65567		 951.14271			42741.51297		221.82600		875.00000 
 43692.65567		 305.27265			43387.38302		68.69200		324.00000 
 43692.65567		 951.14271			42741.51297		221.82600		875.00000 
 43692.65567		 305.27265			43387.38302		68.69200		324.00000 
 43692.65567		 951.14271			42741.51297		221.82600		875.00000 
 43692.65567		 305.27265			43387.38302		68.69200		324.00000 
 43692.65567		 951.14271			42741.51297		221.82600		875.00000 
 43692.65567		 305.27265			43387.38302		68.69200		324.00000 
 43692.65567		 951.14271			42741.51297		221.82600		875.00000 
 43692.65567		 305.27265			43387.38302		68.69200		324.00000 
 43692.65567		 951.14271			42741.51297		221.82600		875.00000 
 43692.65567		 305.27265			43387.38302		68.69200		324.00000 
 43692.65567		 951.14271			42741.51297		221.82600		875.00000 
 43692.65567		 305.27265			43387.38302		68.69200		324.00000 
 43692.65567		 951.14271			42741.51297		221.82600		875.00000 
 43692.65567		 305.27265			43387.38302		68.69200		324.00000 
 43692.65567		 951.14271			42741.51297		221.82600		875.00000 
 43692.65567		 305.27265			43387.38302		68.69200		324.00000 
 43692.65567		 951.14271			42741.51297		221.82600		875.00000 
 43692.65567		 305.27265			43387.38302		68.69200		324.00000 
 43692.65567		 951.14271			42741.51297		221.82600		875.00000 
 43692.65567		 305.27265			43387.38302		68.69200		324.00000 
 43692.65567		 951.14271			42741.51297		221.82600		875.00000 
 43692.65567		 305.27265			43387.38302		68.69200		324.00000 
 43692.65567		 951.14271			42741.51297		221.82600		875.00000 
 43692.65567		 305.27265			43387.38302		68.69200		324.00000 
 43692.65567		 951.14271			42741.51297		221.82600		875.00000 
 43692.65567		 305.27265			43387.38302		68.69200		324.00000 
 43692.65567		 951.14271			42741.51297		221.82600		875.00000 
 43692.65567		 305.27265			43387.38302		68.69200		324.00000 
 43692.65567		 951.14271			42741.51297		221.82600		875.00000 
 43692.65567		 305.27265			43387.38302		68.69200		324.00000 
 43692.65567		 951.14271			42741.51297		221.82600		875.00000 
 43692.65567		 305.27265			43387.38302		68.69200		324.00000 
 43692.65567		 951.14271			42741.51297		221.82600		875.00000 
 43692.65567		 305.27265			43387.38302		68.69200		324.00000 
 43692.65567		 951.14271			42741.51297		221.82600		875.00000 
 43692.65567		 305.27265			43387.38302		68.69200		324.00000 
 43692.65567		 951.14271			42741.51297		221.82600		875.00000 
 43692.65567		 305.27265			43387.38302		68.69200		324.00000 
 43692.65567		 951.14271			42741.51297		221.82600		875.00000 
 43692.65567		 305.27265			43387.38302		68.69200		324.00000 
 43692.65567		 951.14271			42741.51297		221.82600		875.00000 
 43692.65567		 305.27265			43387.38302		68.69200		324.00000 
 43692.65567		 951.14271			42741.51297		221.82600		875.00000 
 43692.65567		 305.27265			43387.38302		68.69200		324.00000 
 43692.65567		 951.14271			42741.51297		221.82600		875.00000 
 43692.65567		 305.27265			43387.38302		68.69200		324.00000 
 43692.65567		 951.14271			42741.51297		221.82600		875.00000 
 43692.65567		 305.27265			43387.38302		68.69200		324.00000 
 43692.65567		 951.14271			42741.51297		221.82600		875.00000 
 43692.65567		 305.27265			43387.38302		68.69200		324.00000 
 43692.65567		 951.14271			42741.51297		221.82600		875.00000 
 43692.65567		 305.27265			43387.38302		68.69200		324.00000 
 43692.65567		 951.14271			42741.51297		221.82600		875.00000 
 43692.65567		 305.27265			43387.38302		68.69200		324.00000 
 43692.65567		 951.14271			42741.51297		221.82600		875.00000 
 43692.65567		 305.27265			43387.38302		68.69200		324.00000 
 43692.65567		 951.14271			42741.51297		221.82600		875.00000 
 43692.65567		 305.27265			43387.38302		68.69200		324.00000 
 43692.65567		 951.14271			42741.51297		221.82600		875.00000 
 43692.65567		 305.27265			43387.38302		68.69200		324.00000 
 43692.65567		 951.14271			42741.51297		221.82600		875.00000 
 43692.65567		 305.27265			43387.38302		68.69200		324.00000 
 43692.65567		 951.14271			42741.51297		221.82600		875.00000 
 43692.65567		 305.27265			43387.38302		68.69200		324.00000 
 43692.65567		 951.14271			42741.51297		221.82600		875.00000 
 43692.65567		 305.27265			43387.38302		68.69200		324.00000 
 43692.65567		 951.14271			42741.51297		221.82600		875.00000 
 43692.65567		 305.27265			43387.38302		68.69200		324.00000 
 43692.65567		 951.14271			42741.51297		221.82600		875.00000 
 43692.65567		 305.27265			43387.38302		68.69200		324.00000 
 43692.65567		 951.14271			42741.51297		221.82600		875.00000 
 43692.65567		 305.27265			43387.38302		68.69200		324.00000 
 43692.65567		 951.14271			42741.51297		221.82600		875.00000 
 43692.65567		 305.27265			43387.38302		68.69200		324.00000 
 43692.65567		 951.14271			42741.51297		221.82600		875.00000 
 43692.65567		 305.27265			43387.38302		68.69200		324.00000 
 43692.65567		 951.14271			42741.51297		221.82600		875.00000 
 43692.65567		 305.27265			43387.38302		68.69200		324.00000 
 43692.65567		 951.14271			42741.51297		221.82600		875.00000 
 43692.65567		 305.27265			43387.38302		68.69200		324.00000 
 43692.65567		 951.14271			42741.51297		221.82600		875.00000 
 43692.65567		 305.27265			43387.38302		68.69200		324.00000 
 43692.65567		 951.14271			42741.51297		221.82600		875.00000 
 43692.65567		 305.27265			43387.38302		68.69200		324.00000 
 43692.65567		 951.14271			42741.51297		221.82600		875.00000 
 43692.65567		 305.27265			43387.38302		68.69200		324.00000 
 43692.65567		 951.14271			42741.51297		221.82600		875.00000 
 43692.65567		 305.27265			43387.38302		68.69200		324.00000 
 43692.65567		 951.14271			42741.51297		221.82600		875.00000 
 43692.65567		 305.27265			43387.38302		68.69200		324.00000 
 43692.65567		 951.14271			42741.51297		221.82600		875.00000 
 43692.65567		 305.27265			43387.38302		68.69200		324.00000 
 43692.65567		 951.14271			42741.51297		221.82600		875.00000 
 43692.65567		 305.27265			43387.38302		68.69200		324.00000 
 43692.65567		 951.14271			42741.51297		221.82600		875.00000 
 43692.65567		 305.27265			43387.38302		68.69200		324.00000 
 43692.65567		 951.14271			42741.51297		221.82600		875.00000 
 43692.65567		 305.27265			43387.38302		68.69200		324.00000 
 43692.65567		 951.14271			42741.51297		221.82600		875.00000 
 43692.65567		 305.27265			43387.38302		68.69200		324.00000 
 43692.65567		 951.14271			42741.51297		221.82600		875.00000 
 43692.65567		 305.27265			43387.38302		68.69200		324.00000 
 43692.65567		 951.14271			42741.51297		221.82600		875.00000 
 43692.65567		 305.27265			43387.38302		68.69200		324.00000 
 43692.65567		 951.14271			42741.51297		221.82600		875.00000 
 43692.65567		 305.27265			43387.38302		68.69200		324.00000 
 43692.65567		 951.14271			42741.51297		221.82600		875.00000 
 43692.65567		 305.27265			43387.38302		68.69200		324.00000 
 43692.65567		 951.14271			42741.51297		221.82600		875.00000 
 43692.65567		 305.27265			43387.38302		68.69200		324.00000 
 43692.65567		 951.14271			42741.51297		221.82600		875.00000 
 43692.65567		 305.27265			43387.38302		68.69200		324.00000 
 43692.65567		 951.14271			42741.51297		221.82600		875.00000 
 43692.65567		 305.27265			43387.38302		68.69200		324.00000 
 43692.65567		 951.14271			42741.51297		221.82600		875.00000 
 43692.65567		 305.27265			43387.38302		68.69200		324.00000 
 43692.65567		 951.14271			42741.51297		221.82600		875.00000 
 43692.65567		 305.27265			43387.38302		68.69200		324.00000 
 43692.65567		 951.14271			42741.51297		221.82600		875.00000 
 43692.65567		 305.27265			43387.38302		68.69200		324.00000 
 43692.65567		 951.14271			42741.51297		221.82600		875.00000 
 43692.65567		 305.27265			43387.38302		68.69200		324.00000 
 43692.65567		 951.14271			42741.51297		221.82600		875.00000 
 43692.65567		 305.27265			43387.38302		68.69200		324.00000 
 43692.65567		 951.14271			42741.51297		221.82600		875.00000 
 43692.65567		 305.27265			43387.38302		68.69200		324.00000 
 43692.65567		 951.14271			42741.51297		221.82600		875.00000 
 43692.65567		 305.27265			43387.38302		68.69200		324.00000 
 43692.65567		 951.14271			42741.51297		221.82600		875.00000 
 43692.65567		 305.27265			43387.38302		68.69200		324.00000 
 43692.65567		 951.14271			42741.51297		221.82600		875.00000 
 43692.65567		 305.27265			43387.38302		68.69200		324.00000 
 43692.65567		 951.14271			42741.51297		221.82600		875.00000 
 43692.65567		 305.27265			43387.38302		68.69200		324.00000 
 43692.65567		 951.14271			42741.51297		221.82600		875.00000 
 43692.65567		 305.27265			43387.38302		68.69200		324.00000 
 43692.65567		 951.14271			42741.51297		221.82600		875.00000 
 43692.65567		 305.27265			43387.38302		68.69200		324.00000 
 43692.65567		 951.14271			42741.51297		221.82600		875.00000 
 43692.65567		 305.27265			43387.38302		68.69200		324.00000 
 43692.65567		 951.14271			42741.51297		221.82600		875.00000 
 43692.65567		 305.27265			43387.38302		68.69200		324.00000 
 43692.65567		 951.14271			42741.51297		221.82600		875.00000 
 43692.65567		 305.27265			43387.38302		68.69200		324.00000 
 43692.65567		 951.14271			42741.51297		221.82600		875.00000 
 43692.65567		 305.27265			43387.38302		68.69200		324.00000 
 43692.65567		 951.14271			42741.51297		221.82600		875.00000 
 43692.65567		 305.27265			43387.38302		68.69200		324.00000 
 43692.65567		 951.14271			42741.51297		221.82600		875.00000 
 43692.65567		 305.27265			43387.38302		68.69200		324.00000 
 43692.65567		 951.14271			42741.51297		221.82600		875.00000 
 43692.65567		 305.27265			43387.38302		68.69200		324.00000 
 43692.65567		 951.14271			42741.51297		221.82600		875.00000 
 43692.65567		 305.27265			43387.38302		68.69200		324.00000 
 43692.65567		 951.14271			42741.51297		221.82600		875.00000 
 43692.65567		 305.27265			43387.38302		68.69200		324.00000 
 43692.65567		 951.14271			42741.51297		221.82600		875.00000 
 43692.65567		 305.27265			43387.38302		68.69200		324.00000 
 43692.65567		 951.14271			42741.51297		221.82600		875.00000 
 43692.65567		 305.27265			43387.38302		68.69200		324.00000 
 43692.65567		 951.14271			42741.51297		221.82600		875.00000 
 43692.65567		 305.27265			43387.38302		68.69200		324.00000 
 43692.65567		 951.14271			42741.51297		221.82600		875.00000 
 43692.65567		 305.27265			43387.38302		68.69200		324.00000 
 43692.65567		 951.14271			42741.51297		221.82600		875.00000 
 43692.65567		 305.27265			43387.38302		68.69200		324.00000 
 43692.65567		 951.14271			42741.51297		221.82600		875.00000 
 43692.65567		 305.27265			43387.38302		68.69200		324.00000 
 43692.65567		 951.14271			42741.51297		221.82600		875.00000 
 43692.65567		 305.27265			43387.38302		68.69200		324.00000 
 43692.65567		 951.14271			42741.51297		221.82600		875.00000 
 43692.65567		 305.27265			43387.38302		68.69200		324.00000 
 43692.65567		 951.14271			42741.51297		221.82600		875.00000 
 43692.65567		 305.27265			43387.38302		68.69200		324.00000 
 43692.65567		 951.14271			42741.51297		221.82600		875.00000 
 43692.65567		 305.27265			43387.38302		68.69200		324.00000 
 43692.65567		 951.14271			42741.51297		221.82600		875.00000 
 43692.65567		 305.27265			43387.38302		68.69200		324.00000 
 43692.65567		 951.14271			42741.51297		221.82600		875.00000 
 43692.65567		 305.27265			43387.38302		68.69200		324.00000 
 43692.65567		 951.14271			42741.51297		221.82600		875.00000 
 43692.65567		 305.27265			43387.38302		68.69200		324.00000 
 43692.65567		 951.14271			42741.51297		221.82600		875.00000 
 43692.65567		 305.27265			43387.38302		68.69200		324.00000 
 43692.65567		 951.14271			42741.51297		221.82600		875.00000 
 43692.65567		 305.27265			43387.38302		68.69200		324.00000 
 43692.65567		 951.14271			42741.51297		221.82600		875.00000 
 43692.65567		 305.27265			43387.38302		68.69200		324.00000 
 43692.65567		 951.14271			42741.51297		221.82600		875.00000 
 43692.65567		 305.27265			43387.38302		68.69200		324.00000 
 43692.65567		 951.14271			42741.51297		221.82600		875.00000 
 43692.65567		 305.27265			43387.38302		68.69200		324.00000 
 43692.65567		 951.14271			42741.51297		221.82600		875.00000 
 43692.65567		 305.27265			43387.38302		68.69200		324.00000 
 43692.65567		 951.14271			42741.51297		221.82600		875.00000 
 43692.65567		 305.27265			43387.38302		68.69200		324.00000 
 43692.65567		 951.14271			42741.51297		221.82600		875.00000 
 43692.65567		 305.27265			43387.38302		68.69200		324.00000 
 43692.65567		 951.14271			42741.51297		221.82600		875.00000 
 43692.65567		 305.27265			43387.38302		68.69200		324.00000 
 43692.65567		 951.14271			42741.51297		221.82600		875.00000 
 43692.65567		 305.27265			43387.38302		68.69200		324.00000 
 43692.65567		 951.14271			42741.51297		221.82600		875.00000 
 43692.65567		 305.27265			43387.38302		68.69200		324.00000 
 43692.65567		 951.14271			42741.51297		221.82600		875.00000 
 43692.65567		 305.27265			43387.38302		68.69200		324.00000 
 43692.65567		 951.14271			42741.51297		221.82600		875.00000 
 43692.65567		 305.27265			43387.38302		68.69200		324.00000 
 43692.65567		 951.14271			42741.51297		221.82600		875.00000 
 43692.65567		 305.27265			43387.38302		68.69200		324.00000 
 43692.65567		 951.14271			42741.51297		221.82600		875.00000 
 43692.65567		 305.27265			43387.38302		68.69200		324.00000 
 43692.65567		 951.14271			42741.51297		221.82600		875.00000 
 43692.65567		 305.27265			43387.38302		68.69200		324.00000 
 43692.65567		 951.14271			42741.51297		221.82600		875.00000 
 43692.65567		 305.27265			43387.38302		68.69200		324.00000 
 43692.65567		 951.14271			42741.51297		221.82600		875.00000 
 43692.65567		 305.27265			43387.38302		68.69200		324.00000 
 43692.65567		 951.14271			42741.51297		221.82600		875.00000 
 43692.65567		 305.27265			43387.38302		68.69200		324.00000 
 43692.65567		 951.14271			42741.51297		221.82600		875.00000 
 43692.65567		 305.27265			43387.38302		68.69200		324.00000 
 43692.65567		 951.14271			42741.51297		221.82600		875.00000 
 43692.65567		 305.27265			43387.38302		68.69200		324.00000 
 43692.65567		 951.14271			42741.51297		221.82600		875.00000 
 43692.65567		 305.27265			43387.38302		68.69200		324.00000 
 43692.65567		 951.14271			42741.51297		221.82600		875.00000 
 43692.65567		 305.27265			43387.38302		68.69200		324.00000 
 43692.65567		 951.14271			42741.51297		221.82600		875.00000 
 43692.65567		 305.27265			43387.38302		68.69200		324.00000 
 43692.65567		 951.14271			42741.51297		221.82600		875.00000 
 43692.65567		 305.27265			43387.38302		68.69200		324.00000 
 43692.65567		 951.14271			42741.51297		221.82600		875.00000 
 43692.65567		 305.27265			43387.38302		68.69200		324.00000 
 43692.65567		 951.14271			42741.51297		221.82600		875.00000 
 43692.65567		 305.27265			43387.38302		68.69200		324.00000 
 43692.65567		 951.14271			42741.51297		221.82600		875.00000 
 43692.65567		 305.27265			43387.38302		68.69200		324.00000 
 43692.65567		 951.14271			42741.51297		221.82600		875.00000 
 43692.65567		 305.27265			43387.38302		68.69200		324.00000 
 43692.65567		 951.14271			42741.51297		221.82600		875.00000 
 43692.65567		 305.27265			43387.38302		68.69200		324.00000 
 43692.65567		 951.14271			42741.51297		221.82600		875.00000 
 43692.65567		 305.27265			43387.38302		68.69200		324.00000 
 43692.65567		 951.14271			42741.51297		221.82600		875.00000 
 43692.65567		 305.27265			43387.38302		68.69200		324.00000 
 43692.65567		 951.14271			42741.51297		221.82600		875.00000 
 43692.65567		 305.27265			43387.38302		68.69200		324.00000 
 43692.65567		 951.14271			42741.51297		221.82600		875.00000 
 43692.65567		 305.27265			43387.38302		68.69200		324.00000 
 43692.65567		 951.14271			42741.51297		221.82600		875.00000 
 43692.65567		 305.27265			43387.38302		68.69200		324.00000 
 43692.65567		 951.14271			42741.51297		221.82600		875.00000 
 43692.65567		 305.27265			43387.38302		68.69200		324.00000 
 43692.65567		 951.14271			42741.51297		221.82600		875.00000 
 43692.65567		 305.27265			43387.38302		68.69200		324.00000 
 43692.65567		 951.14271			42741.51297		221.82600		875.00000 
 43692.65567		 305.27265			43387.38302		68.69200		324.00000 
 43692.65567		 951.14271			42741.51297		221.82600		875.00000 
 43692.65567		 305.27265			43387.38302		68.69200		324.00000 
 43692.65567		 951.14271			42741.51297		221.82600		875.00000 
 43692.65567		 305.27265			43387.38302		68.69200		324.00000 
 43692.65567		 951.14271			42741.51297		221.82600		875.00000 
 43692.65567		 305.27265			43387.38302		68.69200		324.00000 
 43692.65567		 951.14271			42741.51297		221.82600		875.00000 
 43692.65567		 305.27265			43387.38302		68.69200		324.00000 
 43692.65567		 951.14271			42741.51297		221.82600		875.00000 
 43692.65567		 305.27265			43387.38302		68.69200		324.00000 
 43692.65567		 951.14271			42741.51297		221.82600		875.00000 
 43692.65567		 305.27265			43387.38302		68.69200		324.00000 
 43692.65567		 951.14271			42741.51297		221.82600		875.00000 
 43692.65567		 305.27265			43387.38302		68.69200		324.00000 
 43692.65567		 951.14271			42741.51297		221.82600		875.00000 
 43692.65567		 305.27265			43387.38302		68.69200		324.00000 
 43692.65567		 951.14271			42741.51297		221.82600		875.00000 
 43692.65567		 305.27265			43387.38302		68.69200		324.00000 
 43692.65567		 951.14271			42741.51297		221.82600		875.00000 
 43692.65567		 305.27265			43387.38302		68.69200		324.00000 
 43692.65567		 951.14271			42741.51297		221.82600		875.00000 
 43692.65567		 305.27265			43387.38302		68.69200		324.00000 
 43692.65567		 951.14271			42741.51297		221.82600		875.00000 
 43692.65567		 305.27265			43387.38302		68.69200		324.00000 
 43692.65567		 951.14271			42741.51297		221.82600		875.00000 
 43692.65567		 305.27265			43387.38302		68.69200		324.00000 
 43692.65567		 951.14271			42741.51297		221.82600		875.00000 
 43692.65567		 305.27265			43387.38302		68.69200		324.00000 
 43692.65567		 951.14271			42741.51297		221.82600		875.00000 
 43692.65567		 305.27265			43387.38302		68.69200		324.00000 
 43692.65567		 951.14271			42741.51297		221.82600		875.00000 
 43692.65567		 305.27265			43387.38302		68.69200		324.00000 
 43692.65567		 951.14271			42741.51297		221.82600		875.00000 
 43692.65567		 305.27265			43387.38302		68.69200		324.00000 
 43692.65567		 951.14271			42741.51297		221.82600		875.00000 
 43692.65567		 305.27265			43387.38302		68.69200		324.00000 
 43692.65567		 951.14271			42741.51297		221.82600		875.00000 
 43692.65567		 305.27265			43387.38302		68.69200		324.00000 
 43692.65567		 951.14271			42741.51297		221.82600		875.00000 
 43692.65567		 305.27265			43387.38302		68.69200		324.00000 
 43692.65567		 951.14271			42741.51297		221.82600		875.00000 
 43692.65567		 305.27265			43387.38302		68.69200		324.00000 
 43692.65567		 951.14271			42741.51297		221.82600		875.00000 
 43692.65567		 305.27265			43387.38302		68.69200		324.00000 
 43692.65567		 951.14271			42741.51297		221.82600		875.00000 
 43692.65567		 305.27265			43387.38302		68.69200		324.00000 
 43692.65567		 951.14271			42741.51297		221.82600		875.00000 
 43692.65567		 305.27265			43387.38302		68.69200		324.00000 
 43692.65567		 951.14271			42741.51297		221.82600		875.00000 
 43692.65567		 305.27265			43387.38302		68.69200		324.00000 
 43692.65567		 951.14271			42741.51297		221.82600		875.00000 
 43692.65567		 305.27265			43387.38302		68.69200		324.00000 
 43692.65567		 951.14271			42741.51297		221.82600		875.00000 
 43692.65567		 305.27265			43387.38302		68.69200		324.00000 
 43692.65567		 951.14271			42741.51297		221.82600		875.00000 
 43692.65567		 305.27265			43387.38302		68.69200		324.00000 
 43692.65567		 951.14271			42741.51297		221.82600		875.00000 
 43692.65567		 305.27265			43387.38302		68.69200		324.00000 
 43692.65567		 951.14271			42741.51297		221.82600		875.00000 
 43692.65567		 305.27265			43387.38302		68.69200		324.00000 
 43692.65567		 951.14271			42741.51297		221.82600		875.00000 
 43692.65567		 305.27265			43387.38302		68.69200		324.00000 
 43692.65567		 951.14271			42741.51297		221.82600		875.00000 
 43692.65567		 305.27265			43387.38302		68.69200		324.00000 
 43692.65567		 951.14271			42741.51297		221.82600		875.00000 
 43692.65567		 305.27265			43387.38302		68.69200		324.00000 
 43692.65567		 951.14271			42741.51297		221.82600		875.00000 
 43692.65567		 305.27265			43387.38302		68.69200		324.00000 
 43692.65567		 951.14271			42741.51297		221.82600		875.00000 
 43692.65567		 305.27265			43387.38302		68.69200		324.00000 
 43692.65567		 951.14271			42741.51297		221.82600		875.00000 
 43692.65567		 305.27265			43387.38302		68.69200		324.00000 
 43692.65567		 951.14271			42741.51297		221.82600		875.00000 
 43692.65567		 305.27265			43387.38302		68.69200		324.00000 
 43692.65567		 951.14271			42741.51297		221.82600		875.00000 
 43692.65567		 305.27265			43387.38302		68.69200		324.00000 
 43692.65567		 951.14271			42741.51297		221.82600		875.00000 
 43692.65567		 305.27265			43387.38302		68.69200		324.00000 
 43692.65567		 951.14271			42741.51297		221.82600		875.00000 
 43692.65567		 305.27265			43387.38302		68.69200		324.00000 
 43692.65567		 951.14271			42741.51297		221.82600		875.00000 
 43692.65567		 305.27265			43387.38302		68.69200		324.00000 
 43692.65567		 951.14271			42741.51297		221.82600		875.00000 
 43692.65567		 305.27265			43387.38302		68.69200		324.00000 
 43692.65567		 951.14271			42741.51297		221.82600		875.00000 
 43692.65567		 305.27265			43387.38302		68.69200		324.00000 
 43692.65567		 951.14271			42741.51297		221.82600		875.00000 
 43692.65567		 305.27265			43387.38302		68.69200		324.00000 
 43692.65567		 951.14271			42741.51297		221.82600		875.00000 
 43692.65567		 305.27265			43387.38302		68.69200		324.00000 
 43692.65567		 951.14271			42741.51297		221.82600		875.00000 
 43692.65567		 305.27265			43387.38302		68.69200		324.00000 
 43692.65567		 951.14271			42741.51297		221.82600		875.00000 
 43692.65567		 305.27265			43387.38302		68.69200		324.00000 
 43692.65567		 951.14271			42741.51297		221.82600		875.00000 
 43692.65567		 305.27265			43387.38302		68.69200		324.00000 
 43692.65567		 951.14271			42741.51297		221.82600		875.00000 
 43692.65567		 305.27265			43387.38302		68.69200		324.00000 
 43692.65567		 951.14271			42741.51297		221.82600		875.00000 
 43692.65567		 305.27265			43387.38302		68.69200		324.00000 
 43692.65567		 951.14271			42741.51297		221.82600		875.00000 
 43692.65567		 305.27265			43387.38302		68.69200		324.00000 
 43692.65567		 951.14271			42741.51297		221.82600		875.00000 
 43692.65567		 305.27265			43387.38302		68.69200		324.00000 
 43692.65567		 951.14271			42741.51297		221.82600		875.00000 
 43692.65567		 305.27265			43387.38302		68.69200		324.00000 
 43692.65567		 951.14271			42741.51297		221.82600		875.00000 
 43692.65567		 305.27265			43387.38302		68.69200		324.00000 
 43692.65567		 951.14271			42741.51297		221.82600		875.00000 
 43692.65567		 305.27265			43387.38302		68.69200		324.00000 
 43692.65567		 951.14271			42741.51297		221.82600		875.00000 
 43692.65567		 305.27265			43387.38302		68.69200		324.00000 
 43692.65567		 951.14271			42741.51297		221.82600		875.00000 
 43692.65567		 305.27265			43387.38302		68.69200		324.00000 
 43692.65567		 951.14271			42741.51297		221.82600		875.00000 
 43692.65567		 305.27265			43387.38302		68.69200		324.00000 
 43692.65567		 951.14271			42741.51297		221.82600		875.00000 
 43692.65567		 305.27265			43387.38302		68.69200		324.00000 
 43692.65567		 951.14271			42741.51297		221.82600		875.00000 
 43692.65567		 305.27265			43387.38302		68.69200		324.00000 
 43692.65567		 951.14271			42741.51297		221.82600		875.00000 
 43692.65567		 305.27265			43387.38302		68.69200		324.00000 
 43692.65567		 951.14271			42741.51297		221.82600		875.00000 
 43692.65567		 305.27265			43387.38302		68.69200		324.00000 
 43692.65567		 951.14271			42741.51297		221.82600		875.00000 
 43692.65567		 305.27265			43387.38302		68.69200		324.00000 
 43692.65567		 951.14271			42741.51297		221.82600		875.00000 
 43692.65567		 305.27265			43387.38302		68.69200		324.00000 
 43692.65567		 951.14271			42741.51297		221.82600		875.00000 
 43692.65567		 305.27265			43387.38302		68.69200		324.00000 
 43692.65567		 951.14271			42741.51297		221.82600		875.00000 
 43692.65567		 305.27265			43387.38302		68.69200		324.00000 
 43692.65567		 951.14271			42741.51297		221.82600		875.00000 
 43692.65567		 305.27265			43387.38302		68.69200		324.00000 
 43692.65567		 951.14271			42741.51297		221.82600		875.00000 
 43692.65567		 305.27265			43387.38302		68.69200		324.00000 
 43692.65567		 951.14271			42741.51297		221.82600		875.00000 
 43692.65567		 305.27265			43387.38302		68.69200		324.00000 
 43692.65567		 951.14271			42741.51297		221.82600		875.00000 
 43692.65567		 305.27265			43387.38302		68.69200		324.00000 
 43692.65567		 951.14271			42741.51297		221.82600		875.00000 
 43692.65567		 305.27265			43387.38302		68.69200		324.00000 
 43692.65567		 951.14271			42741.51297		221.82600		875.00000 
 43692.65567		 305.27265			43387.38302		68.69200		324.00000 
 43692.65567		 951.14271			42741.51297		221.82600		875.00000 
 43692.65567		 305.27265			43387.38302		68.69200		324.00000 
 43692.65567		 951.14271			42741.51297		221.82600		875.00000 
 43692.65567		 305.27265			43387.38302		68.69200		324.00000 
 43692.65567		 951.14271			42741.51297		221.82600		875.00000 
 43692.65567		 305.27265			43387.38302		68.69200		324.00000 
 43692.65567		 951.14271			42741.51297		221.82600		875.00000 
 43692.65567		 305.27265			43387.38302		68.69200		324.00000 
 43692.65567		 951.14271			42741.51297		221.82600		875.00000 
 43692.65567		 305.27265			43387.38302		68.69200		324.00000 
 43692.65567		 951.14271			42741.51297		221.82600		875.00000 
 43692.65567		 305.27265			43387.38302		68.69200		324.00000 
 43692.65567		 951.14271			42741.51297		221.82600		875.00000 
 43692.65567		 305.27265			43387.38302		68.69200		324.00000 
 43692.65567		 951.14271			42741.51297		221.82600		875.00000 
 43692.65567		 305.27265			43387.38302		68.69200		324.00000 
 43692.65567		 951.14271			42741.51297		221.82600		875.00000 
 43692.65567		 305.27265			43387.38302		68.69200		324.00000 
 43692.65567		 951.14271			42741.51297		221.82600		875.00000 
 43692.65567		 305.27265			43387.38302		68.69200		324.00000 
 43692.65567		 951.14271			42741.51297		221.82600		875.00000 
 43692.65567		 305.27265			43387.38302		68.69200		324.00000 
 43692.65567		 951.14271			42741.51297		221.82600		875.00000 
 43692.65567		 305.27265			43387.38302		68.69200		324.00000 
 43692.65567		 951.14271			42741.51297		221.82600		875.00000 
 43692.65567		 305.27265			43387.38302		68.69200		324.00000 
 43692.65567		 951.14271			42741.51297		221.82600		875.00000 
 43692.65567		 305.27265			43387.38302		68.69200		324.00000 
 43692.65567		 951.14271			42741.51297		221.82600		875.00000 
 43692.65567		 305.27265			43387.38302		68.69200		324.00000 
 43692.65567		 951.14271			42741.51297		221.82600		875.00000 
 43692.65567		 305.27265			43387.38302		68.69200		324.00000 
 43692.65567		 951.14271			42741.51297		221.82600		875.00000 
 43692.65567		 305.27265			43387.38302		68.69200		324.00000 
 43692.65567		 951.14271			42741.51297		221.82600		875.00000 
 43692.65567		 305.27265			43387.38302		68.69200		324.00000 
 43692.65567		 951.14271			42741.51297		221.82600		875.00000 
 43692.65567		 305.27265			43387.38302		68.69200		324.00000 
 43692.65567		 951.14271			42741.51297		221.82600		875.00000 
 43692.65567		 305.27265			43387.38302		68.69200		324.00000 
 43692.65567		 951.14271			42741.51297		221.82600		875.00000 
 43692.65567		 305.27265			43387.38302		68.69200		324.00000 
 43692.65567		 951.14271			42741.51297		221.82600		875.00000 
 43692.65567		 305.27265			43387.38302		68.69200		324.00000 
 43692.65567		 951.14271			42741.51297		221.82600		875.00000 
 43692.65567		 305.27265			43387.38302		68.69200		324.00000 
 43692.65567		 951.14271			42741.51297		221.82600		875.00000 
 43692.65567		 305.27265			43387.38302		68.69200		324.00000 
 43692.65567		 951.14271			42741.51297		221.82600		875.00000 
 43692.65567		 305.27265			43387.38302		68.69200		324.00000 
 43692.65567		 951.14271			42741.51297		221.82600		875.00000 
 43692.65567		 305.27265			43387.38302		68.69200		324.00000 
 43692.65567		 951.14271			42741.51297		221.82600		875.00000 
 43692.65567		 305.27265			43387.38302		68.69200		324.00000 
 43692.65567		 951.14271			42741.51297		221.82600		875.00000 
 43692.65567		 305.27265			43387.38302		68.69200		324.00000 
 43692.65567		 951.14271			42741.51297		221.82600		875.00000 
 43692.65567		 305.27265			43387.38302		68.69200		324.00000 
 43692.65567		 951.14271			42741.51297		221.82600		875.00000 
 43692.65567		 305.27265			43387.38302		68.69200		324.00000 
 43692.65567		 951.14271			42741.51297		221.82600		875.00000 
 43692.65567		 305.27265			43387.38302		68.69200		324.00000 
 43692.65567		 951.14271			42741.51297		221.82600		875.00000 
 43692.65567		 305.27265			43387.38302		68.69200		324.00000 
 43692.65567		 951.14271			42741.51297		221.82600		875.00000 
 43692.65567		 305.27265			43387.38302		68.69200		324.00000 
 43692.65567		 951.14271			42741.51297		221.82600		875.00000 
 43692.65567		 305.27265			43387.38302		68.69200		324.00000 
 43692.65567		 951.14271			42741.51297		221.82600		875.00000 
 43692.65567		 305.27265			43387.38302		68.69200		324.00000 
 43692.65567		 951.14271			42741.51297		221.82600		875.00000 
 43692.65567		 305.27265			43387.38302		68.69200		324.00000 
 43692.65567		 951.14271			42741.51297		221.82600		875.00000 
 43692.65567		 305.27265			43387.38302		68.69200		324.00000 
 43692.65567		 951.14271			42741.51297		221.82600		875.00000 
 43692.65567		 305.27265			43387.38302		68.69200		324.00000 
 43692.65567		 951.14271			42741.51297		221.82600		875.00000 
 43692.65567		 305.27265			43387.38302		68.69200		324.00000 
 43692.65567		 951.14271			42741.51297		221.82600		875.00000 
 43692.65567		 305.27265			43387.38302		68.69200		324.00000 
 43692.65567		 951.14271			42741.51297		221.82600		875.00000 
 43692.65567		 305.27265			43387.38302		68.69200		324.00000 
 43692.65567		 951.14271			42741.51297		221.82600		875.00000 
 43692.65567		 305.27265			43387.38302		68.69200		324.00000 
 43692.65567		 951.14271			42741.51297		221.82600		875.00000 
 43692.65567		 305.27265			43387.38302		68.69200		324.00000 
 43692.65567		 951.14271			42741.51297		221.82600		875.00000 
 43692.65567		 305.27265			43387.38302		68.69200		324.00000 
 43692.65567		 951.14271			42741.51297		221.82600		875.00000 
 43692.65567		 305.27265			43387.38302		68.69200		324.00000 
 43692.65567		 951.14271			42741.51297		221.82600		875.00000 
 43692.65567		 305.27265			43387.38302		68.69200		324.00000 
 43692.65567		 951.14271			42741.51297		221.82600		875.00000 
 43692.65567		 305.27265			43387.38302		68.69200		324.00000 
 43692.65567		 951.14271			42741.51297		221.82600		875.00000 
 43692.65567		 305.27265			43387.38302		68.69200		324.00000 
 43692.65567		 951.14271			42741.51297		221.82600		875.00000 
 43692.65567		 305.27265			43387.38302		68.69200		324.00000 
 43692.65567		 951.14271			42741.51297		221.82600		875.00000 
 43692.65567		 305.27265			43387.38302		68.69200		324.00000 
 43692.65567		 951.14271			42741.51297		221.82600		875.00000 
 43692.65567		 305.27265			43387.38302		68.69200		324.00000 
 43692.65567		 951.14271			42741.51297		221.82600		875.00000 
 43692.65567		 305.27265			43387.38302		68.69200		324.00000 
 43692.65567		 951.14271			42741.51297		221.82600		875.00000 
 43692.65567		 305.27265			43387.38302		68.69200		324.00000 
 43692.65567		 951.14271			42741.51297		221.82600		875.00000 
 43692.65567		 305.27265			43387.38302		68.69200		324.00000 
 43692.65567		 951.14271			42741.51297		221.82600		875.00000 
 43692.65567		 305.27265			43387.38302		68.69200		324.00000 
 43692.65567		 951.14271			42741.51297		221.82600		875.00000 
 43692.65567		 305.27265			43387.38302		68.69200		324.00000 
 43692.65567		 951.14271			42741.51297		221.82600		875.00000 
 43692.65567		 305.27265			43387.38302		68.69200		324.00000 
 43692.65567		 951.14271			42741.51297		221.82600		875.00000 
 43692.65567		 305.27265			43387.38302		68.69200		324.00000 
 43692.65567		 951.14271			42741.51297		221.82600		875.00000 
 43692.65567		 305.27265			43387.38302		68.69200		324.00000 
 43692.65567		 951.14271			42741.51297		221.82600		875.00000 
 43692.65567		 305.27265			43387.38302		68.69200		324.00000 
 43692.65567		 951.14271			42741.51297		221.82600		875.00000 
 43692.65567		 305.27265			43387.38302		68.69200		324.00000 
 43692.65567		 951.14271			42741.51297		221.82600		875.00000 
 43692.65567		 305.27265			43387.38302		68.69200		324.00000 
 43692.65567		 951.14271			42741.51297		221.82600		875.00000 
 43692.65567		 305.27265			43387.38302		68.69200		324.00000 
 43692.65567		 951.14271			42741.51297		221.82600		875.00000 
 43692.65567		 305.27265			43387.38302		68.69200		324.00000 
 43692.65567		 951.14271			42741.51297		221.82600		875.00000 
 43692.65567		 305.27265			43387.38302		68.69200		324.00000 
 43692.65567		 951.14271			42741.51297		221.82600		875.00000 
 43692.65567		 305.27265			43387.38302		68.69200		324.00000 
 43692.65567		 951.14271			42741.51297		221.82600		875.00000 
 43692.65567		 305.27265			43387.38302		68.69200		324.00000 
 43692.65567		 951.14271			42741.51297		221.82600		875.00000 
 43692.65567		 305.27265			43387.38302		68.69200		324.00000 
 43692.65567		 951.14271			42741.51297		221.82600		875.00000 
 43692.65567		 305.27265			43387.38302		68.69200		324.00000 
 43692.65567		 951.14271			42741.51297		221.82600		875.00000 
 43692.65567		 305.27265			43387.38302		68.69200		324.00000 
 43692.65567		 951.14271			42741.51297		221.82600		875.00000 
 43692.65567		 305.27265			43387.38302		68.69200		324.00000 
 43692.65567		 951.14271			42741.51297		221.82600		875.00000 
 43692.65567		 305.27265			43387.38302		68.69200		324.00000 
 43692.65567		 951.14271			42741.51297		221.82600		875.00000 
 43692.65567		 305.27265			43387.38302		68.69200		324.00000 
 43692.65567		 951.14271			42741.51297		221.82600		875.00000 
 43692.65567		 305.27265			43387.38302		68.69200		324.00000 
 43692.65567		 951.14271			42741.51297		221.82600		875.00000 
 43692.65567		 305.27265			43387.38302		68.69200		324.00000 
 43692.65567		 951.14271			42741.51297		221.82600		875.00000 
 43692.65567		 305.27265			43387.38302		68.69200		324.00000 
 43692.65567		 951.14271			42741.51297		221.82600		875.00000 
 43692.65567		 305.27265			43387.38302		68.69200		324.00000 
 43692.65567		 951.14271			42741.51297		221.82600		875.00000 
 43692.65567		 305.27265			43387.38302		68.69200		324.00000 
 43692.65567		 951.14271			42741.51297		221.82600		875.00000 
 43692.65567		 305.27265			43387.38302		69.64400		324.00000 
 43692.65567		 951.14271			42741.51297		221.82600		875.00000 
 43692.65567		 305.27265			43387.38302		69.64400		324.00000 
 43692.65567		 951.14271			42741.51297		221.82600		875.00000 
 43692.65567		 305.27265			43387.38302		69.64400		324.00000 
 43692.65567		 951.14271			42741.51297		221.82600		875.00000 
 43692.65567		 305.27265			43387.38302		69.64400		324.00000 
 43692.65567		 951.14271			42741.51297		221.82600		875.00000 
 43692.65567		 305.27265			43387.38302		69.64400		324.00000 
 43692.65567		 951.14271			42741.51297		221.82600		875.00000 
 43692.65567		 305.27265			43387.38302		69.64400		324.00000 
 43692.65567		 951.14271			42741.51297		221.82600		875.00000 
 43692.65567		 305.27265			43387.38302		69.64400		324.00000 
 43692.65567		 951.14271			42741.51297		221.82600		875.00000 
 43692.65567		 305.27265			43387.38302		69.64400		324.00000 
 43692.65567		 951.14271			42741.51297		221.82600		875.00000 
 43692.65567		 305.27265			43387.38302		69.64400		324.00000 
 43692.65567		 951.14271			42741.51297		221.82600		875.00000 
 43692.65567		 305.27265			43387.38302		69.64400		324.00000 
 43692.65567		 951.14271			42741.51297		221.82600		875.00000 
 43692.65567		 305.27265			43387.38302		69.64400		324.00000 
 43692.65567		 951.14271			42741.51297		221.82600		875.00000 
 43692.65567		 305.27265			43387.38302		69.64400		324.00000 
 43692.65567		 951.14271			42741.51297		221.82600		875.00000 
 43692.65567		 305.27265			43387.38302		69.64400		324.00000 
 43692.65567		 951.14271			42741.51297		221.82600		875.00000 
 43692.65567		 305.27265			43387.38302		69.64400		324.00000 
 43692.65567		 951.14271			42741.51297		221.82600		875.00000 
 43692.65567		 305.27265			43387.38302		69.64400		324.00000 
 43692.65567		 951.14271			42741.51297		221.82600		875.00000 
 43692.65567		 305.27265			43387.38302		69.64400		324.00000 
 43692.65567		 951.14271			42741.51297		221.82600		875.00000 
 43692.65567		 305.27265			43387.38302		69.64400		324.00000 
 43692.65567		 951.14271			42741.51297		221.82600		875.00000 
 43692.65567		 305.27265			43387.38302		69.64400		324.00000 
 43692.65567		 951.14271			42741.51297		221.82600		875.00000 
 43692.65567		 305.27265			43387.38302		69.64400		324.00000 
 43692.65567		 951.14271			42741.51297		221.82600		875.00000 
 43692.65567		 305.27265			43387.38302		69.64400		324.00000 
 43692.65567		 951.14271			42741.51297		221.82600		875.00000 
 43692.65567		 305.27265			43387.38302		69.64400		324.00000 
 43692.65567		 951.14271			42741.51297		221.82600		875.00000 
 43692.65567		 305.27265			43387.38302		69.64400		324.00000 
 43692.65567		 951.14271			42741.51297		221.82600		875.00000 
 43692.65567		 305.27265			43387.38302		69.64400		324.00000 
 43692.65567		 951.14271			42741.51297		221.82600		875.00000 
 43692.65567		 305.27265			43387.38302		69.64400		324.00000 
 43692.65567		 951.14271			42741.51297		221.82600		875.00000 
 43692.65567		 305.27265			43387.38302		69.64400		324.00000 
 43692.65567		 951.14271			42741.51297		221.82600		875.00000 
 43692.65567		 305.27265			43387.38302		69.64400		324.00000 
 43692.65567		 951.14271			42741.51297		221.82600		875.00000 
 43692.65567		 305.27265			43387.38302		69.64400		324.00000 
 43692.65567		 951.14271			42741.51297		221.82600		875.00000 
 43692.65567		 305.27265			43387.38302		69.64400		324.00000 
 43692.65567		 951.14271			42741.51297		221.82600		875.00000 
 43692.65567		 305.27265			43387.38302		69.64400		324.00000 
 43692.65567		 951.14271			42741.51297		221.82600		875.00000 
 43692.65567		 305.27265			43387.38302		69.64400		324.00000 
 43692.65567		 951.14271			42741.51297		221.82600		875.00000 
 43692.65567		 305.27265			43387.38302		69.64400		324.00000 
 43692.65567		 951.14271			42741.51297		221.82600		875.00000 
 43692.65567		 305.27265			43387.38302		69.64400		324.00000 
 43692.65567		 951.14271			42741.51297		221.82600		875.00000 
 43692.65567		 305.27265			43387.38302		69.64400		324.00000 
 43692.65567		 951.14271			42741.51297		221.82600		875.00000 
 43692.65567		 305.27265			43387.38302		69.64400		324.00000 
 43692.65567		 951.14271			42741.51297		221.82600		875.00000 
 43692.65567		 305.27265			43387.38302		69.64400		324.00000 
 43692.65567		 951.14271			42741.51297		221.82600		875.00000 
 43692.65567		 305.27265			43387.38302		69.64400		324.00000 
 43692.65567		 951.14271			42741.51297		221.82600		875.00000 
 43692.65567		 305.27265			43387.38302		69.64400		324.00000 
 43692.65567		 951.14271			42741.51297		221.82600		875.00000 
 43692.65567		 305.27265			43387.38302		69.64400		324.00000 
 43692.65567		 951.14271			42741.51297		221.82600		875.00000 
 43692.65567		 305.27265			43387.38302		69.64400		324.00000 
 43692.65567		 951.14271			42741.51297		221.82600		875.00000 
 43692.65567		 305.27265			43387.38302		69.64400		324.00000 
 43692.65567		 951.14271			42741.51297		221.82600		875.00000 
 43692.65567		 305.27265			43387.38302		69.64400		324.00000 
 43692.65567		 951.14271			42741.51297		221.82600		875.00000 
 43692.65567		 305.27265			43387.38302		69.64400		324.00000 
 43692.65567		 951.14271			42741.51297		221.82600		875.00000 
 43692.65567		 305.27265			43387.38302		69.64400		324.00000 
 43692.65567		 951.14271			42741.51297		221.82600		875.00000 
 43692.65567		 305.27265			43387.38302		69.64400		324.00000 
 43692.65567		 951.14271			42741.51297		221.82600		875.00000 
 43692.65567		 305.27265			43387.38302		69.64400		324.00000 
 43692.65567		 951.14271			42741.51297		221.82600		875.00000 
 43692.65567		 305.27265			43387.38302		69.64400		324.00000 
 43692.65567		 951.14271			42741.51297		221.82600		875.00000 
 43692.65567		 305.27265			43387.38302		69.64400		324.00000 
 43692.65567		 951.14271			42741.51297		221.82600		875.00000 
 43692.65567		 305.27265			43387.38302		69.64400		324.00000 
 43692.65567		 951.14271			42741.51297		221.82600		875.00000 
 43692.65567		 305.27265			43387.38302		69.64400		324.00000 
 43692.65567		 951.14271			42741.51297		221.82600		875.00000 
 43692.65567		 305.27265			43387.38302		69.64400		324.00000 
 43692.65567		 951.14271			42741.51297		221.82600		875.00000 
 43692.65567		 305.27265			43387.38302		69.64400		324.00000 
 43692.65567		 951.14271			42741.51297		221.82600		875.00000 
 43692.65567		 305.27265			43387.38302		69.64400		324.00000 
 43692.65567		 951.14271			42741.51297		221.82600		875.00000 
 43692.65567		 305.27265			43387.38302		69.64400		324.00000 
 43692.65567		 951.14271			42741.51297		221.82600		875.00000 
 43692.65567		 305.27265			43387.38302		69.64400		324.00000 
 43692.65567		 951.14271			42741.51297		221.82600		875.00000 
 43692.65567		 305.27265			43387.38302		69.64400		324.00000 
 43692.65567		 951.14271			42741.51297		221.82600		875.00000 
 43692.65567		 305.27265			43387.38302		69.64400		324.00000 
 43692.65567		 951.14271			42741.51297		221.82600		875.00000 
 43692.65567		 305.27265			43387.38302		69.64400		324.00000 
 43692.65567		 951.14271			42741.51297		221.82600		875.00000 
 43692.65567		 305.27265			43387.38302		69.64400		324.00000 
 43692.65567		 951.14271			42741.51297		221.82600		875.00000 
 43692.65567		 305.27265			43387.38302		69.64400		324.00000 
 43692.65567		 951.14271			42741.51297		221.82600		875.00000 
 43692.65567		 305.27265			43387.38302		69.64400		324.00000 
 43692.65567		 951.14271			42741.51297		221.82600		875.00000 
 43692.65567		 305.27265			43387.38302		69.64400		324.00000 
 43692.65567		 951.14271			42741.51297		221.82600		875.00000 
 43692.65567		 305.27265			43387.38302		69.64400		324.00000 
 43692.65567		 951.14271			42741.51297		221.82600		875.00000 
 43692.65567		 305.27265			43387.38302		69.64400		324.00000 
 43692.65567		 951.14271			42741.51297		221.82600		875.00000 
 43692.65567		 305.27265			43387.38302		69.64400		324.00000 
 43692.65567		 951.14271			42741.51297		221.82600		875.00000 
 43692.65567		 305.27265			43387.38302		69.64400		324.00000 
 43692.65567		 951.14271			42741.51297		221.82600		875.00000 
 43692.65567		 305.27265			43387.38302		69.64400		324.00000 
 43692.65567		 951.14271			42741.51297		221.82600		875.00000 
 43692.65567		 305.27265			43387.38302		69.64400		324.00000 
 43692.65567		 951.14271			42741.51297		221.82600		875.00000 
 43692.65567		 305.27265			43387.38302		69.64400		324.00000 
 43692.65567		 951.14271			42741.51297		221.82600		875.00000 
 43692.65567		 305.27265			43387.38302		69.64400		324.00000 
 43692.65567		 951.14271			42741.51297		221.82600		875.00000 
 43692.65567		 305.27265			43387.38302		69.64400		324.00000 
 43692.65567		 951.14271			42741.51297		221.82600		875.00000 
 43692.65567		 305.27265			43387.38302		69.64400		324.00000 
 43692.65567		 951.14271			42741.51297		221.82600		875.00000 
 43692.65567		 305.27265			43387.38302		69.64400		324.00000 
 43692.65567		 951.14271			42741.51297		221.82600		875.00000 
 43692.65567		 305.27265			43387.38302		69.64400		324.00000 
 43692.65567		 951.14271			42741.51297		221.82600		875.00000 
 43692.65567		 305.27265			43387.38302		69.64400		324.00000 
 43692.65567		 951.14271			42741.51297		221.82600		875.00000 
 43692.65567		 305.27265			43387.38302		69.64400		324.00000 
 43692.65567		 951.14271			42741.51297		221.82600		875.00000 
 43692.65567		 305.27265			43387.38302		69.64400		324.00000 
 43692.65567		 951.14271			42741.51297		221.82600		875.00000 
 43692.65567		 305.27265			43387.38302		69.64400		324.00000 
 43692.65567		 951.14271			42741.51297		221.82600		875.00000 
 43692.65567		 305.27265			43387.38302		69.64400		324.00000 
 43692.65567		 951.14271			42741.51297		221.82600		875.00000 
 43692.65567		 305.27265			43387.38302		69.64400		324.00000 
 43692.65567		 951.14271			42741.51297		221.82600		875.00000 
 43692.65567		 305.27265			43387.38302		69.64400		324.00000 
 43692.65567		 951.14271			42741.51297		221.82600		875.00000 
 43692.65567		 305.27265			43387.38302		69.64400		324.00000 
 43692.65567		 951.14271			42741.51297		221.82600		875.00000 
 43692.65567		 305.27265			43387.38302		69.64400		324.00000 
 43692.65567		 951.14271			42741.51297		221.82600		875.00000 
 43692.65567		 305.27265			43387.38302		69.64400		324.00000 
 43692.65567		 951.14271			42741.51297		221.82600		875.00000 
 43692.65567		 305.27265			43387.38302		69.64400		324.00000 
 43692.65567		 951.14271			42741.51297		221.82600		875.00000 
 43692.65567		 305.27265			43387.38302		69.64400		324.00000 
 43692.65567		 951.14271			42741.51297		221.82600		875.00000 
 43692.65567		 305.27265			43387.38302		69.64400		324.00000 
 43692.65567		 951.14271			42741.51297		221.82600		875.00000 
 43692.65567		 305.27265			43387.38302		69.64400		324.00000 
 43692.65567		 951.14271			42741.51297		221.82600		875.00000 
 43692.65567		 305.27265			43387.38302		69.64400		324.00000 
 43692.65567		 951.14271			42741.51297		221.82600		875.00000 
 43692.65567		 305.27265			43387.38302		69.64400		324.00000 
 43692.65567		 951.14271			42741.51297		221.82600		875.00000 
 43692.65567		 305.27265			43387.38302		69.64400		324.00000 
 43692.65567		 951.14271			42741.51297		221.82600		875.00000 
 43692.65567		 305.27265			43387.38302		69.64400		324.00000 
 43692.65567		 951.14271			42741.51297		221.82600		875.00000 
 43692.65567		 305.27265			43387.38302		69.64400		324.00000 
 43692.65567		 951.14271			42741.51297		221.82600		875.00000 
 43692.65567		 305.27265			43387.38302		69.64400		324.00000 
 43692.65567		 951.14271			42741.51297		221.82600		875.00000 
 43692.65567		 305.27265			43387.38302		69.64400		324.00000 
 43692.65567		 951.14271			42741.51297		221.82600		875.00000 
 43692.65567		 305.27265			43387.38302		69.64400		324.00000 
 43692.65567		 951.14271			42741.51297		221.82600		875.00000 
 43692.65567		 305.27265			43387.38302		69.64400		324.00000 
 43692.65567		 951.14271			42741.51297		221.82600		875.00000 
 43692.65567		 305.27265			43387.38302		69.64400		324.00000 
 43692.65567		 951.14271			42741.51297		221.82600		875.00000 
 43692.65567		 305.27265			43387.38302		69.64400		324.00000 
 43692.65567		 951.14271			42741.51297		221.82600		875.00000 
 43692.65567		 305.27265			43387.38302		69.64400		324.00000 
 43692.65567		 951.14271			42741.51297		221.82600		875.00000 
 43692.65567		 305.27265			43387.38302		69.64400		324.00000 
 43692.65567		 951.14271			42741.51297		221.82600		875.00000 
 43692.65567		 305.27265			43387.38302		69.64400		324.00000 
 43692.65567		 951.14271			42741.51297		221.82600		875.00000 
 43692.65567		 305.27265			43387.38302		69.64400		324.00000 
 43692.65567		 951.14271			42741.51297		221.82600		875.00000 
 43692.65567		 305.27265			43387.38302		69.64400		324.00000 
 43692.65567		 951.14271			42741.51297		221.82600		875.00000 
 43692.65567		 305.27265			43387.38302		69.64400		324.00000 
 43692.65567		 951.14271			42741.51297		221.82600		875.00000 
 43692.65567		 305.27265			43387.38302		69.64400		324.00000 
 43692.65567		 951.14271			42741.51297		221.82600		875.00000 
 43692.65567		 305.27265			43387.38302		69.64400		324.00000 
 43692.65567		 951.14271			42741.51297		221.82600		875.00000 
 43692.65567		 305.27265			43387.38302		69.64400		324.00000 
 43692.65567		 951.14271			42741.51297		221.82600		875.00000 
 43692.65567		 305.27265			43387.38302		69.64400		324.00000 
 43692.65567		 951.14271			42741.51297		221.82600		875.00000 
 43692.65567		 305.27265			43387.38302		69.64400		324.00000 
 43692.65567		 951.14271			42741.51297		221.82600		875.00000 
 43692.65567		 305.27265			43387.38302		69.64400		324.00000 
 43692.65567		 951.14271			42741.51297		221.82600		875.00000 
 43692.65567		 305.27265			43387.38302		69.64400		324.00000 
 43692.65567		 951.14271			42741.51297		221.82600		875.00000 
 43692.65567		 305.27265			43387.38302		69.64400		324.00000 
 43692.65567		 951.14271			42741.51297		221.82600		875.00000 
 43692.65567		 305.27265			43387.38302		69.64400		324.00000 
 43692.65567		 951.14271			42741.51297		221.82600		875.00000 
 43692.65567		 305.27265			43387.38302		69.64400		324.00000 
 43692.65567		 951.14271			42741.51297		221.82600		875.00000 
 43692.65567		 305.27265			43387.38302		69.64400		324.00000 
 43692.65567		 951.14271			42741.51297		221.82600		875.00000 
 43692.65567		 305.27265			43387.38302		69.64400		324.00000 
 43692.65567		 951.14271			42741.51297		221.82600		875.00000 
 43692.65567		 305.27265			43387.38302		69.64400		324.00000 
 43692.65567		 951.14271			42741.51297		221.82600		875.00000 
 43692.65567		 305.27265			43387.38302		69.64400		324.00000 
 43692.65567		 951.14271			42741.51297		221.82600		875.00000 
 43692.65567		 305.27265			43387.38302		69.64400		324.00000 
 43692.65567		 951.14271			42741.51297		221.82600		875.00000 
 43692.65567		 305.27265			43387.38302		69.64400		324.00000 
 43692.65567		 951.14271			42741.51297		221.82600		875.00000 
 43692.65567		 305.27265			43387.38302		69.64400		324.00000 
 43692.65567		 951.14271			42741.51297		221.82600		875.00000 
 43692.65567		 305.27265			43387.38302		69.64400		324.00000 
 43692.65567		 951.14271			42741.51297		221.82600		875.00000 
 43692.65567		 305.27265			43387.38302		69.64400		324.00000 
 43692.65567		 951.14271			42741.51297		221.82600		875.00000 
 43692.65567		 305.27265			43387.38302		69.64400		324.00000 
 43692.65567		 951.14271			42741.51297		221.82600		875.00000 
 43692.65567		 305.27265			43387.38302		69.64400		324.00000 
 43692.65567		 951.14271			42741.51297		221.82600		875.00000 
 43692.65567		 305.27265			43387.38302		69.64400		324.00000 
 43692.65567		 951.14271			42741.51297		221.82600		875.00000 
 43692.65567		 305.27265			43387.38302		69.64400		324.00000 
 43692.65567		 951.14271			42741.51297		221.82600		875.00000 
 43692.65567		 305.27265			43387.38302		69.64400		324.00000 
 43692.65567		 951.14271			42741.51297		221.82600		875.00000 
 43692.65567		 305.27265			43387.38302		69.64400		324.00000 
 43692.65567		 951.14271			42741.51297		221.82600		875.00000 
 43692.65567		 305.27265			43387.38302		69.64400		324.00000 
 43692.65567		 951.14271			42741.51297		221.82600		875.00000 
 43692.65567		 305.27265			43387.38302		69.64400		324.00000 
 43692.65567		 951.14271			42741.51297		221.82600		875.00000 
 43692.65567		 305.27265			43387.38302		69.64400		324.00000 
 43692.65567		 951.14271			42741.51297		221.82600		875.00000 
 43692.65567		 305.27265			43387.38302		69.64400		324.00000 
 43692.65567		 951.14271			42741.51297		221.82600		875.00000 
 43692.65567		 305.27265			43387.38302		69.64400		324.00000 
 43692.65567		 951.14271			42741.51297		221.82600		875.00000 
 43692.65567		 305.27265			43387.38302		69.64400		324.00000 
 43692.65567		 951.14271			42741.51297		221.82600		875.00000 
 43692.65567		 305.27265			43387.38302		69.64400		324.00000 
 43692.65567		 951.14271			42741.51297		221.82600		875.00000 
 43692.65567		 305.27265			43387.38302		69.64400		324.00000 
 43692.65567		 951.14271			42741.51297		221.82600		875.00000 
 43692.65567		 305.27265			43387.38302		69.64400		324.00000 
 43692.65567		 951.14271			42741.51297		221.82600		875.00000 
 43692.65567		 305.27265			43387.38302		69.64400		324.00000 
 43692.65567		 951.14271			42741.51297		221.82600		875.00000 
 43692.65567		 305.27265			43387.38302		69.64400		324.00000 
 43692.65567		 951.14271			42741.51297		221.82600		875.00000 
 43692.65567		 305.27265			43387.38302		69.64400		324.00000 
 43692.65567		 951.14271			42741.51297		221.82600		875.00000 
 43692.65567		 305.27265			43387.38302		69.64400		324.00000 
 43692.65567		 951.14271			42741.51297		221.82600		875.00000 
 43692.65567		 305.27265			43387.38302		69.64400		324.00000 
 43692.65567		 951.14271			42741.51297		221.82600		875.00000 
 43692.65567		 305.27265			43387.38302		69.64400		324.00000 
 43692.65567		 951.14271			42741.51297		221.82600		875.00000 
 43692.65567		 305.27265			43387.38302		69.64400		324.00000 
 43692.65567		 951.14271			42741.51297		221.82600		875.00000 
 43692.65567		 305.27265			43387.38302		69.64400		324.00000 
 43692.65567		 951.14271			42741.51297		221.82600		875.00000 
 43692.65567		 305.27265			43387.38302		69.64400		324.00000 
 43692.65567		 951.14271			42741.51297		221.82600		875.00000 
 43692.65567		 305.27265			43387.38302		69.64400		324.00000 
 43692.65567		 951.14271			42741.51297		221.82600		875.00000 
 43692.65567		 305.27265			43387.38302		69.64400		324.00000 
 43692.65567		 951.14271			42741.51297		221.82600		875.00000 
 43692.65567		 305.27265			43387.38302		69.64400		324.00000 
 43692.65567		 951.14271			42741.51297		221.82600		875.00000 
 43692.65567		 305.27265			43387.38302		69.64400		324.00000 
 43692.65567		 951.14271			42741.51297		221.82600		875.00000 
 43692.65567		 305.27265			43387.38302		69.64400		324.00000 
 43692.65567		 951.14271			42741.51297		221.82600		875.00000 
 43692.65567		 305.27265			43387.38302		69.64400		324.00000 
 43692.65567		 951.14271			42741.51297		221.82600		875.00000 
 43692.65567		 305.27265			43387.38302		69.64400		324.00000 
 43692.65567		 951.14271			42741.51297		221.82600		875.00000 
 43692.65567		 305.27265			43387.38302		69.64400		324.00000 
 43692.65567		 951.14271			42741.51297		221.82600		875.00000 
 43692.65567		 305.27265			43387.38302		69.64400		324.00000 
 43692.65567		 951.14271			42741.51297		221.82600		875.00000 
 43692.65567		 305.27265			43387.38302		69.64400		324.00000 
 43692.65567		 951.14271			42741.51297		221.82600		875.00000 
 43692.65567		 305.27265			43387.38302		69.64400		324.00000 
 43692.65567		 951.14271			42741.51297		221.82600		875.00000 
 43692.65567		 305.27265			43387.38302		69.64400		324.00000 
 43692.65567		 951.14271			42741.51297		221.82600		875.00000 
 43692.65567		 305.27265			43387.38302		69.64400		324.00000 
 43692.65567		 951.14271			42741.51297		221.82600		875.00000 
 43692.65567		 305.27265			43387.38302		69.64400		324.00000 
 43692.65567		 951.14271			42741.51297		221.82600		875.00000 
 43692.65567		 305.27265			43387.38302		69.64400		324.00000 
 43692.65567		 951.14271			42741.51297		221.82600		875.00000 
 43692.65567		 305.27265			43387.38302		69.64400		324.00000 
 43692.65567		 951.14271			42741.51297		221.82600		875.00000 
 43692.65567		 305.27265			43387.38302		69.64400		324.00000 
 43692.65567		 951.14271			42741.51297		221.82600		875.00000 
 43692.65567		 305.27265			43387.38302		69.64400		324.00000 
 43692.65567		 951.14271			42741.51297		221.82600		875.00000 
 43692.65567		 305.27265			43387.38302		69.64400		324.00000 
 43692.65567		 951.14271			42741.51297		221.82600		875.00000 
 43692.65567		 305.27265			43387.38302		69.64400		324.00000 
 43692.65567		 951.14271			42741.51297		221.82600		875.00000 
 43692.65567		 305.27265			43387.38302		69.64400		324.00000 
 43692.65567		 951.14271			42741.51297		221.82600		875.00000 
 43692.65567		 305.27265			43387.38302		69.64400		324.00000 
 43692.65567		 951.14271			42741.51297		221.82600		875.00000 
 43692.65567		 305.27265			43387.38302		69.64400		324.00000 
 43692.65567		 951.14271			42741.51297		221.82600		875.00000 
 43692.65567		 305.27265			43387.38302		69.64400		324.00000 
 43692.65567		 951.14271			42741.51297		221.82600		875.00000 
 43692.65567		 305.27265			43387.38302		69.64400		324.00000 
 43692.65567		 951.14271			42741.51297		221.82600		875.00000 
 43692.65567		 305.27265			43387.38302		69.64400		324.00000 
 43692.65567		 951.14271			42741.51297		221.82600		875.00000 
 43692.65567		 305.27265			43387.38302		69.64400		324.00000 
 43692.65567		 951.14271			42741.51297		221.82600		875.00000 
 43692.65567		 305.27265			43387.38302		69.64400		324.00000 
 43692.65567		 951.14271			42741.51297		221.82600		875.00000 
 43692.65567		 305.27265			43387.38302		69.64400		324.00000 
 43692.65567		 951.14271			42741.51297		221.82600		875.00000 
 43692.65567		 305.27265			43387.38302		69.64400		324.00000 
 43692.65567		 951.14271			42741.51297		221.82600		875.00000 
 43692.65567		 305.27265			43387.38302		69.64400		324.00000 
 43692.65567		 951.14271			42741.51297		221.82600		875.00000 
 43692.65567		 305.27265			43387.38302		69.64400		324.00000 
 43692.65567		 951.14271			42741.51297		221.82600		875.00000 
 43692.65567		 305.27265			43387.38302		69.64400		324.00000 
 43692.65567		 951.14271			42741.51297		221.82600		875.00000 
 43692.65567		 305.27265			43387.38302		69.64400		324.00000 
 43692.65567		 951.14271			42741.51297		221.82600		875.00000 
 43692.65567		 305.27265			43387.38302		69.64400		324.00000 
 43692.65567		 951.14271			42741.51297		221.82600		875.00000 
 43692.65567		 305.27265			43387.38302		69.64400		324.00000 
 43692.65567		 951.14271			42741.51297		221.82600		875.00000 
 43692.65567		 305.27265			43387.38302		69.64400		324.00000 
 43692.65567		 951.14271			42741.51297		221.82600		875.00000 
 43692.65567		 305.27265			43387.38302		69.64400		324.00000 
 43692.65567		 951.14271			42741.51297		221.82600		875.00000 
 43692.65567		 305.27265			43387.38302		69.64400		324.00000 
 43692.65567		 951.14271			42741.51297		221.82600		875.00000 
 43692.65567		 305.27265			43387.38302		69.64400		324.00000 
 43692.65567		 951.14271			42741.51297		221.82600		875.00000 
 43692.65567		 305.27265			43387.38302		69.64400		324.00000 
 43692.65567		 951.14271			42741.51297		221.82600		875.00000 
 43692.65567		 305.27265			43387.38302		69.64400		324.00000 
 43692.65567		 951.14271			42741.51297		221.82600		875.00000 
 43692.65567		 305.27265			43387.38302		69.64400		324.00000 
 43692.65567		 951.14271			42741.51297		221.82600		875.00000 
 43692.65567		 305.27265			43387.38302		69.64400		324.00000 
 43692.65567		 951.14271			42741.51297		221.82600		875.00000 
 43692.65567		 305.27265			43387.38302		69.64400		324.00000 
 43692.65567		 951.14271			42741.51297		221.82600		875.00000 
 43692.65567		 305.27265			43387.38302		69.64400		324.00000 
 43692.65567		 951.14271			42741.51297		221.82600		875.00000 
 43692.65567		 305.27265			43387.38302		69.64400		324.00000 
 43692.65567		 951.14271			42741.51297		221.82600		875.00000 
 43692.65567		 305.27265			43387.38302		69.64400		324.00000 
 43692.65567		 951.14271			42741.51297		221.82600		875.00000 
 43692.65567		 305.27265			43387.38302		69.64400		324.00000 
 43692.65567		 951.14271			42741.51297		221.82600		875.00000 
 43692.65567		 305.27265			43387.38302		69.64400		324.00000 
 43692.65567		 951.14271			42741.51297		221.82600		875.00000 
 43692.65567		 305.27265			43387.38302		69.64400		324.00000 
 43692.65567		 951.14271			42741.51297		221.82600		875.00000 
 43692.65567		 305.27265			43387.38302		69.64400		324.00000 
 43692.65567		 951.14271			42741.51297		221.82600		875.00000 
 43692.65567		 305.27265			43387.38302		69.64400		324.00000 
 43692.65567		 951.14271			42741.51297		221.82600		875.00000 
 43692.65567		 305.27265			43387.38302		69.64400		324.00000 
 43692.65567		 951.14271			42741.51297		221.82600		875.00000 
 43692.65567		 305.27265			43387.38302		69.64400		324.00000 
 43692.65567		 951.14271			42741.51297		221.82600		875.00000 
 43692.65567		 305.27265			43387.38302		69.64400		324.00000 
 43692.65567		 951.14271			42741.51297		221.82600		875.00000 
 43692.65567		 305.27265			43387.38302		69.64400		324.00000 
 43692.65567		 951.14271			42741.51297		221.82600		875.00000 
 43692.65567		 305.27265			43387.38302		69.64400		324.00000 
 43692.65567		 951.14271			42741.51297		221.82600		875.00000 
 43692.65567		 305.27265			43387.38302		69.64400		324.00000 
 43692.65567		 951.14271			42741.51297		221.82600		875.00000 
 43692.65567		 305.27265			43387.38302		69.64400		324.00000 
 43692.65567		 951.14271			42741.51297		221.82600		875.00000 
 43692.65567		 305.27265			43387.38302		69.64400		324.00000 
 43692.65567		 951.14271			42741.51297		221.82600		875.00000 
 43692.65567		 305.27265			43387.38302		69.64400		324.00000 
 43692.65567		 951.14271			42741.51297		221.82600		875.00000 
 43692.65567		 305.27265			43387.38302		69.64400		324.00000 
 43692.65567		 951.14271			42741.51297		221.82600		875.00000 
 43692.65567		 305.27265			43387.38302		69.64400		324.00000 
 43692.65567		 951.14271			42741.51297		221.82600		875.00000 
 43692.65567		 305.27265			43387.38302		69.64400		324.00000 
 43692.65567		 951.14271			42741.51297		221.82600		875.00000 
 43692.65567		 305.27265			43387.38302		69.64400		324.00000 
 43692.65567		 951.14271			42741.51297		221.82600		875.00000 
 43692.65567		 305.27265			43387.38302		69.64400		324.00000 
 43692.65567		 951.14271			42741.51297		221.82600		875.00000 
 43692.65567		 305.27265			43387.38302		69.64400		324.00000 
 43692.65567		 951.14271			42741.51297		221.82600		875.00000 
 43692.65567		 305.27265			43387.38302		69.64400		324.00000 
 43692.65567		 951.14271			42741.51297		221.82600		875.00000 
 43692.65567		 305.27265			43387.38302		69.64400		324.00000 
 43692.65567		 951.14271			42741.51297		221.82600		875.00000 
 43692.65567		 305.27265			43387.38302		69.64400		324.00000 
 43692.65567		 951.14271			42741.51297		221.82600		875.00000 
 43692.65567		 305.27265			43387.38302		69.64400		324.00000 
 43692.65567		 951.14271			42741.51297		221.82600		875.00000 
 43692.65567		 305.27265			43387.38302		69.64400		324.00000 
 43692.65567		 951.14271			42741.51297		221.82600		875.00000 
 43692.65567		 305.27265			43387.38302		69.64400		324.00000 
 43692.65567		 951.14271			42741.51297		221.82600		875.00000 
 43692.65567		 305.27265			43387.38302		69.64400		324.00000 
 43692.65567		 951.14271			42741.51297		221.82600		875.00000 
 43692.65567		 305.27265			43387.38302		69.64400		324.00000 
 43692.65567		 951.14271			42741.51297		221.82600		875.00000 
 43692.65567		 305.27265			43387.38302		69.64400		324.00000 
 43692.65567		 951.14271			42741.51297		221.82600		875.00000 
 43692.65567		 305.27265			43387.38302		69.64400		324.00000 
 43692.65567		 951.14271			42741.51297		221.82600		875.00000 
 43692.65567		 305.27265			43387.38302		69.64400		324.00000 
 43692.65567		 951.14271			42741.51297		221.82600		875.00000 
 43692.65567		 305.27265			43387.38302		69.64400		324.00000 
 43692.65567		 951.14271			42741.51297		221.82600		875.00000 
 43692.65567		 305.27265			43387.38302		69.64400		324.00000 
 43692.65567		 951.14271			42741.51297		221.82600		875.00000 
 43692.65567		 305.27265			43387.38302		69.64400		324.00000 
 43692.65567		 951.14271			42741.51297		221.82600		875.00000 
 43692.65567		 305.27265			43387.38302		69.64400		324.00000 
 43692.65567		 951.14271			42741.51297		221.82600		875.00000 
 43692.65567		 305.27265			43387.38302		69.64400		324.00000 
 43692.65567		 951.14271			42741.51297		221.82600		875.00000 
 43692.65567		 305.27265			43387.38302		69.64400		324.00000 
 43692.65567		 951.14271			42741.51297		221.82600		875.00000 
 43692.65567		 305.27265			43387.38302		69.64400		324.00000 
 43692.65567		 951.14271			42741.51297		221.82600		875.00000 
 43692.65567		 305.27265			43387.38302		69.64400		324.00000 
 43692.65567		 951.14271			42741.51297		221.82600		875.00000 
 43692.65567		 305.27265			43387.38302		69.64400		324.00000 
 43692.65567		 951.14271			42741.51297		221.82600		875.00000 
 43692.65567		 305.27265			43387.38302		69.64400		324.00000 
 43692.65567		 951.14271			42741.51297		221.82600		875.00000 
 43692.65567		 305.27265			43387.38302		69.64400		324.00000 
 43692.65567		 951.14271			42741.51297		221.82600		875.00000 
 43692.65567		 305.27265			43387.38302		69.64400		324.00000 
 43692.65567		 951.14271			42741.51297		221.82600		875.00000 
 43692.65567		 305.27265			43387.38302		69.64400		324.00000 
 43692.65567		 951.14271			42741.51297		221.82600		875.00000 
 43692.65567		 305.27265			43387.38302		69.64400		324.00000 
 43692.65567		 951.14271			42741.51297		221.82600		875.00000 
 43692.65567		 305.27265			43387.38302		69.64400		324.00000 
 43692.65567		 951.14271			42741.51297		221.82600		875.00000 
 43692.65567		 305.27265			43387.38302		69.64400		324.00000 
 43692.65567		 951.14271			42741.51297		221.82600		875.00000 
 43692.65567		 305.27265			43387.38302		69.64400		324.00000 
 43692.65567		 951.14271			42741.51297		221.82600		875.00000 
 43692.65567		 305.27265			43387.38302		69.64400		324.00000 
 43692.65567		 951.14271			42741.51297		221.82600		875.00000 
 43692.65567		 305.27265			43387.38302		69.64400		324.00000 
 43692.65567		 951.14271			42741.51297		221.82600		875.00000 
 43692.65567		 305.27265			43387.38302		69.64400		324.00000 
 43692.65567		 951.14271			42741.51297		221.82600		875.00000 
 43692.65567		 305.27265			43387.38302		69.64400		324.00000 
 43692.65567		 951.14271			42741.51297		221.82600		875.00000 
 43692.65567		 305.27265			43387.38302		69.64400		324.00000 
 43692.65567		 951.14271			42741.51297		221.82600		875.00000 
 43692.65567		 305.27265			43387.38302		69.64400		324.00000 
 43692.65567		 951.14271			42741.51297		221.82600		875.00000 
 43692.65567		 305.27265			43387.38302		69.64400		324.00000 
 43692.65567		 951.14271			42741.51297		221.82600		875.00000 
 43692.65567		 305.27265			43387.38302		69.64400		324.00000 
 43692.65567		 951.14271			42741.51297		221.82600		875.00000 
 43692.65567		 305.27265			43387.38302		69.64400		324.00000 
 43692.65567		 951.14271			42741.51297		221.82600		875.00000 
 43692.65567		 305.27265			43387.38302		69.64400		324.00000 
 43692.65567		 951.14271			42741.51297		221.82600		875.00000 
 43692.65567		 305.27265			43387.38302		69.64400		324.00000 
 43692.65567		 951.14271			42741.51297		221.82600		875.00000 
 43692.65567		 305.27265			43387.38302		69.64400		324.00000 
 43692.65567		 951.14271			42741.51297		221.82600		875.00000 
 43692.65567		 305.27265			43387.38302		69.64400		324.00000 
 43692.65567		 951.14271			42741.51297		221.82600		875.00000 
 43692.65567		 305.27265			43387.38302		69.64400		324.00000 
 43692.65567		 951.14271			42741.51297		221.82600		875.00000 
 43692.65567		 305.27265			43387.38302		69.64400		324.00000 
 43692.65567		 951.14271			42741.51297		221.82600		875.00000 
 43692.65567		 305.27265			43387.38302		69.64400		324.00000 
 43692.65567		 951.14271			42741.51297		221.82600		875.00000 
 43692.65567		 305.27265			43387.38302		69.64400		324.00000 
 43692.65567		 951.14271			42741.51297		221.82600		875.00000 
 43692.65567		 305.27265			43387.38302		69.64400		324.00000 
 43692.65567		 951.14271			42741.51297		221.82600		875.00000 
 43692.65567		 305.27265			43387.38302		69.64400		324.00000 
 43692.65567		 951.14271			42741.51297		221.82600		875.00000 
 43692.65567		 305.27265			43387.38302		69.64400		324.00000 
 43692.65567		 951.14271			42741.51297		221.82600		875.00000 
 43692.65567		 305.27265			43387.38302		69.64400		324.00000 
 43692.65567		 951.14271			42741.51297		221.82600		875.00000 
 43692.65567		 305.27265			43387.38302		69.64400		324.00000 
 43692.65567		 951.14271			42741.51297		221.82600		875.00000 
 43692.65567		 305.27265			43387.38302		69.64400		324.00000 
 43692.65567		 951.14271			42741.51297		221.82600		875.00000 
 43692.65567		 305.27265			43387.38302		69.64400		324.00000 
 43692.65567		 951.14271			42741.51297		221.82600		875.00000 
 43692.65567		 305.27265			43387.38302		69.64400		324.00000 
 43692.65567		 951.14271			42741.51297		221.82600		875.00000 
 43692.65567		 305.27265			43387.38302		69.64400		324.00000 
 43692.65567		 951.14271			42741.51297		221.82600		875.00000 
 43692.65567		 305.27265			43387.38302		69.64400		324.00000 
 43692.65567		 951.14271			42741.51297		221.82600		875.00000 
 43692.65567		 305.27265			43387.38302		69.64400		324.00000 
 43692.65567		 951.14271			42741.51297		221.82600		875.00000 
 43692.65567		 305.27265			43387.38302		69.64400		324.00000 
 43692.65567		 951.14271			42741.51297		221.82600		875.00000 
 43692.65567		 305.27265			43387.38302		69.64400		324.00000 
 43692.65567		 951.14271			42741.51297		221.82600		875.00000 
 43692.65567		 305.27265			43387.38302		69.64400		324.00000 
 43692.65567		 951.14271			42741.51297		221.82600		875.00000 
 43692.65567		 305.27265			43387.38302		69.64400		324.00000 
 43692.65567		 951.14271			42741.51297		221.82600		875.00000 
 43692.65567		 305.27265			43387.38302		69.64400		324.00000 
 43692.65567		 951.14271			42741.51297		221.82600		875.00000 
 43692.65567		 305.27265			43387.38302		69.64400		324.00000 
 43692.65567		 951.14271			42741.51297		221.82600		875.00000 
 43692.65567		 305.27265			43387.38302		69.64400		324.00000 
 43692.65567		 951.14271			42741.51297		221.82600		875.00000 
 43692.65567		 305.27265			43387.38302		69.64400		324.00000 
 43692.65567		 951.14271			42741.51297		221.82600		875.00000 
 43692.65567		 305.27265			43387.38302		69.64400		324.00000 
 43692.65567		 951.14271			42741.51297		221.82600		875.00000 
 43692.65567		 305.27265			43387.38302		69.64400		324.00000 
 43692.65567		 951.14271			42741.51297		221.82600		875.00000 
 43692.65567		 305.27265			43387.38302		69.64400		324.00000 
 43692.65567		 951.14271			42741.51297		221.82600		875.00000 
 43692.65567		 305.27265			43387.38302		69.64400		324.00000 
 43692.65567		 951.14271			42741.51297		221.82600		875.00000 
 43692.65567		 305.27265			43387.38302		69.64400		324.00000 
 43692.65567		 951.14271			42741.51297		221.82600		875.00000 
 43692.65567		 305.27265			43387.38302		69.64400		324.00000 
 43692.65567		 951.14271			42741.51297		221.82600		875.00000 
 43692.65567		 305.27265			43387.38302		69.64400		324.00000 
 43692.65567		 951.14271			42741.51297		221.82600		875.00000 
 43692.65567		 305.27265			43387.38302		69.64400		324.00000 
 43692.65567		 951.14271			42741.51297		221.82600		875.00000 
 43692.65567		 305.27265			43387.38302		69.64400		324.00000 
 43692.65567		 951.14271			42741.51297		221.82600		875.00000 
 43692.65567		 305.27265			43387.38302		69.64400		324.00000 
 43692.65567		 951.14271			42741.51297		221.82600		875.00000 
 43692.65567		 305.27265			43387.38302		69.64400		324.00000 
 43692.65567		 951.14271			42741.51297		221.82600		875.00000 
 43692.65567		 305.27265			43387.38302		69.64400		324.00000 
 43692.65567		 951.14271			42741.51297		221.82600		875.00000 
 43692.65567		 305.27265			43387.38302		69.64400		324.00000 
 43692.65567		 951.14271			42741.51297		221.82600		875.00000 
 43692.65567		 305.27265			43387.38302		69.64400		324.00000 
 43692.65567		 951.14271			42741.51297		221.82600		875.00000 
 43692.65567		 305.27265			43387.38302		69.64400		324.00000 
 43692.65567		 951.14271			42741.51297		221.82600		875.00000 
 43692.65567		 305.27265			43387.38302		69.64400		324.00000 
 43692.65567		 951.14271			42741.51297		221.82600		875.00000 
 43692.65567		 305.27265			43387.38302		69.64400		324.00000 
 43692.65567		 951.14271			42741.51297		221.82600		875.00000 
 43692.65567		 305.27265			43387.38302		69.64400		324.00000 
 43692.65567		 951.14271			42741.51297		221.82600		875.00000 
 43692.65567		 305.27265			43387.38302		69.64400		324.00000 
 43692.65567		 951.14271			42741.51297		221.82600		875.00000 
 43692.65567		 305.27265			43387.38302		69.64400		324.00000 
 43692.65567		 951.14271			42741.51297		221.82600		875.00000 
 43692.65567		 305.27265			43387.38302		69.64400		324.00000 
 43692.65567		 951.14271			42741.51297		221.82600		875.00000 
 43692.65567		 305.27265			43387.38302		69.64400		324.00000 
 43692.65567		 951.14271			42741.51297		221.82600		875.00000 
 43692.65567		 305.27265			43387.38302		69.64400		324.00000 
 43692.65567		 951.14271			42741.51297		221.82600		875.00000 
 43692.65567		 305.27265			43387.38302		69.64400		324.00000 
 43692.65567		 951.14271			42741.51297		221.82600		875.00000 
 43692.65567		 305.27265			43387.38302		69.64400		324.00000 
 43692.65567		 951.14271			42741.51297		221.82600		875.00000 
 43692.65567		 305.27265			43387.38302		69.64400		324.00000 
 43692.65567		 951.14271			42741.51297		221.82600		875.00000 
 43692.65567		 305.27265			43387.38302		69.64400		324.00000 
 43692.65567		 951.14271			42741.51297		221.82600		875.00000 
 43692.65567		 305.27265			43387.38302		69.64400		324.00000 
 43692.65567		 951.14271			42741.51297		221.82600		875.00000 
 43692.65567		 305.27265			43387.38302		69.64400		324.00000 
 43692.65567		 951.14271			42741.51297		221.82600		875.00000 
 43692.65567		 305.27265			43387.38302		69.64400		324.00000 
 43692.65567		 951.14271			42741.51297		221.82600		875.00000 
 43692.65567		 305.27265			43387.38302		69.64400		324.00000 
 43692.65567		 951.14271			42741.51297		221.82600		875.00000 
 43692.65567		 305.27265			43387.38302		69.64400		324.00000 
 43692.65567		 951.14271			42741.51297		221.82600		875.00000 
 43692.65567		 305.27265			43387.38302		69.64400		324.00000 
 43692.65567		 951.14271			42741.51297		221.82600		875.00000 
 43692.65567		 305.27265			43387.38302		69.64400		324.00000 
 43692.65567		 951.14271			42741.51297		221.82600		875.00000 
 43692.65567		 305.27265			43387.38302		69.64400		324.00000 
 43692.65567		 951.14271			42741.51297		221.82600		875.00000 
 43692.65567		 305.27265			43387.38302		69.64400		324.00000 
 43692.65567		 951.14271			42741.51297		221.82600		875.00000 
 43692.65567		 305.27265			43387.38302		69.64400		324.00000 
 43692.65567		 951.14271			42741.51297		221.82600		875.00000 
 43692.65567		 305.27265			43387.38302		69.64400		324.00000 
 43692.65567		 951.14271			42741.51297		221.82600		875.00000 
 43692.65567		 305.27265			43387.38302		69.64400		324.00000 
 43692.65567		 951.14271			42741.51297		221.82600		875.00000 
 43692.65567		 305.27265			43387.38302		69.64400		324.00000 
 43692.65567		 951.14271			42741.51297		221.82600		875.00000 
 43692.65567		 305.27265			43387.38302		69.64400		324.00000 
 43692.65567		 951.14271			42741.51297		221.82600		875.00000 
 43692.65567		 305.27265			43387.38302		69.64400		324.00000 
 43692.65567		 951.14271			42741.51297		221.82600		875.00000 
 43692.65567		 305.27265			43387.38302		69.64400		324.00000 
 43692.65567		 951.14271			42741.51297		221.82600		875.00000 
 43692.65567		 305.27265			43387.38302		69.64400		324.00000 
 43692.65567		 951.14271			42741.51297		221.82600		875.00000 
 43692.65567		 305.27265			43387.38302		69.64400		324.00000 
 43692.65567		 951.14271			42741.51297		221.82600		875.00000 
 43692.65567		 305.27265			43387.38302		69.64400		324.00000 
 43692.65567		 951.14271			42741.51297		221.82600		875.00000 
 43692.65567		 305.27265			43387.38302		69.64400		324.00000 
 43692.65567		 951.14271			42741.51297		221.82600		875.00000 
 43692.65567		 305.27265			43387.38302		69.64400		324.00000 
 43692.65567		 951.14271			42741.51297		221.82600		875.00000 
 43692.65567		 305.27265			43387.38302		69.64400		324.00000 
 43692.65567		 951.14271			42741.51297		221.82600		875.00000 
 43692.65567		 305.27265			43387.38302		69.64400		324.00000 
 43692.65567		 951.14271			42741.51297		221.82600		875.00000 
 43692.65567		 305.27265			43387.38302		69.64400		324.00000 
 43692.65567		 951.14271			42741.51297		221.82600		875.00000 
 43692.65567		 305.27265			43387.38302		69.64400		324.00000 
 43692.65567		 951.14271			42741.51297		221.82600		875.00000 
 43692.65567		 305.27265			43387.38302		69.64400		324.00000 
 43692.65567		 951.14271			42741.51297		221.82600		875.00000 
 43692.65567		 305.27265			43387.38302		69.64400		324.00000 
 43692.65567		 951.14271			42741.51297		221.82600		875.00000 
 43692.65567		 305.27265			43387.38302		69.64400		324.00000 
 43692.65567		 951.14271			42741.51297		221.82600		875.00000 
 43692.65567		 305.27265			43387.38302		69.64400		324.00000 
 43692.65567		 951.14271			42741.51297		221.82600		875.00000 
 43692.65567		 305.27265			43387.38302		69.64400		324.00000 
 43692.65567		 951.14271			42741.51297		221.82600		875.00000 
 43692.65567		 305.27265			43387.38302		69.64400		324.00000 
 43692.65567		 951.14271			42741.51297		221.82600		875.00000 
 43692.65567		 305.27265			43387.38302		69.64400		324.00000 
 43692.65567		 951.14271			42741.51297		221.82600		875.00000 
 43692.65567		 305.27265			43387.38302		69.64400		324.00000 
 43692.65567		 951.14271			42741.51297		221.82600		875.00000 
 43692.65567		 305.27265			43387.38302		69.64400		324.00000 
 43692.65567		 951.14271			42741.51297		221.82600		875.00000 
 43692.65567		 305.27265			43387.38302		69.64400		324.00000 
 43692.65567		 951.14271			42741.51297		221.82600		875.00000 
 43692.65567		 305.27265			43387.38302		69.64400		324.00000 
 43692.65567		 951.14271			42741.51297		221.82600		875.00000 
 43692.65567		 305.27265			43387.38302		69.64400		324.00000 
 43692.65567		 951.14271			42741.51297		221.82600		875.00000 
 43692.65567		 305.27265			43387.38302		69.64400		324.00000 
 43692.65567		 951.14271			42741.51297		221.82600		875.00000 
 43692.65567		 305.27265			43387.38302		69.64400		324.00000 
 43692.65567		 951.14271			42741.51297		221.82600		875.00000 
 43692.65567		 305.27265			43387.38302		69.64400		324.00000 
 43692.65567		 951.14271			42741.51297		221.82600		875.00000 
 43692.65567		 305.27265			43387.38302		69.64400		324.00000 
 43692.65567		 951.14271			42741.51297		221.82600		875.00000 
 43692.65567		 305.27265			43387.38302		69.64400		324.00000 
 43692.65567		 951.14271			42741.51297		221.82600		875.00000 
 43692.65567		 305.27265			43387.38302		69.64400		324.00000 
 43692.65567		 951.14271			42741.51297		221.82600		875.00000 
 43692.65567		 305.27265			43387.38302		69.64400		324.00000 
 43692.65567		 951.14271			42741.51297		221.82600		875.00000 
 43692.65567		 305.27265			43387.38302		69.64400		324.00000 
 43692.65567		 951.14271			42741.51297		221.82600		875.00000 
 43692.65567		 305.27265			43387.38302		69.64400		324.00000 
 43692.65567		 951.14271			42741.51297		221.82600		875.00000 
 43692.65567		 305.27265			43387.38302		69.64400		324.00000 
 43692.65567		 951.14271			42741.51297		221.82600		875.00000 
 43692.65567		 305.27265			43387.38302		69.64400		324.00000 
 43692.65567		 951.14271			42741.51297		221.82600		875.00000 
 43692.65567		 305.27265			43387.38302		69.64400		324.00000 
 43692.65567		 951.14271			42741.51297		221.82600		875.00000 
 43692.65567		 305.27265			43387.38302		69.64400		324.00000 
 43692.65567		 951.14271			42741.51297		221.82600		875.00000 
 43692.65567		 305.27265			43387.38302		69.64400		324.00000 
 43692.65567		 951.14271			42741.51297		221.82600		875.00000 
 43692.65567		 305.27265			43387.38302		69.64400		324.00000 
 43692.65567		 951.14271			42741.51297		221.82600		875.00000 
 43692.65567		 305.27265			43387.38302		69.64400		324.00000 
 43692.65567		 951.14271			42741.51297		221.82600		875.00000 
 43692.65567		 305.27265			43387.38302		69.64400		324.00000 
 43692.65567		 951.14271			42741.51297		221.82600		875.00000 
 43692.65567		 305.27265			43387.38302		69.64400		324.00000 
 43692.65567		 951.14271			42741.51297		221.82600		875.00000 
 43692.65567		 305.27265			43387.38302		69.64400		324.00000 
 43692.65567		 951.14271			42741.51297		221.82600		875.00000 
 43692.65567		 305.27265			43387.38302		69.64400		324.00000 
 43692.65567		 951.14271			42741.51297		221.82600		875.00000 
 43692.65567		 305.27265			43387.38302		69.64400		324.00000 
 43692.65567		 951.14271			42741.51297		221.82600		875.00000 
 43692.65567		 305.27265			43387.38302		69.64400		324.00000 
 43692.65567		 951.14271			42741.51297		221.82600		875.00000 
 43692.65567		 305.27265			43387.38302		69.64400		324.00000 
 43692.65567		 951.14271			42741.51297		221.82600		875.00000 
 43692.65567		 305.27265			43387.38302		69.64400		324.00000 
 43692.65567		 951.14271			42741.51297		221.82600		875.00000 
 43692.65567		 305.27265			43387.38302		69.64400		324.00000 
 43692.65567		 951.14271			42741.51297		221.82600		875.00000 
 43692.65567		 305.27265			43387.38302		69.64400		324.00000 
 43692.65567		 951.14271			42741.51297		221.82600		875.00000 
 43692.65567		 305.27265			43387.38302		69.64400		324.00000 
 43692.65567		 951.14271			42741.51297		221.82600		875.00000 
 43692.65567		 305.27265			43387.38302		69.64400		324.00000 
 43692.65567		 951.14271			42741.51297		221.82600		875.00000 
 43692.65567		 305.27265			43387.38302		69.64400		324.00000 
 43692.65567		 951.14271			42741.51297		221.82600		875.00000 
 43692.65567		 305.27265			43387.38302		69.64400		324.00000 
 43692.65567		 951.14271			42741.51297		221.82600		875.00000 
 43692.65567		 305.27265			43387.38302		69.64400		324.00000 
 43692.65567		 951.14271			42741.51297		221.82600		875.00000 
 43692.65567		 305.27265			43387.38302		69.64400		324.00000 
 43692.65567		 951.14271			42741.51297		221.82600		875.00000 
 43692.65567		 305.27265			43387.38302		69.64400		324.00000 
 43692.65567		 951.14271			42741.51297		221.82600		875.00000 
 43692.65567		 305.27265			43387.38302		69.64400		324.00000 
 43692.65567		 951.14271			42741.51297		221.82600		875.00000 
 43692.65567		 305.27265			43387.38302		69.64400		324.00000 
 43692.65567		 951.14271			42741.51297		221.82600		875.00000 
 43692.65567		 305.27265			43387.38302		69.64400		324.00000 
 43692.65567		 951.14271			42741.51297		221.82600		875.00000 
 43692.65567		 305.27265			43387.38302		69.64400		324.00000 
 43692.65567		 951.14271			42741.51297		221.82600		875.00000 
 43692.65567		 305.27265			43387.38302		69.64400		324.00000 
 43692.65567		 951.14271			42741.51297		221.82600		875.00000 
 43692.65567		 305.27265			43387.38302		69.64400		324.00000 
 43692.65567		 951.14271			42741.51297		221.82600		875.00000 
 43692.65567		 305.27265			43387.38302		69.64400		324.00000 
 43692.65567		 951.14271			42741.51297		221.82600		875.00000 
 43692.65567		 305.27265			43387.38302		69.64400		324.00000 
 43692.65567		 951.14271			42741.51297		221.82600		875.00000 
 43692.65567		 305.27265			43387.38302		69.64400		324.00000 
 43692.65567		 951.14271			42741.51297		221.82600		875.00000 
 43692.65567		 305.27265			43387.38302		69.64400		324.00000 
 43692.65567		 951.14271			42741.51297		221.82600		875.00000 
 43692.65567		 305.27265			43387.38302		69.64400		324.00000 
 43692.65567		 951.14271			42741.51297		221.82600		875.00000 
 43692.65567		 305.27265			43387.38302		69.64400		324.00000 
 43692.65567		 951.14271			42741.51297		221.82600		875.00000 
 43692.65567		 305.27265			43387.38302		69.64400		324.00000 
 43692.65567		 951.14271			42741.51297		221.82600		875.00000 
 43692.65567		 305.27265			43387.38302		69.64400		324.00000 
 43692.65567		 951.14271			42741.51297		221.82600		875.00000 
 43692.65567		 305.27265			43387.38302		69.64400		324.00000 
 43692.65567		 951.14271			42741.51297		221.82600		875.00000 
 43692.65567		 305.27265			43387.38302		69.64400		324.00000 
 43692.65567		 951.14271			42741.51297		221.82600		875.00000 
 43692.65567		 305.27265			43387.38302		69.64400		324.00000 
 43692.65567		 951.14271			42741.51297		221.82600		875.00000 
 43692.65567		 305.27265			43387.38302		69.64400		324.00000 
 43692.65567		 951.14271			42741.51297		221.82600		875.00000 
 43692.65567		 305.27265			43387.38302		69.64400		324.00000 
 43692.65567		 951.14271			42741.51297		221.82600		875.00000 
 43692.65567		 305.27265			43387.38302		69.64400		324.00000 
 43692.65567		 951.14271			42741.51297		221.82600		875.00000 
 43692.65567		 305.27265			43387.38302		69.64400		324.00000 
 43692.65567		 951.14271			42741.51297		221.82600		875.00000 
 43692.65567		 305.27265			43387.38302		69.64400		324.00000 
 43692.65567		 951.14271			42741.51297		221.82600		875.00000 
 43692.65567		 305.27265			43387.38302		69.64400		324.00000 
 43692.65567		 951.14271			42741.51297		221.82600		875.00000 
 43692.65567		 305.27265			43387.38302		69.64400		324.00000 
 43692.65567		 951.14271			42741.51297		221.82600		875.00000 
 43692.65567		 305.27265			43387.38302		69.64400		324.00000 
 43692.65567		 951.14271			42741.51297		221.82600		875.00000 
 43692.65567		 305.27265			43387.38302		69.64400		324.00000 
 43692.65567		 951.14271			42741.51297		221.82600		875.00000 
 43692.65567		 305.27265			43387.38302		69.64400		324.00000 
 43692.65567		 951.14271			42741.51297		221.82600		875.00000 
 43692.65567		 305.27265			43387.38302		69.64400		324.00000 
 43692.65567		 951.14271			42741.51297		221.82600		875.00000 
 43692.65567		 305.27265			43387.38302		69.64400		324.00000 
 43692.65567		 951.14271			42741.51297		221.82600		875.00000 
 43692.65567		 305.27265			43387.38302		69.64400		324.00000 
 43692.65567		 951.14271			42741.51297		221.82600		875.00000 
 43692.65567		 305.27265			43387.38302		69.64400		324.00000 
 43692.65567		 951.14271			42741.51297		221.82600		875.00000 
 43692.65567		 305.27265			43387.38302		69.64400		324.00000 
 43692.65567		 951.14271			42741.51297		221.82600		875.00000 
 43692.65567		 305.27265			43387.38302		69.64400		324.00000 
 43692.65567		 951.14271			42741.51297		221.82600		875.00000 
 43692.65567		 305.27265			43387.38302		69.64400		324.00000 
 43692.65567		 951.14271			42741.51297		221.82600		875.00000 
 43692.65567		 305.27265			43387.38302		69.64400		324.00000 
 43692.65567		 951.14271			42741.51297		221.82600		875.00000 
 43692.65567		 305.27265			43387.38302		69.64400		324.00000 
 43692.65567		 951.14271			42741.51297		221.82600		875.00000 
 43692.65567		 305.27265			43387.38302		69.64400		324.00000 
 43692.65567		 951.14271			42741.51297		221.82600		875.00000 
 43692.65567		 305.27265			43387.38302		69.64400		324.00000 
 43692.65567		 951.14271			42741.51297		221.82600		875.00000 
 43692.65567		 305.27265			43387.38302		69.64400		324.00000 
 43692.65567		 951.14271			42741.51297		221.82600		875.00000 
 43692.65567		 305.27265			43387.38302		69.64400		324.00000 
 43692.65567		 951.14271			42741.51297		221.82600		875.00000 
 43692.65567		 305.27265			43387.38302		69.64400		324.00000 
 43692.65567		 951.14271			42741.51297		221.82600		875.00000 
 43692.65567		 305.27265			43387.38302		69.64400		324.00000 
 43692.65567		 951.14271			42741.51297		221.82600		875.00000 
 43692.65567		 305.27265			43387.38302		69.64400		324.00000 
 43692.65567		 951.14271			42741.51297		221.82600		875.00000 
 43692.65567		 305.27265			43387.38302		69.64400		324.00000 
 43692.65567		 951.14271			42741.51297		221.82600		875.00000 
 43692.65567		 305.27265			43387.38302		69.64400		324.00000 
 43692.65567		 951.14271			42741.51297		221.82600		875.00000 
 43692.65567		 305.27265			43387.38302		69.64400		324.00000 
 43692.65567		 951.14271			42741.51297		221.82600		875.00000 
 43692.65567		 305.27265			43387.38302		69.64400		324.00000 
 43692.65567		 951.14271			42741.51297		221.82600		875.00000 
 43692.65567		 305.27265			43387.38302		69.64400		324.00000 
 43692.65567		 951.14271			42741.51297		221.82600		875.00000 
 43692.65567		 305.27265			43387.38302		69.64400		324.00000 
 43692.65567		 951.14271			42741.51297		221.82600		875.00000 
 43692.65567		 305.27265			43387.38302		69.64400		324.00000 
 43692.65567		 951.14271			42741.51297		221.82600		875.00000 
 43692.65567		 305.27265			43387.38302		69.64400		324.00000 
 43692.65567		 951.14271			42741.51297		221.82600		875.00000 
 43692.65567		 305.27265			43387.38302		69.64400		324.00000 
 43692.65567		 951.14271			42741.51297		221.82600		875.00000 
 43692.65567		 305.27265			43387.38302		69.64400		324.00000 
 43692.65567		 951.14271			42741.51297		221.82600		875.00000 
 43692.65567		 305.27265			43387.38302		69.64400		324.00000 
 43692.65567		 951.14271			42741.51297		221.82600		875.00000 
 43692.65567		 305.27265			43387.38302		69.64400		324.00000 
 43692.65567		 951.14271			42741.51297		221.82600		875.00000 
 43692.65567		 305.27265			43387.38302		69.64400		324.00000 
 43692.65567		 951.14271			42741.51297		221.82600		875.00000 
 43692.65567		 305.27265			43387.38302		69.64400		324.00000 
 43692.65567		 951.14271			42741.51297		221.82600		875.00000 
 43692.65567		 305.27265			43387.38302		69.64400		324.00000 
 43692.65567		 951.14271			42741.51297		221.82600		875.00000 
 43692.65567		 305.27265			43387.38302		69.64400		324.00000 
 43692.65567		 951.14271			42741.51297		221.82600		875.00000 
 43692.65567		 305.27265			43387.38302		69.64400		324.00000 
 43692.65567		 951.14271			42741.51297		221.82600		875.00000 
 43692.65567		 305.27265			43387.38302		69.64400		324.00000 
 43692.65567		 951.14271			42741.51297		221.82600		875.00000 
 43692.65567		 305.27265			43387.38302		69.64400		324.00000 
 43692.65567		 951.14271			42741.51297		221.82600		875.00000 
 43692.65567		 305.27265			43387.38302		69.64400		324.00000 
 43692.65567		 951.14271			42741.51297		221.82600		875.00000 
 43692.65567		 305.27265			43387.38302		69.64400		324.00000 
 43692.65567		 951.14271			42741.51297		221.82600		875.00000 
 43692.65567		 305.27265			43387.38302		69.64400		324.00000 
 43692.65567		 951.14271			42741.51297		221.82600		875.00000 
 43692.65567		 305.27265			43387.38302		69.64400		324.00000 
 43692.65567		 951.14271			42741.51297		221.82600		875.00000 
 43692.65567		 305.27265			43387.38302		69.64400		324.00000 
 43692.65567		 951.14271			42741.51297		221.82600		875.00000 
 43692.65567		 305.27265			43387.38302		69.64400		324.00000 
 43692.65567		 951.14271			42741.51297		221.82600		875.00000 
 43692.65567		 305.27265			43387.38302		69.64400		324.00000 
 43692.65567		 951.14271			42741.51297		221.82600		875.00000 
 43692.65567		 305.27265			43387.38302		69.64400		324.00000 
 43692.65567		 951.14271			42741.51297		221.82600		875.00000 
 43692.65567		 305.27265			43387.38302		69.64400		324.00000 
 43692.65567		 951.14271			42741.51297		221.82600		875.00000 
 43692.65567		 305.27265			43387.38302		69.64400		324.00000 
 43692.65567		 951.14271			42741.51297		221.82600		875.00000 
 43692.65567		 305.27265			43387.38302		69.64400		324.00000 
 43692.65567		 951.14271			42741.51297		221.82600		875.00000 
 43692.65567		 305.27265			43387.38302		69.64400		324.00000 
 43692.65567		 951.14271			42741.51297		221.82600		875.00000 
 43692.65567		 305.27265			43387.38302		69.64400		324.00000 
 43692.65567		 951.14271			42741.51297		221.82600		875.00000 
 43692.65567		 305.27265			43387.38302		69.64400		324.00000 
 43692.65567		 951.14271			42741.51297		221.82600		875.00000 
 43692.65567		 305.27265			43387.38302		69.64400		324.00000 
 43692.65567		 951.14271			42741.51297		221.82600		875.00000 
 43692.65567		 305.27265			43387.38302		69.64400		324.00000 
 43692.65567		 951.14271			42741.51297		221.82600		875.00000 
 43692.65567		 305.27265			43387.38302		69.64400		324.00000 
 43692.65567		 951.14271			42741.51297		221.82600		875.00000 
 43692.65567		 305.27265			43387.38302		69.64400		324.00000 
 43692.65567		 951.14271			42741.51297		221.82600		875.00000 
 43692.65567		 305.27265			43387.38302		69.64400		324.00000 
 43692.65567		 951.14271			42741.51297		221.82600		875.00000 
 43692.65567		 305.27265			43387.38302		69.64400		324.00000 
 43692.65567		 951.14271			42741.51297		221.82600		875.00000 
 43692.65567		 305.27265			43387.38302		69.64400		324.00000 
 43692.65567		 951.14271			42741.51297		221.82600		875.00000 
 43692.65567		 305.27265			43387.38302		69.64400		324.00000 
 43692.65567		 951.14271			42741.51297		221.82600		875.00000 
 43692.65567		 305.27265			43387.38302		69.64400		324.00000 
 43692.65567		 951.14271			42741.51297		221.82600		875.00000 
 43692.65567		 305.27265			43387.38302		69.64400		324.00000 
 43692.65567		 951.14271			42741.51297		221.82600		875.00000 
 43692.65567		 305.27265			43387.38302		69.64400		324.00000 
 43692.65567		 951.14271			42741.51297		221.82600		875.00000 
 43692.65567		 305.27265			43387.38302		69.64400		324.00000 
 43692.65567		 951.14271			42741.51297		221.82600		875.00000 
 43692.65567		 305.27265			43387.38302		69.64400		324.00000 
 43692.65567		 951.14271			42741.51297		221.82600		875.00000 
 43692.65567		 305.27265			43387.38302		69.64400		324.00000 
 43692.65567		 951.14271			42741.51297		221.82600		875.00000 
 43692.65567		 305.27265			43387.38302		69.64400		324.00000 
 43692.65567		 951.14271			42741.51297		221.82600		875.00000 
 43692.65567		 305.27265			43387.38302		69.64400		324.00000 
 43692.65567		 951.14271			42741.51297		221.82600		875.00000 
 43692.65567		 305.27265			43387.38302		69.64400		324.00000 
 43692.65567		 951.14271			42741.51297		221.82600		875.00000 
 43692.65567		 305.27265			43387.38302		69.64400		324.00000 
 43692.65567		 951.14271			42741.51297		221.82600		875.00000 
 43692.65567		 305.27265			43387.38302		69.64400		324.00000 
 43692.65567		 951.14271			42741.51297		221.82600		875.00000 
 43692.65567		 305.27265			43387.38302		69.64400		324.00000 
 43692.65567		 951.14271			42741.51297		221.82600		875.00000 
 43692.65567		 305.27265			43387.38302		69.64400		324.00000 
 43692.65567		 951.14271			42741.51297		221.82600		875.00000 
 43692.65567		 305.27265			43387.38302		69.64400		324.00000 
 43692.65567		 951.14271			42741.51297		221.82600		875.00000 
 43692.65567		 305.27265			43387.38302		69.64400		324.00000 
 43692.65567		 951.14271			42741.51297		221.82600		875.00000 
 43692.65567		 305.27265			43387.38302		69.64400		324.00000 
 43692.65567		 951.14271			42741.51297		221.82600		875.00000 
 43692.65567		 305.27265			43387.38302		69.64400		324.00000 
 43692.65567		 951.14271			42741.51297		221.82600		875.00000 
 43692.65567		 305.27265			43387.38302		69.64400		324.00000 
 43692.65567		 951.14271			42741.51297		221.82600		875.00000 
 43692.65567		 305.27265			43387.38302		69.64400		324.00000 
 43692.65567		 951.14271			42741.51297		221.82600		875.00000 
 43692.65567		 305.27265			43387.38302		69.64400		324.00000 
 43692.65567		 951.14271			42741.51297		221.82600		875.00000 
 43692.65567		 305.27265			43387.38302		69.64400		324.00000 
 43692.65567		 951.14271			42741.51297		221.82600		875.00000 
 43692.65567		 305.27265			43387.38302		69.64400		324.00000 
 43692.65567		 951.14271			42741.51297		221.82600		875.00000 
 43692.65567		 305.27265			43387.38302		69.64400		324.00000 
 43692.65567		 951.14271			42741.51297		221.82600		875.00000 
 43692.65567		 305.27265			43387.38302		69.64400		324.00000 
 43692.65567		 951.14271			42741.51297		221.82600		875.00000 
 43692.65567		 305.27265			43387.38302		69.64400		324.00000 
 43692.65567		 951.14271			42741.51297		221.82600		875.00000 
 43692.65567		 305.27265			43387.38302		69.64400		324.00000 
 43692.65567		 951.14271			42741.51297		221.82600		875.00000 
 43692.65567		 305.27265			43387.38302		69.64400		324.00000 
 43692.65567		 951.14271			42741.51297		221.82600		875.00000 
 43692.65567		 305.27265			43387.38302		69.64400		324.00000 
 43692.65567		 951.14271			42741.51297		221.82600		875.00000 
 43692.65567		 305.27265			43387.38302		69.64400		324.00000 
 43692.65567		 951.14271			42741.51297		221.82600		875.00000 
 43692.65567		 305.27265			43387.38302		69.64400		324.00000 
 43692.65567		 951.14271			42741.51297		221.82600		875.00000 
 43692.65567		 305.27265			43387.38302		69.64400		324.00000 
 43692.65567		 951.14271			42741.51297		221.82600		875.00000 
 43692.65567		 305.27265			43387.38302		69.64400		324.00000 
 43692.65567		 951.14271			42741.51297		221.82600		875.00000 
 43692.65567		 305.27265			43387.38302		69.64400		324.00000 
 43692.65567		 951.14271			42741.51297		221.82600		875.00000 
 43692.65567		 305.27265			43387.38302		69.64400		324.00000 
 43692.65567		 951.14271			42741.51297		221.82600		875.00000 
 43692.65567		 305.27265			43387.38302		69.64400		324.00000 
 43692.65567		 951.14271			42741.51297		221.82600		875.00000 
 43692.65567		 305.27265			43387.38302		69.64400		324.00000 
 43692.65567		 951.14271			42741.51297		221.82600		875.00000 
 43692.65567		 305.27265			43387.38302		69.64400		324.00000 
 43692.65567		 951.14271			42741.51297		221.82600		875.00000 
 43692.65567		 305.27265			43387.38302		69.64400		324.00000 
 43692.65567		 951.14271			42741.51297		221.82600		875.00000 
 43692.65567		 305.27265			43387.38302		69.64400		324.00000 
 43692.65567		 951.14271			42741.51297		221.82600		875.00000 
 43692.65567		 305.27265			43387.38302		69.64400		324.00000 
 43692.65567		 951.14271			42741.51297		221.82600		875.00000 
 43692.65567		 305.27265			43387.38302		69.64400		324.00000 
 43692.65567		 951.14271			42741.51297		221.82600		875.00000 
 43692.65567		 305.27265			43387.38302		69.64400		324.00000 
 43692.65567		 951.14271			42741.51297		221.82600		875.00000 
 43692.65567		 305.27265			43387.38302		69.64400		324.00000 
 43692.65567		 951.14271			42741.51297		221.82600		875.00000 
 43692.65567		 305.27265			43387.38302		69.64400		324.00000 
 43692.65567		 951.14271			42741.51297		221.82600		875.00000 
 43692.65567		 305.27265			43387.38302		69.64400		324.00000 
 43692.65567		 951.14271			42741.51297		221.82600		875.00000 
 43692.65567		 305.27265			43387.38302		69.64400		324.00000 
 43692.65567		 951.14271			42741.51297		221.82600		875.00000 
 43692.65567		 305.27265			43387.38302		69.64400		324.00000 
 43692.65567		 951.14271			42741.51297		221.82600		875.00000 
 43692.65567		 305.27265			43387.38302		69.64400		324.00000 
 43692.65567		 951.14271			42741.51297		221.82600		875.00000 
 43692.65567		 305.27265			43387.38302		69.64400		324.00000 
 43692.65567		 951.14271			42741.51297		221.82600		875.00000 
 43692.65567		 305.27265			43387.38302		69.64400		324.00000 
 43692.65567		 951.14271			42741.51297		221.82600		875.00000 
 43692.65567		 305.27265			43387.38302		69.64400		324.00000 
 43692.65567		 951.14271			42741.51297		221.82600		875.00000 
 43692.65567		 305.27265			43387.38302		69.64400		324.00000 
 43692.65567		 951.14271			42741.51297		221.82600		875.00000 
 43692.65567		 305.27265			43387.38302		69.64400		324.00000 
 43692.65567		 951.14271			42741.51297		221.82600		875.00000 
 43692.65567		 305.27265			43387.38302		69.64400		324.00000 
 43692.65567		 951.14271			42741.51297		221.82600		875.00000 
 43692.65567		 305.27265			43387.38302		69.64400		324.00000 
 43692.65567		 951.14271			42741.51297		221.82600		875.00000 
 43692.65567		 305.27265			43387.38302		69.64400		324.00000 
 43692.65567		 951.14271			42741.51297		221.82600		875.00000 
 43692.65567		 305.27265			43387.38302		69.64400		324.00000 
 43692.65567		 951.14271			42741.51297		221.82600		875.00000 
 43692.65567		 305.27265			43387.38302		69.64400		324.00000 
 43692.65567		 951.14271			42741.51297		221.82600		875.00000 
 43692.65567		 305.27265			43387.38302		69.64400		324.00000 
 43692.65567		 951.14271			42741.51297		221.82600		875.00000 
 43692.65567		 305.27265			43387.38302		69.64400		324.00000 
 43692.65567		 951.14271			42741.51297		221.82600		875.00000 
 43692.65567		 305.27265			43387.38302		69.64400		324.00000 
 43692.65567		 951.14271			42741.51297		221.82600		875.00000 
 43692.65567		 305.27265			43387.38302		69.64400		324.00000 
 43692.65567		 951.14271			42741.51297		221.82600		875.00000 
 43692.65567		 305.27265			43387.38302		69.64400		324.00000 
 43692.65567		 951.14271			42741.51297		221.82600		875.00000 
 43692.65567		 305.27265			43387.38302		69.64400		324.00000 
 43692.65567		 951.14271			42741.51297		221.82600		875.00000 
 43692.65567		 305.27265			43387.38302		69.64400		324.00000 
 43692.65567		 951.14271			42741.51297		221.82600		875.00000 
 43692.65567		 305.27265			43387.38302		69.64400		324.00000 
 43692.65567		 951.14271			42741.51297		221.82600		875.00000 
 43692.65567		 305.27265			43387.38302		69.64400		324.00000 
 43692.65567		 951.14271			42741.51297		221.82600		875.00000 
 43692.65567		 305.27265			43387.38302		69.64400		324.00000 
 43692.65567		 951.14271			42741.51297		221.82600		875.00000 
 43692.65567		 305.27265			43387.38302		69.64400		324.00000 
 43692.65567		 951.14271			42741.51297		221.82600		875.00000 
 43692.65567		 305.27265			43387.38302		69.64400		324.00000 
 43692.65567		 951.14271			42741.51297		221.82600		875.00000 
 43692.65567		 305.27265			43387.38302		69.64400		324.00000 
 43692.65567		 951.14271			42741.51297		221.82600		875.00000 
 43692.65567		 305.27265			43387.38302		69.64400		324.00000 
 43692.65567		 951.14271			42741.51297		221.82600		875.00000 
 43692.65567		 305.27265			43387.38302		69.64400		324.00000 
 43692.65567		 951.14271			42741.51297		221.82600		875.00000 
 43692.65567		 305.27265			43387.38302		69.64400		324.00000 
 43692.65567		 951.14271			42741.51297		221.82600		875.00000 
 43692.65567		 305.27265			43387.38302		69.64400		324.00000 
 43692.65567		 951.14271			42741.51297		221.82600		875.00000 
 43692.65567		 305.27265			43387.38302		69.64400		324.00000 
 43692.65567		 951.14271			42741.51297		221.82600		875.00000 
 43692.65567		 305.27265			43387.38302		69.64400		324.00000 
 43692.65567		 951.14271			42741.51297		221.82600		875.00000 
 43692.65567		 305.27265			43387.38302		69.64400		324.00000 
 43692.65567		 951.14271			42741.51297		221.82600		875.00000 
 43692.65567		 305.27265			43387.38302		69.64400		324.00000 
 43692.65567		 951.14271			42741.51297		221.82600		875.00000 
 43692.65567		 305.27265			43387.38302		69.64400		324.00000 
 43692.65567		 951.14271			42741.51297		221.82600		875.00000 
 43692.65567		 305.27265			43387.38302		69.64400		324.00000 
 43692.65567		 951.14271			42741.51297		221.82600		875.00000 
 43692.65567		 305.27265			43387.38302		69.64400		324.00000 
 43692.65567		 951.14271			42741.51297		221.82600		875.00000 
 43692.65567		 305.27265			43387.38302		69.64400		324.00000 
 43692.65567		 951.14271			42741.51297		221.82600		875.00000 
 43692.65567		 305.27265			43387.38302		69.64400		324.00000 
 43692.65567		 951.14271			42741.51297		221.82600		875.00000 
 43692.65567		 305.27265			43387.38302		69.64400		324.00000 
 43692.65567		 951.14271			42741.51297		221.82600		875.00000 
 43692.65567		 305.27265			43387.38302		69.64400		324.00000 
 43692.65567		 951.14271			42741.51297		221.82600		875.00000 
 43692.65567		 305.27265			43387.38302		69.64400		324.00000 
 43692.65567		 951.14271			42741.51297		221.82600		875.00000 
 43692.65567		 305.27265			43387.38302		69.64400		324.00000 
 43692.65567		 951.14271			42741.51297		221.82600		875.00000 
 43692.65567		 305.27265			43387.38302		69.64400		324.00000 
 43692.65567		 951.14271			42741.51297		221.82600		875.00000 
 43692.65567		 305.27265			43387.38302		69.64400		324.00000 
 43692.65567		 951.14271			42741.51297		221.82600		875.00000 
 43692.65567		 305.27265			43387.38302		69.64400		324.00000 
 43692.65567		 951.14271			42741.51297		221.82600		875.00000 
 43692.65567		 305.27265			43387.38302		69.64400		324.00000 
 43692.65567		 951.14271			42741.51297		221.82600		875.00000 
 43692.65567		 305.27265			43387.38302		69.64400		324.00000 
 43692.65567		 951.14271			42741.51297		221.82600		875.00000 
 43692.65567		 305.27265			43387.38302		69.64400		324.00000 
 43692.65567		 951.14271			42741.51297		221.82600		875.00000 
 43692.65567		 305.27265			43387.38302		69.64400		324.00000 
 43692.65567		 951.14271			42741.51297		221.82600		875.00000 
 43692.65567		 305.27265			43387.38302		69.64400		324.00000 
 43692.65567		 951.14271			42741.51297		221.82600		875.00000 
 43692.65567		 305.27265			43387.38302		69.64400		324.00000 
 43692.65567		 951.14271			42741.51297		221.82600		875.00000 
 43692.65567		 305.27265			43387.38302		69.64400		324.00000 
 43692.65567		 951.14271			42741.51297		221.82600		875.00000 
 43692.65567		 305.27265			43387.38302		69.64400		324.00000 
 43692.65567		 951.14271			42741.51297		221.82600		875.00000 
 43692.65567		 305.27265			43387.38302		69.64400		324.00000 
 43692.65567		 951.14271			42741.51297		221.82600		875.00000 
 43692.65567		 305.27265			43387.38302		69.64400		324.00000 
 43692.65567		 951.14271			42741.51297		221.82600		875.00000 
 43692.65567		 305.27265			43387.38302		69.64400		324.00000 
 43692.65567		 951.14271			42741.51297		221.82600		875.00000 
 43692.65567		 305.27265			43387.38302		69.64400		324.00000 
 43692.65567		 951.14271			42741.51297		221.82600		875.00000 
 43692.65567		 305.27265			43387.38302		69.64400		324.00000 
 43692.65567		 951.14271			42741.51297		221.82600		875.00000 
 43692.65567		 305.27265			43387.38302		69.64400		324.00000 
 43692.65567		 951.14271			42741.51297		221.82600		875.00000 
 43692.65567		 305.27265			43387.38302		69.64400		324.00000 
 43692.65567		 951.14271			42741.51297		221.82600		875.00000 
 43692.65567		 305.27265			43387.38302		69.64400		324.00000 
 43692.65567		 951.14271			42741.51297		221.82600		875.00000 
 43692.65567		 305.27265			43387.38302		69.64400		324.00000 
 43692.65567		 951.14271			42741.51297		221.82600		875.00000 
 43692.65567		 305.27265			43387.38302		69.64400		324.00000 
 43692.65567		 951.14271			42741.51297		221.82600		875.00000 
 43692.65567		 305.27265			43387.38302		69.64400		324.00000 
 43692.65567		 951.14271			42741.51297		221.82600		875.00000 
 43692.65567		 305.27265			43387.38302		69.64400		324.00000 
 43692.65567		 951.14271			42741.51297		221.82600		875.00000 
 43692.65567		 305.27265			43387.38302		69.64400		324.00000 
 43692.65567		 951.14271			42741.51297		221.82600		875.00000 
 43692.65567		 305.27265			43387.38302		69.64400		324.00000 
 43692.65567		 951.14271			42741.51297		221.82600		875.00000 
 43692.65567		 305.27265			43387.38302		69.64400		324.00000 
 43692.65567		 951.14271			42741.51297		221.82600		875.00000 
 43692.65567		 305.27265			43387.38302		69.64400		324.00000 
 43692.65567		 951.14271			42741.51297		221.82600		875.00000 
 43692.65567		 305.27265			43387.38302		69.64400		324.00000 
 43692.65567		 951.14271			42741.51297		221.82600		875.00000 
 43692.65567		 305.27265			43387.38302		69.64400		324.00000 
 43692.65567		 951.14271			42741.51297		221.82600		875.00000 
 43692.65567		 305.27265			43387.38302		69.64400		324.00000 
 43692.65567		 951.14271			42741.51297		221.82600		875.00000 
 43692.65567		 305.27265			43387.38302		69.64400		324.00000 
 43692.65567		 951.14271			42741.51297		221.82600		875.00000 
 43692.65567		 305.27265			43387.38302		69.64400		324.00000 
 43692.65567		 951.14271			42741.51297		221.82600		875.00000 
 43692.65567		 305.27265			43387.38302		69.64400		324.00000 
 43692.65567		 951.14271			42741.51297		221.82600		875.00000 
 43692.65567		 305.27265			43387.38302		69.64400		324.00000 
 43692.65567		 951.14271			42741.51297		221.82600		875.00000 
 43692.65567		 305.27265			43387.38302		69.64400		324.00000 
 43692.65567		 951.14271			42741.51297		221.82600		875.00000 
 43692.65567		 305.27265			43387.38302		69.64400		324.00000 
 43692.65567		 951.14271			42741.51297		221.82600		875.00000 
 43692.65567		 305.27265			43387.38302		69.64400		324.00000 
 43692.65567		 951.14271			42741.51297		221.82600		875.00000 
 43692.65567		 305.27265			43387.38302		69.64400		324.00000 
 43692.65567		 951.14271			42741.51297		221.82600		875.00000 
 43692.65567		 305.27265			43387.38302		69.64400		324.00000 
 43692.65567		 951.14271			42741.51297		221.82600		875.00000 
 43692.65567		 305.27265			43387.38302		69.64400		324.00000 
 43692.65567		 951.14271			42741.51297		221.82600		875.00000 
 43692.65567		 305.27265			43387.38302		69.64400		324.00000 
 43692.65567		 951.14271			42741.51297		221.82600		875.00000 
 43692.65567		 305.27265			43387.38302		69.64400		324.00000 
 43692.65567		 951.14271			42741.51297		221.82600		875.00000 
 43692.65567		 305.27265			43387.38302		69.64400		324.00000 
 43692.65567		 951.14271			42741.51297		221.82600		875.00000 
 43692.65567		 305.27265			43387.38302		69.64400		324.00000 
 43692.65567		 951.14271			42741.51297		221.82600		875.00000 
 43692.65567		 305.27265			43387.38302		69.64400		324.00000 
 43692.65567		 951.14271			42741.51297		221.82600		875.00000 
 43692.65567		 305.27265			43387.38302		69.64400		324.00000 
 43692.65567		 951.14271			42741.51297		221.82600		875.00000 
 43692.65567		 305.27265			43387.38302		69.64400		324.00000 
 43692.65567		 951.14271			42741.51297		221.82600		875.00000 
 43692.65567		 305.27265			43387.38302		69.64400		324.00000 
 43692.65567		 951.14271			42741.51297		221.82600		875.00000 
 43692.65567		 305.27265			43387.38302		69.64400		324.00000 
 43692.65567		 951.14271			42741.51297		221.82600		875.00000 
 43692.65567		 305.27265			43387.38302		69.64400		324.00000 
 43692.65567		 951.14271			42741.51297		221.82600		875.00000 
 43692.65567		 305.27265			43387.38302		69.64400		324.00000 
 43692.65567		 951.14271			42741.51297		221.82600		875.00000 
 43692.65567		 305.27265			43387.38302		69.64400		324.00000 
 43692.65567		 951.14271			42741.51297		221.82600		875.00000 
 43692.65567		 305.27265			43387.38302		69.64400		324.00000 
 43692.65567		 951.14271			42741.51297		221.82600		875.00000 
 43692.65567		 305.27265			43387.38302		69.64400		324.00000 
 43692.65567		 951.14271			42741.51297		221.82600		875.00000 
 43692.65567		 305.27265			43387.38302		69.64400		324.00000 
 43692.65567		 951.14271			42741.51297		221.82600		875.00000 
 43692.65567		 305.27265			43387.38302		69.64400		324.00000 
 43692.65567		 951.14271			42741.51297		221.82600		875.00000 
 43692.65567		 305.27265			43387.38302		69.64400		324.00000 
 43692.65567		 951.14271			42741.51297		221.82600		875.00000 
 43692.65567		 305.27265			43387.38302		69.64400		324.00000 
 43692.65567		 951.14271			42741.51297		221.82600		875.00000 
 43692.65567		 305.27265			43387.38302		69.64400		324.00000 
 43692.65567		 951.14271			42741.51297		221.82600		875.00000 
 43692.65567		 305.27265			43387.38302		69.64400		324.00000 
 43692.65567		 951.14271			42741.51297		221.82600		875.00000 
 43692.65567		 305.27265			43387.38302		69.64400		324.00000 
 43692.65567		 951.14271			42741.51297		221.82600		875.00000 
 43692.65567		 305.27265			43387.38302		69.64400		324.00000 
 43692.65567		 951.14271			42741.51297		221.82600		875.00000 
 43692.65567		 305.27265			43387.38302		69.64400		324.00000 
 43692.65567		 951.14271			42741.51297		221.82600		875.00000 
 43692.65567		 305.27265			43387.38302		69.64400		324.00000 
 43692.65567		 951.14271			42741.51297		221.82600		875.00000 
 43692.65567		 305.27265			43387.38302		69.64400		324.00000 
 43692.65567		 951.14271			42741.51297		221.82600		875.00000 
 43692.65567		 305.27265			43387.38302		69.64400		324.00000 
 43692.65567		 951.14271			42741.51297		221.82600		875.00000 
 43692.65567		 305.27265			43387.38302		69.64400		324.00000 
 43692.65567		 951.14271			42741.51297		221.82600		875.00000 
 43692.65567		 305.27265			43387.38302		69.64400		324.00000 
 43692.65567		 951.14271			42741.51297		221.82600		875.00000 
 43692.65567		 305.27265			43387.38302		69.64400		324.00000 
 43692.65567		 951.14271			42741.51297		221.82600		875.00000 
 43692.65567		 305.27265			43387.38302		69.64400		324.00000 
 43692.65567		 951.14271			42741.51297		221.82600		875.00000 
 43692.65567		 305.27265			43387.38302		69.64400		324.00000 
 43692.65567		 951.14271			42741.51297		221.82600		875.00000 
 43692.65567		 305.27265			43387.38302		69.64400		324.00000 
 43692.65567		 951.14271			42741.51297		221.82600		875.00000 
 43692.65567		 305.27265			43387.38302		69.64400		324.00000 
 43692.65567		 951.14271			42741.51297		221.82600		875.00000 
 43692.65567		 305.27265			43387.38302		69.64400		324.00000 
 43692.65567		 951.14271			42741.51297		221.82600		875.00000 
 43692.65567		 305.27265			43387.38302		69.64400		324.00000 
 43692.65567		 951.14271			42741.51297		221.82600		875.00000 
 43692.65567		 305.27265			43387.38302		69.64400		324.00000 
 43692.65567		 951.14271			42741.51297		221.82600		875.00000 
 43692.65567		 305.27265			43387.38302		69.64400		324.00000 
 43692.65567		 951.14271			42741.51297		221.82600		875.00000 
 43692.65567		 305.27265			43387.38302		69.64400		324.00000 
 43692.65567		 951.14271			42741.51297		221.82600		875.00000 
 43692.65567		 305.27265			43387.38302		69.64400		324.00000 
 43692.65567		 951.14271			42741.51297		221.82600		875.00000 
 43692.65567		 305.27265			43387.38302		69.64400		324.00000 
 43692.65567		 951.14271			42741.51297		221.82600		875.00000 
 43692.65567		 305.27265			43387.38302		69.64400		324.00000 
 43692.65567		 951.14271			42741.51297		221.82600		875.00000 
 43692.65567		 305.27265			43387.38302		69.64400		324.00000 
 43692.65567		 951.14271			42741.51297		221.82600		875.00000 
 43692.65567		 305.27265			43387.38302		69.64400		324.00000 
 43692.65567		 951.14271			42741.51297		221.82600		875.00000 
 43692.65567		 305.27265			43387.38302		69.64400		324.00000 
 43692.65567		 951.14271			42741.51297		221.82600		875.00000 
 43692.65567		 305.27265			43387.38302		69.64400		324.00000 
 43692.65567		 951.14271			42741.51297		221.82600		875.00000 
 43692.65567		 305.27265			43387.38302		69.64400		324.00000 
 43692.65567		 951.14271			42741.51297		221.82600		875.00000 
 43692.65567		 305.27265			43387.38302		69.64400		324.00000 
 43692.65567		 951.14271			42741.51297		221.82600		875.00000 
 43692.65567		 305.27265			43387.38302		69.64400		324.00000 
 43692.65567		 951.14271			42741.51297		221.82600		875.00000 
 43692.65567		 305.27265			43387.38302		69.64400		324.00000 
 43692.65567		 951.14271			42741.51297		221.82600		875.00000 
 43692.65567		 305.27265			43387.38302		69.64400		324.00000 
 43692.65567		 951.14271			42741.51297		221.82600		875.00000 
 43692.65567		 305.27265			43387.38302		69.64400		324.00000 
 43692.65567		 813.18525			42879.47043		221.82600		875.00000 
 43692.65567		 305.27265			43387.38302		69.64400		324.00000 
 43692.65567		 813.18525			42879.47043		221.82600		875.00000 
 43692.65567		 305.27265			43387.38302		69.64400		324.00000 
 43692.65567		 675.22778			43017.42789		221.82600		875.00000 
 43692.65567		 305.27265			43387.38302		69.64400		324.00000 
 43692.65567		 675.22778			43017.42789		221.82600		875.00000 
 43692.65567		 305.27265			43387.38302		69.64400		324.00000 
 43692.65567		 675.22778			43017.42789		221.82600		875.00000 
 43692.65567		 305.27265			43387.38302		69.64400		324.00000 
 43692.65567		 537.27032			43155.38535		221.82600		875.00000 
 43692.65567		 305.27265			43387.38302		69.64400		324.00000 
 43692.65567		 537.27032			43155.38535		221.82600		875.00000 
 43692.65567		 305.27265			43387.38302		69.64400		324.00000 
 43692.65567		 537.27032			43155.38535		221.82600		875.00000 
 43692.65567		 305.27265			43387.38302		69.64400		324.00000 
 43692.65567		 537.27032			43155.38535		221.82600		875.00000 
 43692.65567		 305.27265			43387.38302		69.64400		324.00000 
 43692.65567		 537.27032			43155.38535		221.82600		875.00000 
 43692.65567		 305.27265			43387.38302		69.64400		324.00000 
 43692.65567		 537.27032			43155.38535		221.82600		875.00000 
 43692.65567		 305.27265			43387.38302		69.64400		324.00000 
 43692.65567		 537.27032			43155.38535		221.82600		875.00000 
 43692.65567		 305.27265			43387.38302		69.64400		324.00000 
 43692.65567		 537.27032			43155.38535		221.82600		875.00000 
 43692.65567		 305.27265			43387.38302		69.64400		324.00000 
 43692.65567		 537.27032			43155.38535		221.82600		875.00000 
 43692.65567		 305.27265			43387.38302		69.64400		324.00000 
 43692.65567		 537.27032			43155.38535		221.82600		875.00000 
 43692.65567		 305.27265			43387.38302		69.64400		324.00000 
 43692.65567		 537.27032			43155.38535		221.82600		875.00000 
 43692.65567		 305.27265			43387.38302		69.64400		324.00000 
 43692.65567		 537.27032			43155.38535		221.82600		875.00000 
 43692.65567		 305.27265			43387.38302		69.64400		324.00000 
 43692.65567		 537.27032			43155.38535		221.82600		875.00000 
 43692.65567		 305.27265			43387.38302		69.64400		324.00000 
 43692.65567		 537.27032			43155.38535		221.82600		875.00000 
 43692.65567		 305.27265			43387.38302		69.67200		324.00000 
 43692.65567		 537.27032			43155.38535		221.82600		875.00000 
 43692.65567		 305.27265			43387.38302		69.67200		324.00000 
 43692.65567		 537.27032			43155.38535		221.82600		875.00000 
 43692.65567		 305.27265			43387.38302		69.67200		324.00000 
 43692.65567		 537.27032			43155.38535		221.82600		875.00000 
 43692.65567		 305.27265			43387.38302		69.67200		324.00000 
 43692.65567		 537.27032			43155.38535		221.82600		875.00000 
 43692.65567		 305.27265			43387.38302		69.67200		324.00000 
 43692.65567		 537.27032			43155.38535		221.82600		875.00000 
 43692.65567		 305.27265			43387.38302		69.67200		324.00000 
 43692.65567		 537.27032			43155.38535		221.82600		875.00000 
 43692.65567		 305.27265			43387.38302		69.67200		324.00000 
 43692.65567		 525.81365			43166.84203		221.82600		875.00000 
 43692.65567		 305.27265			43387.38302		69.67200		324.00000 
 43692.65567		 525.81365			43166.84203		221.82600		875.00000 
 43692.65567		 261.35540			43431.30027		69.67200		324.00000 
 43692.65567		 261.35540			43431.30027		176.71800		875.00000 
 43692.65567		 261.35540			43431.30027		69.67200		324.00000 
