Memory Total (MiB) 	 Memory Used (MiB) 	    Memory Free (MiB) 	 Power Drawed (W) 	 Clocks (Mhz) 	 
 43692.65567		 261.35540			43431.30027		184.84200		875.00000 
 43692.65567		 261.35540			43431.30027		70.12600		324.00000 
 43692.65567		 261.35540			43431.30027		184.84200		875.00000 
 43692.65567		 261.35540			43431.30027		70.12600		324.00000 
 43692.65567		 261.35540			43431.30027		184.84200		875.00000 
 43692.65567		 261.35540			43431.30027		70.12600		324.00000 
 43692.65567		 261.35540			43431.30027		184.84200		875.00000 
 43692.65567		 261.35540			43431.30027		70.12600		324.00000 
 43692.65567		 261.35540			43431.30027		184.84200		875.00000 
 43692.65567		 261.35540			43431.30027		70.12600		324.00000 
 43692.65567		 261.35540			43431.30027		184.84200		875.00000 
 43692.65567		 261.35540			43431.30027		70.12600		324.00000 
 43692.65567		 261.35540			43431.30027		184.84200		875.00000 
 43692.65567		 261.35540			43431.30027		70.12600		324.00000 
 43692.65567		 261.35540			43431.30027		184.84200		875.00000 
 43692.65567		 261.35540			43431.30027		70.12600		324.00000 
 43692.65567		 261.35540			43431.30027		184.84200		875.00000 
 43692.65567		 261.35540			43431.30027		70.12600		324.00000 
 43692.65567		 261.35540			43431.30027		184.84200		875.00000 
 43692.65567		 261.35540			43431.30027		70.12600		324.00000 
 43692.65567		 261.35540			43431.30027		184.84200		875.00000 
 43692.65567		 261.35540			43431.30027		70.12600		324.00000 
 43692.65567		 261.35540			43431.30027		184.84200		875.00000 
 43692.65567		 261.35540			43431.30027		70.12600		324.00000 
 43692.65567		 261.35540			43431.30027		184.84200		875.00000 
 43692.65567		 261.35540			43431.30027		70.12600		324.00000 
 43692.65567		 261.35540			43431.30027		184.84200		875.00000 
 43692.65567		 261.35540			43431.30027		70.12600		324.00000 
 43692.65567		 261.35540			43431.30027		184.84200		875.00000 
 43692.65567		 261.35540			43431.30027		70.12600		324.00000 
 43692.65567		 261.35540			43431.30027		184.84200		875.00000 
 43692.65567		 261.35540			43431.30027		70.12600		324.00000 
 43692.65567		 261.35540			43431.30027		184.84200		875.00000 
 43692.65567		 261.35540			43431.30027		70.12600		324.00000 
 43692.65567		 261.35540			43431.30027		184.84200		875.00000 
 43692.65567		 261.35540			43431.30027		70.12600		324.00000 
 43692.65567		 265.17429			43427.48138		184.84200		875.00000 
 43692.65567		 261.35540			43431.30027		70.12600		324.00000 
 43692.65567		 265.17429			43427.48138		184.84200		875.00000 
 43692.65567		 261.35540			43431.30027		70.12600		324.00000 
 43692.65567		 272.81207			43419.84360		184.84200		875.00000 
 43692.65567		 261.35540			43431.30027		70.12600		324.00000 
 43692.65567		 272.81207			43419.84360		184.84200		875.00000 
 43692.65567		 261.35540			43431.30027		70.12600		324.00000 
 43692.65567		 272.81207			43419.84360		184.84200		875.00000 
 43692.65567		 265.17429			43427.48138		70.12600		324.00000 
 43692.65567		 272.81207			43419.84360		184.84200		875.00000 
 43692.65567		 265.17429			43427.48138		70.12600		324.00000 
 43692.65567		 272.81207			43419.84360		184.84200		875.00000 
 43692.65567		 272.81207			43419.84360		70.12600		324.00000 
 43692.65567		 272.81207			43419.84360		184.84200		875.00000 
 43692.65567		 272.81207			43419.84360		70.12600		324.00000 
 43692.65567		 305.27265			43387.38302		151.92800		875.00000 
 43692.65567		 305.27265			43387.38302		70.12600		324.00000 
 43692.65567		 305.27265			43387.38302		151.92800		875.00000 
 43692.65567		 305.27265			43387.38302		70.12600		324.00000 
 43692.65567		 305.27265			43387.38302		151.92800		875.00000 
 43692.65567		 305.27265			43387.38302		70.12600		324.00000 
 43692.65567		 305.27265			43387.38302		151.92800		875.00000 
 43692.65567		 305.27265			43387.38302		70.12600		324.00000 
 43692.65567		 305.27265			43387.38302		151.92800		875.00000 
 43692.65567		 305.27265			43387.38302		70.12600		324.00000 
 43692.65567		 309.09154			43383.56413		151.92800		875.00000 
 43692.65567		 305.27265			43387.38302		70.12600		324.00000 
 43692.65567		 310.52363			43382.13204		151.92800		875.00000 
 43692.65567		 305.27265			43387.38302		70.12600		324.00000 
 43692.65567		 311.00099			43381.65468		151.92800		875.00000 
 43692.65567		 305.27265			43387.38302		70.12600		324.00000 
 43692.65567		 311.00099			43381.65468		151.92800		875.00000 
 43692.65567		 305.27265			43387.38302		70.12600		324.00000 
 43692.65567		 311.00099			43381.65468		151.92800		875.00000 
 43692.65567		 305.27265			43387.38302		70.12600		324.00000 
 43692.65567		 311.00099			43381.65468		151.92800		875.00000 
 43692.65567		 305.27265			43387.38302		70.12600		324.00000 
 43692.65567		 311.00099			43381.65468		151.92800		875.00000 
 43692.65567		 305.27265			43387.38302		70.12600		324.00000 
 43692.65567		 311.00099			43381.65468		151.92800		875.00000 
 43692.65567		 305.27265			43387.38302		70.12600		324.00000 
 43692.65567		 311.00099			43381.65468		151.92800		875.00000 
 43692.65567		 305.27265			43387.38302		70.12600		324.00000 
 43692.65567		 311.00099			43381.65468		151.92800		875.00000 
 43692.65567		 305.27265			43387.38302		70.12600		324.00000 
 43692.65567		 311.00099			43381.65468		151.92800		875.00000 
 43692.65567		 305.27265			43387.38302		70.12600		324.00000 
 43692.65567		 311.00099			43381.65468		151.92800		875.00000 
 43692.65567		 305.27265			43387.38302		70.12600		324.00000 
 43692.65567		 311.00099			43381.65468		151.92800		875.00000 
 43692.65567		 305.27265			43387.38302		70.12600		324.00000 
 43692.65567		 311.00099			43381.65468		151.92800		875.00000 
 43692.65567		 305.27265			43387.38302		70.12600		324.00000 
 43692.65567		 311.00099			43381.65468		151.92800		875.00000 
 43692.65567		 305.27265			43387.38302		70.12600		324.00000 
 43692.65567		 311.00099			43381.65468		151.92800		875.00000 
 43692.65567		 305.27265			43387.38302		70.12600		324.00000 
 43692.65567		 311.00099			43381.65468		151.92800		875.00000 
 43692.65567		 305.27265			43387.38302		70.12600		324.00000 
 43692.65567		 311.00099			43381.65468		151.92800		875.00000 
 43692.65567		 305.27265			43387.38302		70.12600		324.00000 
 43692.65567		 311.00099			43381.65468		151.92800		875.00000 
 43692.65567		 305.27265			43387.38302		70.12600		324.00000 
 43692.65567		 311.00099			43381.65468		151.92800		875.00000 
 43692.65567		 305.27265			43387.38302		70.12600		324.00000 
 43692.65567		 311.00099			43381.65468		151.92800		875.00000 
 43692.65567		 305.27265			43387.38302		70.12600		324.00000 
 43692.65567		 311.00099			43381.65468		151.92800		875.00000 
 43692.65567		 305.27265			43387.38302		70.12600		324.00000 
 43692.65567		 311.00099			43381.65468		151.92800		875.00000 
 43692.65567		 305.27265			43387.38302		70.12600		324.00000 
 43692.65567		 311.00099			43381.65468		151.92800		875.00000 
 43692.65567		 305.27265			43387.38302		70.12600		324.00000 
 43692.65567		 311.00099			43381.65468		151.92800		875.00000 
 43692.65567		 305.27265			43387.38302		70.12600		324.00000 
 43692.65567		 311.00099			43381.65468		151.92800		875.00000 
 43692.65567		 305.27265			43387.38302		70.12600		324.00000 
 43692.65567		 311.00099			43381.65468		151.92800		875.00000 
 43692.65567		 305.27265			43387.38302		70.12600		324.00000 
 43692.65567		 311.00099			43381.65468		151.92800		875.00000 
 43692.65567		 305.27265			43387.38302		70.12600		324.00000 
 43692.65567		 311.00099			43381.65468		139.28000		875.00000 
 43692.65567		 305.27265			43387.38302		70.12600		324.00000 
 43692.65567		 311.00099			43381.65468		139.28000		875.00000 
 43692.65567		 305.27265			43387.38302		70.12600		324.00000 
 43692.65567		 311.00099			43381.65468		139.28000		875.00000 
 43692.65567		 305.27265			43387.38302		70.12600		324.00000 
 43692.65567		 311.00099			43381.65468		139.28000		875.00000 
 43692.65567		 305.27265			43387.38302		70.12600		324.00000 
 43692.65567		 311.00099			43381.65468		139.28000		875.00000 
 43692.65567		 305.27265			43387.38302		70.12600		324.00000 
 43692.65567		 311.00099			43381.65468		139.28000		875.00000 
 43692.65567		 305.27265			43387.38302		70.12600		324.00000 
 43692.65567		 311.00099			43381.65468		139.28000		875.00000 
 43692.65567		 305.27265			43387.38302		70.12600		324.00000 
 43692.65567		 311.00099			43381.65468		139.28000		875.00000 
 43692.65567		 305.27265			43387.38302		70.12600		324.00000 
 43692.65567		 311.00099			43381.65468		139.28000		875.00000 
 43692.65567		 305.27265			43387.38302		70.12600		324.00000 
 43692.65567		 311.00099			43381.65468		139.28000		875.00000 
 43692.65567		 305.27265			43387.38302		70.12600		324.00000 
 43692.65567		 311.00099			43381.65468		139.28000		875.00000 
 43692.65567		 305.27265			43387.38302		70.12600		324.00000 
 43692.65567		 311.00099			43381.65468		139.28000		875.00000 
 43692.65567		 305.27265			43387.38302		70.12600		324.00000 
 43692.65567		 311.00099			43381.65468		139.28000		875.00000 
 43692.65567		 305.27265			43387.38302		70.12600		324.00000 
 43692.65567		 311.00099			43381.65468		139.28000		875.00000 
 43692.65567		 305.27265			43387.38302		70.12600		324.00000 
 43692.65567		 311.00099			43381.65468		139.28000		875.00000 
 43692.65567		 305.27265			43387.38302		70.12600		324.00000 
 43692.65567		 311.00099			43381.65468		139.28000		875.00000 
 43692.65567		 305.27265			43387.38302		70.12600		324.00000 
 43692.65567		 311.00099			43381.65468		139.28000		875.00000 
 43692.65567		 305.27265			43387.38302		70.12600		324.00000 
 43692.65567		 311.00099			43381.65468		139.28000		875.00000 
 43692.65567		 305.27265			43387.38302		70.12600		324.00000 
 43692.65567		 311.00099			43381.65468		139.28000		875.00000 
 43692.65567		 305.27265			43387.38302		70.12600		324.00000 
 43692.65567		 311.00099			43381.65468		139.28000		875.00000 
 43692.65567		 305.27265			43387.38302		70.12600		324.00000 
 43692.65567		 311.00099			43381.65468		139.28000		875.00000 
 43692.65567		 305.27265			43387.38302		70.12600		324.00000 
 43692.65567		 311.00099			43381.65468		139.28000		875.00000 
 43692.65567		 305.27265			43387.38302		70.12600		324.00000 
 43692.65567		 311.00099			43381.65468		139.28000		875.00000 
 43692.65567		 305.27265			43387.38302		70.12600		324.00000 
 43692.65567		 311.00099			43381.65468		139.28000		875.00000 
 43692.65567		 305.27265			43387.38302		70.12600		324.00000 
 43692.65567		 311.00099			43381.65468		139.28000		875.00000 
 43692.65567		 305.27265			43387.38302		70.12600		324.00000 
 43692.65567		 311.00099			43381.65468		139.28000		875.00000 
 43692.65567		 305.27265			43387.38302		70.12600		324.00000 
 43692.65567		 314.81988			43377.83579		139.28000		875.00000 
 43692.65567		 305.27265			43387.38302		70.12600		324.00000 
 43692.65567		 314.81988			43377.83579		139.28000		875.00000 
 43692.65567		 305.27265			43387.38302		70.12600		324.00000 
 43692.65567		 318.63877			43374.01690		139.28000		875.00000 
 43692.65567		 305.27265			43387.38302		70.12600		324.00000 
 43692.65567		 322.45767			43370.19801		139.28000		875.00000 
 43692.65567		 305.27265			43387.38302		70.12600		324.00000 
 43692.65567		 326.27656			43366.37912		139.28000		875.00000 
 43692.65567		 305.27265			43387.38302		70.12600		324.00000 
 43692.65567		 326.27656			43366.37912		139.28000		875.00000 
 43692.65567		 305.27265			43387.38302		70.12600		324.00000 
 43692.65567		 326.27656			43366.37912		139.28000		875.00000 
 43692.65567		 305.27265			43387.38302		70.12600		324.00000 
 43692.65567		 537.27032			43155.38535		135.03600		875.00000 
 43692.65567		 305.27265			43387.38302		70.12600		324.00000 
 43692.65567		 599.80467			43092.85100		135.03600		875.00000 
 43692.65567		 305.27265			43387.38302		70.12600		324.00000 
 43692.65567		 724.87338			42967.78230		135.03600		875.00000 
 43692.65567		 305.27265			43387.38302		70.12600		324.00000 
 43692.65567		 724.87338			42967.78230		135.03600		875.00000 
 43692.65567		 305.27265			43387.38302		70.12600		324.00000 
 43692.65567		 724.87338			42967.78230		135.03600		875.00000 
 43692.65567		 305.27265			43387.38302		70.12600		324.00000 
 43692.65567		 724.87338			42967.78230		135.03600		875.00000 
 43692.65567		 305.27265			43387.38302		70.12600		324.00000 
 43692.65567		 724.87338			42967.78230		135.03600		875.00000 
 43692.65567		 305.27265			43387.38302		70.12600		324.00000 
 43692.65567		 724.87338			42967.78230		135.03600		875.00000 
 43692.65567		 305.27265			43387.38302		70.12600		324.00000 
 43692.65567		 724.87338			42967.78230		135.03600		875.00000 
 43692.65567		 305.27265			43387.38302		70.12600		324.00000 
 43692.65567		 724.87338			42967.78230		135.03600		875.00000 
 43692.65567		 305.27265			43387.38302		70.12600		324.00000 
 43692.65567		 724.87338			42967.78230		135.03600		875.00000 
 43692.65567		 305.27265			43387.38302		70.12600		324.00000 
 43692.65567		 724.87338			42967.78230		135.03600		875.00000 
 43692.65567		 305.27265			43387.38302		70.12600		324.00000 
 43692.65567		 724.87338			42967.78230		135.03600		875.00000 
 43692.65567		 305.27265			43387.38302		70.12600		324.00000 
 43692.65567		 724.87338			42967.78230		135.03600		875.00000 
 43692.65567		 305.27265			43387.38302		70.12600		324.00000 
 43692.65567		 724.87338			42967.78230		135.03600		875.00000 
 43692.65567		 305.27265			43387.38302		70.12600		324.00000 
 43692.65567		 724.87338			42967.78230		135.03600		875.00000 
 43692.65567		 305.27265			43387.38302		70.12600		324.00000 
 43692.65567		 724.87338			42967.78230		135.03600		875.00000 
 43692.65567		 305.27265			43387.38302		70.12600		324.00000 
 43692.65567		 724.87338			42967.78230		135.03600		875.00000 
 43692.65567		 305.27265			43387.38302		70.12600		324.00000 
 43692.65567		 724.87338			42967.78230		135.03600		875.00000 
 43692.65567		 305.27265			43387.38302		70.12600		324.00000 
 43692.65567		 724.87338			42967.78230		135.03600		875.00000 
 43692.65567		 305.27265			43387.38302		70.12600		324.00000 
 43692.65567		 724.87338			42967.78230		135.03600		875.00000 
 43692.65567		 305.27265			43387.38302		70.12600		324.00000 
 43692.65567		 724.87338			42967.78230		135.03600		875.00000 
 43692.65567		 305.27265			43387.38302		70.12600		324.00000 
 43692.65567		 724.87338			42967.78230		135.03600		875.00000 
 43692.65567		 305.27265			43387.38302		70.12600		324.00000 
 43692.65567		 724.87338			42967.78230		135.03600		875.00000 
 43692.65567		 305.27265			43387.38302		70.12600		324.00000 
 43692.65567		 724.87338			42967.78230		135.03600		875.00000 
 43692.65567		 305.27265			43387.38302		70.12600		324.00000 
 43692.65567		 724.87338			42967.78230		135.03600		875.00000 
 43692.65567		 305.27265			43387.38302		70.12600		324.00000 
 43692.65567		 724.87338			42967.78230		135.03600		875.00000 
 43692.65567		 305.27265			43387.38302		70.12600		324.00000 
 43692.65567		 724.87338			42967.78230		135.03600		875.00000 
 43692.65567		 305.27265			43387.38302		70.12600		324.00000 
 43692.65567		 724.87338			42967.78230		135.03600		875.00000 
 43692.65567		 305.27265			43387.38302		70.12600		324.00000 
 43692.65567		 724.87338			42967.78230		135.03600		875.00000 
 43692.65567		 305.27265			43387.38302		70.12600		324.00000 
 43692.65567		 724.87338			42967.78230		135.03600		875.00000 
 43692.65567		 305.27265			43387.38302		70.12600		324.00000 
 43692.65567		 724.87338			42967.78230		135.03600		875.00000 
 43692.65567		 305.27265			43387.38302		70.12600		324.00000 
 43692.65567		 724.87338			42967.78230		135.03600		875.00000 
 43692.65567		 305.27265			43387.38302		70.12600		324.00000 
 43692.65567		 724.87338			42967.78230		135.03600		875.00000 
 43692.65567		 305.27265			43387.38302		70.12600		324.00000 
 43692.65567		 724.87338			42967.78230		135.03600		875.00000 
 43692.65567		 305.27265			43387.38302		70.12600		324.00000 
 43692.65567		 724.87338			42967.78230		135.03600		875.00000 
 43692.65567		 305.27265			43387.38302		70.12600		324.00000 
 43692.65567		 724.87338			42967.78230		135.03600		875.00000 
 43692.65567		 305.27265			43387.38302		70.12600		324.00000 
 43692.65567		 724.87338			42967.78230		135.03600		875.00000 
 43692.65567		 305.27265			43387.38302		70.12600		324.00000 
 43692.65567		 724.87338			42967.78230		135.03600		875.00000 
 43692.65567		 305.27265			43387.38302		70.12600		324.00000 
 43692.65567		 724.87338			42967.78230		135.03600		875.00000 
 43692.65567		 305.27265			43387.38302		70.12600		324.00000 
 43692.65567		 724.87338			42967.78230		135.03600		875.00000 
 43692.65567		 305.27265			43387.38302		70.12600		324.00000 
 43692.65567		 724.87338			42967.78230		135.03600		875.00000 
 43692.65567		 305.27265			43387.38302		70.12600		324.00000 
 43692.65567		 724.87338			42967.78230		135.03600		875.00000 
 43692.65567		 305.27265			43387.38302		70.12600		324.00000 
 43692.65567		 724.87338			42967.78230		135.03600		875.00000 
 43692.65567		 305.27265			43387.38302		70.12600		324.00000 
 43692.65567		 724.87338			42967.78230		135.03600		875.00000 
 43692.65567		 305.27265			43387.38302		70.12600		324.00000 
 43692.65567		 724.87338			42967.78230		135.03600		875.00000 
 43692.65567		 305.27265			43387.38302		70.12600		324.00000 
 43692.65567		 724.87338			42967.78230		135.03600		875.00000 
 43692.65567		 305.27265			43387.38302		70.12600		324.00000 
 43692.65567		 724.87338			42967.78230		135.03600		875.00000 
 43692.65567		 305.27265			43387.38302		70.12600		324.00000 
 43692.65567		 724.87338			42967.78230		135.03600		875.00000 
 43692.65567		 305.27265			43387.38302		70.12600		324.00000 
 43692.65567		 724.87338			42967.78230		135.03600		875.00000 
 43692.65567		 305.27265			43387.38302		70.12600		324.00000 
 43692.65567		 724.87338			42967.78230		135.03600		875.00000 
 43692.65567		 305.27265			43387.38302		70.12600		324.00000 
 43692.65567		 724.87338			42967.78230		135.03600		875.00000 
 43692.65567		 305.27265			43387.38302		70.12600		324.00000 
 43692.65567		 724.87338			42967.78230		135.03600		875.00000 
 43692.65567		 305.27265			43387.38302		70.12600		324.00000 
 43692.65567		 724.87338			42967.78230		135.03600		875.00000 
 43692.65567		 305.27265			43387.38302		70.12600		324.00000 
 43692.65567		 724.87338			42967.78230		135.03600		875.00000 
 43692.65567		 305.27265			43387.38302		70.12600		324.00000 
 43692.65567		 724.87338			42967.78230		135.03600		875.00000 
 43692.65567		 305.27265			43387.38302		70.12600		324.00000 
 43692.65567		 724.87338			42967.78230		135.03600		875.00000 
 43692.65567		 305.27265			43387.38302		70.12600		324.00000 
 43692.65567		 724.87338			42967.78230		135.03600		875.00000 
 43692.65567		 305.27265			43387.38302		70.12600		324.00000 
 43692.65567		 724.87338			42967.78230		135.03600		875.00000 
 43692.65567		 305.27265			43387.38302		70.12600		324.00000 
 43692.65567		 724.87338			42967.78230		135.03600		875.00000 
 43692.65567		 305.27265			43387.38302		70.12600		324.00000 
 43692.65567		 724.87338			42967.78230		135.03600		875.00000 
 43692.65567		 305.27265			43387.38302		70.12600		324.00000 
 43692.65567		 724.87338			42967.78230		135.03600		875.00000 
 43692.65567		 305.27265			43387.38302		70.12600		324.00000 
 43692.65567		 724.87338			42967.78230		135.03600		875.00000 
 43692.65567		 305.27265			43387.38302		70.12600		324.00000 
 43692.65567		 724.87338			42967.78230		186.99800		875.00000 
 43692.65567		 305.27265			43387.38302		70.12600		324.00000 
 43692.65567		 724.87338			42967.78230		186.99800		875.00000 
 43692.65567		 305.27265			43387.38302		70.12600		324.00000 
 43692.65567		 724.87338			42967.78230		186.99800		875.00000 
 43692.65567		 305.27265			43387.38302		70.12600		324.00000 
 43692.65567		 724.87338			42967.78230		186.99800		875.00000 
 43692.65567		 305.27265			43387.38302		70.12600		324.00000 
 43692.65567		 724.87338			42967.78230		186.99800		875.00000 
 43692.65567		 305.27265			43387.38302		70.12600		324.00000 
 43692.65567		 724.87338			42967.78230		186.99800		875.00000 
 43692.65567		 305.27265			43387.38302		70.12600		324.00000 
 43692.65567		 724.87338			42967.78230		186.99800		875.00000 
 43692.65567		 305.27265			43387.38302		70.12600		324.00000 
 43692.65567		 724.87338			42967.78230		186.99800		875.00000 
 43692.65567		 305.27265			43387.38302		70.12600		324.00000 
 43692.65567		 724.87338			42967.78230		186.99800		875.00000 
 43692.65567		 305.27265			43387.38302		70.12600		324.00000 
 43692.65567		 724.87338			42967.78230		186.99800		875.00000 
 43692.65567		 305.27265			43387.38302		70.12600		324.00000 
 43692.65567		 724.87338			42967.78230		186.99800		875.00000 
 43692.65567		 305.27265			43387.38302		70.12600		324.00000 
 43692.65567		 724.87338			42967.78230		186.99800		875.00000 
 43692.65567		 305.27265			43387.38302		70.12600		324.00000 
 43692.65567		 724.87338			42967.78230		186.99800		875.00000 
 43692.65567		 305.27265			43387.38302		70.12600		324.00000 
 43692.65567		 724.87338			42967.78230		186.99800		875.00000 
 43692.65567		 305.27265			43387.38302		70.12600		324.00000 
 43692.65567		 724.87338			42967.78230		186.99800		875.00000 
 43692.65567		 305.27265			43387.38302		70.12600		324.00000 
 43692.65567		 724.87338			42967.78230		186.99800		875.00000 
 43692.65567		 305.27265			43387.38302		70.12600		324.00000 
 43692.65567		 724.87338			42967.78230		186.99800		875.00000 
 43692.65567		 305.27265			43387.38302		70.12600		324.00000 
 43692.65567		 724.87338			42967.78230		186.99800		875.00000 
 43692.65567		 305.27265			43387.38302		70.12600		324.00000 
 43692.65567		 724.87338			42967.78230		186.99800		875.00000 
 43692.65567		 305.27265			43387.38302		70.12600		324.00000 
 43692.65567		 724.87338			42967.78230		186.99800		875.00000 
 43692.65567		 305.27265			43387.38302		70.12600		324.00000 
 43692.65567		 724.87338			42967.78230		186.99800		875.00000 
 43692.65567		 305.27265			43387.38302		70.12600		324.00000 
 43692.65567		 724.87338			42967.78230		186.99800		875.00000 
 43692.65567		 305.27265			43387.38302		70.12600		324.00000 
 43692.65567		 724.87338			42967.78230		186.99800		875.00000 
 43692.65567		 305.27265			43387.38302		70.12600		324.00000 
 43692.65567		 724.87338			42967.78230		186.99800		875.00000 
 43692.65567		 305.27265			43387.38302		70.12600		324.00000 
 43692.65567		 724.87338			42967.78230		186.99800		875.00000 
 43692.65567		 305.27265			43387.38302		70.12600		324.00000 
 43692.65567		 724.87338			42967.78230		186.99800		875.00000 
 43692.65567		 305.27265			43387.38302		70.12600		324.00000 
 43692.65567		 724.87338			42967.78230		186.99800		875.00000 
 43692.65567		 305.27265			43387.38302		70.12600		324.00000 
 43692.65567		 724.87338			42967.78230		186.99800		875.00000 
 43692.65567		 305.27265			43387.38302		70.12600		324.00000 
 43692.65567		 724.87338			42967.78230		186.99800		875.00000 
 43692.65567		 305.27265			43387.38302		70.12600		324.00000 
 43692.65567		 724.87338			42967.78230		186.99800		875.00000 
 43692.65567		 305.27265			43387.38302		70.12600		324.00000 
 43692.65567		 724.87338			42967.78230		186.99800		875.00000 
 43692.65567		 305.27265			43387.38302		70.12600		324.00000 
 43692.65567		 724.87338			42967.78230		186.99800		875.00000 
 43692.65567		 305.27265			43387.38302		70.12600		324.00000 
 43692.65567		 724.87338			42967.78230		186.99800		875.00000 
 43692.65567		 305.27265			43387.38302		70.12600		324.00000 
 43692.65567		 724.87338			42967.78230		186.99800		875.00000 
 43692.65567		 305.27265			43387.38302		70.12600		324.00000 
 43692.65567		 724.87338			42967.78230		186.99800		875.00000 
 43692.65567		 305.27265			43387.38302		70.12600		324.00000 
 43692.65567		 724.87338			42967.78230		186.99800		875.00000 
 43692.65567		 305.27265			43387.38302		70.12600		324.00000 
 43692.65567		 724.87338			42967.78230		186.99800		875.00000 
 43692.65567		 305.27265			43387.38302		70.12600		324.00000 
 43692.65567		 724.87338			42967.78230		186.99800		875.00000 
 43692.65567		 305.27265			43387.38302		70.12600		324.00000 
 43692.65567		 724.87338			42967.78230		186.99800		875.00000 
 43692.65567		 305.27265			43387.38302		70.12600		324.00000 
 43692.65567		 724.87338			42967.78230		186.99800		875.00000 
 43692.65567		 305.27265			43387.38302		70.12600		324.00000 
 43692.65567		 724.87338			42967.78230		186.99800		875.00000 
 43692.65567		 305.27265			43387.38302		68.69600		324.00000 
 43692.65567		 724.87338			42967.78230		186.99800		875.00000 
 43692.65567		 305.27265			43387.38302		68.69600		324.00000 
 43692.65567		 724.87338			42967.78230		186.99800		875.00000 
 43692.65567		 305.27265			43387.38302		68.69600		324.00000 
 43692.65567		 724.87338			42967.78230		186.99800		875.00000 
 43692.65567		 305.27265			43387.38302		68.69600		324.00000 
 43692.65567		 724.87338			42967.78230		186.99800		875.00000 
 43692.65567		 305.27265			43387.38302		68.69600		324.00000 
 43692.65567		 724.87338			42967.78230		186.99800		875.00000 
 43692.65567		 305.27265			43387.38302		68.69600		324.00000 
 43692.65567		 724.87338			42967.78230		186.99800		875.00000 
 43692.65567		 305.27265			43387.38302		68.69600		324.00000 
 43692.65567		 724.87338			42967.78230		186.99800		875.00000 
 43692.65567		 305.27265			43387.38302		68.69600		324.00000 
 43692.65567		 724.87338			42967.78230		186.99800		875.00000 
 43692.65567		 305.27265			43387.38302		68.69600		324.00000 
 43692.65567		 724.87338			42967.78230		186.99800		875.00000 
 43692.65567		 305.27265			43387.38302		68.69600		324.00000 
 43692.65567		 724.87338			42967.78230		186.99800		875.00000 
 43692.65567		 305.27265			43387.38302		68.69600		324.00000 
 43692.65567		 724.87338			42967.78230		186.99800		875.00000 
 43692.65567		 305.27265			43387.38302		68.69600		324.00000 
 43692.65567		 724.87338			42967.78230		186.99800		875.00000 
 43692.65567		 305.27265			43387.38302		68.69600		324.00000 
 43692.65567		 724.87338			42967.78230		186.99800		875.00000 
 43692.65567		 305.27265			43387.38302		68.69600		324.00000 
 43692.65567		 724.87338			42967.78230		186.99800		875.00000 
 43692.65567		 305.27265			43387.38302		68.69600		324.00000 
 43692.65567		 724.87338			42967.78230		186.99800		875.00000 
 43692.65567		 305.27265			43387.38302		68.69600		324.00000 
 43692.65567		 724.87338			42967.78230		186.99800		875.00000 
 43692.65567		 305.27265			43387.38302		68.69600		324.00000 
 43692.65567		 724.87338			42967.78230		186.99800		875.00000 
 43692.65567		 305.27265			43387.38302		68.69600		324.00000 
 43692.65567		 724.87338			42967.78230		186.99800		875.00000 
 43692.65567		 305.27265			43387.38302		68.69600		324.00000 
 43692.65567		 724.87338			42967.78230		186.99800		875.00000 
 43692.65567		 305.27265			43387.38302		68.69600		324.00000 
 43692.65567		 724.87338			42967.78230		186.99800		875.00000 
 43692.65567		 305.27265			43387.38302		68.69600		324.00000 
 43692.65567		 724.87338			42967.78230		208.83400		875.00000 
 43692.65567		 305.27265			43387.38302		68.69600		324.00000 
 43692.65567		 724.87338			42967.78230		208.83400		875.00000 
 43692.65567		 305.27265			43387.38302		68.69600		324.00000 
 43692.65567		 724.87338			42967.78230		208.83400		875.00000 
 43692.65567		 305.27265			43387.38302		68.69600		324.00000 
 43692.65567		 724.87338			42967.78230		208.83400		875.00000 
 43692.65567		 305.27265			43387.38302		68.69600		324.00000 
 43692.65567		 724.87338			42967.78230		208.83400		875.00000 
 43692.65567		 305.27265			43387.38302		68.69600		324.00000 
 43692.65567		 724.87338			42967.78230		208.83400		875.00000 
 43692.65567		 305.27265			43387.38302		68.69600		324.00000 
 43692.65567		 724.87338			42967.78230		208.83400		875.00000 
 43692.65567		 305.27265			43387.38302		68.69600		324.00000 
 43692.65567		 724.87338			42967.78230		208.83400		875.00000 
 43692.65567		 305.27265			43387.38302		68.69600		324.00000 
 43692.65567		 724.87338			42967.78230		208.83400		875.00000 
 43692.65567		 305.27265			43387.38302		68.69600		324.00000 
 43692.65567		 724.87338			42967.78230		208.83400		875.00000 
 43692.65567		 305.27265			43387.38302		68.69600		324.00000 
 43692.65567		 724.87338			42967.78230		208.83400		875.00000 
 43692.65567		 305.27265			43387.38302		68.69600		324.00000 
 43692.65567		 724.87338			42967.78230		208.83400		875.00000 
 43692.65567		 305.27265			43387.38302		68.69600		324.00000 
 43692.65567		 724.87338			42967.78230		208.83400		875.00000 
 43692.65567		 305.27265			43387.38302		68.69600		324.00000 
 43692.65567		 724.87338			42967.78230		208.83400		875.00000 
 43692.65567		 305.27265			43387.38302		68.69600		324.00000 
 43692.65567		 724.87338			42967.78230		208.83400		875.00000 
 43692.65567		 305.27265			43387.38302		68.69600		324.00000 
 43692.65567		 724.87338			42967.78230		208.83400		875.00000 
 43692.65567		 305.27265			43387.38302		68.69600		324.00000 
 43692.65567		 724.87338			42967.78230		208.83400		875.00000 
 43692.65567		 305.27265			43387.38302		68.69600		324.00000 
 43692.65567		 724.87338			42967.78230		208.83400		875.00000 
 43692.65567		 305.27265			43387.38302		68.69600		324.00000 
 43692.65567		 724.87338			42967.78230		208.83400		875.00000 
 43692.65567		 305.27265			43387.38302		68.69600		324.00000 
 43692.65567		 724.87338			42967.78230		208.83400		875.00000 
 43692.65567		 305.27265			43387.38302		68.69600		324.00000 
 43692.65567		 724.87338			42967.78230		208.83400		875.00000 
 43692.65567		 305.27265			43387.38302		68.69600		324.00000 
 43692.65567		 724.87338			42967.78230		208.83400		875.00000 
 43692.65567		 305.27265			43387.38302		68.69600		324.00000 
 43692.65567		 724.87338			42967.78230		208.83400		875.00000 
 43692.65567		 305.27265			43387.38302		68.69600		324.00000 
 43692.65567		 724.87338			42967.78230		208.83400		875.00000 
 43692.65567		 305.27265			43387.38302		68.69600		324.00000 
 43692.65567		 724.87338			42967.78230		208.83400		875.00000 
 43692.65567		 305.27265			43387.38302		68.69600		324.00000 
 43692.65567		 724.87338			42967.78230		208.83400		875.00000 
 43692.65567		 305.27265			43387.38302		68.69600		324.00000 
 43692.65567		 724.87338			42967.78230		208.83400		875.00000 
 43692.65567		 305.27265			43387.38302		68.69600		324.00000 
 43692.65567		 724.87338			42967.78230		208.83400		875.00000 
 43692.65567		 305.27265			43387.38302		68.69600		324.00000 
 43692.65567		 724.87338			42967.78230		208.83400		875.00000 
 43692.65567		 305.27265			43387.38302		68.69600		324.00000 
 43692.65567		 724.87338			42967.78230		208.83400		875.00000 
 43692.65567		 305.27265			43387.38302		68.69600		324.00000 
 43692.65567		 724.87338			42967.78230		208.83400		875.00000 
 43692.65567		 305.27265			43387.38302		68.69600		324.00000 
 43692.65567		 724.87338			42967.78230		208.83400		875.00000 
 43692.65567		 305.27265			43387.38302		68.69600		324.00000 
 43692.65567		 724.87338			42967.78230		208.83400		875.00000 
 43692.65567		 305.27265			43387.38302		68.69600		324.00000 
 43692.65567		 724.87338			42967.78230		208.83400		875.00000 
 43692.65567		 305.27265			43387.38302		68.69600		324.00000 
 43692.65567		 724.87338			42967.78230		208.83400		875.00000 
 43692.65567		 305.27265			43387.38302		68.69600		324.00000 
 43692.65567		 724.87338			42967.78230		208.83400		875.00000 
 43692.65567		 305.27265			43387.38302		68.69600		324.00000 
 43692.65567		 724.87338			42967.78230		208.83400		875.00000 
 43692.65567		 305.27265			43387.38302		68.69600		324.00000 
 43692.65567		 724.87338			42967.78230		208.83400		875.00000 
 43692.65567		 305.27265			43387.38302		68.69600		324.00000 
 43692.65567		 724.87338			42967.78230		208.83400		875.00000 
 43692.65567		 305.27265			43387.38302		68.69600		324.00000 
 43692.65567		 724.87338			42967.78230		208.83400		875.00000 
 43692.65567		 305.27265			43387.38302		68.69600		324.00000 
 43692.65567		 724.87338			42967.78230		208.83400		875.00000 
 43692.65567		 305.27265			43387.38302		68.69600		324.00000 
 43692.65567		 724.87338			42967.78230		208.83400		875.00000 
 43692.65567		 305.27265			43387.38302		68.69600		324.00000 
 43692.65567		 724.87338			42967.78230		208.83400		875.00000 
 43692.65567		 305.27265			43387.38302		68.69600		324.00000 
 43692.65567		 724.87338			42967.78230		208.83400		875.00000 
 43692.65567		 305.27265			43387.38302		68.69600		324.00000 
 43692.65567		 724.87338			42967.78230		208.83400		875.00000 
 43692.65567		 305.27265			43387.38302		68.69600		324.00000 
 43692.65567		 724.87338			42967.78230		208.83400		875.00000 
 43692.65567		 305.27265			43387.38302		68.69600		324.00000 
 43692.65567		 724.87338			42967.78230		208.83400		875.00000 
 43692.65567		 305.27265			43387.38302		68.69600		324.00000 
 43692.65567		 724.87338			42967.78230		208.83400		875.00000 
 43692.65567		 305.27265			43387.38302		68.69600		324.00000 
 43692.65567		 724.87338			42967.78230		208.83400		875.00000 
 43692.65567		 305.27265			43387.38302		68.69600		324.00000 
 43692.65567		 724.87338			42967.78230		208.83400		875.00000 
 43692.65567		 305.27265			43387.38302		68.69600		324.00000 
 43692.65567		 724.87338			42967.78230		208.83400		875.00000 
 43692.65567		 305.27265			43387.38302		68.69600		324.00000 
 43692.65567		 724.87338			42967.78230		208.83400		875.00000 
 43692.65567		 305.27265			43387.38302		68.69600		324.00000 
 43692.65567		 724.87338			42967.78230		208.83400		875.00000 
 43692.65567		 305.27265			43387.38302		68.69600		324.00000 
 43692.65567		 724.87338			42967.78230		208.83400		875.00000 
 43692.65567		 305.27265			43387.38302		68.69600		324.00000 
 43692.65567		 724.87338			42967.78230		208.83400		875.00000 
 43692.65567		 305.27265			43387.38302		68.69600		324.00000 
 43692.65567		 724.87338			42967.78230		208.83400		875.00000 
 43692.65567		 305.27265			43387.38302		68.69600		324.00000 
 43692.65567		 724.87338			42967.78230		208.83400		875.00000 
 43692.65567		 305.27265			43387.38302		68.69600		324.00000 
 43692.65567		 724.87338			42967.78230		208.83400		875.00000 
 43692.65567		 305.27265			43387.38302		68.69600		324.00000 
 43692.65567		 724.87338			42967.78230		208.83400		875.00000 
 43692.65567		 305.27265			43387.38302		68.69600		324.00000 
 43692.65567		 724.87338			42967.78230		208.83400		875.00000 
 43692.65567		 305.27265			43387.38302		68.69600		324.00000 
 43692.65567		 724.87338			42967.78230		208.83400		875.00000 
 43692.65567		 305.27265			43387.38302		68.69600		324.00000 
 43692.65567		 724.87338			42967.78230		208.83400		875.00000 
 43692.65567		 305.27265			43387.38302		68.69600		324.00000 
 43692.65567		 724.87338			42967.78230		208.83400		875.00000 
 43692.65567		 305.27265			43387.38302		68.69600		324.00000 
 43692.65567		 724.87338			42967.78230		208.83400		875.00000 
 43692.65567		 305.27265			43387.38302		68.69600		324.00000 
 43692.65567		 724.87338			42967.78230		208.83400		875.00000 
 43692.65567		 305.27265			43387.38302		68.69600		324.00000 
 43692.65567		 724.87338			42967.78230		216.79000		875.00000 
 43692.65567		 305.27265			43387.38302		68.69600		324.00000 
 43692.65567		 724.87338			42967.78230		216.79000		875.00000 
 43692.65567		 305.27265			43387.38302		68.69600		324.00000 
 43692.65567		 724.87338			42967.78230		216.79000		875.00000 
 43692.65567		 305.27265			43387.38302		68.69600		324.00000 
 43692.65567		 724.87338			42967.78230		216.79000		875.00000 
 43692.65567		 305.27265			43387.38302		68.69600		324.00000 
 43692.65567		 724.87338			42967.78230		216.79000		875.00000 
 43692.65567		 305.27265			43387.38302		68.69600		324.00000 
 43692.65567		 724.87338			42967.78230		216.79000		875.00000 
 43692.65567		 305.27265			43387.38302		68.69600		324.00000 
 43692.65567		 724.87338			42967.78230		216.79000		875.00000 
 43692.65567		 305.27265			43387.38302		68.69600		324.00000 
 43692.65567		 724.87338			42967.78230		216.79000		875.00000 
 43692.65567		 305.27265			43387.38302		68.69600		324.00000 
 43692.65567		 724.87338			42967.78230		216.79000		875.00000 
 43692.65567		 305.27265			43387.38302		68.69600		324.00000 
 43692.65567		 724.87338			42967.78230		216.79000		875.00000 
 43692.65567		 305.27265			43387.38302		68.69600		324.00000 
 43692.65567		 724.87338			42967.78230		216.79000		875.00000 
 43692.65567		 305.27265			43387.38302		68.69600		324.00000 
 43692.65567		 724.87338			42967.78230		216.79000		875.00000 
 43692.65567		 305.27265			43387.38302		68.69600		324.00000 
 43692.65567		 724.87338			42967.78230		216.79000		875.00000 
 43692.65567		 305.27265			43387.38302		68.69600		324.00000 
 43692.65567		 724.87338			42967.78230		216.79000		875.00000 
 43692.65567		 305.27265			43387.38302		68.69600		324.00000 
 43692.65567		 724.87338			42967.78230		216.79000		875.00000 
 43692.65567		 305.27265			43387.38302		68.69600		324.00000 
 43692.65567		 724.87338			42967.78230		216.79000		875.00000 
 43692.65567		 305.27265			43387.38302		68.69600		324.00000 
 43692.65567		 724.87338			42967.78230		216.79000		875.00000 
 43692.65567		 305.27265			43387.38302		68.69600		324.00000 
 43692.65567		 724.87338			42967.78230		216.79000		875.00000 
 43692.65567		 305.27265			43387.38302		68.69600		324.00000 
 43692.65567		 724.87338			42967.78230		216.79000		875.00000 
 43692.65567		 305.27265			43387.38302		68.69600		324.00000 
 43692.65567		 724.87338			42967.78230		216.79000		875.00000 
 43692.65567		 305.27265			43387.38302		68.69600		324.00000 
 43692.65567		 724.87338			42967.78230		216.79000		875.00000 
 43692.65567		 305.27265			43387.38302		68.69600		324.00000 
 43692.65567		 724.87338			42967.78230		216.79000		875.00000 
 43692.65567		 305.27265			43387.38302		68.69600		324.00000 
 43692.65567		 724.87338			42967.78230		216.79000		875.00000 
 43692.65567		 305.27265			43387.38302		68.69600		324.00000 
 43692.65567		 724.87338			42967.78230		216.79000		875.00000 
 43692.65567		 305.27265			43387.38302		68.69600		324.00000 
 43692.65567		 724.87338			42967.78230		216.79000		875.00000 
 43692.65567		 305.27265			43387.38302		68.69600		324.00000 
 43692.65567		 724.87338			42967.78230		216.79000		875.00000 
 43692.65567		 305.27265			43387.38302		68.69600		324.00000 
 43692.65567		 724.87338			42967.78230		216.79000		875.00000 
 43692.65567		 305.27265			43387.38302		68.69600		324.00000 
 43692.65567		 724.87338			42967.78230		216.79000		875.00000 
 43692.65567		 305.27265			43387.38302		68.69600		324.00000 
 43692.65567		 724.87338			42967.78230		216.79000		875.00000 
 43692.65567		 305.27265			43387.38302		68.69600		324.00000 
 43692.65567		 724.87338			42967.78230		216.79000		875.00000 
 43692.65567		 305.27265			43387.38302		68.69600		324.00000 
 43692.65567		 724.87338			42967.78230		216.79000		875.00000 
 43692.65567		 305.27265			43387.38302		68.69600		324.00000 
 43692.65567		 724.87338			42967.78230		216.79000		875.00000 
 43692.65567		 305.27265			43387.38302		68.69600		324.00000 
 43692.65567		 724.87338			42967.78230		216.79000		875.00000 
 43692.65567		 305.27265			43387.38302		68.69600		324.00000 
 43692.65567		 724.87338			42967.78230		216.79000		875.00000 
 43692.65567		 305.27265			43387.38302		68.69600		324.00000 
 43692.65567		 724.87338			42967.78230		216.79000		875.00000 
 43692.65567		 305.27265			43387.38302		68.69600		324.00000 
 43692.65567		 724.87338			42967.78230		216.79000		875.00000 
 43692.65567		 305.27265			43387.38302		68.69600		324.00000 
 43692.65567		 724.87338			42967.78230		216.79000		875.00000 
 43692.65567		 305.27265			43387.38302		68.69600		324.00000 
 43692.65567		 724.87338			42967.78230		216.79000		875.00000 
 43692.65567		 305.27265			43387.38302		68.69600		324.00000 
 43692.65567		 724.87338			42967.78230		216.79000		875.00000 
 43692.65567		 305.27265			43387.38302		68.69600		324.00000 
 43692.65567		 724.87338			42967.78230		216.79000		875.00000 
 43692.65567		 305.27265			43387.38302		68.69600		324.00000 
 43692.65567		 724.87338			42967.78230		216.79000		875.00000 
 43692.65567		 305.27265			43387.38302		68.69600		324.00000 
 43692.65567		 724.87338			42967.78230		216.79000		875.00000 
 43692.65567		 305.27265			43387.38302		68.69600		324.00000 
 43692.65567		 724.87338			42967.78230		216.79000		875.00000 
 43692.65567		 305.27265			43387.38302		68.69600		324.00000 
 43692.65567		 724.87338			42967.78230		216.79000		875.00000 
 43692.65567		 305.27265			43387.38302		68.69600		324.00000 
 43692.65567		 724.87338			42967.78230		216.79000		875.00000 
 43692.65567		 305.27265			43387.38302		68.69600		324.00000 
 43692.65567		 724.87338			42967.78230		216.79000		875.00000 
 43692.65567		 305.27265			43387.38302		68.69600		324.00000 
 43692.65567		 724.87338			42967.78230		216.79000		875.00000 
 43692.65567		 305.27265			43387.38302		68.69600		324.00000 
 43692.65567		 724.87338			42967.78230		216.79000		875.00000 
 43692.65567		 305.27265			43387.38302		68.69600		324.00000 
 43692.65567		 724.87338			42967.78230		216.79000		875.00000 
 43692.65567		 305.27265			43387.38302		68.69600		324.00000 
 43692.65567		 724.87338			42967.78230		216.79000		875.00000 
 43692.65567		 305.27265			43387.38302		68.69600		324.00000 
 43692.65567		 724.87338			42967.78230		216.79000		875.00000 
 43692.65567		 305.27265			43387.38302		68.69600		324.00000 
 43692.65567		 724.87338			42967.78230		216.79000		875.00000 
 43692.65567		 305.27265			43387.38302		68.69600		324.00000 
 43692.65567		 724.87338			42967.78230		216.79000		875.00000 
 43692.65567		 305.27265			43387.38302		68.69600		324.00000 
 43692.65567		 724.87338			42967.78230		216.79000		875.00000 
 43692.65567		 305.27265			43387.38302		68.69600		324.00000 
 43692.65567		 724.87338			42967.78230		216.79000		875.00000 
 43692.65567		 305.27265			43387.38302		68.69600		324.00000 
 43692.65567		 724.87338			42967.78230		216.79000		875.00000 
 43692.65567		 305.27265			43387.38302		68.69600		324.00000 
 43692.65567		 724.87338			42967.78230		216.79000		875.00000 
 43692.65567		 305.27265			43387.38302		68.69600		324.00000 
 43692.65567		 724.87338			42967.78230		216.79000		875.00000 
 43692.65567		 305.27265			43387.38302		68.69600		324.00000 
 43692.65567		 724.87338			42967.78230		216.79000		875.00000 
 43692.65567		 305.27265			43387.38302		68.69600		324.00000 
 43692.65567		 724.87338			42967.78230		216.79000		875.00000 
 43692.65567		 305.27265			43387.38302		68.69600		324.00000 
 43692.65567		 724.87338			42967.78230		216.79000		875.00000 
 43692.65567		 305.27265			43387.38302		68.69600		324.00000 
 43692.65567		 724.87338			42967.78230		216.79000		875.00000 
 43692.65567		 305.27265			43387.38302		68.69600		324.00000 
 43692.65567		 724.87338			42967.78230		216.79000		875.00000 
 43692.65567		 305.27265			43387.38302		68.69600		324.00000 
 43692.65567		 724.87338			42967.78230		216.79000		875.00000 
 43692.65567		 305.27265			43387.38302		68.69600		324.00000 
 43692.65567		 724.87338			42967.78230		220.31200		875.00000 
 43692.65567		 305.27265			43387.38302		68.69600		324.00000 
 43692.65567		 724.87338			42967.78230		220.31200		875.00000 
 43692.65567		 305.27265			43387.38302		68.69600		324.00000 
 43692.65567		 724.87338			42967.78230		220.31200		875.00000 
 43692.65567		 305.27265			43387.38302		68.69600		324.00000 
 43692.65567		 724.87338			42967.78230		220.31200		875.00000 
 43692.65567		 305.27265			43387.38302		68.69600		324.00000 
 43692.65567		 724.87338			42967.78230		220.31200		875.00000 
 43692.65567		 305.27265			43387.38302		68.69600		324.00000 
 43692.65567		 724.87338			42967.78230		220.31200		875.00000 
 43692.65567		 305.27265			43387.38302		68.69600		324.00000 
 43692.65567		 724.87338			42967.78230		220.31200		875.00000 
 43692.65567		 305.27265			43387.38302		68.69600		324.00000 
 43692.65567		 724.87338			42967.78230		220.31200		875.00000 
 43692.65567		 305.27265			43387.38302		68.69600		324.00000 
 43692.65567		 724.87338			42967.78230		220.31200		875.00000 
 43692.65567		 305.27265			43387.38302		68.69600		324.00000 
 43692.65567		 724.87338			42967.78230		220.31200		875.00000 
 43692.65567		 305.27265			43387.38302		68.69600		324.00000 
 43692.65567		 724.87338			42967.78230		220.31200		875.00000 
 43692.65567		 305.27265			43387.38302		68.69600		324.00000 
 43692.65567		 724.87338			42967.78230		220.31200		875.00000 
 43692.65567		 305.27265			43387.38302		68.69600		324.00000 
 43692.65567		 724.87338			42967.78230		220.31200		875.00000 
 43692.65567		 305.27265			43387.38302		68.69600		324.00000 
 43692.65567		 724.87338			42967.78230		220.31200		875.00000 
 43692.65567		 305.27265			43387.38302		68.69600		324.00000 
 43692.65567		 724.87338			42967.78230		220.31200		875.00000 
 43692.65567		 305.27265			43387.38302		68.69600		324.00000 
 43692.65567		 724.87338			42967.78230		220.31200		875.00000 
 43692.65567		 305.27265			43387.38302		68.69600		324.00000 
 43692.65567		 724.87338			42967.78230		220.31200		875.00000 
 43692.65567		 305.27265			43387.38302		68.69600		324.00000 
 43692.65567		 724.87338			42967.78230		220.31200		875.00000 
 43692.65567		 305.27265			43387.38302		68.69600		324.00000 
 43692.65567		 724.87338			42967.78230		220.31200		875.00000 
 43692.65567		 305.27265			43387.38302		68.69600		324.00000 
 43692.65567		 724.87338			42967.78230		220.31200		875.00000 
 43692.65567		 305.27265			43387.38302		68.69600		324.00000 
 43692.65567		 724.87338			42967.78230		220.31200		875.00000 
 43692.65567		 305.27265			43387.38302		68.69600		324.00000 
 43692.65567		 724.87338			42967.78230		220.31200		875.00000 
 43692.65567		 305.27265			43387.38302		68.69600		324.00000 
 43692.65567		 724.87338			42967.78230		220.31200		875.00000 
 43692.65567		 305.27265			43387.38302		68.69600		324.00000 
 43692.65567		 724.87338			42967.78230		220.31200		875.00000 
 43692.65567		 305.27265			43387.38302		68.69600		324.00000 
 43692.65567		 724.87338			42967.78230		220.31200		875.00000 
 43692.65567		 305.27265			43387.38302		68.69600		324.00000 
 43692.65567		 724.87338			42967.78230		220.31200		875.00000 
 43692.65567		 305.27265			43387.38302		68.69600		324.00000 
 43692.65567		 724.87338			42967.78230		220.31200		875.00000 
 43692.65567		 305.27265			43387.38302		68.69600		324.00000 
 43692.65567		 724.87338			42967.78230		220.31200		875.00000 
 43692.65567		 305.27265			43387.38302		68.69600		324.00000 
 43692.65567		 724.87338			42967.78230		220.31200		875.00000 
 43692.65567		 305.27265			43387.38302		68.69600		324.00000 
 43692.65567		 724.87338			42967.78230		220.31200		875.00000 
 43692.65567		 305.27265			43387.38302		68.69600		324.00000 
 43692.65567		 724.87338			42967.78230		220.31200		875.00000 
 43692.65567		 305.27265			43387.38302		68.69600		324.00000 
 43692.65567		 724.87338			42967.78230		220.31200		875.00000 
 43692.65567		 305.27265			43387.38302		68.69600		324.00000 
 43692.65567		 724.87338			42967.78230		220.31200		875.00000 
 43692.65567		 305.27265			43387.38302		68.69600		324.00000 
 43692.65567		 724.87338			42967.78230		220.31200		875.00000 
 43692.65567		 305.27265			43387.38302		68.69600		324.00000 
 43692.65567		 724.87338			42967.78230		220.31200		875.00000 
 43692.65567		 305.27265			43387.38302		68.69600		324.00000 
 43692.65567		 724.87338			42967.78230		220.31200		875.00000 
 43692.65567		 305.27265			43387.38302		68.69600		324.00000 
 43692.65567		 724.87338			42967.78230		220.31200		875.00000 
 43692.65567		 305.27265			43387.38302		68.69600		324.00000 
 43692.65567		 724.87338			42967.78230		220.31200		875.00000 
 43692.65567		 305.27265			43387.38302		68.69600		324.00000 
 43692.65567		 724.87338			42967.78230		220.31200		875.00000 
 43692.65567		 305.27265			43387.38302		68.69600		324.00000 
 43692.65567		 724.87338			42967.78230		220.31200		875.00000 
 43692.65567		 305.27265			43387.38302		68.69600		324.00000 
 43692.65567		 724.87338			42967.78230		220.31200		875.00000 
 43692.65567		 305.27265			43387.38302		68.69600		324.00000 
 43692.65567		 724.87338			42967.78230		220.31200		875.00000 
 43692.65567		 305.27265			43387.38302		68.69600		324.00000 
 43692.65567		 724.87338			42967.78230		220.31200		875.00000 
 43692.65567		 305.27265			43387.38302		68.69600		324.00000 
 43692.65567		 724.87338			42967.78230		220.31200		875.00000 
 43692.65567		 305.27265			43387.38302		68.69600		324.00000 
 43692.65567		 724.87338			42967.78230		220.31200		875.00000 
 43692.65567		 305.27265			43387.38302		68.69600		324.00000 
 43692.65567		 724.87338			42967.78230		220.31200		875.00000 
 43692.65567		 305.27265			43387.38302		68.69600		324.00000 
 43692.65567		 724.87338			42967.78230		220.31200		875.00000 
 43692.65567		 305.27265			43387.38302		68.69600		324.00000 
 43692.65567		 724.87338			42967.78230		220.31200		875.00000 
 43692.65567		 305.27265			43387.38302		68.69600		324.00000 
 43692.65567		 724.87338			42967.78230		220.31200		875.00000 
 43692.65567		 305.27265			43387.38302		68.69600		324.00000 
 43692.65567		 724.87338			42967.78230		220.31200		875.00000 
 43692.65567		 305.27265			43387.38302		68.69600		324.00000 
 43692.65567		 724.87338			42967.78230		220.31200		875.00000 
 43692.65567		 305.27265			43387.38302		68.69600		324.00000 
 43692.65567		 724.87338			42967.78230		220.31200		875.00000 
 43692.65567		 305.27265			43387.38302		68.69600		324.00000 
 43692.65567		 724.87338			42967.78230		220.31200		875.00000 
 43692.65567		 305.27265			43387.38302		68.69600		324.00000 
 43692.65567		 724.87338			42967.78230		220.31200		875.00000 
 43692.65567		 305.27265			43387.38302		68.69600		324.00000 
 43692.65567		 724.87338			42967.78230		220.31200		875.00000 
 43692.65567		 305.27265			43387.38302		68.69600		324.00000 
 43692.65567		 724.87338			42967.78230		220.31200		875.00000 
 43692.65567		 305.27265			43387.38302		68.69600		324.00000 
 43692.65567		 724.87338			42967.78230		220.31200		875.00000 
 43692.65567		 305.27265			43387.38302		68.69600		324.00000 
 43692.65567		 724.87338			42967.78230		220.31200		875.00000 
 43692.65567		 305.27265			43387.38302		68.69600		324.00000 
 43692.65567		 724.87338			42967.78230		220.31200		875.00000 
 43692.65567		 305.27265			43387.38302		68.69600		324.00000 
 43692.65567		 724.87338			42967.78230		220.31200		875.00000 
 43692.65567		 305.27265			43387.38302		68.69600		324.00000 
 43692.65567		 724.87338			42967.78230		220.31200		875.00000 
 43692.65567		 305.27265			43387.38302		68.69600		324.00000 
 43692.65567		 724.87338			42967.78230		220.31200		875.00000 
 43692.65567		 305.27265			43387.38302		68.69600		324.00000 
 43692.65567		 724.87338			42967.78230		220.31200		875.00000 
 43692.65567		 305.27265			43387.38302		68.69600		324.00000 
 43692.65567		 724.87338			42967.78230		220.31200		875.00000 
 43692.65567		 305.27265			43387.38302		68.69600		324.00000 
 43692.65567		 724.87338			42967.78230		220.31200		875.00000 
 43692.65567		 305.27265			43387.38302		68.69600		324.00000 
 43692.65567		 724.87338			42967.78230		221.46000		875.00000 
 43692.65567		 305.27265			43387.38302		68.69600		324.00000 
 43692.65567		 724.87338			42967.78230		221.46000		875.00000 
 43692.65567		 305.27265			43387.38302		68.69600		324.00000 
 43692.65567		 724.87338			42967.78230		221.46000		875.00000 
 43692.65567		 305.27265			43387.38302		68.69600		324.00000 
 43692.65567		 724.87338			42967.78230		221.46000		875.00000 
 43692.65567		 305.27265			43387.38302		68.69600		324.00000 
 43692.65567		 724.87338			42967.78230		221.46000		875.00000 
 43692.65567		 305.27265			43387.38302		68.69600		324.00000 
 43692.65567		 724.87338			42967.78230		221.46000		875.00000 
 43692.65567		 305.27265			43387.38302		68.69600		324.00000 
 43692.65567		 724.87338			42967.78230		221.46000		875.00000 
 43692.65567		 305.27265			43387.38302		68.69600		324.00000 
 43692.65567		 724.87338			42967.78230		221.46000		875.00000 
 43692.65567		 305.27265			43387.38302		68.69600		324.00000 
 43692.65567		 724.87338			42967.78230		221.46000		875.00000 
 43692.65567		 305.27265			43387.38302		68.69600		324.00000 
 43692.65567		 724.87338			42967.78230		221.46000		875.00000 
 43692.65567		 305.27265			43387.38302		68.69600		324.00000 
 43692.65567		 724.87338			42967.78230		221.46000		875.00000 
 43692.65567		 305.27265			43387.38302		68.69600		324.00000 
 43692.65567		 724.87338			42967.78230		221.46000		875.00000 
 43692.65567		 305.27265			43387.38302		68.69600		324.00000 
 43692.65567		 724.87338			42967.78230		221.46000		875.00000 
 43692.65567		 305.27265			43387.38302		68.69600		324.00000 
 43692.65567		 724.87338			42967.78230		221.46000		875.00000 
 43692.65567		 305.27265			43387.38302		68.69600		324.00000 
 43692.65567		 724.87338			42967.78230		221.46000		875.00000 
 43692.65567		 305.27265			43387.38302		68.69600		324.00000 
 43692.65567		 724.87338			42967.78230		221.46000		875.00000 
 43692.65567		 305.27265			43387.38302		68.69600		324.00000 
 43692.65567		 724.87338			42967.78230		221.46000		875.00000 
 43692.65567		 305.27265			43387.38302		68.69600		324.00000 
 43692.65567		 724.87338			42967.78230		221.46000		875.00000 
 43692.65567		 305.27265			43387.38302		68.69600		324.00000 
 43692.65567		 724.87338			42967.78230		221.46000		875.00000 
 43692.65567		 305.27265			43387.38302		68.69600		324.00000 
 43692.65567		 724.87338			42967.78230		221.46000		875.00000 
 43692.65567		 305.27265			43387.38302		68.69600		324.00000 
 43692.65567		 724.87338			42967.78230		221.46000		875.00000 
 43692.65567		 305.27265			43387.38302		68.69600		324.00000 
 43692.65567		 724.87338			42967.78230		221.46000		875.00000 
 43692.65567		 305.27265			43387.38302		68.69600		324.00000 
 43692.65567		 724.87338			42967.78230		221.46000		875.00000 
 43692.65567		 305.27265			43387.38302		68.69600		324.00000 
 43692.65567		 724.87338			42967.78230		221.46000		875.00000 
 43692.65567		 305.27265			43387.38302		68.69600		324.00000 
 43692.65567		 724.87338			42967.78230		221.46000		875.00000 
 43692.65567		 305.27265			43387.38302		68.69600		324.00000 
 43692.65567		 724.87338			42967.78230		221.46000		875.00000 
 43692.65567		 305.27265			43387.38302		68.69600		324.00000 
 43692.65567		 724.87338			42967.78230		221.46000		875.00000 
 43692.65567		 305.27265			43387.38302		68.69600		324.00000 
 43692.65567		 724.87338			42967.78230		221.46000		875.00000 
 43692.65567		 305.27265			43387.38302		68.69600		324.00000 
 43692.65567		 724.87338			42967.78230		221.46000		875.00000 
 43692.65567		 305.27265			43387.38302		68.69600		324.00000 
 43692.65567		 724.87338			42967.78230		221.46000		875.00000 
 43692.65567		 305.27265			43387.38302		68.69600		324.00000 
 43692.65567		 724.87338			42967.78230		221.46000		875.00000 
 43692.65567		 305.27265			43387.38302		68.69600		324.00000 
 43692.65567		 724.87338			42967.78230		221.46000		875.00000 
 43692.65567		 305.27265			43387.38302		68.69600		324.00000 
 43692.65567		 724.87338			42967.78230		221.46000		875.00000 
 43692.65567		 305.27265			43387.38302		68.69600		324.00000 
 43692.65567		 724.87338			42967.78230		221.46000		875.00000 
 43692.65567		 305.27265			43387.38302		68.69600		324.00000 
 43692.65567		 724.87338			42967.78230		221.46000		875.00000 
 43692.65567		 305.27265			43387.38302		68.69600		324.00000 
 43692.65567		 724.87338			42967.78230		221.46000		875.00000 
 43692.65567		 305.27265			43387.38302		68.69600		324.00000 
 43692.65567		 724.87338			42967.78230		221.46000		875.00000 
 43692.65567		 305.27265			43387.38302		68.69600		324.00000 
 43692.65567		 724.87338			42967.78230		221.46000		875.00000 
 43692.65567		 305.27265			43387.38302		68.69600		324.00000 
 43692.65567		 724.87338			42967.78230		221.46000		875.00000 
 43692.65567		 305.27265			43387.38302		68.69600		324.00000 
 43692.65567		 724.87338			42967.78230		221.46000		875.00000 
 43692.65567		 305.27265			43387.38302		68.69600		324.00000 
 43692.65567		 724.87338			42967.78230		221.46000		875.00000 
 43692.65567		 305.27265			43387.38302		68.69600		324.00000 
 43692.65567		 724.87338			42967.78230		221.46000		875.00000 
 43692.65567		 305.27265			43387.38302		68.69600		324.00000 
 43692.65567		 724.87338			42967.78230		221.46000		875.00000 
 43692.65567		 305.27265			43387.38302		68.69600		324.00000 
 43692.65567		 724.87338			42967.78230		221.46000		875.00000 
 43692.65567		 305.27265			43387.38302		68.69600		324.00000 
 43692.65567		 724.87338			42967.78230		221.46000		875.00000 
 43692.65567		 305.27265			43387.38302		68.69600		324.00000 
 43692.65567		 724.87338			42967.78230		221.46000		875.00000 
 43692.65567		 305.27265			43387.38302		68.69600		324.00000 
 43692.65567		 724.87338			42967.78230		221.46000		875.00000 
 43692.65567		 305.27265			43387.38302		68.69600		324.00000 
 43692.65567		 724.87338			42967.78230		221.46000		875.00000 
 43692.65567		 305.27265			43387.38302		68.69600		324.00000 
 43692.65567		 724.87338			42967.78230		221.46000		875.00000 
 43692.65567		 305.27265			43387.38302		68.69600		324.00000 
 43692.65567		 724.87338			42967.78230		221.46000		875.00000 
 43692.65567		 305.27265			43387.38302		68.69600		324.00000 
 43692.65567		 724.87338			42967.78230		221.46000		875.00000 
 43692.65567		 305.27265			43387.38302		68.69600		324.00000 
 43692.65567		 724.87338			42967.78230		221.46000		875.00000 
 43692.65567		 305.27265			43387.38302		68.69600		324.00000 
 43692.65567		 724.87338			42967.78230		221.46000		875.00000 
 43692.65567		 305.27265			43387.38302		68.69600		324.00000 
 43692.65567		 724.87338			42967.78230		221.46000		875.00000 
 43692.65567		 305.27265			43387.38302		68.69600		324.00000 
 43692.65567		 724.87338			42967.78230		221.46000		875.00000 
 43692.65567		 305.27265			43387.38302		68.69600		324.00000 
 43692.65567		 724.87338			42967.78230		221.46000		875.00000 
 43692.65567		 305.27265			43387.38302		68.69600		324.00000 
 43692.65567		 724.87338			42967.78230		221.46000		875.00000 
 43692.65567		 305.27265			43387.38302		68.69600		324.00000 
 43692.65567		 724.87338			42967.78230		221.46000		875.00000 
 43692.65567		 305.27265			43387.38302		68.69600		324.00000 
 43692.65567		 724.87338			42967.78230		221.46000		875.00000 
 43692.65567		 305.27265			43387.38302		68.69600		324.00000 
 43692.65567		 724.87338			42967.78230		221.46000		875.00000 
 43692.65567		 305.27265			43387.38302		68.69600		324.00000 
 43692.65567		 724.87338			42967.78230		221.46000		875.00000 
 43692.65567		 305.27265			43387.38302		68.69600		324.00000 
 43692.65567		 724.87338			42967.78230		221.46000		875.00000 
 43692.65567		 305.27265			43387.38302		68.69600		324.00000 
 43692.65567		 724.87338			42967.78230		221.46000		875.00000 
 43692.65567		 305.27265			43387.38302		68.69600		324.00000 
 43692.65567		 724.87338			42967.78230		221.46000		875.00000 
 43692.65567		 305.27265			43387.38302		68.69600		324.00000 
 43692.65567		 724.87338			42967.78230		220.86200		875.00000 
 43692.65567		 305.27265			43387.38302		68.69600		324.00000 
 43692.65567		 724.87338			42967.78230		220.86200		875.00000 
 43692.65567		 305.27265			43387.38302		68.69600		324.00000 
 43692.65567		 724.87338			42967.78230		220.86200		875.00000 
 43692.65567		 305.27265			43387.38302		68.69600		324.00000 
 43692.65567		 724.87338			42967.78230		220.86200		875.00000 
 43692.65567		 305.27265			43387.38302		68.69600		324.00000 
 43692.65567		 724.87338			42967.78230		220.86200		875.00000 
 43692.65567		 305.27265			43387.38302		68.69600		324.00000 
 43692.65567		 724.87338			42967.78230		220.86200		875.00000 
 43692.65567		 305.27265			43387.38302		68.69600		324.00000 
 43692.65567		 724.87338			42967.78230		220.86200		875.00000 
 43692.65567		 305.27265			43387.38302		68.69600		324.00000 
 43692.65567		 724.87338			42967.78230		220.86200		875.00000 
 43692.65567		 305.27265			43387.38302		68.69600		324.00000 
 43692.65567		 724.87338			42967.78230		220.86200		875.00000 
 43692.65567		 305.27265			43387.38302		68.69600		324.00000 
 43692.65567		 724.87338			42967.78230		220.86200		875.00000 
 43692.65567		 305.27265			43387.38302		68.69600		324.00000 
 43692.65567		 724.87338			42967.78230		220.86200		875.00000 
 43692.65567		 305.27265			43387.38302		68.69600		324.00000 
 43692.65567		 724.87338			42967.78230		220.86200		875.00000 
 43692.65567		 305.27265			43387.38302		68.69600		324.00000 
 43692.65567		 724.87338			42967.78230		220.86200		875.00000 
 43692.65567		 305.27265			43387.38302		68.69600		324.00000 
 43692.65567		 724.87338			42967.78230		220.86200		875.00000 
 43692.65567		 305.27265			43387.38302		68.69600		324.00000 
 43692.65567		 724.87338			42967.78230		220.86200		875.00000 
 43692.65567		 305.27265			43387.38302		68.69600		324.00000 
 43692.65567		 724.87338			42967.78230		220.86200		875.00000 
 43692.65567		 305.27265			43387.38302		68.69600		324.00000 
 43692.65567		 724.87338			42967.78230		220.86200		875.00000 
 43692.65567		 305.27265			43387.38302		68.69600		324.00000 
 43692.65567		 724.87338			42967.78230		220.86200		875.00000 
 43692.65567		 305.27265			43387.38302		68.69600		324.00000 
 43692.65567		 724.87338			42967.78230		220.86200		875.00000 
 43692.65567		 305.27265			43387.38302		68.69600		324.00000 
 43692.65567		 724.87338			42967.78230		220.86200		875.00000 
 43692.65567		 305.27265			43387.38302		68.69600		324.00000 
 43692.65567		 724.87338			42967.78230		220.86200		875.00000 
 43692.65567		 305.27265			43387.38302		68.69600		324.00000 
 43692.65567		 724.87338			42967.78230		220.86200		875.00000 
 43692.65567		 305.27265			43387.38302		68.69600		324.00000 
 43692.65567		 724.87338			42967.78230		220.86200		875.00000 
 43692.65567		 305.27265			43387.38302		68.69600		324.00000 
 43692.65567		 724.87338			42967.78230		220.86200		875.00000 
 43692.65567		 305.27265			43387.38302		68.69600		324.00000 
 43692.65567		 724.87338			42967.78230		220.86200		875.00000 
 43692.65567		 305.27265			43387.38302		68.69600		324.00000 
 43692.65567		 724.87338			42967.78230		220.86200		875.00000 
 43692.65567		 305.27265			43387.38302		68.69600		324.00000 
 43692.65567		 724.87338			42967.78230		220.86200		875.00000 
 43692.65567		 305.27265			43387.38302		68.69600		324.00000 
 43692.65567		 724.87338			42967.78230		220.86200		875.00000 
 43692.65567		 305.27265			43387.38302		68.69600		324.00000 
 43692.65567		 724.87338			42967.78230		220.86200		875.00000 
 43692.65567		 305.27265			43387.38302		68.69600		324.00000 
 43692.65567		 724.87338			42967.78230		220.86200		875.00000 
 43692.65567		 305.27265			43387.38302		68.69600		324.00000 
 43692.65567		 724.87338			42967.78230		220.86200		875.00000 
 43692.65567		 305.27265			43387.38302		68.69600		324.00000 
 43692.65567		 724.87338			42967.78230		220.86200		875.00000 
 43692.65567		 305.27265			43387.38302		68.69600		324.00000 
 43692.65567		 724.87338			42967.78230		220.86200		875.00000 
 43692.65567		 305.27265			43387.38302		68.69600		324.00000 
 43692.65567		 724.87338			42967.78230		220.86200		875.00000 
 43692.65567		 305.27265			43387.38302		68.69600		324.00000 
 43692.65567		 724.87338			42967.78230		220.86200		875.00000 
 43692.65567		 305.27265			43387.38302		68.69600		324.00000 
 43692.65567		 724.87338			42967.78230		220.86200		875.00000 
 43692.65567		 305.27265			43387.38302		68.69600		324.00000 
 43692.65567		 724.87338			42967.78230		220.86200		875.00000 
 43692.65567		 305.27265			43387.38302		68.69600		324.00000 
 43692.65567		 724.87338			42967.78230		220.86200		875.00000 
 43692.65567		 305.27265			43387.38302		68.69600		324.00000 
 43692.65567		 724.87338			42967.78230		220.86200		875.00000 
 43692.65567		 305.27265			43387.38302		68.69600		324.00000 
 43692.65567		 724.87338			42967.78230		220.86200		875.00000 
 43692.65567		 305.27265			43387.38302		68.69600		324.00000 
 43692.65567		 724.87338			42967.78230		220.86200		875.00000 
 43692.65567		 305.27265			43387.38302		68.69600		324.00000 
 43692.65567		 724.87338			42967.78230		220.86200		875.00000 
 43692.65567		 305.27265			43387.38302		68.69600		324.00000 
 43692.65567		 724.87338			42967.78230		220.86200		875.00000 
 43692.65567		 305.27265			43387.38302		68.69600		324.00000 
 43692.65567		 724.87338			42967.78230		220.86200		875.00000 
 43692.65567		 305.27265			43387.38302		68.69600		324.00000 
 43692.65567		 724.87338			42967.78230		220.86200		875.00000 
 43692.65567		 305.27265			43387.38302		68.69600		324.00000 
 43692.65567		 724.87338			42967.78230		220.86200		875.00000 
 43692.65567		 305.27265			43387.38302		68.69600		324.00000 
 43692.65567		 724.87338			42967.78230		220.86200		875.00000 
 43692.65567		 305.27265			43387.38302		68.69600		324.00000 
 43692.65567		 724.87338			42967.78230		220.86200		875.00000 
 43692.65567		 305.27265			43387.38302		68.69600		324.00000 
 43692.65567		 724.87338			42967.78230		220.86200		875.00000 
 43692.65567		 305.27265			43387.38302		68.69600		324.00000 
 43692.65567		 724.87338			42967.78230		220.86200		875.00000 
 43692.65567		 305.27265			43387.38302		68.69600		324.00000 
 43692.65567		 724.87338			42967.78230		220.86200		875.00000 
 43692.65567		 305.27265			43387.38302		68.69600		324.00000 
 43692.65567		 724.87338			42967.78230		220.86200		875.00000 
 43692.65567		 305.27265			43387.38302		68.69600		324.00000 
 43692.65567		 724.87338			42967.78230		220.86200		875.00000 
 43692.65567		 305.27265			43387.38302		68.69600		324.00000 
 43692.65567		 724.87338			42967.78230		220.86200		875.00000 
 43692.65567		 305.27265			43387.38302		68.69600		324.00000 
 43692.65567		 724.87338			42967.78230		220.86200		875.00000 
 43692.65567		 305.27265			43387.38302		68.69600		324.00000 
 43692.65567		 724.87338			42967.78230		220.86200		875.00000 
 43692.65567		 305.27265			43387.38302		68.69600		324.00000 
 43692.65567		 724.87338			42967.78230		220.86200		875.00000 
 43692.65567		 305.27265			43387.38302		68.69600		324.00000 
 43692.65567		 724.87338			42967.78230		220.86200		875.00000 
 43692.65567		 305.27265			43387.38302		68.69600		324.00000 
 43692.65567		 724.87338			42967.78230		220.86200		875.00000 
 43692.65567		 305.27265			43387.38302		68.69600		324.00000 
 43692.65567		 724.87338			42967.78230		220.86200		875.00000 
 43692.65567		 305.27265			43387.38302		68.69600		324.00000 
 43692.65567		 724.87338			42967.78230		220.86200		875.00000 
 43692.65567		 305.27265			43387.38302		68.69600		324.00000 
 43692.65567		 724.87338			42967.78230		220.86200		875.00000 
 43692.65567		 305.27265			43387.38302		68.69600		324.00000 
 43692.65567		 724.87338			42967.78230		220.86200		875.00000 
 43692.65567		 305.27265			43387.38302		68.69600		324.00000 
 43692.65567		 724.87338			42967.78230		220.86200		875.00000 
 43692.65567		 305.27265			43387.38302		68.69600		324.00000 
 43692.65567		 724.87338			42967.78230		220.86200		875.00000 
 43692.65567		 305.27265			43387.38302		68.69600		324.00000 
 43692.65567		 724.87338			42967.78230		220.86200		875.00000 
 43692.65567		 305.27265			43387.38302		68.69600		324.00000 
 43692.65567		 724.87338			42967.78230		220.86200		875.00000 
 43692.65567		 305.27265			43387.38302		68.69600		324.00000 
 43692.65567		 724.87338			42967.78230		220.86200		875.00000 
 43692.65567		 305.27265			43387.38302		68.69600		324.00000 
 43692.65567		 724.87338			42967.78230		220.86200		875.00000 
 43692.65567		 305.27265			43387.38302		68.69600		324.00000 
 43692.65567		 724.87338			42967.78230		220.86200		875.00000 
 43692.65567		 305.27265			43387.38302		68.69600		324.00000 
 43692.65567		 724.87338			42967.78230		220.86200		875.00000 
 43692.65567		 305.27265			43387.38302		68.69600		324.00000 
 43692.65567		 724.87338			42967.78230		220.86200		875.00000 
 43692.65567		 305.27265			43387.38302		68.69600		324.00000 
 43692.65567		 724.87338			42967.78230		220.86200		875.00000 
 43692.65567		 305.27265			43387.38302		68.69600		324.00000 
 43692.65567		 724.87338			42967.78230		220.86200		875.00000 
 43692.65567		 305.27265			43387.38302		68.69600		324.00000 
 43692.65567		 724.87338			42967.78230		220.86200		875.00000 
 43692.65567		 305.27265			43387.38302		68.69600		324.00000 
 43692.65567		 724.87338			42967.78230		220.86200		875.00000 
 43692.65567		 305.27265			43387.38302		68.69600		324.00000 
 43692.65567		 724.87338			42967.78230		220.86200		875.00000 
 43692.65567		 305.27265			43387.38302		68.69600		324.00000 
 43692.65567		 724.87338			42967.78230		220.86200		875.00000 
 43692.65567		 305.27265			43387.38302		68.69600		324.00000 
 43692.65567		 724.87338			42967.78230		220.86200		875.00000 
 43692.65567		 305.27265			43387.38302		68.69600		324.00000 
 43692.65567		 724.87338			42967.78230		220.86200		875.00000 
 43692.65567		 305.27265			43387.38302		68.69600		324.00000 
 43692.65567		 724.87338			42967.78230		220.86200		875.00000 
 43692.65567		 305.27265			43387.38302		68.69600		324.00000 
 43692.65567		 724.87338			42967.78230		220.86200		875.00000 
 43692.65567		 305.27265			43387.38302		68.69600		324.00000 
 43692.65567		 724.87338			42967.78230		220.86200		875.00000 
 43692.65567		 305.27265			43387.38302		68.69600		324.00000 
 43692.65567		 724.87338			42967.78230		220.86200		875.00000 
 43692.65567		 305.27265			43387.38302		68.69600		324.00000 
 43692.65567		 724.87338			42967.78230		220.86200		875.00000 
 43692.65567		 305.27265			43387.38302		68.69600		324.00000 
 43692.65567		 724.87338			42967.78230		220.86200		875.00000 
 43692.65567		 305.27265			43387.38302		68.69600		324.00000 
 43692.65567		 724.87338			42967.78230		220.86200		875.00000 
 43692.65567		 305.27265			43387.38302		68.69600		324.00000 
 43692.65567		 724.87338			42967.78230		220.86200		875.00000 
 43692.65567		 305.27265			43387.38302		68.69600		324.00000 
 43692.65567		 724.87338			42967.78230		220.86200		875.00000 
 43692.65567		 305.27265			43387.38302		68.69600		324.00000 
 43692.65567		 724.87338			42967.78230		220.86200		875.00000 
 43692.65567		 305.27265			43387.38302		68.69600		324.00000 
 43692.65567		 724.87338			42967.78230		220.86200		875.00000 
 43692.65567		 305.27265			43387.38302		68.69600		324.00000 
 43692.65567		 724.87338			42967.78230		220.86200		875.00000 
 43692.65567		 305.27265			43387.38302		68.69600		324.00000 
 43692.65567		 724.87338			42967.78230		220.86200		875.00000 
 43692.65567		 305.27265			43387.38302		68.69600		324.00000 
 43692.65567		 724.87338			42967.78230		220.86200		875.00000 
 43692.65567		 305.27265			43387.38302		68.69600		324.00000 
 43692.65567		 724.87338			42967.78230		220.86200		875.00000 
 43692.65567		 305.27265			43387.38302		68.69600		324.00000 
 43692.65567		 724.87338			42967.78230		220.86200		875.00000 
 43692.65567		 305.27265			43387.38302		68.69600		324.00000 
 43692.65567		 724.87338			42967.78230		220.86200		875.00000 
 43692.65567		 305.27265			43387.38302		68.69600		324.00000 
 43692.65567		 724.87338			42967.78230		220.86200		875.00000 
 43692.65567		 305.27265			43387.38302		68.69600		324.00000 
 43692.65567		 724.87338			42967.78230		220.86200		875.00000 
 43692.65567		 305.27265			43387.38302		68.69600		324.00000 
 43692.65567		 724.87338			42967.78230		220.86200		875.00000 
 43692.65567		 305.27265			43387.38302		68.69600		324.00000 
 43692.65567		 724.87338			42967.78230		220.86200		875.00000 
 43692.65567		 305.27265			43387.38302		68.69600		324.00000 
 43692.65567		 724.87338			42967.78230		220.86200		875.00000 
 43692.65567		 305.27265			43387.38302		68.69600		324.00000 
 43692.65567		 724.87338			42967.78230		220.86200		875.00000 
 43692.65567		 305.27265			43387.38302		68.69600		324.00000 
 43692.65567		 724.87338			42967.78230		220.86200		875.00000 
 43692.65567		 305.27265			43387.38302		68.69600		324.00000 
 43692.65567		 724.87338			42967.78230		220.86200		875.00000 
 43692.65567		 305.27265			43387.38302		68.69600		324.00000 
 43692.65567		 724.87338			42967.78230		220.86200		875.00000 
 43692.65567		 305.27265			43387.38302		68.69600		324.00000 
 43692.65567		 724.87338			42967.78230		220.86200		875.00000 
 43692.65567		 305.27265			43387.38302		68.69600		324.00000 
 43692.65567		 724.87338			42967.78230		220.86200		875.00000 
 43692.65567		 305.27265			43387.38302		68.69600		324.00000 
 43692.65567		 724.87338			42967.78230		220.86200		875.00000 
 43692.65567		 305.27265			43387.38302		68.69600		324.00000 
 43692.65567		 724.87338			42967.78230		220.86200		875.00000 
 43692.65567		 305.27265			43387.38302		68.69600		324.00000 
 43692.65567		 724.87338			42967.78230		220.86200		875.00000 
 43692.65567		 305.27265			43387.38302		68.69600		324.00000 
 43692.65567		 724.87338			42967.78230		220.86200		875.00000 
 43692.65567		 305.27265			43387.38302		68.69600		324.00000 
 43692.65567		 724.87338			42967.78230		220.86200		875.00000 
 43692.65567		 305.27265			43387.38302		68.69600		324.00000 
 43692.65567		 724.87338			42967.78230		220.86200		875.00000 
 43692.65567		 305.27265			43387.38302		68.69600		324.00000 
 43692.65567		 724.87338			42967.78230		220.86200		875.00000 
 43692.65567		 305.27265			43387.38302		68.69600		324.00000 
 43692.65567		 724.87338			42967.78230		220.86200		875.00000 
 43692.65567		 305.27265			43387.38302		68.69600		324.00000 
 43692.65567		 724.87338			42967.78230		220.86200		875.00000 
 43692.65567		 305.27265			43387.38302		68.69600		324.00000 
 43692.65567		 724.87338			42967.78230		220.86200		875.00000 
 43692.65567		 305.27265			43387.38302		68.69600		324.00000 
 43692.65567		 724.87338			42967.78230		220.86200		875.00000 
 43692.65567		 305.27265			43387.38302		68.69600		324.00000 
 43692.65567		 724.87338			42967.78230		220.86200		875.00000 
 43692.65567		 305.27265			43387.38302		68.69600		324.00000 
 43692.65567		 724.87338			42967.78230		220.86200		875.00000 
 43692.65567		 305.27265			43387.38302		68.69600		324.00000 
 43692.65567		 724.87338			42967.78230		220.86200		875.00000 
 43692.65567		 305.27265			43387.38302		68.69600		324.00000 
 43692.65567		 724.87338			42967.78230		220.86200		875.00000 
 43692.65567		 305.27265			43387.38302		68.69600		324.00000 
 43692.65567		 724.87338			42967.78230		220.86200		875.00000 
 43692.65567		 305.27265			43387.38302		68.69600		324.00000 
 43692.65567		 724.87338			42967.78230		220.86200		875.00000 
 43692.65567		 305.27265			43387.38302		68.69600		324.00000 
 43692.65567		 724.87338			42967.78230		220.86200		875.00000 
 43692.65567		 305.27265			43387.38302		68.69600		324.00000 
 43692.65567		 724.87338			42967.78230		220.86200		875.00000 
 43692.65567		 305.27265			43387.38302		68.69600		324.00000 
 43692.65567		 724.87338			42967.78230		220.86200		875.00000 
 43692.65567		 305.27265			43387.38302		68.69600		324.00000 
 43692.65567		 724.87338			42967.78230		220.86200		875.00000 
 43692.65567		 305.27265			43387.38302		68.69600		324.00000 
 43692.65567		 724.87338			42967.78230		221.46000		875.00000 
 43692.65567		 305.27265			43387.38302		68.69600		324.00000 
 43692.65567		 724.87338			42967.78230		221.46000		875.00000 
 43692.65567		 305.27265			43387.38302		68.69600		324.00000 
 43692.65567		 724.87338			42967.78230		221.46000		875.00000 
 43692.65567		 305.27265			43387.38302		68.69600		324.00000 
 43692.65567		 724.87338			42967.78230		221.46000		875.00000 
 43692.65567		 305.27265			43387.38302		68.69600		324.00000 
 43692.65567		 724.87338			42967.78230		221.46000		875.00000 
 43692.65567		 305.27265			43387.38302		68.69600		324.00000 
 43692.65567		 724.87338			42967.78230		221.46000		875.00000 
 43692.65567		 305.27265			43387.38302		68.69600		324.00000 
 43692.65567		 724.87338			42967.78230		221.46000		875.00000 
 43692.65567		 305.27265			43387.38302		68.69600		324.00000 
 43692.65567		 724.87338			42967.78230		221.46000		875.00000 
 43692.65567		 305.27265			43387.38302		68.69600		324.00000 
 43692.65567		 724.87338			42967.78230		221.46000		875.00000 
 43692.65567		 305.27265			43387.38302		68.69600		324.00000 
 43692.65567		 724.87338			42967.78230		221.46000		875.00000 
 43692.65567		 305.27265			43387.38302		68.69600		324.00000 
 43692.65567		 724.87338			42967.78230		221.46000		875.00000 
 43692.65567		 305.27265			43387.38302		68.69600		324.00000 
 43692.65567		 724.87338			42967.78230		221.46000		875.00000 
 43692.65567		 305.27265			43387.38302		68.69600		324.00000 
 43692.65567		 724.87338			42967.78230		221.46000		875.00000 
 43692.65567		 305.27265			43387.38302		68.69600		324.00000 
 43692.65567		 724.87338			42967.78230		221.46000		875.00000 
 43692.65567		 305.27265			43387.38302		68.69600		324.00000 
 43692.65567		 724.87338			42967.78230		221.46000		875.00000 
 43692.65567		 305.27265			43387.38302		68.69600		324.00000 
 43692.65567		 724.87338			42967.78230		221.46000		875.00000 
 43692.65567		 305.27265			43387.38302		68.69600		324.00000 
 43692.65567		 724.87338			42967.78230		221.46000		875.00000 
 43692.65567		 305.27265			43387.38302		68.69600		324.00000 
 43692.65567		 724.87338			42967.78230		221.46000		875.00000 
 43692.65567		 305.27265			43387.38302		68.69600		324.00000 
 43692.65567		 724.87338			42967.78230		221.46000		875.00000 
 43692.65567		 305.27265			43387.38302		68.69600		324.00000 
 43692.65567		 724.87338			42967.78230		221.46000		875.00000 
 43692.65567		 305.27265			43387.38302		68.69600		324.00000 
 43692.65567		 724.87338			42967.78230		221.46000		875.00000 
 43692.65567		 305.27265			43387.38302		68.69600		324.00000 
 43692.65567		 724.87338			42967.78230		221.46000		875.00000 
 43692.65567		 305.27265			43387.38302		68.69600		324.00000 
 43692.65567		 724.87338			42967.78230		221.46000		875.00000 
 43692.65567		 305.27265			43387.38302		68.69600		324.00000 
 43692.65567		 724.87338			42967.78230		221.46000		875.00000 
 43692.65567		 305.27265			43387.38302		68.69600		324.00000 
 43692.65567		 724.87338			42967.78230		221.46000		875.00000 
 43692.65567		 305.27265			43387.38302		68.69600		324.00000 
 43692.65567		 724.87338			42967.78230		221.46000		875.00000 
 43692.65567		 305.27265			43387.38302		68.69600		324.00000 
 43692.65567		 724.87338			42967.78230		221.46000		875.00000 
 43692.65567		 305.27265			43387.38302		68.69600		324.00000 
 43692.65567		 724.87338			42967.78230		221.46000		875.00000 
 43692.65567		 305.27265			43387.38302		68.69600		324.00000 
 43692.65567		 724.87338			42967.78230		221.46000		875.00000 
 43692.65567		 305.27265			43387.38302		68.69600		324.00000 
 43692.65567		 724.87338			42967.78230		221.46000		875.00000 
 43692.65567		 305.27265			43387.38302		68.69600		324.00000 
 43692.65567		 724.87338			42967.78230		221.46000		875.00000 
 43692.65567		 305.27265			43387.38302		68.69600		324.00000 
 43692.65567		 724.87338			42967.78230		221.46000		875.00000 
 43692.65567		 305.27265			43387.38302		68.69600		324.00000 
 43692.65567		 724.87338			42967.78230		221.46000		875.00000 
 43692.65567		 305.27265			43387.38302		68.69600		324.00000 
 43692.65567		 724.87338			42967.78230		221.46000		875.00000 
 43692.65567		 305.27265			43387.38302		68.69600		324.00000 
 43692.65567		 724.87338			42967.78230		221.46000		875.00000 
 43692.65567		 305.27265			43387.38302		68.69600		324.00000 
 43692.65567		 724.87338			42967.78230		221.46000		875.00000 
 43692.65567		 305.27265			43387.38302		68.69600		324.00000 
 43692.65567		 724.87338			42967.78230		221.46000		875.00000 
 43692.65567		 305.27265			43387.38302		68.69600		324.00000 
 43692.65567		 724.87338			42967.78230		221.46000		875.00000 
 43692.65567		 305.27265			43387.38302		68.69600		324.00000 
 43692.65567		 724.87338			42967.78230		221.46000		875.00000 
 43692.65567		 305.27265			43387.38302		68.69600		324.00000 
 43692.65567		 724.87338			42967.78230		221.46000		875.00000 
 43692.65567		 305.27265			43387.38302		68.69600		324.00000 
 43692.65567		 724.87338			42967.78230		221.46000		875.00000 
 43692.65567		 305.27265			43387.38302		68.69600		324.00000 
 43692.65567		 724.87338			42967.78230		221.46000		875.00000 
 43692.65567		 305.27265			43387.38302		68.69600		324.00000 
 43692.65567		 724.87338			42967.78230		221.46000		875.00000 
 43692.65567		 305.27265			43387.38302		68.69600		324.00000 
 43692.65567		 724.87338			42967.78230		221.46000		875.00000 
 43692.65567		 305.27265			43387.38302		68.69600		324.00000 
 43692.65567		 724.87338			42967.78230		221.46000		875.00000 
 43692.65567		 305.27265			43387.38302		68.69600		324.00000 
 43692.65567		 724.87338			42967.78230		221.46000		875.00000 
 43692.65567		 305.27265			43387.38302		68.69600		324.00000 
 43692.65567		 724.87338			42967.78230		221.46000		875.00000 
 43692.65567		 305.27265			43387.38302		68.69600		324.00000 
 43692.65567		 724.87338			42967.78230		221.46000		875.00000 
 43692.65567		 305.27265			43387.38302		68.69600		324.00000 
 43692.65567		 724.87338			42967.78230		221.46000		875.00000 
 43692.65567		 305.27265			43387.38302		68.69600		324.00000 
 43692.65567		 724.87338			42967.78230		221.46000		875.00000 
 43692.65567		 305.27265			43387.38302		68.69600		324.00000 
 43692.65567		 724.87338			42967.78230		221.46000		875.00000 
 43692.65567		 305.27265			43387.38302		68.69600		324.00000 
 43692.65567		 724.87338			42967.78230		221.46000		875.00000 
 43692.65567		 305.27265			43387.38302		68.69600		324.00000 
 43692.65567		 724.87338			42967.78230		221.46000		875.00000 
 43692.65567		 305.27265			43387.38302		68.69600		324.00000 
 43692.65567		 724.87338			42967.78230		221.46000		875.00000 
 43692.65567		 305.27265			43387.38302		68.69600		324.00000 
 43692.65567		 724.87338			42967.78230		221.46000		875.00000 
 43692.65567		 305.27265			43387.38302		68.69600		324.00000 
 43692.65567		 724.87338			42967.78230		221.46000		875.00000 
 43692.65567		 305.27265			43387.38302		68.69600		324.00000 
 43692.65567		 724.87338			42967.78230		221.46000		875.00000 
 43692.65567		 305.27265			43387.38302		68.69600		324.00000 
 43692.65567		 724.87338			42967.78230		221.46000		875.00000 
 43692.65567		 305.27265			43387.38302		68.69600		324.00000 
 43692.65567		 724.87338			42967.78230		221.46000		875.00000 
 43692.65567		 305.27265			43387.38302		68.69600		324.00000 
 43692.65567		 724.87338			42967.78230		221.46000		875.00000 
 43692.65567		 305.27265			43387.38302		68.69600		324.00000 
 43692.65567		 724.87338			42967.78230		221.46000		875.00000 
 43692.65567		 305.27265			43387.38302		68.69600		324.00000 
 43692.65567		 724.87338			42967.78230		221.46000		875.00000 
 43692.65567		 305.27265			43387.38302		68.69600		324.00000 
 43692.65567		 724.87338			42967.78230		221.46000		875.00000 
 43692.65567		 305.27265			43387.38302		68.69600		324.00000 
 43692.65567		 724.87338			42967.78230		221.46000		875.00000 
 43692.65567		 305.27265			43387.38302		68.69600		324.00000 
 43692.65567		 724.87338			42967.78230		220.86200		875.00000 
 43692.65567		 305.27265			43387.38302		68.69600		324.00000 
 43692.65567		 724.87338			42967.78230		220.86200		875.00000 
 43692.65567		 305.27265			43387.38302		68.69600		324.00000 
 43692.65567		 724.87338			42967.78230		220.86200		875.00000 
 43692.65567		 305.27265			43387.38302		68.69600		324.00000 
 43692.65567		 724.87338			42967.78230		220.86200		875.00000 
 43692.65567		 305.27265			43387.38302		68.69600		324.00000 
 43692.65567		 724.87338			42967.78230		220.86200		875.00000 
 43692.65567		 305.27265			43387.38302		68.69600		324.00000 
 43692.65567		 724.87338			42967.78230		220.86200		875.00000 
 43692.65567		 305.27265			43387.38302		68.69600		324.00000 
 43692.65567		 724.87338			42967.78230		220.86200		875.00000 
 43692.65567		 305.27265			43387.38302		68.69600		324.00000 
 43692.65567		 724.87338			42967.78230		220.86200		875.00000 
 43692.65567		 305.27265			43387.38302		68.69600		324.00000 
 43692.65567		 724.87338			42967.78230		220.86200		875.00000 
 43692.65567		 305.27265			43387.38302		68.69600		324.00000 
 43692.65567		 724.87338			42967.78230		220.86200		875.00000 
 43692.65567		 305.27265			43387.38302		68.69600		324.00000 
 43692.65567		 724.87338			42967.78230		220.86200		875.00000 
 43692.65567		 305.27265			43387.38302		68.69600		324.00000 
 43692.65567		 724.87338			42967.78230		220.86200		875.00000 
 43692.65567		 305.27265			43387.38302		68.69600		324.00000 
 43692.65567		 724.87338			42967.78230		220.86200		875.00000 
 43692.65567		 305.27265			43387.38302		68.69600		324.00000 
 43692.65567		 724.87338			42967.78230		220.86200		875.00000 
 43692.65567		 305.27265			43387.38302		68.69600		324.00000 
 43692.65567		 724.87338			42967.78230		220.86200		875.00000 
 43692.65567		 305.27265			43387.38302		68.69600		324.00000 
 43692.65567		 724.87338			42967.78230		220.86200		875.00000 
 43692.65567		 305.27265			43387.38302		68.69600		324.00000 
 43692.65567		 724.87338			42967.78230		220.86200		875.00000 
 43692.65567		 305.27265			43387.38302		68.69600		324.00000 
 43692.65567		 724.87338			42967.78230		220.86200		875.00000 
 43692.65567		 305.27265			43387.38302		68.69600		324.00000 
 43692.65567		 724.87338			42967.78230		220.86200		875.00000 
 43692.65567		 305.27265			43387.38302		68.69600		324.00000 
 43692.65567		 724.87338			42967.78230		220.86200		875.00000 
 43692.65567		 305.27265			43387.38302		68.69600		324.00000 
 43692.65567		 724.87338			42967.78230		220.86200		875.00000 
 43692.65567		 305.27265			43387.38302		68.69600		324.00000 
 43692.65567		 724.87338			42967.78230		220.86200		875.00000 
 43692.65567		 305.27265			43387.38302		68.69600		324.00000 
 43692.65567		 724.87338			42967.78230		220.86200		875.00000 
 43692.65567		 305.27265			43387.38302		68.69600		324.00000 
 43692.65567		 724.87338			42967.78230		220.86200		875.00000 
 43692.65567		 305.27265			43387.38302		68.69600		324.00000 
 43692.65567		 724.87338			42967.78230		220.86200		875.00000 
 43692.65567		 305.27265			43387.38302		68.69600		324.00000 
 43692.65567		 724.87338			42967.78230		220.86200		875.00000 
 43692.65567		 305.27265			43387.38302		68.69600		324.00000 
 43692.65567		 724.87338			42967.78230		220.86200		875.00000 
 43692.65567		 305.27265			43387.38302		68.69600		324.00000 
 43692.65567		 724.87338			42967.78230		220.86200		875.00000 
 43692.65567		 305.27265			43387.38302		68.69600		324.00000 
 43692.65567		 724.87338			42967.78230		220.86200		875.00000 
 43692.65567		 305.27265			43387.38302		68.69600		324.00000 
 43692.65567		 724.87338			42967.78230		220.86200		875.00000 
 43692.65567		 305.27265			43387.38302		68.69600		324.00000 
 43692.65567		 724.87338			42967.78230		220.86200		875.00000 
 43692.65567		 305.27265			43387.38302		68.69600		324.00000 
 43692.65567		 724.87338			42967.78230		220.86200		875.00000 
 43692.65567		 305.27265			43387.38302		68.69600		324.00000 
 43692.65567		 724.87338			42967.78230		220.86200		875.00000 
 43692.65567		 305.27265			43387.38302		68.69600		324.00000 
 43692.65567		 724.87338			42967.78230		220.86200		875.00000 
 43692.65567		 305.27265			43387.38302		68.69600		324.00000 
 43692.65567		 724.87338			42967.78230		220.86200		875.00000 
 43692.65567		 305.27265			43387.38302		68.69600		324.00000 
 43692.65567		 724.87338			42967.78230		220.86200		875.00000 
 43692.65567		 305.27265			43387.38302		68.69600		324.00000 
 43692.65567		 724.87338			42967.78230		220.86200		875.00000 
 43692.65567		 305.27265			43387.38302		68.69600		324.00000 
 43692.65567		 724.87338			42967.78230		220.86200		875.00000 
 43692.65567		 305.27265			43387.38302		68.69600		324.00000 
 43692.65567		 724.87338			42967.78230		220.86200		875.00000 
 43692.65567		 305.27265			43387.38302		68.69600		324.00000 
 43692.65567		 724.87338			42967.78230		220.86200		875.00000 
 43692.65567		 305.27265			43387.38302		68.69600		324.00000 
 43692.65567		 724.87338			42967.78230		220.86200		875.00000 
 43692.65567		 305.27265			43387.38302		68.69600		324.00000 
 43692.65567		 724.87338			42967.78230		220.86200		875.00000 
 43692.65567		 305.27265			43387.38302		68.69600		324.00000 
 43692.65567		 724.87338			42967.78230		220.86200		875.00000 
 43692.65567		 305.27265			43387.38302		68.69600		324.00000 
 43692.65567		 724.87338			42967.78230		220.86200		875.00000 
 43692.65567		 305.27265			43387.38302		68.69600		324.00000 
 43692.65567		 724.87338			42967.78230		220.86200		875.00000 
 43692.65567		 305.27265			43387.38302		68.69600		324.00000 
 43692.65567		 724.87338			42967.78230		220.86200		875.00000 
 43692.65567		 305.27265			43387.38302		68.69600		324.00000 
 43692.65567		 724.87338			42967.78230		220.86200		875.00000 
 43692.65567		 305.27265			43387.38302		68.69600		324.00000 
 43692.65567		 724.87338			42967.78230		220.86200		875.00000 
 43692.65567		 305.27265			43387.38302		68.69600		324.00000 
 43692.65567		 724.87338			42967.78230		220.86200		875.00000 
 43692.65567		 305.27265			43387.38302		68.69600		324.00000 
 43692.65567		 724.87338			42967.78230		220.86200		875.00000 
 43692.65567		 305.27265			43387.38302		68.69600		324.00000 
 43692.65567		 724.87338			42967.78230		220.86200		875.00000 
 43692.65567		 305.27265			43387.38302		68.69600		324.00000 
 43692.65567		 724.87338			42967.78230		220.86200		875.00000 
 43692.65567		 305.27265			43387.38302		68.69600		324.00000 
 43692.65567		 724.87338			42967.78230		220.86200		875.00000 
 43692.65567		 305.27265			43387.38302		68.69600		324.00000 
 43692.65567		 724.87338			42967.78230		220.86200		875.00000 
 43692.65567		 305.27265			43387.38302		68.69600		324.00000 
 43692.65567		 724.87338			42967.78230		220.86200		875.00000 
 43692.65567		 305.27265			43387.38302		68.69600		324.00000 
 43692.65567		 724.87338			42967.78230		220.86200		875.00000 
 43692.65567		 305.27265			43387.38302		68.69600		324.00000 
 43692.65567		 724.87338			42967.78230		220.86200		875.00000 
 43692.65567		 305.27265			43387.38302		68.69600		324.00000 
 43692.65567		 724.87338			42967.78230		220.86200		875.00000 
 43692.65567		 305.27265			43387.38302		68.69600		324.00000 
 43692.65567		 724.87338			42967.78230		220.86200		875.00000 
 43692.65567		 305.27265			43387.38302		68.69600		324.00000 
 43692.65567		 724.87338			42967.78230		220.86200		875.00000 
 43692.65567		 305.27265			43387.38302		68.69600		324.00000 
 43692.65567		 724.87338			42967.78230		220.86200		875.00000 
 43692.65567		 305.27265			43387.38302		68.69600		324.00000 
 43692.65567		 724.87338			42967.78230		220.86200		875.00000 
 43692.65567		 305.27265			43387.38302		68.69600		324.00000 
 43692.65567		 724.87338			42967.78230		220.86200		875.00000 
 43692.65567		 305.27265			43387.38302		68.69600		324.00000 
 43692.65567		 724.87338			42967.78230		220.86200		875.00000 
 43692.65567		 305.27265			43387.38302		68.69600		324.00000 
 43692.65567		 724.87338			42967.78230		221.46000		875.00000 
 43692.65567		 305.27265			43387.38302		68.69600		324.00000 
 43692.65567		 724.87338			42967.78230		221.46000		875.00000 
 43692.65567		 305.27265			43387.38302		68.69600		324.00000 
 43692.65567		 724.87338			42967.78230		221.46000		875.00000 
 43692.65567		 305.27265			43387.38302		68.69600		324.00000 
 43692.65567		 724.87338			42967.78230		221.46000		875.00000 
 43692.65567		 305.27265			43387.38302		68.69600		324.00000 
 43692.65567		 724.87338			42967.78230		221.46000		875.00000 
 43692.65567		 305.27265			43387.38302		68.69600		324.00000 
 43692.65567		 724.87338			42967.78230		221.46000		875.00000 
 43692.65567		 305.27265			43387.38302		68.69600		324.00000 
 43692.65567		 724.87338			42967.78230		221.46000		875.00000 
 43692.65567		 305.27265			43387.38302		68.69600		324.00000 
 43692.65567		 724.87338			42967.78230		221.46000		875.00000 
 43692.65567		 305.27265			43387.38302		68.69600		324.00000 
 43692.65567		 724.87338			42967.78230		221.46000		875.00000 
 43692.65567		 305.27265			43387.38302		68.69600		324.00000 
 43692.65567		 724.87338			42967.78230		221.46000		875.00000 
 43692.65567		 305.27265			43387.38302		68.69600		324.00000 
 43692.65567		 724.87338			42967.78230		221.46000		875.00000 
 43692.65567		 305.27265			43387.38302		68.69600		324.00000 
 43692.65567		 724.87338			42967.78230		221.46000		875.00000 
 43692.65567		 305.27265			43387.38302		68.69600		324.00000 
 43692.65567		 724.87338			42967.78230		221.46000		875.00000 
 43692.65567		 305.27265			43387.38302		68.69600		324.00000 
 43692.65567		 724.87338			42967.78230		221.46000		875.00000 
 43692.65567		 305.27265			43387.38302		68.69600		324.00000 
 43692.65567		 724.87338			42967.78230		221.46000		875.00000 
 43692.65567		 305.27265			43387.38302		68.69600		324.00000 
 43692.65567		 724.87338			42967.78230		221.46000		875.00000 
 43692.65567		 305.27265			43387.38302		68.69600		324.00000 
 43692.65567		 724.87338			42967.78230		221.46000		875.00000 
 43692.65567		 305.27265			43387.38302		68.69600		324.00000 
 43692.65567		 724.87338			42967.78230		221.46000		875.00000 
 43692.65567		 305.27265			43387.38302		68.69600		324.00000 
 43692.65567		 724.87338			42967.78230		221.46000		875.00000 
 43692.65567		 305.27265			43387.38302		68.69600		324.00000 
 43692.65567		 724.87338			42967.78230		221.46000		875.00000 
 43692.65567		 305.27265			43387.38302		68.69600		324.00000 
 43692.65567		 724.87338			42967.78230		221.46000		875.00000 
 43692.65567		 305.27265			43387.38302		68.69600		324.00000 
 43692.65567		 724.87338			42967.78230		221.46000		875.00000 
 43692.65567		 305.27265			43387.38302		68.69600		324.00000 
 43692.65567		 724.87338			42967.78230		221.46000		875.00000 
 43692.65567		 305.27265			43387.38302		68.69600		324.00000 
 43692.65567		 724.87338			42967.78230		221.46000		875.00000 
 43692.65567		 305.27265			43387.38302		68.69600		324.00000 
 43692.65567		 724.87338			42967.78230		221.46000		875.00000 
 43692.65567		 305.27265			43387.38302		68.69600		324.00000 
 43692.65567		 724.87338			42967.78230		221.46000		875.00000 
 43692.65567		 305.27265			43387.38302		68.69600		324.00000 
 43692.65567		 724.87338			42967.78230		221.46000		875.00000 
 43692.65567		 305.27265			43387.38302		68.69600		324.00000 
 43692.65567		 724.87338			42967.78230		221.46000		875.00000 
 43692.65567		 305.27265			43387.38302		68.69600		324.00000 
 43692.65567		 724.87338			42967.78230		221.46000		875.00000 
 43692.65567		 305.27265			43387.38302		68.69600		324.00000 
 43692.65567		 724.87338			42967.78230		221.46000		875.00000 
 43692.65567		 305.27265			43387.38302		68.69600		324.00000 
 43692.65567		 724.87338			42967.78230		221.46000		875.00000 
 43692.65567		 305.27265			43387.38302		68.69600		324.00000 
 43692.65567		 724.87338			42967.78230		221.46000		875.00000 
 43692.65567		 305.27265			43387.38302		68.69600		324.00000 
 43692.65567		 724.87338			42967.78230		221.46000		875.00000 
 43692.65567		 305.27265			43387.38302		68.69600		324.00000 
 43692.65567		 724.87338			42967.78230		221.46000		875.00000 
 43692.65567		 305.27265			43387.38302		68.69600		324.00000 
 43692.65567		 724.87338			42967.78230		221.46000		875.00000 
 43692.65567		 305.27265			43387.38302		68.69600		324.00000 
 43692.65567		 724.87338			42967.78230		221.46000		875.00000 
 43692.65567		 305.27265			43387.38302		68.69600		324.00000 
 43692.65567		 724.87338			42967.78230		221.46000		875.00000 
 43692.65567		 305.27265			43387.38302		68.69600		324.00000 
 43692.65567		 724.87338			42967.78230		221.46000		875.00000 
 43692.65567		 305.27265			43387.38302		68.69600		324.00000 
 43692.65567		 724.87338			42967.78230		221.46000		875.00000 
 43692.65567		 305.27265			43387.38302		68.69600		324.00000 
 43692.65567		 724.87338			42967.78230		221.46000		875.00000 
 43692.65567		 305.27265			43387.38302		68.69600		324.00000 
 43692.65567		 724.87338			42967.78230		221.46000		875.00000 
 43692.65567		 305.27265			43387.38302		68.69600		324.00000 
 43692.65567		 724.87338			42967.78230		221.46000		875.00000 
 43692.65567		 305.27265			43387.38302		68.69600		324.00000 
 43692.65567		 724.87338			42967.78230		221.46000		875.00000 
 43692.65567		 305.27265			43387.38302		68.69600		324.00000 
 43692.65567		 724.87338			42967.78230		221.46000		875.00000 
 43692.65567		 305.27265			43387.38302		68.69600		324.00000 
 43692.65567		 724.87338			42967.78230		221.46000		875.00000 
 43692.65567		 305.27265			43387.38302		68.69600		324.00000 
 43692.65567		 724.87338			42967.78230		221.46000		875.00000 
 43692.65567		 305.27265			43387.38302		68.69600		324.00000 
 43692.65567		 724.87338			42967.78230		221.46000		875.00000 
 43692.65567		 305.27265			43387.38302		68.69600		324.00000 
 43692.65567		 724.87338			42967.78230		221.46000		875.00000 
 43692.65567		 305.27265			43387.38302		68.69600		324.00000 
 43692.65567		 724.87338			42967.78230		221.46000		875.00000 
 43692.65567		 305.27265			43387.38302		68.69600		324.00000 
 43692.65567		 724.87338			42967.78230		221.46000		875.00000 
 43692.65567		 305.27265			43387.38302		68.69600		324.00000 
 43692.65567		 724.87338			42967.78230		221.46000		875.00000 
 43692.65567		 305.27265			43387.38302		68.69600		324.00000 
 43692.65567		 724.87338			42967.78230		221.46000		875.00000 
 43692.65567		 305.27265			43387.38302		68.69600		324.00000 
 43692.65567		 724.87338			42967.78230		221.46000		875.00000 
 43692.65567		 305.27265			43387.38302		68.69600		324.00000 
 43692.65567		 662.33902			43030.31665		221.46000		875.00000 
 43692.65567		 305.27265			43387.38302		68.69600		324.00000 
 43692.65567		 599.80467			43092.85100		221.46000		875.00000 
 43692.65567		 305.27265			43387.38302		68.69600		324.00000 
 43692.65567		 537.27032			43155.38535		221.46000		875.00000 
 43692.65567		 305.27265			43387.38302		68.69600		324.00000 
 43692.65567		 537.27032			43155.38535		221.46000		875.00000 
 43692.65567		 305.27265			43387.38302		68.69600		324.00000 
 43692.65567		 537.27032			43155.38535		221.46000		875.00000 
 43692.65567		 305.27265			43387.38302		68.69600		324.00000 
 43692.65567		 537.27032			43155.38535		221.46000		875.00000 
 43692.65567		 305.27265			43387.38302		68.69600		324.00000 
 43692.65567		 537.27032			43155.38535		221.46000		875.00000 
 43692.65567		 305.27265			43387.38302		68.69600		324.00000 
 43692.65567		 537.27032			43155.38535		221.46000		875.00000 
 43692.65567		 305.27265			43387.38302		68.69600		324.00000 
 43692.65567		 537.27032			43155.38535		206.02000		875.00000 
 43692.65567		 305.27265			43387.38302		68.69600		324.00000 
 43692.65567		 537.27032			43155.38535		206.02000		875.00000 
 43692.65567		 305.27265			43387.38302		68.69600		324.00000 
 43692.65567		 537.27032			43155.38535		206.02000		875.00000 
 43692.65567		 305.27265			43387.38302		68.69600		324.00000 
 43692.65567		 537.27032			43155.38535		206.02000		875.00000 
 43692.65567		 305.27265			43387.38302		68.69600		324.00000 
 43692.65567		 537.27032			43155.38535		206.02000		875.00000 
 43692.65567		 305.27265			43387.38302		68.69600		324.00000 
 43692.65567		 537.27032			43155.38535		206.02000		875.00000 
 43692.65567		 305.27265			43387.38302		68.69600		324.00000 
 43692.65567		 537.27032			43155.38535		206.02000		875.00000 
 43692.65567		 305.27265			43387.38302		68.69600		324.00000 
 43692.65567		 537.27032			43155.38535		206.02000		875.00000 
 43692.65567		 305.27265			43387.38302		68.69600		324.00000 
 43692.65567		 537.27032			43155.38535		206.02000		875.00000 
 43692.65567		 305.27265			43387.38302		68.69600		324.00000 
 43692.65567		 537.27032			43155.38535		206.02000		875.00000 
 43692.65567		 305.27265			43387.38302		68.69600		324.00000 
 43692.65567		 537.27032			43155.38535		206.02000		875.00000 
 43692.65567		 305.27265			43387.38302		68.69600		324.00000 
 43692.65567		 537.27032			43155.38535		206.02000		875.00000 
 43692.65567		 305.27265			43387.38302		68.69600		324.00000 
 43692.65567		 537.27032			43155.38535		206.02000		875.00000 
 43692.65567		 305.27265			43387.38302		68.69600		324.00000 
 43692.65567		 537.27032			43155.38535		206.02000		875.00000 
 43692.65567		 305.27265			43387.38302		68.69600		324.00000 
 43692.65567		 525.81365			43166.84203		206.02000		875.00000 
 43692.65567		 305.27265			43387.38302		68.69600		324.00000 
 43692.65567		 525.81365			43166.84203		206.02000		875.00000 
 43692.65567		 261.35540			43431.30027		68.69600		324.00000 
 43692.65567		 261.35540			43431.30027		206.02000		875.00000 
 43692.65567		 261.35540			43431.30027		68.69600		324.00000 
