Memory Total (MiB) 	 Memory Used (MiB) 	    Memory Free (MiB) 	 Power Drawed (W) 	 Clocks (Mhz) 	 
 43692.65567		 261.35540			43431.30027		195.33800		875.00000 
 43692.65567		 261.35540			43431.30027		66.09000		324.00000 
 43692.65567		 261.35540			43431.30027		195.33800		875.00000 
 43692.65567		 261.35540			43431.30027		66.09000		324.00000 
 43692.65567		 261.35540			43431.30027		195.33800		875.00000 
 43692.65567		 261.35540			43431.30027		66.09000		324.00000 
 43692.65567		 261.35540			43431.30027		195.33800		875.00000 
 43692.65567		 261.35540			43431.30027		66.09000		324.00000 
 43692.65567		 261.35540			43431.30027		195.33800		875.00000 
 43692.65567		 261.35540			43431.30027		66.09000		324.00000 
 43692.65567		 261.35540			43431.30027		195.33800		875.00000 
 43692.65567		 261.35540			43431.30027		66.09000		324.00000 
 43692.65567		 261.35540			43431.30027		195.33800		875.00000 
 43692.65567		 261.35540			43431.30027		66.09000		324.00000 
 43692.65567		 261.35540			43431.30027		195.33800		875.00000 
 43692.65567		 261.35540			43431.30027		66.09000		324.00000 
 43692.65567		 261.35540			43431.30027		195.33800		875.00000 
 43692.65567		 261.35540			43431.30027		66.09000		324.00000 
 43692.65567		 261.35540			43431.30027		195.33800		875.00000 
 43692.65567		 261.35540			43431.30027		66.09000		324.00000 
 43692.65567		 261.35540			43431.30027		195.33800		875.00000 
 43692.65567		 261.35540			43431.30027		66.09000		324.00000 
 43692.65567		 261.35540			43431.30027		195.33800		875.00000 
 43692.65567		 261.35540			43431.30027		66.09000		324.00000 
 43692.65567		 261.35540			43431.30027		195.33800		875.00000 
 43692.65567		 261.35540			43431.30027		66.09000		324.00000 
 43692.65567		 261.35540			43431.30027		195.33800		875.00000 
 43692.65567		 261.35540			43431.30027		66.09000		324.00000 
 43692.65567		 261.35540			43431.30027		195.33800		875.00000 
 43692.65567		 261.35540			43431.30027		66.09000		324.00000 
 43692.65567		 261.35540			43431.30027		195.33800		875.00000 
 43692.65567		 261.35540			43431.30027		66.09000		324.00000 
 43692.65567		 261.35540			43431.30027		195.33800		875.00000 
 43692.65567		 261.35540			43431.30027		66.09000		324.00000 
 43692.65567		 261.35540			43431.30027		195.33800		875.00000 
 43692.65567		 261.35540			43431.30027		66.09000		324.00000 
 43692.65567		 265.17429			43427.48138		195.33800		875.00000 
 43692.65567		 261.35540			43431.30027		66.09000		324.00000 
 43692.65567		 265.17429			43427.48138		155.71000		875.00000 
 43692.65567		 261.35540			43431.30027		66.09000		324.00000 
 43692.65567		 272.81207			43419.84360		155.71000		875.00000 
 43692.65567		 261.35540			43431.30027		66.09000		324.00000 
 43692.65567		 272.81207			43419.84360		155.71000		875.00000 
 43692.65567		 261.35540			43431.30027		66.09000		324.00000 
 43692.65567		 272.81207			43419.84360		155.71000		875.00000 
 43692.65567		 265.17429			43427.48138		66.09000		324.00000 
 43692.65567		 272.81207			43419.84360		155.71000		875.00000 
 43692.65567		 265.17429			43427.48138		66.09000		324.00000 
 43692.65567		 272.81207			43419.84360		155.71000		875.00000 
 43692.65567		 265.17429			43427.48138		66.09000		324.00000 
 43692.65567		 272.81207			43419.84360		155.71000		875.00000 
 43692.65567		 272.81207			43419.84360		66.09000		324.00000 
 43692.65567		 272.81207			43419.84360		155.71000		875.00000 
 43692.65567		 272.81207			43419.84360		66.09000		324.00000 
 43692.65567		 272.81207			43419.84360		155.71000		875.00000 
 43692.65567		 272.81207			43419.84360		66.09000		324.00000 
 43692.65567		 305.27265			43387.38302		155.71000		875.00000 
 43692.65567		 305.27265			43387.38302		66.09000		324.00000 
 43692.65567		 305.27265			43387.38302		155.71000		875.00000 
 43692.65567		 305.27265			43387.38302		66.09000		324.00000 
 43692.65567		 305.27265			43387.38302		155.71000		875.00000 
 43692.65567		 305.27265			43387.38302		66.09000		324.00000 
 43692.65567		 305.27265			43387.38302		155.71000		875.00000 
 43692.65567		 305.27265			43387.38302		66.09000		324.00000 
 43692.65567		 305.27265			43387.38302		155.71000		875.00000 
 43692.65567		 305.27265			43387.38302		66.09000		324.00000 
 43692.65567		 309.56891			43383.08677		155.71000		875.00000 
 43692.65567		 305.27265			43387.38302		66.09000		324.00000 
 43692.65567		 311.00099			43381.65468		155.71000		875.00000 
 43692.65567		 305.27265			43387.38302		66.09000		324.00000 
 43692.65567		 311.00099			43381.65468		155.71000		875.00000 
 43692.65567		 305.27265			43387.38302		66.09000		324.00000 
 43692.65567		 311.00099			43381.65468		155.71000		875.00000 
 43692.65567		 305.27265			43387.38302		66.09000		324.00000 
 43692.65567		 311.00099			43381.65468		155.71000		875.00000 
 43692.65567		 305.27265			43387.38302		66.09000		324.00000 
 43692.65567		 311.00099			43381.65468		155.71000		875.00000 
 43692.65567		 305.27265			43387.38302		66.09000		324.00000 
 43692.65567		 311.00099			43381.65468		155.71000		875.00000 
 43692.65567		 305.27265			43387.38302		66.09000		324.00000 
 43692.65567		 311.00099			43381.65468		155.71000		875.00000 
 43692.65567		 305.27265			43387.38302		66.09000		324.00000 
 43692.65567		 311.00099			43381.65468		155.71000		875.00000 
 43692.65567		 305.27265			43387.38302		66.09000		324.00000 
 43692.65567		 311.00099			43381.65468		155.71000		875.00000 
 43692.65567		 305.27265			43387.38302		66.09000		324.00000 
 43692.65567		 311.00099			43381.65468		155.71000		875.00000 
 43692.65567		 305.27265			43387.38302		66.09000		324.00000 
 43692.65567		 311.00099			43381.65468		155.71000		875.00000 
 43692.65567		 305.27265			43387.38302		66.09000		324.00000 
 43692.65567		 311.00099			43381.65468		155.71000		875.00000 
 43692.65567		 305.27265			43387.38302		66.09000		324.00000 
 43692.65567		 311.00099			43381.65468		155.71000		875.00000 
 43692.65567		 305.27265			43387.38302		66.09000		324.00000 
 43692.65567		 311.00099			43381.65468		155.71000		875.00000 
 43692.65567		 305.27265			43387.38302		66.09000		324.00000 
 43692.65567		 311.00099			43381.65468		155.71000		875.00000 
 43692.65567		 305.27265			43387.38302		66.09000		324.00000 
 43692.65567		 311.00099			43381.65468		155.71000		875.00000 
 43692.65567		 305.27265			43387.38302		66.09000		324.00000 
 43692.65567		 311.00099			43381.65468		155.71000		875.00000 
 43692.65567		 305.27265			43387.38302		66.09000		324.00000 
 43692.65567		 311.00099			43381.65468		155.71000		875.00000 
 43692.65567		 305.27265			43387.38302		66.09000		324.00000 
 43692.65567		 311.00099			43381.65468		140.18600		875.00000 
 43692.65567		 305.27265			43387.38302		66.09000		324.00000 
 43692.65567		 311.00099			43381.65468		140.18600		875.00000 
 43692.65567		 305.27265			43387.38302		66.09000		324.00000 
 43692.65567		 311.00099			43381.65468		140.18600		875.00000 
 43692.65567		 305.27265			43387.38302		66.09000		324.00000 
 43692.65567		 311.00099			43381.65468		140.18600		875.00000 
 43692.65567		 305.27265			43387.38302		66.09000		324.00000 
 43692.65567		 311.00099			43381.65468		140.18600		875.00000 
 43692.65567		 305.27265			43387.38302		66.09000		324.00000 
 43692.65567		 311.00099			43381.65468		140.18600		875.00000 
 43692.65567		 305.27265			43387.38302		66.09000		324.00000 
 43692.65567		 311.00099			43381.65468		140.18600		875.00000 
 43692.65567		 305.27265			43387.38302		66.09000		324.00000 
 43692.65567		 311.00099			43381.65468		140.18600		875.00000 
 43692.65567		 305.27265			43387.38302		66.09000		324.00000 
 43692.65567		 311.00099			43381.65468		140.18600		875.00000 
 43692.65567		 305.27265			43387.38302		66.09000		324.00000 
 43692.65567		 311.00099			43381.65468		140.18600		875.00000 
 43692.65567		 305.27265			43387.38302		66.09000		324.00000 
 43692.65567		 311.00099			43381.65468		140.18600		875.00000 
 43692.65567		 305.27265			43387.38302		66.09000		324.00000 
 43692.65567		 311.00099			43381.65468		140.18600		875.00000 
 43692.65567		 305.27265			43387.38302		66.09000		324.00000 
 43692.65567		 311.00099			43381.65468		140.18600		875.00000 
 43692.65567		 305.27265			43387.38302		66.09000		324.00000 
 43692.65567		 311.00099			43381.65468		140.18600		875.00000 
 43692.65567		 305.27265			43387.38302		66.09000		324.00000 
 43692.65567		 311.00099			43381.65468		140.18600		875.00000 
 43692.65567		 305.27265			43387.38302		66.09000		324.00000 
 43692.65567		 311.00099			43381.65468		140.18600		875.00000 
 43692.65567		 305.27265			43387.38302		66.09000		324.00000 
 43692.65567		 311.00099			43381.65468		140.18600		875.00000 
 43692.65567		 305.27265			43387.38302		66.09000		324.00000 
 43692.65567		 311.00099			43381.65468		140.18600		875.00000 
 43692.65567		 305.27265			43387.38302		66.09000		324.00000 
 43692.65567		 311.00099			43381.65468		140.18600		875.00000 
 43692.65567		 305.27265			43387.38302		66.09000		324.00000 
 43692.65567		 311.00099			43381.65468		140.18600		875.00000 
 43692.65567		 305.27265			43387.38302		66.09000		324.00000 
 43692.65567		 311.00099			43381.65468		140.18600		875.00000 
 43692.65567		 305.27265			43387.38302		66.09000		324.00000 
 43692.65567		 311.00099			43381.65468		140.18600		875.00000 
 43692.65567		 305.27265			43387.38302		66.09000		324.00000 
 43692.65567		 311.00099			43381.65468		140.18600		875.00000 
 43692.65567		 305.27265			43387.38302		66.09000		324.00000 
 43692.65567		 311.00099			43381.65468		140.18600		875.00000 
 43692.65567		 305.27265			43387.38302		66.09000		324.00000 
 43692.65567		 311.00099			43381.65468		140.18600		875.00000 
 43692.65567		 305.27265			43387.38302		66.09000		324.00000 
 43692.65567		 311.00099			43381.65468		140.18600		875.00000 
 43692.65567		 305.27265			43387.38302		66.09000		324.00000 
 43692.65567		 311.00099			43381.65468		140.18600		875.00000 
 43692.65567		 305.27265			43387.38302		66.09000		324.00000 
 43692.65567		 311.00099			43381.65468		140.18600		875.00000 
 43692.65567		 305.27265			43387.38302		66.09000		324.00000 
 43692.65567		 311.00099			43381.65468		140.18600		875.00000 
 43692.65567		 305.27265			43387.38302		66.09000		324.00000 
 43692.65567		 311.00099			43381.65468		140.18600		875.00000 
 43692.65567		 305.27265			43387.38302		66.09000		324.00000 
 43692.65567		 311.00099			43381.65468		140.18600		875.00000 
 43692.65567		 305.27265			43387.38302		66.09000		324.00000 
 43692.65567		 311.00099			43381.65468		134.75200		875.00000 
 43692.65567		 305.27265			43387.38302		66.09000		324.00000 
 43692.65567		 311.00099			43381.65468		134.75200		875.00000 
 43692.65567		 305.27265			43387.38302		66.09000		324.00000 
 43692.65567		 314.81988			43377.83579		134.75200		875.00000 
 43692.65567		 305.27265			43387.38302		66.09000		324.00000 
 43692.65567		 314.81988			43377.83579		134.75200		875.00000 
 43692.65567		 305.27265			43387.38302		66.09000		324.00000 
 43692.65567		 314.81988			43377.83579		134.75200		875.00000 
 43692.65567		 305.27265			43387.38302		66.09000		324.00000 
 43692.65567		 318.63877			43374.01690		134.75200		875.00000 
 43692.65567		 305.27265			43387.38302		66.09000		324.00000 
 43692.65567		 322.45767			43370.19801		134.75200		875.00000 
 43692.65567		 305.27265			43387.38302		66.09000		324.00000 
 43692.65567		 326.27656			43366.37912		134.75200		875.00000 
 43692.65567		 305.27265			43387.38302		66.09000		324.00000 
 43692.65567		 326.27656			43366.37912		134.75200		875.00000 
 43692.65567		 305.27265			43387.38302		66.09000		324.00000 
 43692.65567		 326.27656			43366.37912		134.75200		875.00000 
 43692.65567		 305.27265			43387.38302		66.09000		324.00000 
 43692.65567		 537.27032			43155.38535		134.75200		875.00000 
 43692.65567		 305.27265			43387.38302		66.09000		324.00000 
 43692.65567		 595.50842			43097.14725		134.75200		875.00000 
 43692.65567		 305.27265			43387.38302		66.09000		324.00000 
 43692.65567		 624.62747			43068.02820		134.75200		875.00000 
 43692.65567		 305.27265			43387.38302		66.09000		324.00000 
 43692.65567		 624.62747			43068.02820		134.75200		875.00000 
 43692.65567		 305.27265			43387.38302		66.09000		324.00000 
 43692.65567		 624.62747			43068.02820		134.75200		875.00000 
 43692.65567		 305.27265			43387.38302		66.09000		324.00000 
 43692.65567		 624.62747			43068.02820		134.75200		875.00000 
 43692.65567		 305.27265			43387.38302		66.09000		324.00000 
 43692.65567		 624.62747			43068.02820		134.75200		875.00000 
 43692.65567		 305.27265			43387.38302		66.09000		324.00000 
 43692.65567		 624.62747			43068.02820		134.75200		875.00000 
 43692.65567		 305.27265			43387.38302		66.09000		324.00000 
 43692.65567		 624.62747			43068.02820		134.75200		875.00000 
 43692.65567		 305.27265			43387.38302		66.09000		324.00000 
 43692.65567		 624.62747			43068.02820		134.75200		875.00000 
 43692.65567		 305.27265			43387.38302		66.09000		324.00000 
 43692.65567		 624.62747			43068.02820		134.75200		875.00000 
 43692.65567		 305.27265			43387.38302		66.09000		324.00000 
 43692.65567		 624.62747			43068.02820		134.75200		875.00000 
 43692.65567		 305.27265			43387.38302		66.09000		324.00000 
 43692.65567		 624.62747			43068.02820		134.75200		875.00000 
 43692.65567		 305.27265			43387.38302		66.09000		324.00000 
 43692.65567		 624.62747			43068.02820		134.75200		875.00000 
 43692.65567		 305.27265			43387.38302		66.09000		324.00000 
 43692.65567		 624.62747			43068.02820		134.75200		875.00000 
 43692.65567		 305.27265			43387.38302		66.09000		324.00000 
 43692.65567		 624.62747			43068.02820		134.75200		875.00000 
 43692.65567		 305.27265			43387.38302		66.09000		324.00000 
 43692.65567		 624.62747			43068.02820		134.75200		875.00000 
 43692.65567		 305.27265			43387.38302		66.09000		324.00000 
 43692.65567		 624.62747			43068.02820		134.75200		875.00000 
 43692.65567		 305.27265			43387.38302		66.09000		324.00000 
 43692.65567		 624.62747			43068.02820		134.75200		875.00000 
 43692.65567		 305.27265			43387.38302		66.09000		324.00000 
 43692.65567		 624.62747			43068.02820		134.75200		875.00000 
 43692.65567		 305.27265			43387.38302		66.09000		324.00000 
 43692.65567		 624.62747			43068.02820		134.75200		875.00000 
 43692.65567		 305.27265			43387.38302		66.09000		324.00000 
 43692.65567		 624.62747			43068.02820		134.75200		875.00000 
 43692.65567		 305.27265			43387.38302		66.67800		324.00000 
 43692.65567		 624.62747			43068.02820		134.75200		875.00000 
 43692.65567		 305.27265			43387.38302		66.67800		324.00000 
 43692.65567		 624.62747			43068.02820		134.75200		875.00000 
 43692.65567		 305.27265			43387.38302		66.67800		324.00000 
 43692.65567		 624.62747			43068.02820		134.75200		875.00000 
 43692.65567		 305.27265			43387.38302		66.67800		324.00000 
 43692.65567		 624.62747			43068.02820		134.75200		875.00000 
 43692.65567		 305.27265			43387.38302		66.67800		324.00000 
 43692.65567		 624.62747			43068.02820		134.75200		875.00000 
 43692.65567		 305.27265			43387.38302		66.67800		324.00000 
 43692.65567		 624.62747			43068.02820		134.75200		875.00000 
 43692.65567		 305.27265			43387.38302		66.67800		324.00000 
 43692.65567		 624.62747			43068.02820		134.75200		875.00000 
 43692.65567		 305.27265			43387.38302		66.67800		324.00000 
 43692.65567		 624.62747			43068.02820		134.75200		875.00000 
 43692.65567		 305.27265			43387.38302		66.67800		324.00000 
 43692.65567		 624.62747			43068.02820		134.75200		875.00000 
 43692.65567		 305.27265			43387.38302		66.67800		324.00000 
 43692.65567		 624.62747			43068.02820		134.75200		875.00000 
 43692.65567		 305.27265			43387.38302		66.67800		324.00000 
 43692.65567		 624.62747			43068.02820		134.75200		875.00000 
 43692.65567		 305.27265			43387.38302		66.67800		324.00000 
 43692.65567		 624.62747			43068.02820		134.75200		875.00000 
 43692.65567		 305.27265			43387.38302		66.67800		324.00000 
 43692.65567		 624.62747			43068.02820		134.75200		875.00000 
 43692.65567		 305.27265			43387.38302		66.67800		324.00000 
 43692.65567		 624.62747			43068.02820		134.75200		875.00000 
 43692.65567		 305.27265			43387.38302		66.67800		324.00000 
 43692.65567		 624.62747			43068.02820		134.75200		875.00000 
 43692.65567		 305.27265			43387.38302		66.67800		324.00000 
 43692.65567		 624.62747			43068.02820		134.75200		875.00000 
 43692.65567		 305.27265			43387.38302		66.67800		324.00000 
 43692.65567		 624.62747			43068.02820		134.75200		875.00000 
 43692.65567		 305.27265			43387.38302		66.67800		324.00000 
 43692.65567		 624.62747			43068.02820		134.75200		875.00000 
 43692.65567		 305.27265			43387.38302		66.67800		324.00000 
 43692.65567		 624.62747			43068.02820		134.75200		875.00000 
 43692.65567		 305.27265			43387.38302		66.67800		324.00000 
 43692.65567		 624.62747			43068.02820		134.75200		875.00000 
 43692.65567		 305.27265			43387.38302		66.67800		324.00000 
 43692.65567		 624.62747			43068.02820		134.75200		875.00000 
 43692.65567		 305.27265			43387.38302		66.67800		324.00000 
 43692.65567		 624.62747			43068.02820		134.75200		875.00000 
 43692.65567		 305.27265			43387.38302		66.67800		324.00000 
 43692.65567		 624.62747			43068.02820		134.75200		875.00000 
 43692.65567		 305.27265			43387.38302		66.67800		324.00000 
 43692.65567		 624.62747			43068.02820		175.92800		875.00000 
 43692.65567		 305.27265			43387.38302		66.67800		324.00000 
 43692.65567		 624.62747			43068.02820		175.92800		875.00000 
 43692.65567		 305.27265			43387.38302		66.67800		324.00000 
 43692.65567		 624.62747			43068.02820		175.92800		875.00000 
 43692.65567		 305.27265			43387.38302		66.67800		324.00000 
 43692.65567		 624.62747			43068.02820		175.92800		875.00000 
 43692.65567		 305.27265			43387.38302		66.67800		324.00000 
 43692.65567		 624.62747			43068.02820		175.92800		875.00000 
 43692.65567		 305.27265			43387.38302		66.67800		324.00000 
 43692.65567		 624.62747			43068.02820		175.92800		875.00000 
 43692.65567		 305.27265			43387.38302		66.67800		324.00000 
 43692.65567		 624.62747			43068.02820		175.92800		875.00000 
 43692.65567		 305.27265			43387.38302		66.67800		324.00000 
 43692.65567		 624.62747			43068.02820		175.92800		875.00000 
 43692.65567		 305.27265			43387.38302		66.67800		324.00000 
 43692.65567		 624.62747			43068.02820		175.92800		875.00000 
 43692.65567		 305.27265			43387.38302		66.67800		324.00000 
 43692.65567		 624.62747			43068.02820		175.92800		875.00000 
 43692.65567		 305.27265			43387.38302		66.67800		324.00000 
 43692.65567		 624.62747			43068.02820		175.92800		875.00000 
 43692.65567		 305.27265			43387.38302		66.67800		324.00000 
 43692.65567		 624.62747			43068.02820		175.92800		875.00000 
 43692.65567		 305.27265			43387.38302		66.67800		324.00000 
 43692.65567		 624.62747			43068.02820		175.92800		875.00000 
 43692.65567		 305.27265			43387.38302		66.67800		324.00000 
 43692.65567		 624.62747			43068.02820		175.92800		875.00000 
 43692.65567		 305.27265			43387.38302		66.67800		324.00000 
 43692.65567		 624.62747			43068.02820		175.92800		875.00000 
 43692.65567		 305.27265			43387.38302		66.67800		324.00000 
 43692.65567		 624.62747			43068.02820		175.92800		875.00000 
 43692.65567		 305.27265			43387.38302		66.67800		324.00000 
 43692.65567		 624.62747			43068.02820		175.92800		875.00000 
 43692.65567		 305.27265			43387.38302		66.67800		324.00000 
 43692.65567		 624.62747			43068.02820		175.92800		875.00000 
 43692.65567		 305.27265			43387.38302		66.67800		324.00000 
 43692.65567		 624.62747			43068.02820		175.92800		875.00000 
 43692.65567		 305.27265			43387.38302		66.67800		324.00000 
 43692.65567		 624.62747			43068.02820		175.92800		875.00000 
 43692.65567		 305.27265			43387.38302		66.67800		324.00000 
 43692.65567		 624.62747			43068.02820		175.92800		875.00000 
 43692.65567		 305.27265			43387.38302		66.67800		324.00000 
 43692.65567		 624.62747			43068.02820		175.92800		875.00000 
 43692.65567		 305.27265			43387.38302		66.67800		324.00000 
 43692.65567		 624.62747			43068.02820		175.92800		875.00000 
 43692.65567		 305.27265			43387.38302		66.67800		324.00000 
 43692.65567		 624.62747			43068.02820		175.92800		875.00000 
 43692.65567		 305.27265			43387.38302		66.67800		324.00000 
 43692.65567		 624.62747			43068.02820		175.92800		875.00000 
 43692.65567		 305.27265			43387.38302		66.67800		324.00000 
 43692.65567		 624.62747			43068.02820		175.92800		875.00000 
 43692.65567		 305.27265			43387.38302		66.67800		324.00000 
 43692.65567		 624.62747			43068.02820		175.92800		875.00000 
 43692.65567		 305.27265			43387.38302		66.67800		324.00000 
 43692.65567		 624.62747			43068.02820		175.92800		875.00000 
 43692.65567		 305.27265			43387.38302		66.67800		324.00000 
 43692.65567		 624.62747			43068.02820		175.92800		875.00000 
 43692.65567		 305.27265			43387.38302		66.67800		324.00000 
 43692.65567		 624.62747			43068.02820		175.92800		875.00000 
 43692.65567		 305.27265			43387.38302		66.67800		324.00000 
 43692.65567		 624.62747			43068.02820		175.92800		875.00000 
 43692.65567		 305.27265			43387.38302		66.67800		324.00000 
 43692.65567		 624.62747			43068.02820		175.92800		875.00000 
 43692.65567		 305.27265			43387.38302		66.67800		324.00000 
 43692.65567		 624.62747			43068.02820		175.92800		875.00000 
 43692.65567		 305.27265			43387.38302		66.67800		324.00000 
 43692.65567		 624.62747			43068.02820		175.92800		875.00000 
 43692.65567		 305.27265			43387.38302		66.67800		324.00000 
 43692.65567		 624.62747			43068.02820		175.92800		875.00000 
 43692.65567		 305.27265			43387.38302		66.67800		324.00000 
 43692.65567		 624.62747			43068.02820		175.92800		875.00000 
 43692.65567		 305.27265			43387.38302		66.67800		324.00000 
 43692.65567		 624.62747			43068.02820		175.92800		875.00000 
 43692.65567		 305.27265			43387.38302		66.67800		324.00000 
 43692.65567		 624.62747			43068.02820		175.92800		875.00000 
 43692.65567		 305.27265			43387.38302		66.67800		324.00000 
 43692.65567		 624.62747			43068.02820		175.92800		875.00000 
 43692.65567		 305.27265			43387.38302		66.67800		324.00000 
 43692.65567		 624.62747			43068.02820		175.92800		875.00000 
 43692.65567		 305.27265			43387.38302		66.67800		324.00000 
 43692.65567		 624.62747			43068.02820		175.92800		875.00000 
 43692.65567		 305.27265			43387.38302		66.67800		324.00000 
 43692.65567		 624.62747			43068.02820		175.92800		875.00000 
 43692.65567		 305.27265			43387.38302		66.67800		324.00000 
 43692.65567		 624.62747			43068.02820		175.92800		875.00000 
 43692.65567		 305.27265			43387.38302		66.67800		324.00000 
 43692.65567		 624.62747			43068.02820		175.92800		875.00000 
 43692.65567		 305.27265			43387.38302		66.67800		324.00000 
 43692.65567		 624.62747			43068.02820		175.92800		875.00000 
 43692.65567		 305.27265			43387.38302		66.67800		324.00000 
 43692.65567		 624.62747			43068.02820		175.92800		875.00000 
 43692.65567		 305.27265			43387.38302		66.67800		324.00000 
 43692.65567		 624.62747			43068.02820		175.92800		875.00000 
 43692.65567		 305.27265			43387.38302		66.67800		324.00000 
 43692.65567		 624.62747			43068.02820		175.92800		875.00000 
 43692.65567		 305.27265			43387.38302		66.67800		324.00000 
 43692.65567		 624.62747			43068.02820		175.92800		875.00000 
 43692.65567		 305.27265			43387.38302		66.67800		324.00000 
 43692.65567		 624.62747			43068.02820		175.92800		875.00000 
 43692.65567		 305.27265			43387.38302		66.67800		324.00000 
 43692.65567		 624.62747			43068.02820		175.92800		875.00000 
 43692.65567		 305.27265			43387.38302		66.67800		324.00000 
 43692.65567		 624.62747			43068.02820		175.92800		875.00000 
 43692.65567		 305.27265			43387.38302		66.67800		324.00000 
 43692.65567		 624.62747			43068.02820		175.92800		875.00000 
 43692.65567		 305.27265			43387.38302		66.67800		324.00000 
 43692.65567		 624.62747			43068.02820		175.92800		875.00000 
 43692.65567		 305.27265			43387.38302		66.67800		324.00000 
 43692.65567		 624.62747			43068.02820		175.92800		875.00000 
 43692.65567		 305.27265			43387.38302		66.67800		324.00000 
 43692.65567		 624.62747			43068.02820		175.92800		875.00000 
 43692.65567		 305.27265			43387.38302		66.67800		324.00000 
 43692.65567		 624.62747			43068.02820		175.92800		875.00000 
 43692.65567		 305.27265			43387.38302		66.67800		324.00000 
 43692.65567		 624.62747			43068.02820		175.92800		875.00000 
 43692.65567		 305.27265			43387.38302		66.67800		324.00000 
 43692.65567		 624.62747			43068.02820		175.92800		875.00000 
 43692.65567		 305.27265			43387.38302		66.67800		324.00000 
 43692.65567		 624.62747			43068.02820		175.92800		875.00000 
 43692.65567		 305.27265			43387.38302		66.67800		324.00000 
 43692.65567		 624.62747			43068.02820		175.92800		875.00000 
 43692.65567		 305.27265			43387.38302		66.67800		324.00000 
 43692.65567		 624.62747			43068.02820		175.92800		875.00000 
 43692.65567		 305.27265			43387.38302		66.67800		324.00000 
 43692.65567		 624.62747			43068.02820		175.92800		875.00000 
 43692.65567		 305.27265			43387.38302		66.67800		324.00000 
 43692.65567		 624.62747			43068.02820		175.92800		875.00000 
 43692.65567		 305.27265			43387.38302		66.67800		324.00000 
 43692.65567		 624.62747			43068.02820		175.92800		875.00000 
 43692.65567		 305.27265			43387.38302		66.67800		324.00000 
 43692.65567		 624.62747			43068.02820		202.29800		875.00000 
 43692.65567		 305.27265			43387.38302		66.67800		324.00000 
 43692.65567		 624.62747			43068.02820		202.29800		875.00000 
 43692.65567		 305.27265			43387.38302		66.67800		324.00000 
 43692.65567		 624.62747			43068.02820		202.29800		875.00000 
 43692.65567		 305.27265			43387.38302		66.67800		324.00000 
 43692.65567		 624.62747			43068.02820		202.29800		875.00000 
 43692.65567		 305.27265			43387.38302		66.67800		324.00000 
 43692.65567		 624.62747			43068.02820		202.29800		875.00000 
 43692.65567		 305.27265			43387.38302		66.67800		324.00000 
 43692.65567		 624.62747			43068.02820		202.29800		875.00000 
 43692.65567		 305.27265			43387.38302		66.67800		324.00000 
 43692.65567		 624.62747			43068.02820		202.29800		875.00000 
 43692.65567		 305.27265			43387.38302		66.67800		324.00000 
 43692.65567		 624.62747			43068.02820		202.29800		875.00000 
 43692.65567		 305.27265			43387.38302		66.67800		324.00000 
 43692.65567		 624.62747			43068.02820		202.29800		875.00000 
 43692.65567		 305.27265			43387.38302		66.67800		324.00000 
 43692.65567		 624.62747			43068.02820		202.29800		875.00000 
 43692.65567		 305.27265			43387.38302		66.67800		324.00000 
 43692.65567		 624.62747			43068.02820		202.29800		875.00000 
 43692.65567		 305.27265			43387.38302		66.67800		324.00000 
 43692.65567		 624.62747			43068.02820		202.29800		875.00000 
 43692.65567		 305.27265			43387.38302		66.67800		324.00000 
 43692.65567		 624.62747			43068.02820		202.29800		875.00000 
 43692.65567		 305.27265			43387.38302		66.67800		324.00000 
 43692.65567		 624.62747			43068.02820		202.29800		875.00000 
 43692.65567		 305.27265			43387.38302		66.67800		324.00000 
 43692.65567		 624.62747			43068.02820		202.29800		875.00000 
 43692.65567		 305.27265			43387.38302		66.67800		324.00000 
 43692.65567		 624.62747			43068.02820		202.29800		875.00000 
 43692.65567		 305.27265			43387.38302		66.67800		324.00000 
 43692.65567		 624.62747			43068.02820		202.29800		875.00000 
 43692.65567		 305.27265			43387.38302		66.67800		324.00000 
 43692.65567		 624.62747			43068.02820		202.29800		875.00000 
 43692.65567		 305.27265			43387.38302		66.67800		324.00000 
 43692.65567		 624.62747			43068.02820		202.29800		875.00000 
 43692.65567		 305.27265			43387.38302		66.67800		324.00000 
 43692.65567		 624.62747			43068.02820		202.29800		875.00000 
 43692.65567		 305.27265			43387.38302		66.67800		324.00000 
 43692.65567		 624.62747			43068.02820		202.29800		875.00000 
 43692.65567		 305.27265			43387.38302		66.67800		324.00000 
 43692.65567		 624.62747			43068.02820		202.29800		875.00000 
 43692.65567		 305.27265			43387.38302		66.67800		324.00000 
 43692.65567		 624.62747			43068.02820		202.29800		875.00000 
 43692.65567		 305.27265			43387.38302		66.67800		324.00000 
 43692.65567		 624.62747			43068.02820		202.29800		875.00000 
 43692.65567		 305.27265			43387.38302		66.67800		324.00000 
 43692.65567		 624.62747			43068.02820		202.29800		875.00000 
 43692.65567		 305.27265			43387.38302		66.67800		324.00000 
 43692.65567		 624.62747			43068.02820		202.29800		875.00000 
 43692.65567		 305.27265			43387.38302		66.67800		324.00000 
 43692.65567		 624.62747			43068.02820		202.29800		875.00000 
 43692.65567		 305.27265			43387.38302		66.67800		324.00000 
 43692.65567		 624.62747			43068.02820		202.29800		875.00000 
 43692.65567		 305.27265			43387.38302		66.67800		324.00000 
 43692.65567		 624.62747			43068.02820		202.29800		875.00000 
 43692.65567		 305.27265			43387.38302		66.67800		324.00000 
 43692.65567		 624.62747			43068.02820		202.29800		875.00000 
 43692.65567		 305.27265			43387.38302		66.67800		324.00000 
 43692.65567		 624.62747			43068.02820		202.29800		875.00000 
 43692.65567		 305.27265			43387.38302		66.67800		324.00000 
 43692.65567		 624.62747			43068.02820		202.29800		875.00000 
 43692.65567		 305.27265			43387.38302		66.67800		324.00000 
 43692.65567		 624.62747			43068.02820		202.29800		875.00000 
 43692.65567		 305.27265			43387.38302		66.67800		324.00000 
 43692.65567		 624.62747			43068.02820		202.29800		875.00000 
 43692.65567		 305.27265			43387.38302		66.67800		324.00000 
 43692.65567		 624.62747			43068.02820		202.29800		875.00000 
 43692.65567		 305.27265			43387.38302		66.67800		324.00000 
 43692.65567		 624.62747			43068.02820		202.29800		875.00000 
 43692.65567		 305.27265			43387.38302		66.67800		324.00000 
 43692.65567		 624.62747			43068.02820		202.29800		875.00000 
 43692.65567		 305.27265			43387.38302		66.67800		324.00000 
 43692.65567		 624.62747			43068.02820		202.29800		875.00000 
 43692.65567		 305.27265			43387.38302		66.67800		324.00000 
 43692.65567		 624.62747			43068.02820		202.29800		875.00000 
 43692.65567		 305.27265			43387.38302		66.67800		324.00000 
 43692.65567		 624.62747			43068.02820		202.29800		875.00000 
 43692.65567		 305.27265			43387.38302		66.67800		324.00000 
 43692.65567		 624.62747			43068.02820		202.29800		875.00000 
 43692.65567		 305.27265			43387.38302		66.67800		324.00000 
 43692.65567		 624.62747			43068.02820		202.29800		875.00000 
 43692.65567		 305.27265			43387.38302		66.67800		324.00000 
 43692.65567		 624.62747			43068.02820		202.29800		875.00000 
 43692.65567		 305.27265			43387.38302		66.67800		324.00000 
 43692.65567		 624.62747			43068.02820		202.29800		875.00000 
 43692.65567		 305.27265			43387.38302		66.67800		324.00000 
 43692.65567		 624.62747			43068.02820		202.29800		875.00000 
 43692.65567		 305.27265			43387.38302		66.67800		324.00000 
 43692.65567		 624.62747			43068.02820		202.29800		875.00000 
 43692.65567		 305.27265			43387.38302		66.67800		324.00000 
 43692.65567		 624.62747			43068.02820		202.29800		875.00000 
 43692.65567		 305.27265			43387.38302		66.67800		324.00000 
 43692.65567		 624.62747			43068.02820		202.29800		875.00000 
 43692.65567		 305.27265			43387.38302		66.67800		324.00000 
 43692.65567		 624.62747			43068.02820		202.29800		875.00000 
 43692.65567		 305.27265			43387.38302		66.67800		324.00000 
 43692.65567		 624.62747			43068.02820		202.29800		875.00000 
 43692.65567		 305.27265			43387.38302		66.67800		324.00000 
 43692.65567		 624.62747			43068.02820		202.29800		875.00000 
 43692.65567		 305.27265			43387.38302		66.67800		324.00000 
 43692.65567		 624.62747			43068.02820		202.29800		875.00000 
 43692.65567		 305.27265			43387.38302		66.67800		324.00000 
 43692.65567		 624.62747			43068.02820		202.29800		875.00000 
 43692.65567		 305.27265			43387.38302		66.67800		324.00000 
 43692.65567		 624.62747			43068.02820		202.29800		875.00000 
 43692.65567		 305.27265			43387.38302		66.67800		324.00000 
 43692.65567		 624.62747			43068.02820		202.29800		875.00000 
 43692.65567		 305.27265			43387.38302		66.67800		324.00000 
 43692.65567		 624.62747			43068.02820		202.29800		875.00000 
 43692.65567		 305.27265			43387.38302		66.67800		324.00000 
 43692.65567		 624.62747			43068.02820		202.29800		875.00000 
 43692.65567		 305.27265			43387.38302		66.67800		324.00000 
 43692.65567		 624.62747			43068.02820		202.29800		875.00000 
 43692.65567		 305.27265			43387.38302		66.67800		324.00000 
 43692.65567		 624.62747			43068.02820		202.29800		875.00000 
 43692.65567		 305.27265			43387.38302		66.67800		324.00000 
 43692.65567		 624.62747			43068.02820		202.29800		875.00000 
 43692.65567		 305.27265			43387.38302		66.67800		324.00000 
 43692.65567		 624.62747			43068.02820		202.29800		875.00000 
 43692.65567		 305.27265			43387.38302		66.67800		324.00000 
 43692.65567		 624.62747			43068.02820		202.29800		875.00000 
 43692.65567		 305.27265			43387.38302		66.67800		324.00000 
 43692.65567		 624.62747			43068.02820		202.29800		875.00000 
 43692.65567		 305.27265			43387.38302		66.67800		324.00000 
 43692.65567		 624.62747			43068.02820		202.29800		875.00000 
 43692.65567		 305.27265			43387.38302		66.67800		324.00000 
 43692.65567		 624.62747			43068.02820		202.29800		875.00000 
 43692.65567		 305.27265			43387.38302		66.67800		324.00000 
 43692.65567		 624.62747			43068.02820		213.31200		875.00000 
 43692.65567		 305.27265			43387.38302		66.67800		324.00000 
 43692.65567		 624.62747			43068.02820		213.31200		875.00000 
 43692.65567		 305.27265			43387.38302		66.67800		324.00000 
 43692.65567		 624.62747			43068.02820		213.31200		875.00000 
 43692.65567		 305.27265			43387.38302		66.67800		324.00000 
 43692.65567		 624.62747			43068.02820		213.31200		875.00000 
 43692.65567		 305.27265			43387.38302		66.67800		324.00000 
 43692.65567		 624.62747			43068.02820		213.31200		875.00000 
 43692.65567		 305.27265			43387.38302		66.67800		324.00000 
 43692.65567		 624.62747			43068.02820		213.31200		875.00000 
 43692.65567		 305.27265			43387.38302		66.67800		324.00000 
 43692.65567		 624.62747			43068.02820		213.31200		875.00000 
 43692.65567		 305.27265			43387.38302		66.67800		324.00000 
 43692.65567		 624.62747			43068.02820		213.31200		875.00000 
 43692.65567		 305.27265			43387.38302		66.67800		324.00000 
 43692.65567		 624.62747			43068.02820		213.31200		875.00000 
 43692.65567		 305.27265			43387.38302		66.67800		324.00000 
 43692.65567		 624.62747			43068.02820		213.31200		875.00000 
 43692.65567		 305.27265			43387.38302		66.67800		324.00000 
 43692.65567		 624.62747			43068.02820		213.31200		875.00000 
 43692.65567		 305.27265			43387.38302		66.67800		324.00000 
 43692.65567		 624.62747			43068.02820		213.31200		875.00000 
 43692.65567		 305.27265			43387.38302		66.67800		324.00000 
 43692.65567		 624.62747			43068.02820		213.31200		875.00000 
 43692.65567		 305.27265			43387.38302		66.67800		324.00000 
 43692.65567		 624.62747			43068.02820		213.31200		875.00000 
 43692.65567		 305.27265			43387.38302		66.67800		324.00000 
 43692.65567		 624.62747			43068.02820		213.31200		875.00000 
 43692.65567		 305.27265			43387.38302		66.67800		324.00000 
 43692.65567		 624.62747			43068.02820		213.31200		875.00000 
 43692.65567		 305.27265			43387.38302		66.67800		324.00000 
 43692.65567		 624.62747			43068.02820		213.31200		875.00000 
 43692.65567		 305.27265			43387.38302		66.67800		324.00000 
 43692.65567		 624.62747			43068.02820		213.31200		875.00000 
 43692.65567		 305.27265			43387.38302		66.67800		324.00000 
 43692.65567		 624.62747			43068.02820		213.31200		875.00000 
 43692.65567		 305.27265			43387.38302		66.67800		324.00000 
 43692.65567		 624.62747			43068.02820		213.31200		875.00000 
 43692.65567		 305.27265			43387.38302		66.67800		324.00000 
 43692.65567		 624.62747			43068.02820		213.31200		875.00000 
 43692.65567		 305.27265			43387.38302		66.67800		324.00000 
 43692.65567		 624.62747			43068.02820		213.31200		875.00000 
 43692.65567		 305.27265			43387.38302		66.67800		324.00000 
 43692.65567		 624.62747			43068.02820		213.31200		875.00000 
 43692.65567		 305.27265			43387.38302		66.67800		324.00000 
 43692.65567		 624.62747			43068.02820		213.31200		875.00000 
 43692.65567		 305.27265			43387.38302		66.67800		324.00000 
 43692.65567		 624.62747			43068.02820		213.31200		875.00000 
 43692.65567		 305.27265			43387.38302		66.67800		324.00000 
 43692.65567		 624.62747			43068.02820		213.31200		875.00000 
 43692.65567		 305.27265			43387.38302		66.67800		324.00000 
 43692.65567		 624.62747			43068.02820		213.31200		875.00000 
 43692.65567		 305.27265			43387.38302		66.67800		324.00000 
 43692.65567		 624.62747			43068.02820		213.31200		875.00000 
 43692.65567		 305.27265			43387.38302		66.67800		324.00000 
 43692.65567		 624.62747			43068.02820		213.31200		875.00000 
 43692.65567		 305.27265			43387.38302		66.67800		324.00000 
 43692.65567		 624.62747			43068.02820		213.31200		875.00000 
 43692.65567		 305.27265			43387.38302		66.67800		324.00000 
 43692.65567		 624.62747			43068.02820		213.31200		875.00000 
 43692.65567		 305.27265			43387.38302		66.67800		324.00000 
 43692.65567		 624.62747			43068.02820		213.31200		875.00000 
 43692.65567		 305.27265			43387.38302		66.67800		324.00000 
 43692.65567		 624.62747			43068.02820		213.31200		875.00000 
 43692.65567		 305.27265			43387.38302		66.67800		324.00000 
 43692.65567		 624.62747			43068.02820		213.31200		875.00000 
 43692.65567		 305.27265			43387.38302		66.67800		324.00000 
 43692.65567		 624.62747			43068.02820		213.31200		875.00000 
 43692.65567		 305.27265			43387.38302		66.67800		324.00000 
 43692.65567		 624.62747			43068.02820		213.31200		875.00000 
 43692.65567		 305.27265			43387.38302		66.67800		324.00000 
 43692.65567		 624.62747			43068.02820		213.31200		875.00000 
 43692.65567		 305.27265			43387.38302		66.67800		324.00000 
 43692.65567		 624.62747			43068.02820		213.31200		875.00000 
 43692.65567		 305.27265			43387.38302		66.67800		324.00000 
 43692.65567		 624.62747			43068.02820		213.31200		875.00000 
 43692.65567		 305.27265			43387.38302		66.67800		324.00000 
 43692.65567		 624.62747			43068.02820		213.31200		875.00000 
 43692.65567		 305.27265			43387.38302		66.67800		324.00000 
 43692.65567		 624.62747			43068.02820		213.31200		875.00000 
 43692.65567		 305.27265			43387.38302		66.67800		324.00000 
 43692.65567		 624.62747			43068.02820		213.31200		875.00000 
 43692.65567		 305.27265			43387.38302		66.67800		324.00000 
 43692.65567		 624.62747			43068.02820		213.31200		875.00000 
 43692.65567		 305.27265			43387.38302		66.67800		324.00000 
 43692.65567		 624.62747			43068.02820		213.31200		875.00000 
 43692.65567		 305.27265			43387.38302		66.67800		324.00000 
 43692.65567		 624.62747			43068.02820		213.31200		875.00000 
 43692.65567		 305.27265			43387.38302		66.67800		324.00000 
 43692.65567		 624.62747			43068.02820		213.31200		875.00000 
 43692.65567		 305.27265			43387.38302		66.67800		324.00000 
 43692.65567		 624.62747			43068.02820		213.31200		875.00000 
 43692.65567		 305.27265			43387.38302		66.67800		324.00000 
 43692.65567		 624.62747			43068.02820		213.31200		875.00000 
 43692.65567		 305.27265			43387.38302		66.67800		324.00000 
 43692.65567		 624.62747			43068.02820		213.31200		875.00000 
 43692.65567		 305.27265			43387.38302		66.67800		324.00000 
 43692.65567		 624.62747			43068.02820		213.31200		875.00000 
 43692.65567		 305.27265			43387.38302		66.67800		324.00000 
 43692.65567		 624.62747			43068.02820		213.31200		875.00000 
 43692.65567		 305.27265			43387.38302		66.67800		324.00000 
 43692.65567		 624.62747			43068.02820		213.31200		875.00000 
 43692.65567		 305.27265			43387.38302		66.67800		324.00000 
 43692.65567		 624.62747			43068.02820		213.31200		875.00000 
 43692.65567		 305.27265			43387.38302		66.67800		324.00000 
 43692.65567		 624.62747			43068.02820		213.31200		875.00000 
 43692.65567		 305.27265			43387.38302		66.67800		324.00000 
 43692.65567		 624.62747			43068.02820		213.31200		875.00000 
 43692.65567		 305.27265			43387.38302		66.67800		324.00000 
 43692.65567		 624.62747			43068.02820		213.31200		875.00000 
 43692.65567		 305.27265			43387.38302		66.67800		324.00000 
 43692.65567		 624.62747			43068.02820		213.31200		875.00000 
 43692.65567		 305.27265			43387.38302		66.67800		324.00000 
 43692.65567		 624.62747			43068.02820		213.31200		875.00000 
 43692.65567		 305.27265			43387.38302		66.67800		324.00000 
 43692.65567		 624.62747			43068.02820		213.31200		875.00000 
 43692.65567		 305.27265			43387.38302		66.67800		324.00000 
 43692.65567		 624.62747			43068.02820		213.31200		875.00000 
 43692.65567		 305.27265			43387.38302		66.67800		324.00000 
 43692.65567		 624.62747			43068.02820		213.31200		875.00000 
 43692.65567		 305.27265			43387.38302		66.67800		324.00000 
 43692.65567		 624.62747			43068.02820		213.31200		875.00000 
 43692.65567		 305.27265			43387.38302		66.67800		324.00000 
 43692.65567		 624.62747			43068.02820		213.31200		875.00000 
 43692.65567		 305.27265			43387.38302		66.67800		324.00000 
 43692.65567		 624.62747			43068.02820		213.31200		875.00000 
 43692.65567		 305.27265			43387.38302		66.67800		324.00000 
 43692.65567		 624.62747			43068.02820		213.31200		875.00000 
 43692.65567		 305.27265			43387.38302		66.67800		324.00000 
 43692.65567		 624.62747			43068.02820		217.38000		875.00000 
 43692.65567		 305.27265			43387.38302		66.67800		324.00000 
 43692.65567		 624.62747			43068.02820		217.38000		875.00000 
 43692.65567		 305.27265			43387.38302		66.67800		324.00000 
 43692.65567		 624.62747			43068.02820		217.38000		875.00000 
 43692.65567		 305.27265			43387.38302		66.67800		324.00000 
 43692.65567		 624.62747			43068.02820		217.38000		875.00000 
 43692.65567		 305.27265			43387.38302		66.67800		324.00000 
 43692.65567		 624.62747			43068.02820		217.38000		875.00000 
 43692.65567		 305.27265			43387.38302		66.67800		324.00000 
 43692.65567		 624.62747			43068.02820		217.38000		875.00000 
 43692.65567		 305.27265			43387.38302		66.67800		324.00000 
 43692.65567		 624.62747			43068.02820		217.38000		875.00000 
 43692.65567		 305.27265			43387.38302		66.67800		324.00000 
 43692.65567		 624.62747			43068.02820		217.38000		875.00000 
 43692.65567		 305.27265			43387.38302		66.67800		324.00000 
 43692.65567		 624.62747			43068.02820		217.38000		875.00000 
 43692.65567		 305.27265			43387.38302		66.67800		324.00000 
 43692.65567		 624.62747			43068.02820		217.38000		875.00000 
 43692.65567		 305.27265			43387.38302		66.67800		324.00000 
 43692.65567		 624.62747			43068.02820		217.38000		875.00000 
 43692.65567		 305.27265			43387.38302		66.67800		324.00000 
 43692.65567		 624.62747			43068.02820		217.38000		875.00000 
 43692.65567		 305.27265			43387.38302		66.67800		324.00000 
 43692.65567		 624.62747			43068.02820		217.38000		875.00000 
 43692.65567		 305.27265			43387.38302		66.67800		324.00000 
 43692.65567		 624.62747			43068.02820		217.38000		875.00000 
 43692.65567		 305.27265			43387.38302		66.67800		324.00000 
 43692.65567		 624.62747			43068.02820		217.38000		875.00000 
 43692.65567		 305.27265			43387.38302		66.67800		324.00000 
 43692.65567		 624.62747			43068.02820		217.38000		875.00000 
 43692.65567		 305.27265			43387.38302		66.67800		324.00000 
 43692.65567		 624.62747			43068.02820		217.38000		875.00000 
 43692.65567		 305.27265			43387.38302		66.67800		324.00000 
 43692.65567		 624.62747			43068.02820		217.38000		875.00000 
 43692.65567		 305.27265			43387.38302		66.67800		324.00000 
 43692.65567		 624.62747			43068.02820		217.38000		875.00000 
 43692.65567		 305.27265			43387.38302		66.67800		324.00000 
 43692.65567		 624.62747			43068.02820		217.38000		875.00000 
 43692.65567		 305.27265			43387.38302		66.67800		324.00000 
 43692.65567		 624.62747			43068.02820		217.38000		875.00000 
 43692.65567		 305.27265			43387.38302		66.67800		324.00000 
 43692.65567		 624.62747			43068.02820		217.38000		875.00000 
 43692.65567		 305.27265			43387.38302		66.67800		324.00000 
 43692.65567		 624.62747			43068.02820		217.38000		875.00000 
 43692.65567		 305.27265			43387.38302		66.67800		324.00000 
 43692.65567		 624.62747			43068.02820		217.38000		875.00000 
 43692.65567		 305.27265			43387.38302		66.67800		324.00000 
 43692.65567		 624.62747			43068.02820		217.38000		875.00000 
 43692.65567		 305.27265			43387.38302		66.67800		324.00000 
 43692.65567		 624.62747			43068.02820		217.38000		875.00000 
 43692.65567		 305.27265			43387.38302		66.67800		324.00000 
 43692.65567		 624.62747			43068.02820		217.38000		875.00000 
 43692.65567		 305.27265			43387.38302		66.67800		324.00000 
 43692.65567		 624.62747			43068.02820		217.38000		875.00000 
 43692.65567		 305.27265			43387.38302		66.67800		324.00000 
 43692.65567		 624.62747			43068.02820		217.38000		875.00000 
 43692.65567		 305.27265			43387.38302		66.67800		324.00000 
 43692.65567		 624.62747			43068.02820		217.38000		875.00000 
 43692.65567		 305.27265			43387.38302		66.67800		324.00000 
 43692.65567		 624.62747			43068.02820		217.38000		875.00000 
 43692.65567		 305.27265			43387.38302		66.67800		324.00000 
 43692.65567		 624.62747			43068.02820		217.38000		875.00000 
 43692.65567		 305.27265			43387.38302		66.67800		324.00000 
 43692.65567		 624.62747			43068.02820		217.38000		875.00000 
 43692.65567		 305.27265			43387.38302		66.67800		324.00000 
 43692.65567		 624.62747			43068.02820		217.38000		875.00000 
 43692.65567		 305.27265			43387.38302		66.67800		324.00000 
 43692.65567		 624.62747			43068.02820		217.38000		875.00000 
 43692.65567		 305.27265			43387.38302		66.67800		324.00000 
 43692.65567		 624.62747			43068.02820		217.38000		875.00000 
 43692.65567		 305.27265			43387.38302		66.67800		324.00000 
 43692.65567		 624.62747			43068.02820		217.38000		875.00000 
 43692.65567		 305.27265			43387.38302		66.67800		324.00000 
 43692.65567		 624.62747			43068.02820		217.38000		875.00000 
 43692.65567		 305.27265			43387.38302		66.67800		324.00000 
 43692.65567		 624.62747			43068.02820		217.38000		875.00000 
 43692.65567		 305.27265			43387.38302		66.67800		324.00000 
 43692.65567		 624.62747			43068.02820		217.38000		875.00000 
 43692.65567		 305.27265			43387.38302		66.67800		324.00000 
 43692.65567		 624.62747			43068.02820		217.38000		875.00000 
 43692.65567		 305.27265			43387.38302		66.67800		324.00000 
 43692.65567		 624.62747			43068.02820		217.38000		875.00000 
 43692.65567		 305.27265			43387.38302		66.67800		324.00000 
 43692.65567		 624.62747			43068.02820		217.38000		875.00000 
 43692.65567		 305.27265			43387.38302		66.67800		324.00000 
 43692.65567		 624.62747			43068.02820		217.38000		875.00000 
 43692.65567		 305.27265			43387.38302		66.67800		324.00000 
 43692.65567		 624.62747			43068.02820		217.38000		875.00000 
 43692.65567		 305.27265			43387.38302		66.67800		324.00000 
 43692.65567		 624.62747			43068.02820		217.38000		875.00000 
 43692.65567		 305.27265			43387.38302		66.67800		324.00000 
 43692.65567		 624.62747			43068.02820		217.38000		875.00000 
 43692.65567		 305.27265			43387.38302		66.67800		324.00000 
 43692.65567		 624.62747			43068.02820		217.38000		875.00000 
 43692.65567		 305.27265			43387.38302		66.67800		324.00000 
 43692.65567		 624.62747			43068.02820		217.38000		875.00000 
 43692.65567		 305.27265			43387.38302		66.67800		324.00000 
 43692.65567		 624.62747			43068.02820		217.38000		875.00000 
 43692.65567		 305.27265			43387.38302		66.67800		324.00000 
 43692.65567		 624.62747			43068.02820		217.38000		875.00000 
 43692.65567		 305.27265			43387.38302		66.67800		324.00000 
 43692.65567		 624.62747			43068.02820		217.38000		875.00000 
 43692.65567		 305.27265			43387.38302		66.67800		324.00000 
 43692.65567		 624.62747			43068.02820		217.38000		875.00000 
 43692.65567		 305.27265			43387.38302		66.67800		324.00000 
 43692.65567		 624.62747			43068.02820		217.38000		875.00000 
 43692.65567		 305.27265			43387.38302		66.67800		324.00000 
 43692.65567		 624.62747			43068.02820		217.38000		875.00000 
 43692.65567		 305.27265			43387.38302		66.67800		324.00000 
 43692.65567		 624.62747			43068.02820		217.38000		875.00000 
 43692.65567		 305.27265			43387.38302		66.67800		324.00000 
 43692.65567		 624.62747			43068.02820		217.38000		875.00000 
 43692.65567		 305.27265			43387.38302		66.67800		324.00000 
 43692.65567		 624.62747			43068.02820		217.38000		875.00000 
 43692.65567		 305.27265			43387.38302		66.67800		324.00000 
 43692.65567		 624.62747			43068.02820		217.38000		875.00000 
 43692.65567		 305.27265			43387.38302		66.67800		324.00000 
 43692.65567		 624.62747			43068.02820		217.38000		875.00000 
 43692.65567		 305.27265			43387.38302		66.67800		324.00000 
 43692.65567		 624.62747			43068.02820		217.38000		875.00000 
 43692.65567		 305.27265			43387.38302		66.67800		324.00000 
 43692.65567		 624.62747			43068.02820		217.38000		875.00000 
 43692.65567		 305.27265			43387.38302		66.67800		324.00000 
 43692.65567		 624.62747			43068.02820		217.38000		875.00000 
 43692.65567		 305.27265			43387.38302		66.67800		324.00000 
 43692.65567		 624.62747			43068.02820		217.38000		875.00000 
 43692.65567		 305.27265			43387.38302		66.67800		324.00000 
 43692.65567		 624.62747			43068.02820		217.38000		875.00000 
 43692.65567		 305.27265			43387.38302		66.67800		324.00000 
 43692.65567		 624.62747			43068.02820		219.12400		875.00000 
 43692.65567		 305.27265			43387.38302		66.67800		324.00000 
 43692.65567		 624.62747			43068.02820		219.12400		875.00000 
 43692.65567		 305.27265			43387.38302		66.67800		324.00000 
 43692.65567		 624.62747			43068.02820		219.12400		875.00000 
 43692.65567		 305.27265			43387.38302		66.67800		324.00000 
 43692.65567		 624.62747			43068.02820		219.12400		875.00000 
 43692.65567		 305.27265			43387.38302		66.67800		324.00000 
 43692.65567		 624.62747			43068.02820		219.12400		875.00000 
 43692.65567		 305.27265			43387.38302		66.67800		324.00000 
 43692.65567		 624.62747			43068.02820		219.12400		875.00000 
 43692.65567		 305.27265			43387.38302		66.67800		324.00000 
 43692.65567		 624.62747			43068.02820		219.12400		875.00000 
 43692.65567		 305.27265			43387.38302		66.67800		324.00000 
 43692.65567		 624.62747			43068.02820		219.12400		875.00000 
 43692.65567		 305.27265			43387.38302		66.67800		324.00000 
 43692.65567		 624.62747			43068.02820		219.12400		875.00000 
 43692.65567		 305.27265			43387.38302		66.67800		324.00000 
 43692.65567		 624.62747			43068.02820		219.12400		875.00000 
 43692.65567		 305.27265			43387.38302		66.67800		324.00000 
 43692.65567		 624.62747			43068.02820		219.12400		875.00000 
 43692.65567		 305.27265			43387.38302		66.67800		324.00000 
 43692.65567		 624.62747			43068.02820		219.12400		875.00000 
 43692.65567		 305.27265			43387.38302		66.67800		324.00000 
 43692.65567		 624.62747			43068.02820		219.12400		875.00000 
 43692.65567		 305.27265			43387.38302		66.67800		324.00000 
 43692.65567		 624.62747			43068.02820		219.12400		875.00000 
 43692.65567		 305.27265			43387.38302		66.67800		324.00000 
 43692.65567		 624.62747			43068.02820		219.12400		875.00000 
 43692.65567		 305.27265			43387.38302		66.67800		324.00000 
 43692.65567		 624.62747			43068.02820		219.12400		875.00000 
 43692.65567		 305.27265			43387.38302		66.67800		324.00000 
 43692.65567		 624.62747			43068.02820		219.12400		875.00000 
 43692.65567		 305.27265			43387.38302		66.67800		324.00000 
 43692.65567		 624.62747			43068.02820		219.12400		875.00000 
 43692.65567		 305.27265			43387.38302		66.67800		324.00000 
 43692.65567		 624.62747			43068.02820		219.12400		875.00000 
 43692.65567		 305.27265			43387.38302		66.67800		324.00000 
 43692.65567		 624.62747			43068.02820		219.12400		875.00000 
 43692.65567		 305.27265			43387.38302		66.67800		324.00000 
 43692.65567		 624.62747			43068.02820		219.12400		875.00000 
 43692.65567		 305.27265			43387.38302		66.67800		324.00000 
 43692.65567		 624.62747			43068.02820		219.12400		875.00000 
 43692.65567		 305.27265			43387.38302		66.67800		324.00000 
 43692.65567		 624.62747			43068.02820		219.12400		875.00000 
 43692.65567		 305.27265			43387.38302		66.67800		324.00000 
 43692.65567		 624.62747			43068.02820		219.12400		875.00000 
 43692.65567		 305.27265			43387.38302		66.67800		324.00000 
 43692.65567		 624.62747			43068.02820		219.12400		875.00000 
 43692.65567		 305.27265			43387.38302		66.67800		324.00000 
 43692.65567		 595.50842			43097.14725		219.12400		875.00000 
 43692.65567		 305.27265			43387.38302		66.67800		324.00000 
 43692.65567		 566.38937			43126.26630		219.12400		875.00000 
 43692.65567		 305.27265			43387.38302		66.67800		324.00000 
 43692.65567		 537.27032			43155.38535		219.12400		875.00000 
 43692.65567		 305.27265			43387.38302		66.67800		324.00000 
 43692.65567		 537.27032			43155.38535		219.12400		875.00000 
 43692.65567		 305.27265			43387.38302		66.67800		324.00000 
 43692.65567		 537.27032			43155.38535		219.12400		875.00000 
 43692.65567		 305.27265			43387.38302		66.67800		324.00000 
 43692.65567		 537.27032			43155.38535		219.12400		875.00000 
 43692.65567		 305.27265			43387.38302		66.67800		324.00000 
 43692.65567		 537.27032			43155.38535		219.12400		875.00000 
 43692.65567		 305.27265			43387.38302		66.67800		324.00000 
 43692.65567		 537.27032			43155.38535		219.12400		875.00000 
 43692.65567		 305.27265			43387.38302		66.67800		324.00000 
 43692.65567		 537.27032			43155.38535		219.12400		875.00000 
 43692.65567		 305.27265			43387.38302		66.67800		324.00000 
 43692.65567		 537.27032			43155.38535		219.12400		875.00000 
 43692.65567		 305.27265			43387.38302		66.67800		324.00000 
 43692.65567		 537.27032			43155.38535		219.12400		875.00000 
 43692.65567		 305.27265			43387.38302		66.67800		324.00000 
 43692.65567		 537.27032			43155.38535		219.12400		875.00000 
 43692.65567		 305.27265			43387.38302		66.67800		324.00000 
 43692.65567		 537.27032			43155.38535		219.12400		875.00000 
 43692.65567		 305.27265			43387.38302		66.67800		324.00000 
 43692.65567		 537.27032			43155.38535		219.12400		875.00000 
 43692.65567		 305.27265			43387.38302		66.67800		324.00000 
 43692.65567		 537.27032			43155.38535		219.12400		875.00000 
 43692.65567		 305.27265			43387.38302		66.67800		324.00000 
 43692.65567		 537.27032			43155.38535		219.12400		875.00000 
 43692.65567		 305.27265			43387.38302		66.67800		324.00000 
 43692.65567		 537.27032			43155.38535		219.12400		875.00000 
 43692.65567		 305.27265			43387.38302		66.67800		324.00000 
 43692.65567		 537.27032			43155.38535		219.12400		875.00000 
 43692.65567		 305.27265			43387.38302		66.67800		324.00000 
 43692.65567		 537.27032			43155.38535		219.12400		875.00000 
 43692.65567		 305.27265			43387.38302		66.67800		324.00000 
 43692.65567		 537.27032			43155.38535		219.12400		875.00000 
 43692.65567		 305.27265			43387.38302		66.67800		324.00000 
 43692.65567		 537.27032			43155.38535		219.12400		875.00000 
 43692.65567		 305.27265			43387.38302		66.67800		324.00000 
 43692.65567		 537.27032			43155.38535		219.12400		875.00000 
 43692.65567		 305.27265			43387.38302		66.67800		324.00000 
 43692.65567		 537.27032			43155.38535		219.12400		875.00000 
 43692.65567		 305.27265			43387.38302		66.67800		324.00000 
 43692.65567		 537.27032			43155.38535		219.12400		875.00000 
 43692.65567		 305.27265			43387.38302		66.67800		324.00000 
 43692.65567		 525.81365			43166.84203		219.12400		875.00000 
 43692.65567		 305.27265			43387.38302		66.67800		324.00000 
 43692.65567		 525.81365			43166.84203		219.12400		875.00000 
 43692.65567		 293.81598			43398.83969		66.67800		324.00000 
 43692.65567		 261.35540			43431.30027		180.87600		875.00000 
 43692.65567		 261.35540			43431.30027		66.67800		324.00000 
