Memory Total (MiB) 	 Memory Used (MiB) 	    Memory Free (MiB) 	 Power Drawed (W) 	 Clocks (Mhz) 	 
 43692.65567		 261.35540			43431.30027		188.57200		875.00000 
 43692.65567		 261.35540			43431.30027		70.25800		324.00000 
 43692.65567		 261.35540			43431.30027		188.57200		875.00000 
 43692.65567		 261.35540			43431.30027		70.25800		324.00000 
 43692.65567		 261.35540			43431.30027		188.57200		875.00000 
 43692.65567		 261.35540			43431.30027		70.25800		324.00000 
 43692.65567		 261.35540			43431.30027		188.57200		875.00000 
 43692.65567		 261.35540			43431.30027		70.25800		324.00000 
 43692.65567		 261.35540			43431.30027		188.57200		875.00000 
 43692.65567		 261.35540			43431.30027		70.25800		324.00000 
 43692.65567		 261.35540			43431.30027		188.57200		875.00000 
 43692.65567		 261.35540			43431.30027		70.25800		324.00000 
 43692.65567		 261.35540			43431.30027		188.57200		875.00000 
 43692.65567		 261.35540			43431.30027		70.25800		324.00000 
 43692.65567		 261.35540			43431.30027		188.57200		875.00000 
 43692.65567		 261.35540			43431.30027		70.25800		324.00000 
 43692.65567		 261.35540			43431.30027		188.57200		875.00000 
 43692.65567		 261.35540			43431.30027		70.25800		324.00000 
 43692.65567		 261.35540			43431.30027		153.58200		875.00000 
 43692.65567		 261.35540			43431.30027		70.25800		324.00000 
 43692.65567		 261.35540			43431.30027		153.58200		875.00000 
 43692.65567		 261.35540			43431.30027		70.25800		324.00000 
 43692.65567		 261.35540			43431.30027		153.58200		875.00000 
 43692.65567		 261.35540			43431.30027		70.25800		324.00000 
 43692.65567		 261.35540			43431.30027		153.58200		875.00000 
 43692.65567		 261.35540			43431.30027		70.25800		324.00000 
 43692.65567		 261.35540			43431.30027		153.58200		875.00000 
 43692.65567		 261.35540			43431.30027		70.25800		324.00000 
 43692.65567		 261.35540			43431.30027		153.58200		875.00000 
 43692.65567		 261.35540			43431.30027		70.25800		324.00000 
 43692.65567		 261.35540			43431.30027		153.58200		875.00000 
 43692.65567		 261.35540			43431.30027		70.25800		324.00000 
 43692.65567		 261.35540			43431.30027		153.58200		875.00000 
 43692.65567		 261.35540			43431.30027		70.25800		324.00000 
 43692.65567		 261.35540			43431.30027		153.58200		875.00000 
 43692.65567		 261.35540			43431.30027		70.25800		324.00000 
 43692.65567		 265.17429			43427.48138		153.58200		875.00000 
 43692.65567		 261.35540			43431.30027		70.25800		324.00000 
 43692.65567		 265.17429			43427.48138		153.58200		875.00000 
 43692.65567		 261.35540			43431.30027		70.25800		324.00000 
 43692.65567		 272.81207			43419.84360		153.58200		875.00000 
 43692.65567		 261.35540			43431.30027		70.25800		324.00000 
 43692.65567		 272.81207			43419.84360		153.58200		875.00000 
 43692.65567		 261.35540			43431.30027		70.25800		324.00000 
 43692.65567		 272.81207			43419.84360		153.58200		875.00000 
 43692.65567		 265.17429			43427.48138		70.25800		324.00000 
 43692.65567		 272.81207			43419.84360		153.58200		875.00000 
 43692.65567		 265.17429			43427.48138		70.25800		324.00000 
 43692.65567		 272.81207			43419.84360		153.58200		875.00000 
 43692.65567		 265.17429			43427.48138		70.25800		324.00000 
 43692.65567		 272.81207			43419.84360		153.58200		875.00000 
 43692.65567		 272.81207			43419.84360		70.25800		324.00000 
 43692.65567		 272.81207			43419.84360		153.58200		875.00000 
 43692.65567		 272.81207			43419.84360		70.25800		324.00000 
 43692.65567		 272.81207			43419.84360		153.58200		875.00000 
 43692.65567		 272.81207			43419.84360		70.25800		324.00000 
 43692.65567		 305.27265			43387.38302		153.58200		875.00000 
 43692.65567		 305.27265			43387.38302		70.25800		324.00000 
 43692.65567		 305.27265			43387.38302		153.58200		875.00000 
 43692.65567		 305.27265			43387.38302		70.25800		324.00000 
 43692.65567		 305.27265			43387.38302		153.58200		875.00000 
 43692.65567		 305.27265			43387.38302		70.25800		324.00000 
 43692.65567		 305.27265			43387.38302		153.58200		875.00000 
 43692.65567		 305.27265			43387.38302		70.25800		324.00000 
 43692.65567		 305.27265			43387.38302		153.58200		875.00000 
 43692.65567		 305.27265			43387.38302		70.25800		324.00000 
 43692.65567		 309.09154			43383.56413		153.58200		875.00000 
 43692.65567		 305.27265			43387.38302		70.25800		324.00000 
 43692.65567		 310.52363			43382.13204		153.58200		875.00000 
 43692.65567		 305.27265			43387.38302		70.25800		324.00000 
 43692.65567		 311.00099			43381.65468		153.58200		875.00000 
 43692.65567		 305.27265			43387.38302		70.25800		324.00000 
 43692.65567		 311.00099			43381.65468		153.58200		875.00000 
 43692.65567		 305.27265			43387.38302		70.25800		324.00000 
 43692.65567		 311.00099			43381.65468		153.58200		875.00000 
 43692.65567		 305.27265			43387.38302		70.25800		324.00000 
 43692.65567		 311.00099			43381.65468		153.58200		875.00000 
 43692.65567		 305.27265			43387.38302		70.25800		324.00000 
 43692.65567		 311.00099			43381.65468		153.58200		875.00000 
 43692.65567		 305.27265			43387.38302		70.25800		324.00000 
 43692.65567		 311.00099			43381.65468		153.58200		875.00000 
 43692.65567		 305.27265			43387.38302		70.25800		324.00000 
 43692.65567		 311.00099			43381.65468		153.58200		875.00000 
 43692.65567		 305.27265			43387.38302		70.25800		324.00000 
 43692.65567		 311.00099			43381.65468		139.87400		875.00000 
 43692.65567		 305.27265			43387.38302		70.25800		324.00000 
 43692.65567		 311.00099			43381.65468		139.87400		875.00000 
 43692.65567		 305.27265			43387.38302		70.25800		324.00000 
 43692.65567		 311.00099			43381.65468		139.87400		875.00000 
 43692.65567		 305.27265			43387.38302		70.25800		324.00000 
 43692.65567		 311.00099			43381.65468		139.87400		875.00000 
 43692.65567		 305.27265			43387.38302		70.25800		324.00000 
 43692.65567		 311.00099			43381.65468		139.87400		875.00000 
 43692.65567		 305.27265			43387.38302		70.25800		324.00000 
 43692.65567		 311.00099			43381.65468		139.87400		875.00000 
 43692.65567		 305.27265			43387.38302		70.25800		324.00000 
 43692.65567		 311.00099			43381.65468		139.87400		875.00000 
 43692.65567		 305.27265			43387.38302		70.25800		324.00000 
 43692.65567		 311.00099			43381.65468		139.87400		875.00000 
 43692.65567		 305.27265			43387.38302		70.25800		324.00000 
 43692.65567		 311.00099			43381.65468		139.87400		875.00000 
 43692.65567		 305.27265			43387.38302		70.25800		324.00000 
 43692.65567		 311.00099			43381.65468		139.87400		875.00000 
 43692.65567		 305.27265			43387.38302		70.25800		324.00000 
 43692.65567		 311.00099			43381.65468		139.87400		875.00000 
 43692.65567		 305.27265			43387.38302		70.25800		324.00000 
 43692.65567		 311.00099			43381.65468		139.87400		875.00000 
 43692.65567		 305.27265			43387.38302		70.25800		324.00000 
 43692.65567		 311.00099			43381.65468		139.87400		875.00000 
 43692.65567		 305.27265			43387.38302		70.25800		324.00000 
 43692.65567		 311.00099			43381.65468		139.87400		875.00000 
 43692.65567		 305.27265			43387.38302		70.25800		324.00000 
 43692.65567		 311.00099			43381.65468		139.87400		875.00000 
 43692.65567		 305.27265			43387.38302		70.25800		324.00000 
 43692.65567		 311.00099			43381.65468		139.87400		875.00000 
 43692.65567		 305.27265			43387.38302		70.25800		324.00000 
 43692.65567		 311.00099			43381.65468		139.87400		875.00000 
 43692.65567		 305.27265			43387.38302		70.25800		324.00000 
 43692.65567		 311.00099			43381.65468		139.87400		875.00000 
 43692.65567		 305.27265			43387.38302		70.25800		324.00000 
 43692.65567		 311.00099			43381.65468		139.87400		875.00000 
 43692.65567		 305.27265			43387.38302		70.25800		324.00000 
 43692.65567		 311.00099			43381.65468		139.87400		875.00000 
 43692.65567		 305.27265			43387.38302		70.25800		324.00000 
 43692.65567		 311.00099			43381.65468		139.87400		875.00000 
 43692.65567		 305.27265			43387.38302		70.25800		324.00000 
 43692.65567		 311.00099			43381.65468		139.87400		875.00000 
 43692.65567		 305.27265			43387.38302		70.25800		324.00000 
 43692.65567		 311.00099			43381.65468		139.87400		875.00000 
 43692.65567		 305.27265			43387.38302		70.25800		324.00000 
 43692.65567		 311.00099			43381.65468		139.87400		875.00000 
 43692.65567		 305.27265			43387.38302		70.25800		324.00000 
 43692.65567		 311.00099			43381.65468		139.87400		875.00000 
 43692.65567		 305.27265			43387.38302		70.25800		324.00000 
 43692.65567		 311.00099			43381.65468		139.87400		875.00000 
 43692.65567		 305.27265			43387.38302		70.25800		324.00000 
 43692.65567		 311.00099			43381.65468		139.87400		875.00000 
 43692.65567		 305.27265			43387.38302		70.25800		324.00000 
 43692.65567		 311.00099			43381.65468		139.87400		875.00000 
 43692.65567		 305.27265			43387.38302		70.25800		324.00000 
 43692.65567		 311.00099			43381.65468		139.87400		875.00000 
 43692.65567		 305.27265			43387.38302		70.25800		324.00000 
 43692.65567		 311.00099			43381.65468		139.87400		875.00000 
 43692.65567		 305.27265			43387.38302		70.25800		324.00000 
 43692.65567		 311.00099			43381.65468		139.87400		875.00000 
 43692.65567		 305.27265			43387.38302		70.25800		324.00000 
 43692.65567		 311.00099			43381.65468		135.62600		875.00000 
 43692.65567		 305.27265			43387.38302		70.25800		324.00000 
 43692.65567		 311.00099			43381.65468		135.62600		875.00000 
 43692.65567		 305.27265			43387.38302		70.25800		324.00000 
 43692.65567		 311.00099			43381.65468		135.62600		875.00000 
 43692.65567		 305.27265			43387.38302		70.25800		324.00000 
 43692.65567		 311.00099			43381.65468		135.62600		875.00000 
 43692.65567		 305.27265			43387.38302		70.25800		324.00000 
 43692.65567		 311.00099			43381.65468		135.62600		875.00000 
 43692.65567		 305.27265			43387.38302		70.25800		324.00000 
 43692.65567		 311.00099			43381.65468		135.62600		875.00000 
 43692.65567		 305.27265			43387.38302		70.25800		324.00000 
 43692.65567		 311.00099			43381.65468		135.62600		875.00000 
 43692.65567		 305.27265			43387.38302		70.25800		324.00000 
 43692.65567		 311.00099			43381.65468		135.62600		875.00000 
 43692.65567		 305.27265			43387.38302		70.25800		324.00000 
 43692.65567		 311.00099			43381.65468		135.62600		875.00000 
 43692.65567		 305.27265			43387.38302		70.25800		324.00000 
 43692.65567		 311.00099			43381.65468		135.62600		875.00000 
 43692.65567		 305.27265			43387.38302		70.25800		324.00000 
 43692.65567		 311.00099			43381.65468		135.62600		875.00000 
 43692.65567		 305.27265			43387.38302		70.25800		324.00000 
 43692.65567		 311.00099			43381.65468		135.62600		875.00000 
 43692.65567		 305.27265			43387.38302		70.25800		324.00000 
 43692.65567		 311.00099			43381.65468		135.62600		875.00000 
 43692.65567		 305.27265			43387.38302		70.25800		324.00000 
 43692.65567		 314.81988			43377.83579		135.62600		875.00000 
 43692.65567		 305.27265			43387.38302		70.25800		324.00000 
 43692.65567		 314.81988			43377.83579		135.62600		875.00000 
 43692.65567		 305.27265			43387.38302		70.25800		324.00000 
 43692.65567		 318.63877			43374.01690		135.62600		875.00000 
 43692.65567		 305.27265			43387.38302		70.25800		324.00000 
 43692.65567		 322.45767			43370.19801		135.62600		875.00000 
 43692.65567		 305.27265			43387.38302		70.25800		324.00000 
 43692.65567		 326.27656			43366.37912		135.62600		875.00000 
 43692.65567		 305.27265			43387.38302		70.25800		324.00000 
 43692.65567		 326.27656			43366.37912		135.62600		875.00000 
 43692.65567		 305.27265			43387.38302		70.25800		324.00000 
 43692.65567		 326.27656			43366.37912		135.62600		875.00000 
 43692.65567		 305.27265			43387.38302		70.25800		324.00000 
 43692.65567		 326.27656			43366.37912		135.62600		875.00000 
 43692.65567		 305.27265			43387.38302		70.25800		324.00000 
 43692.65567		 537.27032			43155.38535		135.62600		875.00000 
 43692.65567		 305.27265			43387.38302		70.25800		324.00000 
 43692.65567		 800.77385			42891.88183		135.62600		875.00000 
 43692.65567		 305.27265			43387.38302		70.25800		324.00000 
 43692.65567		 932.52561			42760.13006		135.62600		875.00000 
 43692.65567		 305.27265			43387.38302		70.25800		324.00000 
 43692.65567		 932.52561			42760.13006		135.62600		875.00000 
 43692.65567		 305.27265			43387.38302		70.25800		324.00000 
 43692.65567		 932.52561			42760.13006		135.62600		875.00000 
 43692.65567		 305.27265			43387.38302		70.25800		324.00000 
 43692.65567		 932.52561			42760.13006		135.62600		875.00000 
 43692.65567		 305.27265			43387.38302		70.25800		324.00000 
 43692.65567		 932.52561			42760.13006		135.62600		875.00000 
 43692.65567		 305.27265			43387.38302		70.25800		324.00000 
 43692.65567		 932.52561			42760.13006		135.62600		875.00000 
 43692.65567		 305.27265			43387.38302		70.25800		324.00000 
 43692.65567		 932.52561			42760.13006		135.62600		875.00000 
 43692.65567		 305.27265			43387.38302		70.25800		324.00000 
 43692.65567		 932.52561			42760.13006		135.62600		875.00000 
 43692.65567		 305.27265			43387.38302		70.25800		324.00000 
 43692.65567		 932.52561			42760.13006		135.62600		875.00000 
 43692.65567		 305.27265			43387.38302		70.25800		324.00000 
 43692.65567		 932.52561			42760.13006		135.62600		875.00000 
 43692.65567		 305.27265			43387.38302		70.25800		324.00000 
 43692.65567		 932.52561			42760.13006		135.62600		875.00000 
 43692.65567		 305.27265			43387.38302		70.25800		324.00000 
 43692.65567		 932.52561			42760.13006		135.62600		875.00000 
 43692.65567		 305.27265			43387.38302		70.25800		324.00000 
 43692.65567		 932.52561			42760.13006		135.62600		875.00000 
 43692.65567		 305.27265			43387.38302		70.25800		324.00000 
 43692.65567		 932.52561			42760.13006		135.62600		875.00000 
 43692.65567		 305.27265			43387.38302		70.25800		324.00000 
 43692.65567		 932.52561			42760.13006		135.62600		875.00000 
 43692.65567		 305.27265			43387.38302		70.25800		324.00000 
 43692.65567		 932.52561			42760.13006		135.62600		875.00000 
 43692.65567		 305.27265			43387.38302		70.25800		324.00000 
 43692.65567		 932.52561			42760.13006		135.62600		875.00000 
 43692.65567		 305.27265			43387.38302		70.25800		324.00000 
 43692.65567		 932.52561			42760.13006		135.62600		875.00000 
 43692.65567		 305.27265			43387.38302		70.25800		324.00000 
 43692.65567		 932.52561			42760.13006		135.62600		875.00000 
 43692.65567		 305.27265			43387.38302		70.25800		324.00000 
 43692.65567		 932.52561			42760.13006		135.62600		875.00000 
 43692.65567		 305.27265			43387.38302		70.25800		324.00000 
 43692.65567		 932.52561			42760.13006		135.62600		875.00000 
 43692.65567		 305.27265			43387.38302		70.25800		324.00000 
 43692.65567		 932.52561			42760.13006		135.62600		875.00000 
 43692.65567		 305.27265			43387.38302		70.25800		324.00000 
 43692.65567		 932.52561			42760.13006		161.76000		875.00000 
 43692.65567		 305.27265			43387.38302		70.25800		324.00000 
 43692.65567		 932.52561			42760.13006		161.76000		875.00000 
 43692.65567		 305.27265			43387.38302		70.25800		324.00000 
 43692.65567		 932.52561			42760.13006		161.76000		875.00000 
 43692.65567		 305.27265			43387.38302		70.25800		324.00000 
 43692.65567		 932.52561			42760.13006		161.76000		875.00000 
 43692.65567		 305.27265			43387.38302		70.25800		324.00000 
 43692.65567		 932.52561			42760.13006		161.76000		875.00000 
 43692.65567		 305.27265			43387.38302		70.25800		324.00000 
 43692.65567		 932.52561			42760.13006		161.76000		875.00000 
 43692.65567		 305.27265			43387.38302		70.25800		324.00000 
 43692.65567		 932.52561			42760.13006		161.76000		875.00000 
 43692.65567		 305.27265			43387.38302		70.25800		324.00000 
 43692.65567		 932.52561			42760.13006		161.76000		875.00000 
 43692.65567		 305.27265			43387.38302		70.25800		324.00000 
 43692.65567		 932.52561			42760.13006		161.76000		875.00000 
 43692.65567		 305.27265			43387.38302		70.25800		324.00000 
 43692.65567		 932.52561			42760.13006		161.76000		875.00000 
 43692.65567		 305.27265			43387.38302		70.25800		324.00000 
 43692.65567		 932.52561			42760.13006		161.76000		875.00000 
 43692.65567		 305.27265			43387.38302		70.25800		324.00000 
 43692.65567		 932.52561			42760.13006		161.76000		875.00000 
 43692.65567		 305.27265			43387.38302		70.25800		324.00000 
 43692.65567		 932.52561			42760.13006		161.76000		875.00000 
 43692.65567		 305.27265			43387.38302		70.25800		324.00000 
 43692.65567		 932.52561			42760.13006		161.76000		875.00000 
 43692.65567		 305.27265			43387.38302		70.25800		324.00000 
 43692.65567		 932.52561			42760.13006		161.76000		875.00000 
 43692.65567		 305.27265			43387.38302		70.25800		324.00000 
 43692.65567		 932.52561			42760.13006		161.76000		875.00000 
 43692.65567		 305.27265			43387.38302		70.25800		324.00000 
 43692.65567		 932.52561			42760.13006		161.76000		875.00000 
 43692.65567		 305.27265			43387.38302		70.25800		324.00000 
 43692.65567		 932.52561			42760.13006		161.76000		875.00000 
 43692.65567		 305.27265			43387.38302		70.25800		324.00000 
 43692.65567		 932.52561			42760.13006		161.76000		875.00000 
 43692.65567		 305.27265			43387.38302		70.25800		324.00000 
 43692.65567		 932.52561			42760.13006		161.76000		875.00000 
 43692.65567		 305.27265			43387.38302		70.25800		324.00000 
 43692.65567		 932.52561			42760.13006		161.76000		875.00000 
 43692.65567		 305.27265			43387.38302		70.25800		324.00000 
 43692.65567		 932.52561			42760.13006		161.76000		875.00000 
 43692.65567		 305.27265			43387.38302		70.25800		324.00000 
 43692.65567		 932.52561			42760.13006		161.76000		875.00000 
 43692.65567		 305.27265			43387.38302		70.25800		324.00000 
 43692.65567		 932.52561			42760.13006		161.76000		875.00000 
 43692.65567		 305.27265			43387.38302		70.25800		324.00000 
 43692.65567		 932.52561			42760.13006		161.76000		875.00000 
 43692.65567		 305.27265			43387.38302		70.25800		324.00000 
 43692.65567		 932.52561			42760.13006		161.76000		875.00000 
 43692.65567		 305.27265			43387.38302		70.25800		324.00000 
 43692.65567		 932.52561			42760.13006		161.76000		875.00000 
 43692.65567		 305.27265			43387.38302		70.25800		324.00000 
 43692.65567		 932.52561			42760.13006		161.76000		875.00000 
 43692.65567		 305.27265			43387.38302		70.25800		324.00000 
 43692.65567		 932.52561			42760.13006		161.76000		875.00000 
 43692.65567		 305.27265			43387.38302		70.25800		324.00000 
 43692.65567		 932.52561			42760.13006		161.76000		875.00000 
 43692.65567		 305.27265			43387.38302		70.25800		324.00000 
 43692.65567		 932.52561			42760.13006		161.76000		875.00000 
 43692.65567		 305.27265			43387.38302		70.25800		324.00000 
 43692.65567		 932.52561			42760.13006		161.76000		875.00000 
 43692.65567		 305.27265			43387.38302		70.25800		324.00000 
 43692.65567		 932.52561			42760.13006		161.76000		875.00000 
 43692.65567		 305.27265			43387.38302		70.25800		324.00000 
 43692.65567		 932.52561			42760.13006		161.76000		875.00000 
 43692.65567		 305.27265			43387.38302		70.25800		324.00000 
 43692.65567		 932.52561			42760.13006		161.76000		875.00000 
 43692.65567		 305.27265			43387.38302		70.25800		324.00000 
 43692.65567		 932.52561			42760.13006		161.76000		875.00000 
 43692.65567		 305.27265			43387.38302		70.25800		324.00000 
 43692.65567		 932.52561			42760.13006		161.76000		875.00000 
 43692.65567		 305.27265			43387.38302		70.25800		324.00000 
 43692.65567		 932.52561			42760.13006		161.76000		875.00000 
 43692.65567		 305.27265			43387.38302		70.25800		324.00000 
 43692.65567		 932.52561			42760.13006		161.76000		875.00000 
 43692.65567		 305.27265			43387.38302		70.25800		324.00000 
 43692.65567		 932.52561			42760.13006		161.76000		875.00000 
 43692.65567		 305.27265			43387.38302		70.25800		324.00000 
 43692.65567		 932.52561			42760.13006		161.76000		875.00000 
 43692.65567		 305.27265			43387.38302		70.25800		324.00000 
 43692.65567		 932.52561			42760.13006		161.76000		875.00000 
 43692.65567		 305.27265			43387.38302		70.25800		324.00000 
 43692.65567		 932.52561			42760.13006		161.76000		875.00000 
 43692.65567		 305.27265			43387.38302		70.25800		324.00000 
 43692.65567		 932.52561			42760.13006		161.76000		875.00000 
 43692.65567		 305.27265			43387.38302		70.25800		324.00000 
 43692.65567		 932.52561			42760.13006		161.76000		875.00000 
 43692.65567		 305.27265			43387.38302		70.25800		324.00000 
 43692.65567		 932.52561			42760.13006		161.76000		875.00000 
 43692.65567		 305.27265			43387.38302		70.25800		324.00000 
 43692.65567		 932.52561			42760.13006		161.76000		875.00000 
 43692.65567		 305.27265			43387.38302		70.25800		324.00000 
 43692.65567		 932.52561			42760.13006		161.76000		875.00000 
 43692.65567		 305.27265			43387.38302		70.25800		324.00000 
 43692.65567		 932.52561			42760.13006		161.76000		875.00000 
 43692.65567		 305.27265			43387.38302		70.25800		324.00000 
 43692.65567		 932.52561			42760.13006		161.76000		875.00000 
 43692.65567		 305.27265			43387.38302		70.25800		324.00000 
 43692.65567		 932.52561			42760.13006		161.76000		875.00000 
 43692.65567		 305.27265			43387.38302		70.25800		324.00000 
 43692.65567		 932.52561			42760.13006		161.76000		875.00000 
 43692.65567		 305.27265			43387.38302		70.25800		324.00000 
 43692.65567		 932.52561			42760.13006		161.76000		875.00000 
 43692.65567		 305.27265			43387.38302		70.25800		324.00000 
 43692.65567		 932.52561			42760.13006		161.76000		875.00000 
 43692.65567		 305.27265			43387.38302		70.25800		324.00000 
 43692.65567		 932.52561			42760.13006		161.76000		875.00000 
 43692.65567		 305.27265			43387.38302		70.25800		324.00000 
 43692.65567		 932.52561			42760.13006		161.76000		875.00000 
 43692.65567		 305.27265			43387.38302		70.25800		324.00000 
 43692.65567		 932.52561			42760.13006		161.76000		875.00000 
 43692.65567		 305.27265			43387.38302		70.25800		324.00000 
 43692.65567		 932.52561			42760.13006		161.76000		875.00000 
 43692.65567		 305.27265			43387.38302		70.25800		324.00000 
 43692.65567		 932.52561			42760.13006		161.76000		875.00000 
 43692.65567		 305.27265			43387.38302		70.25800		324.00000 
 43692.65567		 932.52561			42760.13006		161.76000		875.00000 
 43692.65567		 305.27265			43387.38302		70.25800		324.00000 
 43692.65567		 932.52561			42760.13006		161.76000		875.00000 
 43692.65567		 305.27265			43387.38302		70.25800		324.00000 
 43692.65567		 932.52561			42760.13006		161.76000		875.00000 
 43692.65567		 305.27265			43387.38302		70.25800		324.00000 
 43692.65567		 932.52561			42760.13006		161.76000		875.00000 
 43692.65567		 305.27265			43387.38302		70.25800		324.00000 
 43692.65567		 932.52561			42760.13006		161.76000		875.00000 
 43692.65567		 305.27265			43387.38302		70.25800		324.00000 
 43692.65567		 932.52561			42760.13006		205.10000		875.00000 
 43692.65567		 305.27265			43387.38302		70.25800		324.00000 
 43692.65567		 932.52561			42760.13006		205.10000		875.00000 
 43692.65567		 305.27265			43387.38302		70.25800		324.00000 
 43692.65567		 932.52561			42760.13006		205.10000		875.00000 
 43692.65567		 305.27265			43387.38302		70.25800		324.00000 
 43692.65567		 932.52561			42760.13006		205.10000		875.00000 
 43692.65567		 305.27265			43387.38302		70.25800		324.00000 
 43692.65567		 932.52561			42760.13006		205.10000		875.00000 
 43692.65567		 305.27265			43387.38302		70.25800		324.00000 
 43692.65567		 932.52561			42760.13006		205.10000		875.00000 
 43692.65567		 305.27265			43387.38302		70.25800		324.00000 
 43692.65567		 932.52561			42760.13006		205.10000		875.00000 
 43692.65567		 305.27265			43387.38302		70.25800		324.00000 
 43692.65567		 932.52561			42760.13006		205.10000		875.00000 
 43692.65567		 305.27265			43387.38302		70.25800		324.00000 
 43692.65567		 932.52561			42760.13006		205.10000		875.00000 
 43692.65567		 305.27265			43387.38302		70.25800		324.00000 
 43692.65567		 932.52561			42760.13006		205.10000		875.00000 
 43692.65567		 305.27265			43387.38302		70.25800		324.00000 
 43692.65567		 932.52561			42760.13006		205.10000		875.00000 
 43692.65567		 305.27265			43387.38302		70.25800		324.00000 
 43692.65567		 932.52561			42760.13006		205.10000		875.00000 
 43692.65567		 305.27265			43387.38302		70.25800		324.00000 
 43692.65567		 932.52561			42760.13006		205.10000		875.00000 
 43692.65567		 305.27265			43387.38302		70.25800		324.00000 
 43692.65567		 932.52561			42760.13006		205.10000		875.00000 
 43692.65567		 305.27265			43387.38302		70.25800		324.00000 
 43692.65567		 932.52561			42760.13006		205.10000		875.00000 
 43692.65567		 305.27265			43387.38302		70.25800		324.00000 
 43692.65567		 932.52561			42760.13006		205.10000		875.00000 
 43692.65567		 305.27265			43387.38302		70.25800		324.00000 
 43692.65567		 932.52561			42760.13006		205.10000		875.00000 
 43692.65567		 305.27265			43387.38302		70.25800		324.00000 
 43692.65567		 932.52561			42760.13006		205.10000		875.00000 
 43692.65567		 305.27265			43387.38302		70.25800		324.00000 
 43692.65567		 932.52561			42760.13006		205.10000		875.00000 
 43692.65567		 305.27265			43387.38302		70.25800		324.00000 
 43692.65567		 932.52561			42760.13006		205.10000		875.00000 
 43692.65567		 305.27265			43387.38302		70.25800		324.00000 
 43692.65567		 932.52561			42760.13006		205.10000		875.00000 
 43692.65567		 305.27265			43387.38302		70.25800		324.00000 
 43692.65567		 932.52561			42760.13006		205.10000		875.00000 
 43692.65567		 305.27265			43387.38302		70.25800		324.00000 
 43692.65567		 932.52561			42760.13006		205.10000		875.00000 
 43692.65567		 305.27265			43387.38302		70.25800		324.00000 
 43692.65567		 932.52561			42760.13006		205.10000		875.00000 
 43692.65567		 305.27265			43387.38302		70.25800		324.00000 
 43692.65567		 932.52561			42760.13006		205.10000		875.00000 
 43692.65567		 305.27265			43387.38302		70.25800		324.00000 
 43692.65567		 932.52561			42760.13006		205.10000		875.00000 
 43692.65567		 305.27265			43387.38302		70.25800		324.00000 
 43692.65567		 932.52561			42760.13006		205.10000		875.00000 
 43692.65567		 305.27265			43387.38302		70.25800		324.00000 
 43692.65567		 932.52561			42760.13006		205.10000		875.00000 
 43692.65567		 305.27265			43387.38302		70.25800		324.00000 
 43692.65567		 932.52561			42760.13006		205.10000		875.00000 
 43692.65567		 305.27265			43387.38302		70.25800		324.00000 
 43692.65567		 932.52561			42760.13006		205.10000		875.00000 
 43692.65567		 305.27265			43387.38302		70.25800		324.00000 
 43692.65567		 932.52561			42760.13006		205.10000		875.00000 
 43692.65567		 305.27265			43387.38302		70.25800		324.00000 
 43692.65567		 932.52561			42760.13006		205.10000		875.00000 
 43692.65567		 305.27265			43387.38302		70.25800		324.00000 
 43692.65567		 932.52561			42760.13006		205.10000		875.00000 
 43692.65567		 305.27265			43387.38302		70.25800		324.00000 
 43692.65567		 932.52561			42760.13006		205.10000		875.00000 
 43692.65567		 305.27265			43387.38302		70.25800		324.00000 
 43692.65567		 932.52561			42760.13006		205.10000		875.00000 
 43692.65567		 305.27265			43387.38302		70.25800		324.00000 
 43692.65567		 932.52561			42760.13006		205.10000		875.00000 
 43692.65567		 305.27265			43387.38302		70.25800		324.00000 
 43692.65567		 932.52561			42760.13006		205.10000		875.00000 
 43692.65567		 305.27265			43387.38302		70.25800		324.00000 
 43692.65567		 932.52561			42760.13006		205.10000		875.00000 
 43692.65567		 305.27265			43387.38302		70.25800		324.00000 
 43692.65567		 932.52561			42760.13006		205.10000		875.00000 
 43692.65567		 305.27265			43387.38302		70.25800		324.00000 
 43692.65567		 932.52561			42760.13006		205.10000		875.00000 
 43692.65567		 305.27265			43387.38302		70.25800		324.00000 
 43692.65567		 932.52561			42760.13006		205.10000		875.00000 
 43692.65567		 305.27265			43387.38302		70.25800		324.00000 
 43692.65567		 932.52561			42760.13006		205.10000		875.00000 
 43692.65567		 305.27265			43387.38302		70.25800		324.00000 
 43692.65567		 932.52561			42760.13006		205.10000		875.00000 
 43692.65567		 305.27265			43387.38302		70.25800		324.00000 
 43692.65567		 932.52561			42760.13006		205.10000		875.00000 
 43692.65567		 305.27265			43387.38302		70.25800		324.00000 
 43692.65567		 932.52561			42760.13006		205.10000		875.00000 
 43692.65567		 305.27265			43387.38302		70.25800		324.00000 
 43692.65567		 932.52561			42760.13006		205.10000		875.00000 
 43692.65567		 305.27265			43387.38302		70.25800		324.00000 
 43692.65567		 932.52561			42760.13006		205.10000		875.00000 
 43692.65567		 305.27265			43387.38302		70.25800		324.00000 
 43692.65567		 932.52561			42760.13006		205.10000		875.00000 
 43692.65567		 305.27265			43387.38302		70.25800		324.00000 
 43692.65567		 932.52561			42760.13006		205.10000		875.00000 
 43692.65567		 305.27265			43387.38302		70.25800		324.00000 
 43692.65567		 932.52561			42760.13006		205.10000		875.00000 
 43692.65567		 305.27265			43387.38302		70.25800		324.00000 
 43692.65567		 932.52561			42760.13006		205.10000		875.00000 
 43692.65567		 305.27265			43387.38302		70.25800		324.00000 
 43692.65567		 932.52561			42760.13006		205.10000		875.00000 
 43692.65567		 305.27265			43387.38302		70.25800		324.00000 
 43692.65567		 932.52561			42760.13006		205.10000		875.00000 
 43692.65567		 305.27265			43387.38302		70.25800		324.00000 
 43692.65567		 932.52561			42760.13006		205.10000		875.00000 
 43692.65567		 305.27265			43387.38302		70.25800		324.00000 
 43692.65567		 932.52561			42760.13006		205.10000		875.00000 
 43692.65567		 305.27265			43387.38302		70.25800		324.00000 
 43692.65567		 932.52561			42760.13006		205.10000		875.00000 
 43692.65567		 305.27265			43387.38302		70.25800		324.00000 
 43692.65567		 932.52561			42760.13006		205.10000		875.00000 
 43692.65567		 305.27265			43387.38302		70.25800		324.00000 
 43692.65567		 932.52561			42760.13006		205.10000		875.00000 
 43692.65567		 305.27265			43387.38302		70.25800		324.00000 
 43692.65567		 932.52561			42760.13006		205.10000		875.00000 
 43692.65567		 305.27265			43387.38302		70.25800		324.00000 
 43692.65567		 932.52561			42760.13006		205.10000		875.00000 
 43692.65567		 305.27265			43387.38302		70.25800		324.00000 
 43692.65567		 932.52561			42760.13006		205.10000		875.00000 
 43692.65567		 305.27265			43387.38302		70.25800		324.00000 
 43692.65567		 932.52561			42760.13006		205.10000		875.00000 
 43692.65567		 305.27265			43387.38302		70.25800		324.00000 
 43692.65567		 932.52561			42760.13006		205.10000		875.00000 
 43692.65567		 305.27265			43387.38302		70.25800		324.00000 
 43692.65567		 932.52561			42760.13006		205.10000		875.00000 
 43692.65567		 305.27265			43387.38302		70.25800		324.00000 
 43692.65567		 932.52561			42760.13006		205.10000		875.00000 
 43692.65567		 305.27265			43387.38302		70.25800		324.00000 
 43692.65567		 932.52561			42760.13006		221.05200		875.00000 
 43692.65567		 305.27265			43387.38302		70.25800		324.00000 
 43692.65567		 932.52561			42760.13006		221.05200		875.00000 
 43692.65567		 305.27265			43387.38302		70.25800		324.00000 
 43692.65567		 932.52561			42760.13006		221.05200		875.00000 
 43692.65567		 305.27265			43387.38302		70.25800		324.00000 
 43692.65567		 932.52561			42760.13006		221.05200		875.00000 
 43692.65567		 305.27265			43387.38302		70.25800		324.00000 
 43692.65567		 932.52561			42760.13006		221.05200		875.00000 
 43692.65567		 305.27265			43387.38302		70.25800		324.00000 
 43692.65567		 932.52561			42760.13006		221.05200		875.00000 
 43692.65567		 305.27265			43387.38302		70.25800		324.00000 
 43692.65567		 932.52561			42760.13006		221.05200		875.00000 
 43692.65567		 305.27265			43387.38302		70.25800		324.00000 
 43692.65567		 932.52561			42760.13006		221.05200		875.00000 
 43692.65567		 305.27265			43387.38302		70.25800		324.00000 
 43692.65567		 932.52561			42760.13006		221.05200		875.00000 
 43692.65567		 305.27265			43387.38302		70.25800		324.00000 
 43692.65567		 932.52561			42760.13006		221.05200		875.00000 
 43692.65567		 305.27265			43387.38302		70.25800		324.00000 
 43692.65567		 932.52561			42760.13006		221.05200		875.00000 
 43692.65567		 305.27265			43387.38302		70.25800		324.00000 
 43692.65567		 932.52561			42760.13006		221.05200		875.00000 
 43692.65567		 305.27265			43387.38302		70.25800		324.00000 
 43692.65567		 932.52561			42760.13006		221.05200		875.00000 
 43692.65567		 305.27265			43387.38302		70.25800		324.00000 
 43692.65567		 932.52561			42760.13006		221.05200		875.00000 
 43692.65567		 305.27265			43387.38302		70.25800		324.00000 
 43692.65567		 932.52561			42760.13006		221.05200		875.00000 
 43692.65567		 305.27265			43387.38302		70.25800		324.00000 
 43692.65567		 932.52561			42760.13006		221.05200		875.00000 
 43692.65567		 305.27265			43387.38302		70.25800		324.00000 
 43692.65567		 932.52561			42760.13006		221.05200		875.00000 
 43692.65567		 305.27265			43387.38302		70.25800		324.00000 
 43692.65567		 932.52561			42760.13006		221.05200		875.00000 
 43692.65567		 305.27265			43387.38302		70.25800		324.00000 
 43692.65567		 932.52561			42760.13006		221.05200		875.00000 
 43692.65567		 305.27265			43387.38302		70.25800		324.00000 
 43692.65567		 932.52561			42760.13006		221.05200		875.00000 
 43692.65567		 305.27265			43387.38302		70.25800		324.00000 
 43692.65567		 932.52561			42760.13006		221.05200		875.00000 
 43692.65567		 305.27265			43387.38302		70.25800		324.00000 
 43692.65567		 932.52561			42760.13006		221.05200		875.00000 
 43692.65567		 305.27265			43387.38302		70.25800		324.00000 
 43692.65567		 932.52561			42760.13006		221.05200		875.00000 
 43692.65567		 305.27265			43387.38302		70.25800		324.00000 
 43692.65567		 932.52561			42760.13006		221.05200		875.00000 
 43692.65567		 305.27265			43387.38302		70.25800		324.00000 
 43692.65567		 932.52561			42760.13006		221.05200		875.00000 
 43692.65567		 305.27265			43387.38302		70.25800		324.00000 
 43692.65567		 932.52561			42760.13006		221.05200		875.00000 
 43692.65567		 305.27265			43387.38302		70.25800		324.00000 
 43692.65567		 932.52561			42760.13006		221.05200		875.00000 
 43692.65567		 305.27265			43387.38302		70.25800		324.00000 
 43692.65567		 932.52561			42760.13006		221.05200		875.00000 
 43692.65567		 305.27265			43387.38302		70.25800		324.00000 
 43692.65567		 932.52561			42760.13006		221.05200		875.00000 
 43692.65567		 305.27265			43387.38302		70.25800		324.00000 
 43692.65567		 932.52561			42760.13006		221.05200		875.00000 
 43692.65567		 305.27265			43387.38302		69.64400		324.00000 
 43692.65567		 932.52561			42760.13006		221.05200		875.00000 
 43692.65567		 305.27265			43387.38302		69.64400		324.00000 
 43692.65567		 932.52561			42760.13006		221.05200		875.00000 
 43692.65567		 305.27265			43387.38302		69.64400		324.00000 
 43692.65567		 932.52561			42760.13006		221.05200		875.00000 
 43692.65567		 305.27265			43387.38302		69.64400		324.00000 
 43692.65567		 932.52561			42760.13006		221.05200		875.00000 
 43692.65567		 305.27265			43387.38302		69.64400		324.00000 
 43692.65567		 932.52561			42760.13006		221.05200		875.00000 
 43692.65567		 305.27265			43387.38302		69.64400		324.00000 
 43692.65567		 932.52561			42760.13006		221.05200		875.00000 
 43692.65567		 305.27265			43387.38302		69.64400		324.00000 
 43692.65567		 932.52561			42760.13006		221.05200		875.00000 
 43692.65567		 305.27265			43387.38302		69.64400		324.00000 
 43692.65567		 932.52561			42760.13006		221.05200		875.00000 
 43692.65567		 305.27265			43387.38302		69.64400		324.00000 
 43692.65567		 932.52561			42760.13006		221.05200		875.00000 
 43692.65567		 305.27265			43387.38302		69.64400		324.00000 
 43692.65567		 932.52561			42760.13006		221.05200		875.00000 
 43692.65567		 305.27265			43387.38302		69.64400		324.00000 
 43692.65567		 932.52561			42760.13006		221.05200		875.00000 
 43692.65567		 305.27265			43387.38302		69.64400		324.00000 
 43692.65567		 932.52561			42760.13006		221.05200		875.00000 
 43692.65567		 305.27265			43387.38302		69.64400		324.00000 
 43692.65567		 932.52561			42760.13006		221.05200		875.00000 
 43692.65567		 305.27265			43387.38302		69.64400		324.00000 
 43692.65567		 932.52561			42760.13006		221.05200		875.00000 
 43692.65567		 305.27265			43387.38302		69.64400		324.00000 
 43692.65567		 932.52561			42760.13006		221.05200		875.00000 
 43692.65567		 305.27265			43387.38302		69.64400		324.00000 
 43692.65567		 932.52561			42760.13006		221.05200		875.00000 
 43692.65567		 305.27265			43387.38302		69.64400		324.00000 
 43692.65567		 932.52561			42760.13006		221.05200		875.00000 
 43692.65567		 305.27265			43387.38302		69.64400		324.00000 
 43692.65567		 932.52561			42760.13006		221.05200		875.00000 
 43692.65567		 305.27265			43387.38302		69.64400		324.00000 
 43692.65567		 932.52561			42760.13006		221.05200		875.00000 
 43692.65567		 305.27265			43387.38302		69.64400		324.00000 
 43692.65567		 932.52561			42760.13006		221.05200		875.00000 
 43692.65567		 305.27265			43387.38302		69.64400		324.00000 
 43692.65567		 932.52561			42760.13006		221.05200		875.00000 
 43692.65567		 305.27265			43387.38302		69.64400		324.00000 
 43692.65567		 932.52561			42760.13006		221.05200		875.00000 
 43692.65567		 305.27265			43387.38302		69.64400		324.00000 
 43692.65567		 932.52561			42760.13006		221.05200		875.00000 
 43692.65567		 305.27265			43387.38302		69.64400		324.00000 
 43692.65567		 932.52561			42760.13006		221.05200		875.00000 
 43692.65567		 305.27265			43387.38302		69.64400		324.00000 
 43692.65567		 932.52561			42760.13006		221.05200		875.00000 
 43692.65567		 305.27265			43387.38302		69.64400		324.00000 
 43692.65567		 932.52561			42760.13006		221.05200		875.00000 
 43692.65567		 305.27265			43387.38302		69.64400		324.00000 
 43692.65567		 932.52561			42760.13006		221.05200		875.00000 
 43692.65567		 305.27265			43387.38302		69.64400		324.00000 
 43692.65567		 932.52561			42760.13006		221.05200		875.00000 
 43692.65567		 305.27265			43387.38302		69.64400		324.00000 
 43692.65567		 932.52561			42760.13006		221.05200		875.00000 
 43692.65567		 305.27265			43387.38302		69.64400		324.00000 
 43692.65567		 932.52561			42760.13006		221.05200		875.00000 
 43692.65567		 305.27265			43387.38302		69.64400		324.00000 
 43692.65567		 932.52561			42760.13006		221.05200		875.00000 
 43692.65567		 305.27265			43387.38302		69.64400		324.00000 
 43692.65567		 932.52561			42760.13006		221.05200		875.00000 
 43692.65567		 305.27265			43387.38302		69.64400		324.00000 
 43692.65567		 932.52561			42760.13006		227.26600		875.00000 
 43692.65567		 305.27265			43387.38302		69.64400		324.00000 
 43692.65567		 932.52561			42760.13006		227.26600		875.00000 
 43692.65567		 305.27265			43387.38302		69.64400		324.00000 
 43692.65567		 932.52561			42760.13006		227.26600		875.00000 
 43692.65567		 305.27265			43387.38302		69.64400		324.00000 
 43692.65567		 932.52561			42760.13006		227.26600		875.00000 
 43692.65567		 305.27265			43387.38302		69.64400		324.00000 
 43692.65567		 932.52561			42760.13006		227.26600		875.00000 
 43692.65567		 305.27265			43387.38302		69.64400		324.00000 
 43692.65567		 932.52561			42760.13006		227.26600		875.00000 
 43692.65567		 305.27265			43387.38302		69.64400		324.00000 
 43692.65567		 932.52561			42760.13006		227.26600		875.00000 
 43692.65567		 305.27265			43387.38302		69.64400		324.00000 
 43692.65567		 932.52561			42760.13006		227.26600		875.00000 
 43692.65567		 305.27265			43387.38302		69.64400		324.00000 
 43692.65567		 932.52561			42760.13006		227.26600		875.00000 
 43692.65567		 305.27265			43387.38302		69.64400		324.00000 
 43692.65567		 932.52561			42760.13006		227.26600		875.00000 
 43692.65567		 305.27265			43387.38302		69.64400		324.00000 
 43692.65567		 932.52561			42760.13006		227.26600		875.00000 
 43692.65567		 305.27265			43387.38302		69.64400		324.00000 
 43692.65567		 932.52561			42760.13006		227.26600		875.00000 
 43692.65567		 305.27265			43387.38302		69.64400		324.00000 
 43692.65567		 932.52561			42760.13006		227.26600		875.00000 
 43692.65567		 305.27265			43387.38302		69.64400		324.00000 
 43692.65567		 932.52561			42760.13006		227.26600		875.00000 
 43692.65567		 305.27265			43387.38302		69.64400		324.00000 
 43692.65567		 932.52561			42760.13006		227.26600		875.00000 
 43692.65567		 305.27265			43387.38302		69.64400		324.00000 
 43692.65567		 932.52561			42760.13006		227.26600		875.00000 
 43692.65567		 305.27265			43387.38302		69.64400		324.00000 
 43692.65567		 932.52561			42760.13006		227.26600		875.00000 
 43692.65567		 305.27265			43387.38302		69.64400		324.00000 
 43692.65567		 932.52561			42760.13006		227.26600		875.00000 
 43692.65567		 305.27265			43387.38302		69.64400		324.00000 
 43692.65567		 932.52561			42760.13006		227.26600		875.00000 
 43692.65567		 305.27265			43387.38302		69.64400		324.00000 
 43692.65567		 932.52561			42760.13006		227.26600		875.00000 
 43692.65567		 305.27265			43387.38302		69.64400		324.00000 
 43692.65567		 932.52561			42760.13006		227.26600		875.00000 
 43692.65567		 305.27265			43387.38302		69.64400		324.00000 
 43692.65567		 932.52561			42760.13006		227.26600		875.00000 
 43692.65567		 305.27265			43387.38302		69.64400		324.00000 
 43692.65567		 932.52561			42760.13006		227.26600		875.00000 
 43692.65567		 305.27265			43387.38302		69.64400		324.00000 
 43692.65567		 932.52561			42760.13006		227.26600		875.00000 
 43692.65567		 305.27265			43387.38302		69.64400		324.00000 
 43692.65567		 932.52561			42760.13006		227.26600		875.00000 
 43692.65567		 305.27265			43387.38302		69.64400		324.00000 
 43692.65567		 932.52561			42760.13006		227.26600		875.00000 
 43692.65567		 305.27265			43387.38302		69.64400		324.00000 
 43692.65567		 932.52561			42760.13006		227.26600		875.00000 
 43692.65567		 305.27265			43387.38302		69.64400		324.00000 
 43692.65567		 932.52561			42760.13006		227.26600		875.00000 
 43692.65567		 305.27265			43387.38302		69.64400		324.00000 
 43692.65567		 932.52561			42760.13006		227.26600		875.00000 
 43692.65567		 305.27265			43387.38302		69.64400		324.00000 
 43692.65567		 932.52561			42760.13006		227.26600		875.00000 
 43692.65567		 305.27265			43387.38302		69.64400		324.00000 
 43692.65567		 932.52561			42760.13006		227.26600		875.00000 
 43692.65567		 305.27265			43387.38302		69.64400		324.00000 
 43692.65567		 932.52561			42760.13006		227.26600		875.00000 
 43692.65567		 305.27265			43387.38302		69.64400		324.00000 
 43692.65567		 932.52561			42760.13006		227.26600		875.00000 
 43692.65567		 305.27265			43387.38302		69.64400		324.00000 
 43692.65567		 932.52561			42760.13006		227.26600		875.00000 
 43692.65567		 305.27265			43387.38302		69.64400		324.00000 
 43692.65567		 932.52561			42760.13006		227.26600		875.00000 
 43692.65567		 305.27265			43387.38302		69.64400		324.00000 
 43692.65567		 932.52561			42760.13006		227.26600		875.00000 
 43692.65567		 305.27265			43387.38302		69.64400		324.00000 
 43692.65567		 932.52561			42760.13006		227.26600		875.00000 
 43692.65567		 305.27265			43387.38302		69.64400		324.00000 
 43692.65567		 932.52561			42760.13006		227.26600		875.00000 
 43692.65567		 305.27265			43387.38302		69.64400		324.00000 
 43692.65567		 932.52561			42760.13006		227.26600		875.00000 
 43692.65567		 305.27265			43387.38302		69.64400		324.00000 
 43692.65567		 932.52561			42760.13006		227.26600		875.00000 
 43692.65567		 305.27265			43387.38302		69.64400		324.00000 
 43692.65567		 932.52561			42760.13006		227.26600		875.00000 
 43692.65567		 305.27265			43387.38302		69.64400		324.00000 
 43692.65567		 932.52561			42760.13006		227.26600		875.00000 
 43692.65567		 305.27265			43387.38302		69.64400		324.00000 
 43692.65567		 932.52561			42760.13006		227.26600		875.00000 
 43692.65567		 305.27265			43387.38302		69.64400		324.00000 
 43692.65567		 932.52561			42760.13006		227.26600		875.00000 
 43692.65567		 305.27265			43387.38302		69.64400		324.00000 
 43692.65567		 932.52561			42760.13006		227.26600		875.00000 
 43692.65567		 305.27265			43387.38302		69.64400		324.00000 
 43692.65567		 932.52561			42760.13006		227.26600		875.00000 
 43692.65567		 305.27265			43387.38302		69.64400		324.00000 
 43692.65567		 932.52561			42760.13006		227.26600		875.00000 
 43692.65567		 305.27265			43387.38302		69.64400		324.00000 
 43692.65567		 932.52561			42760.13006		227.26600		875.00000 
 43692.65567		 305.27265			43387.38302		69.64400		324.00000 
 43692.65567		 932.52561			42760.13006		227.26600		875.00000 
 43692.65567		 305.27265			43387.38302		69.64400		324.00000 
 43692.65567		 932.52561			42760.13006		227.26600		875.00000 
 43692.65567		 305.27265			43387.38302		69.64400		324.00000 
 43692.65567		 932.52561			42760.13006		227.26600		875.00000 
 43692.65567		 305.27265			43387.38302		69.64400		324.00000 
 43692.65567		 932.52561			42760.13006		227.26600		875.00000 
 43692.65567		 305.27265			43387.38302		69.64400		324.00000 
 43692.65567		 932.52561			42760.13006		227.26600		875.00000 
 43692.65567		 305.27265			43387.38302		69.64400		324.00000 
 43692.65567		 932.52561			42760.13006		227.26600		875.00000 
 43692.65567		 305.27265			43387.38302		69.64400		324.00000 
 43692.65567		 932.52561			42760.13006		227.26600		875.00000 
 43692.65567		 305.27265			43387.38302		69.64400		324.00000 
 43692.65567		 932.52561			42760.13006		227.26600		875.00000 
 43692.65567		 305.27265			43387.38302		69.64400		324.00000 
 43692.65567		 932.52561			42760.13006		227.26600		875.00000 
 43692.65567		 305.27265			43387.38302		69.64400		324.00000 
 43692.65567		 932.52561			42760.13006		227.26600		875.00000 
 43692.65567		 305.27265			43387.38302		69.64400		324.00000 
 43692.65567		 932.52561			42760.13006		227.26600		875.00000 
 43692.65567		 305.27265			43387.38302		69.64400		324.00000 
 43692.65567		 932.52561			42760.13006		227.26600		875.00000 
 43692.65567		 305.27265			43387.38302		69.64400		324.00000 
 43692.65567		 932.52561			42760.13006		227.26600		875.00000 
 43692.65567		 305.27265			43387.38302		69.64400		324.00000 
 43692.65567		 932.52561			42760.13006		227.26600		875.00000 
 43692.65567		 305.27265			43387.38302		69.64400		324.00000 
 43692.65567		 932.52561			42760.13006		227.26600		875.00000 
 43692.65567		 305.27265			43387.38302		69.64400		324.00000 
 43692.65567		 932.52561			42760.13006		227.26600		875.00000 
 43692.65567		 305.27265			43387.38302		69.64400		324.00000 
 43692.65567		 932.52561			42760.13006		227.26600		875.00000 
 43692.65567		 305.27265			43387.38302		69.64400		324.00000 
 43692.65567		 932.52561			42760.13006		229.64200		875.00000 
 43692.65567		 305.27265			43387.38302		69.64400		324.00000 
 43692.65567		 932.52561			42760.13006		229.64200		875.00000 
 43692.65567		 305.27265			43387.38302		69.64400		324.00000 
 43692.65567		 932.52561			42760.13006		229.64200		875.00000 
 43692.65567		 305.27265			43387.38302		69.64400		324.00000 
 43692.65567		 932.52561			42760.13006		229.64200		875.00000 
 43692.65567		 305.27265			43387.38302		69.64400		324.00000 
 43692.65567		 932.52561			42760.13006		229.64200		875.00000 
 43692.65567		 305.27265			43387.38302		69.64400		324.00000 
 43692.65567		 932.52561			42760.13006		229.64200		875.00000 
 43692.65567		 305.27265			43387.38302		69.64400		324.00000 
 43692.65567		 932.52561			42760.13006		229.64200		875.00000 
 43692.65567		 305.27265			43387.38302		69.64400		324.00000 
 43692.65567		 932.52561			42760.13006		229.64200		875.00000 
 43692.65567		 305.27265			43387.38302		69.64400		324.00000 
 43692.65567		 932.52561			42760.13006		229.64200		875.00000 
 43692.65567		 305.27265			43387.38302		69.64400		324.00000 
 43692.65567		 932.52561			42760.13006		229.64200		875.00000 
 43692.65567		 305.27265			43387.38302		69.64400		324.00000 
 43692.65567		 932.52561			42760.13006		229.64200		875.00000 
 43692.65567		 305.27265			43387.38302		69.64400		324.00000 
 43692.65567		 932.52561			42760.13006		229.64200		875.00000 
 43692.65567		 305.27265			43387.38302		69.64400		324.00000 
 43692.65567		 932.52561			42760.13006		229.64200		875.00000 
 43692.65567		 305.27265			43387.38302		69.64400		324.00000 
 43692.65567		 932.52561			42760.13006		229.64200		875.00000 
 43692.65567		 305.27265			43387.38302		69.64400		324.00000 
 43692.65567		 932.52561			42760.13006		229.64200		875.00000 
 43692.65567		 305.27265			43387.38302		69.64400		324.00000 
 43692.65567		 932.52561			42760.13006		229.64200		875.00000 
 43692.65567		 305.27265			43387.38302		69.64400		324.00000 
 43692.65567		 932.52561			42760.13006		229.64200		875.00000 
 43692.65567		 305.27265			43387.38302		69.64400		324.00000 
 43692.65567		 932.52561			42760.13006		229.64200		875.00000 
 43692.65567		 305.27265			43387.38302		69.64400		324.00000 
 43692.65567		 932.52561			42760.13006		229.64200		875.00000 
 43692.65567		 305.27265			43387.38302		69.64400		324.00000 
 43692.65567		 932.52561			42760.13006		229.64200		875.00000 
 43692.65567		 305.27265			43387.38302		69.64400		324.00000 
 43692.65567		 932.52561			42760.13006		229.64200		875.00000 
 43692.65567		 305.27265			43387.38302		69.64400		324.00000 
 43692.65567		 932.52561			42760.13006		229.64200		875.00000 
 43692.65567		 305.27265			43387.38302		69.64400		324.00000 
 43692.65567		 932.52561			42760.13006		229.64200		875.00000 
 43692.65567		 305.27265			43387.38302		69.64400		324.00000 
 43692.65567		 932.52561			42760.13006		229.64200		875.00000 
 43692.65567		 305.27265			43387.38302		69.64400		324.00000 
 43692.65567		 932.52561			42760.13006		229.64200		875.00000 
 43692.65567		 305.27265			43387.38302		69.64400		324.00000 
 43692.65567		 932.52561			42760.13006		229.64200		875.00000 
 43692.65567		 305.27265			43387.38302		69.64400		324.00000 
 43692.65567		 932.52561			42760.13006		229.64200		875.00000 
 43692.65567		 305.27265			43387.38302		69.64400		324.00000 
 43692.65567		 932.52561			42760.13006		229.64200		875.00000 
 43692.65567		 305.27265			43387.38302		69.64400		324.00000 
 43692.65567		 932.52561			42760.13006		229.64200		875.00000 
 43692.65567		 305.27265			43387.38302		69.64400		324.00000 
 43692.65567		 932.52561			42760.13006		229.64200		875.00000 
 43692.65567		 305.27265			43387.38302		69.64400		324.00000 
 43692.65567		 932.52561			42760.13006		229.64200		875.00000 
 43692.65567		 305.27265			43387.38302		69.64400		324.00000 
 43692.65567		 932.52561			42760.13006		229.64200		875.00000 
 43692.65567		 305.27265			43387.38302		69.64400		324.00000 
 43692.65567		 932.52561			42760.13006		229.64200		875.00000 
 43692.65567		 305.27265			43387.38302		69.64400		324.00000 
 43692.65567		 932.52561			42760.13006		229.64200		875.00000 
 43692.65567		 305.27265			43387.38302		69.64400		324.00000 
 43692.65567		 932.52561			42760.13006		229.64200		875.00000 
 43692.65567		 305.27265			43387.38302		69.64400		324.00000 
 43692.65567		 932.52561			42760.13006		229.64200		875.00000 
 43692.65567		 305.27265			43387.38302		69.64400		324.00000 
 43692.65567		 932.52561			42760.13006		229.64200		875.00000 
 43692.65567		 305.27265			43387.38302		69.64400		324.00000 
 43692.65567		 932.52561			42760.13006		229.64200		875.00000 
 43692.65567		 305.27265			43387.38302		69.64400		324.00000 
 43692.65567		 932.52561			42760.13006		229.64200		875.00000 
 43692.65567		 305.27265			43387.38302		69.64400		324.00000 
 43692.65567		 932.52561			42760.13006		229.64200		875.00000 
 43692.65567		 305.27265			43387.38302		69.64400		324.00000 
 43692.65567		 932.52561			42760.13006		229.64200		875.00000 
 43692.65567		 305.27265			43387.38302		69.64400		324.00000 
 43692.65567		 932.52561			42760.13006		229.64200		875.00000 
 43692.65567		 305.27265			43387.38302		69.64400		324.00000 
 43692.65567		 932.52561			42760.13006		229.64200		875.00000 
 43692.65567		 305.27265			43387.38302		69.64400		324.00000 
 43692.65567		 932.52561			42760.13006		229.64200		875.00000 
 43692.65567		 305.27265			43387.38302		69.64400		324.00000 
 43692.65567		 932.52561			42760.13006		229.64200		875.00000 
 43692.65567		 305.27265			43387.38302		69.64400		324.00000 
 43692.65567		 932.52561			42760.13006		229.64200		875.00000 
 43692.65567		 305.27265			43387.38302		69.64400		324.00000 
 43692.65567		 932.52561			42760.13006		229.64200		875.00000 
 43692.65567		 305.27265			43387.38302		69.64400		324.00000 
 43692.65567		 932.52561			42760.13006		229.64200		875.00000 
 43692.65567		 305.27265			43387.38302		69.64400		324.00000 
 43692.65567		 932.52561			42760.13006		229.64200		875.00000 
 43692.65567		 305.27265			43387.38302		69.64400		324.00000 
 43692.65567		 932.52561			42760.13006		229.64200		875.00000 
 43692.65567		 305.27265			43387.38302		69.64400		324.00000 
 43692.65567		 932.52561			42760.13006		229.64200		875.00000 
 43692.65567		 305.27265			43387.38302		69.64400		324.00000 
 43692.65567		 932.52561			42760.13006		229.64200		875.00000 
 43692.65567		 305.27265			43387.38302		69.64400		324.00000 
 43692.65567		 932.52561			42760.13006		229.64200		875.00000 
 43692.65567		 305.27265			43387.38302		69.64400		324.00000 
 43692.65567		 932.52561			42760.13006		229.64200		875.00000 
 43692.65567		 305.27265			43387.38302		69.64400		324.00000 
 43692.65567		 932.52561			42760.13006		229.64200		875.00000 
 43692.65567		 305.27265			43387.38302		69.64400		324.00000 
 43692.65567		 932.52561			42760.13006		229.64200		875.00000 
 43692.65567		 305.27265			43387.38302		69.64400		324.00000 
 43692.65567		 932.52561			42760.13006		229.64200		875.00000 
 43692.65567		 305.27265			43387.38302		69.64400		324.00000 
 43692.65567		 932.52561			42760.13006		229.64200		875.00000 
 43692.65567		 305.27265			43387.38302		69.64400		324.00000 
 43692.65567		 932.52561			42760.13006		229.64200		875.00000 
 43692.65567		 305.27265			43387.38302		69.64400		324.00000 
 43692.65567		 932.52561			42760.13006		229.64200		875.00000 
 43692.65567		 305.27265			43387.38302		69.64400		324.00000 
 43692.65567		 932.52561			42760.13006		229.64200		875.00000 
 43692.65567		 305.27265			43387.38302		69.64400		324.00000 
 43692.65567		 932.52561			42760.13006		229.64200		875.00000 
 43692.65567		 305.27265			43387.38302		69.64400		324.00000 
 43692.65567		 932.52561			42760.13006		229.64200		875.00000 
 43692.65567		 305.27265			43387.38302		69.64400		324.00000 
 43692.65567		 932.52561			42760.13006		229.64200		875.00000 
 43692.65567		 305.27265			43387.38302		69.64400		324.00000 
 43692.65567		 932.52561			42760.13006		229.64200		875.00000 
 43692.65567		 305.27265			43387.38302		69.64400		324.00000 
 43692.65567		 932.52561			42760.13006		229.89800		875.00000 
 43692.65567		 305.27265			43387.38302		69.64400		324.00000 
 43692.65567		 932.52561			42760.13006		229.89800		875.00000 
 43692.65567		 305.27265			43387.38302		69.64400		324.00000 
 43692.65567		 932.52561			42760.13006		229.89800		875.00000 
 43692.65567		 305.27265			43387.38302		69.64400		324.00000 
 43692.65567		 932.52561			42760.13006		229.89800		875.00000 
 43692.65567		 305.27265			43387.38302		69.64400		324.00000 
 43692.65567		 932.52561			42760.13006		229.89800		875.00000 
 43692.65567		 305.27265			43387.38302		69.64400		324.00000 
 43692.65567		 932.52561			42760.13006		229.89800		875.00000 
 43692.65567		 305.27265			43387.38302		69.64400		324.00000 
 43692.65567		 932.52561			42760.13006		229.89800		875.00000 
 43692.65567		 305.27265			43387.38302		69.64400		324.00000 
 43692.65567		 932.52561			42760.13006		229.89800		875.00000 
 43692.65567		 305.27265			43387.38302		69.64400		324.00000 
 43692.65567		 932.52561			42760.13006		229.89800		875.00000 
 43692.65567		 305.27265			43387.38302		69.64400		324.00000 
 43692.65567		 932.52561			42760.13006		229.89800		875.00000 
 43692.65567		 305.27265			43387.38302		69.64400		324.00000 
 43692.65567		 932.52561			42760.13006		229.89800		875.00000 
 43692.65567		 305.27265			43387.38302		69.64400		324.00000 
 43692.65567		 932.52561			42760.13006		229.89800		875.00000 
 43692.65567		 305.27265			43387.38302		69.64400		324.00000 
 43692.65567		 932.52561			42760.13006		229.89800		875.00000 
 43692.65567		 305.27265			43387.38302		69.64400		324.00000 
 43692.65567		 932.52561			42760.13006		229.89800		875.00000 
 43692.65567		 305.27265			43387.38302		69.64400		324.00000 
 43692.65567		 932.52561			42760.13006		229.89800		875.00000 
 43692.65567		 305.27265			43387.38302		69.64400		324.00000 
 43692.65567		 932.52561			42760.13006		229.89800		875.00000 
 43692.65567		 305.27265			43387.38302		69.64400		324.00000 
 43692.65567		 932.52561			42760.13006		229.89800		875.00000 
 43692.65567		 305.27265			43387.38302		69.64400		324.00000 
 43692.65567		 932.52561			42760.13006		229.89800		875.00000 
 43692.65567		 305.27265			43387.38302		69.64400		324.00000 
 43692.65567		 932.52561			42760.13006		229.89800		875.00000 
 43692.65567		 305.27265			43387.38302		69.64400		324.00000 
 43692.65567		 932.52561			42760.13006		229.89800		875.00000 
 43692.65567		 305.27265			43387.38302		69.64400		324.00000 
 43692.65567		 932.52561			42760.13006		229.89800		875.00000 
 43692.65567		 305.27265			43387.38302		69.64400		324.00000 
 43692.65567		 932.52561			42760.13006		229.89800		875.00000 
 43692.65567		 305.27265			43387.38302		69.64400		324.00000 
 43692.65567		 932.52561			42760.13006		229.89800		875.00000 
 43692.65567		 305.27265			43387.38302		69.64400		324.00000 
 43692.65567		 932.52561			42760.13006		229.89800		875.00000 
 43692.65567		 305.27265			43387.38302		69.64400		324.00000 
 43692.65567		 932.52561			42760.13006		229.89800		875.00000 
 43692.65567		 305.27265			43387.38302		69.64400		324.00000 
 43692.65567		 932.52561			42760.13006		229.89800		875.00000 
 43692.65567		 305.27265			43387.38302		69.64400		324.00000 
 43692.65567		 932.52561			42760.13006		229.89800		875.00000 
 43692.65567		 305.27265			43387.38302		69.64400		324.00000 
 43692.65567		 932.52561			42760.13006		229.89800		875.00000 
 43692.65567		 305.27265			43387.38302		69.64400		324.00000 
 43692.65567		 932.52561			42760.13006		229.89800		875.00000 
 43692.65567		 305.27265			43387.38302		69.64400		324.00000 
 43692.65567		 932.52561			42760.13006		229.89800		875.00000 
 43692.65567		 305.27265			43387.38302		69.64400		324.00000 
 43692.65567		 932.52561			42760.13006		229.89800		875.00000 
 43692.65567		 305.27265			43387.38302		69.64400		324.00000 
 43692.65567		 932.52561			42760.13006		229.89800		875.00000 
 43692.65567		 305.27265			43387.38302		69.64400		324.00000 
 43692.65567		 932.52561			42760.13006		229.89800		875.00000 
 43692.65567		 305.27265			43387.38302		69.64400		324.00000 
 43692.65567		 932.52561			42760.13006		229.89800		875.00000 
 43692.65567		 305.27265			43387.38302		69.64400		324.00000 
 43692.65567		 932.52561			42760.13006		229.89800		875.00000 
 43692.65567		 305.27265			43387.38302		69.64400		324.00000 
 43692.65567		 932.52561			42760.13006		229.89800		875.00000 
 43692.65567		 305.27265			43387.38302		69.64400		324.00000 
 43692.65567		 932.52561			42760.13006		229.89800		875.00000 
 43692.65567		 305.27265			43387.38302		69.64400		324.00000 
 43692.65567		 932.52561			42760.13006		229.89800		875.00000 
 43692.65567		 305.27265			43387.38302		69.64400		324.00000 
 43692.65567		 932.52561			42760.13006		229.89800		875.00000 
 43692.65567		 305.27265			43387.38302		69.64400		324.00000 
 43692.65567		 932.52561			42760.13006		229.89800		875.00000 
 43692.65567		 305.27265			43387.38302		69.64400		324.00000 
 43692.65567		 932.52561			42760.13006		229.89800		875.00000 
 43692.65567		 305.27265			43387.38302		69.64400		324.00000 
 43692.65567		 932.52561			42760.13006		229.89800		875.00000 
 43692.65567		 305.27265			43387.38302		69.64400		324.00000 
 43692.65567		 932.52561			42760.13006		229.89800		875.00000 
 43692.65567		 305.27265			43387.38302		69.64400		324.00000 
 43692.65567		 932.52561			42760.13006		229.89800		875.00000 
 43692.65567		 305.27265			43387.38302		69.64400		324.00000 
 43692.65567		 932.52561			42760.13006		229.89800		875.00000 
 43692.65567		 305.27265			43387.38302		69.64400		324.00000 
 43692.65567		 932.52561			42760.13006		229.89800		875.00000 
 43692.65567		 305.27265			43387.38302		69.64400		324.00000 
 43692.65567		 932.52561			42760.13006		229.89800		875.00000 
 43692.65567		 305.27265			43387.38302		69.64400		324.00000 
 43692.65567		 932.52561			42760.13006		229.89800		875.00000 
 43692.65567		 305.27265			43387.38302		69.64400		324.00000 
 43692.65567		 932.52561			42760.13006		229.89800		875.00000 
 43692.65567		 305.27265			43387.38302		69.64400		324.00000 
 43692.65567		 932.52561			42760.13006		229.89800		875.00000 
 43692.65567		 305.27265			43387.38302		69.64400		324.00000 
 43692.65567		 932.52561			42760.13006		229.89800		875.00000 
 43692.65567		 305.27265			43387.38302		69.64400		324.00000 
 43692.65567		 932.52561			42760.13006		229.89800		875.00000 
 43692.65567		 305.27265			43387.38302		69.64400		324.00000 
 43692.65567		 932.52561			42760.13006		229.89800		875.00000 
 43692.65567		 305.27265			43387.38302		69.64400		324.00000 
 43692.65567		 932.52561			42760.13006		229.89800		875.00000 
 43692.65567		 305.27265			43387.38302		69.64400		324.00000 
 43692.65567		 932.52561			42760.13006		229.89800		875.00000 
 43692.65567		 305.27265			43387.38302		69.64400		324.00000 
 43692.65567		 932.52561			42760.13006		229.89800		875.00000 
 43692.65567		 305.27265			43387.38302		69.64400		324.00000 
 43692.65567		 932.52561			42760.13006		229.89800		875.00000 
 43692.65567		 305.27265			43387.38302		69.64400		324.00000 
 43692.65567		 932.52561			42760.13006		229.89800		875.00000 
 43692.65567		 305.27265			43387.38302		69.64400		324.00000 
 43692.65567		 932.52561			42760.13006		229.89800		875.00000 
 43692.65567		 305.27265			43387.38302		69.64400		324.00000 
 43692.65567		 932.52561			42760.13006		229.89800		875.00000 
 43692.65567		 305.27265			43387.38302		69.64400		324.00000 
 43692.65567		 932.52561			42760.13006		229.89800		875.00000 
 43692.65567		 305.27265			43387.38302		69.64400		324.00000 
 43692.65567		 932.52561			42760.13006		229.89800		875.00000 
 43692.65567		 305.27265			43387.38302		69.64400		324.00000 
 43692.65567		 932.52561			42760.13006		229.89800		875.00000 
 43692.65567		 305.27265			43387.38302		69.64400		324.00000 
 43692.65567		 932.52561			42760.13006		229.89800		875.00000 
 43692.65567		 305.27265			43387.38302		69.64400		324.00000 
 43692.65567		 932.52561			42760.13006		229.54400		875.00000 
 43692.65567		 305.27265			43387.38302		69.64400		324.00000 
 43692.65567		 932.52561			42760.13006		229.54400		875.00000 
 43692.65567		 305.27265			43387.38302		69.64400		324.00000 
 43692.65567		 932.52561			42760.13006		229.54400		875.00000 
 43692.65567		 305.27265			43387.38302		69.64400		324.00000 
 43692.65567		 932.52561			42760.13006		229.54400		875.00000 
 43692.65567		 305.27265			43387.38302		69.64400		324.00000 
 43692.65567		 932.52561			42760.13006		229.54400		875.00000 
 43692.65567		 305.27265			43387.38302		69.64400		324.00000 
 43692.65567		 932.52561			42760.13006		229.54400		875.00000 
 43692.65567		 305.27265			43387.38302		69.64400		324.00000 
 43692.65567		 932.52561			42760.13006		229.54400		875.00000 
 43692.65567		 305.27265			43387.38302		69.64400		324.00000 
 43692.65567		 932.52561			42760.13006		229.54400		875.00000 
 43692.65567		 305.27265			43387.38302		69.64400		324.00000 
 43692.65567		 932.52561			42760.13006		229.54400		875.00000 
 43692.65567		 305.27265			43387.38302		69.64400		324.00000 
 43692.65567		 932.52561			42760.13006		229.54400		875.00000 
 43692.65567		 305.27265			43387.38302		69.64400		324.00000 
 43692.65567		 932.52561			42760.13006		229.54400		875.00000 
 43692.65567		 305.27265			43387.38302		69.64400		324.00000 
 43692.65567		 932.52561			42760.13006		229.54400		875.00000 
 43692.65567		 305.27265			43387.38302		69.64400		324.00000 
 43692.65567		 932.52561			42760.13006		229.54400		875.00000 
 43692.65567		 305.27265			43387.38302		69.64400		324.00000 
 43692.65567		 932.52561			42760.13006		229.54400		875.00000 
 43692.65567		 305.27265			43387.38302		69.64400		324.00000 
 43692.65567		 932.52561			42760.13006		229.54400		875.00000 
 43692.65567		 305.27265			43387.38302		69.64400		324.00000 
 43692.65567		 932.52561			42760.13006		229.54400		875.00000 
 43692.65567		 305.27265			43387.38302		69.64400		324.00000 
 43692.65567		 932.52561			42760.13006		229.54400		875.00000 
 43692.65567		 305.27265			43387.38302		69.64400		324.00000 
 43692.65567		 932.52561			42760.13006		229.54400		875.00000 
 43692.65567		 305.27265			43387.38302		69.64400		324.00000 
 43692.65567		 932.52561			42760.13006		229.54400		875.00000 
 43692.65567		 305.27265			43387.38302		69.64400		324.00000 
 43692.65567		 932.52561			42760.13006		229.54400		875.00000 
 43692.65567		 305.27265			43387.38302		69.64400		324.00000 
 43692.65567		 932.52561			42760.13006		229.54400		875.00000 
 43692.65567		 305.27265			43387.38302		69.64400		324.00000 
 43692.65567		 932.52561			42760.13006		229.54400		875.00000 
 43692.65567		 305.27265			43387.38302		69.64400		324.00000 
 43692.65567		 932.52561			42760.13006		229.54400		875.00000 
 43692.65567		 305.27265			43387.38302		69.64400		324.00000 
 43692.65567		 932.52561			42760.13006		229.54400		875.00000 
 43692.65567		 305.27265			43387.38302		69.64400		324.00000 
 43692.65567		 932.52561			42760.13006		229.54400		875.00000 
 43692.65567		 305.27265			43387.38302		69.64400		324.00000 
 43692.65567		 932.52561			42760.13006		229.54400		875.00000 
 43692.65567		 305.27265			43387.38302		69.64400		324.00000 
 43692.65567		 932.52561			42760.13006		229.54400		875.00000 
 43692.65567		 305.27265			43387.38302		69.64400		324.00000 
 43692.65567		 932.52561			42760.13006		229.54400		875.00000 
 43692.65567		 305.27265			43387.38302		69.64400		324.00000 
 43692.65567		 932.52561			42760.13006		229.54400		875.00000 
 43692.65567		 305.27265			43387.38302		69.64400		324.00000 
 43692.65567		 932.52561			42760.13006		229.54400		875.00000 
 43692.65567		 305.27265			43387.38302		69.64400		324.00000 
 43692.65567		 932.52561			42760.13006		229.54400		875.00000 
 43692.65567		 305.27265			43387.38302		69.64400		324.00000 
 43692.65567		 932.52561			42760.13006		229.54400		875.00000 
 43692.65567		 305.27265			43387.38302		69.64400		324.00000 
 43692.65567		 932.52561			42760.13006		229.54400		875.00000 
 43692.65567		 305.27265			43387.38302		69.64400		324.00000 
 43692.65567		 932.52561			42760.13006		229.54400		875.00000 
 43692.65567		 305.27265			43387.38302		69.64400		324.00000 
 43692.65567		 932.52561			42760.13006		229.54400		875.00000 
 43692.65567		 305.27265			43387.38302		69.64400		324.00000 
 43692.65567		 932.52561			42760.13006		229.54400		875.00000 
 43692.65567		 305.27265			43387.38302		69.64400		324.00000 
 43692.65567		 932.52561			42760.13006		229.54400		875.00000 
 43692.65567		 305.27265			43387.38302		69.64400		324.00000 
 43692.65567		 932.52561			42760.13006		229.54400		875.00000 
 43692.65567		 305.27265			43387.38302		69.64400		324.00000 
 43692.65567		 932.52561			42760.13006		229.54400		875.00000 
 43692.65567		 305.27265			43387.38302		69.64400		324.00000 
 43692.65567		 932.52561			42760.13006		229.54400		875.00000 
 43692.65567		 305.27265			43387.38302		69.64400		324.00000 
 43692.65567		 932.52561			42760.13006		229.54400		875.00000 
 43692.65567		 305.27265			43387.38302		69.64400		324.00000 
 43692.65567		 932.52561			42760.13006		229.54400		875.00000 
 43692.65567		 305.27265			43387.38302		69.64400		324.00000 
 43692.65567		 932.52561			42760.13006		229.54400		875.00000 
 43692.65567		 305.27265			43387.38302		69.64400		324.00000 
 43692.65567		 932.52561			42760.13006		229.54400		875.00000 
 43692.65567		 305.27265			43387.38302		69.64400		324.00000 
 43692.65567		 932.52561			42760.13006		229.54400		875.00000 
 43692.65567		 305.27265			43387.38302		69.64400		324.00000 
 43692.65567		 932.52561			42760.13006		229.54400		875.00000 
 43692.65567		 305.27265			43387.38302		69.64400		324.00000 
 43692.65567		 932.52561			42760.13006		229.54400		875.00000 
 43692.65567		 305.27265			43387.38302		69.64400		324.00000 
 43692.65567		 932.52561			42760.13006		229.54400		875.00000 
 43692.65567		 305.27265			43387.38302		69.64400		324.00000 
 43692.65567		 932.52561			42760.13006		229.54400		875.00000 
 43692.65567		 305.27265			43387.38302		69.64400		324.00000 
 43692.65567		 932.52561			42760.13006		229.54400		875.00000 
 43692.65567		 305.27265			43387.38302		69.64400		324.00000 
 43692.65567		 932.52561			42760.13006		229.54400		875.00000 
 43692.65567		 305.27265			43387.38302		69.64400		324.00000 
 43692.65567		 932.52561			42760.13006		229.54400		875.00000 
 43692.65567		 305.27265			43387.38302		69.64400		324.00000 
 43692.65567		 932.52561			42760.13006		229.54400		875.00000 
 43692.65567		 305.27265			43387.38302		69.64400		324.00000 
 43692.65567		 932.52561			42760.13006		229.54400		875.00000 
 43692.65567		 305.27265			43387.38302		69.64400		324.00000 
 43692.65567		 932.52561			42760.13006		229.54400		875.00000 
 43692.65567		 305.27265			43387.38302		69.64400		324.00000 
 43692.65567		 932.52561			42760.13006		229.54400		875.00000 
 43692.65567		 305.27265			43387.38302		69.64400		324.00000 
 43692.65567		 932.52561			42760.13006		229.54400		875.00000 
 43692.65567		 305.27265			43387.38302		69.64400		324.00000 
 43692.65567		 932.52561			42760.13006		229.54400		875.00000 
 43692.65567		 305.27265			43387.38302		69.64400		324.00000 
 43692.65567		 932.52561			42760.13006		229.54400		875.00000 
 43692.65567		 305.27265			43387.38302		69.64400		324.00000 
 43692.65567		 932.52561			42760.13006		229.54400		875.00000 
 43692.65567		 305.27265			43387.38302		69.64400		324.00000 
 43692.65567		 932.52561			42760.13006		229.54400		875.00000 
 43692.65567		 305.27265			43387.38302		69.64400		324.00000 
 43692.65567		 932.52561			42760.13006		229.54400		875.00000 
 43692.65567		 305.27265			43387.38302		69.64400		324.00000 
 43692.65567		 932.52561			42760.13006		229.54400		875.00000 
 43692.65567		 305.27265			43387.38302		69.64400		324.00000 
 43692.65567		 932.52561			42760.13006		229.54400		875.00000 
 43692.65567		 305.27265			43387.38302		69.64400		324.00000 
 43692.65567		 932.52561			42760.13006		229.54400		875.00000 
 43692.65567		 305.27265			43387.38302		69.64400		324.00000 
 43692.65567		 932.52561			42760.13006		229.54400		875.00000 
 43692.65567		 305.27265			43387.38302		69.64400		324.00000 
 43692.65567		 932.52561			42760.13006		229.54400		875.00000 
 43692.65567		 305.27265			43387.38302		69.64400		324.00000 
 43692.65567		 932.52561			42760.13006		229.54400		875.00000 
 43692.65567		 305.27265			43387.38302		69.64400		324.00000 
 43692.65567		 932.52561			42760.13006		229.54400		875.00000 
 43692.65567		 305.27265			43387.38302		69.64400		324.00000 
 43692.65567		 932.52561			42760.13006		229.54400		875.00000 
 43692.65567		 305.27265			43387.38302		69.64400		324.00000 
 43692.65567		 932.52561			42760.13006		229.54400		875.00000 
 43692.65567		 305.27265			43387.38302		69.64400		324.00000 
 43692.65567		 932.52561			42760.13006		229.54400		875.00000 
 43692.65567		 305.27265			43387.38302		69.64400		324.00000 
 43692.65567		 932.52561			42760.13006		229.54400		875.00000 
 43692.65567		 305.27265			43387.38302		69.64400		324.00000 
 43692.65567		 932.52561			42760.13006		229.54400		875.00000 
 43692.65567		 305.27265			43387.38302		69.64400		324.00000 
 43692.65567		 932.52561			42760.13006		229.54400		875.00000 
 43692.65567		 305.27265			43387.38302		69.64400		324.00000 
 43692.65567		 932.52561			42760.13006		229.54400		875.00000 
 43692.65567		 305.27265			43387.38302		69.64400		324.00000 
 43692.65567		 932.52561			42760.13006		229.54400		875.00000 
 43692.65567		 305.27265			43387.38302		69.64400		324.00000 
 43692.65567		 932.52561			42760.13006		229.54400		875.00000 
 43692.65567		 305.27265			43387.38302		69.64400		324.00000 
 43692.65567		 932.52561			42760.13006		229.54400		875.00000 
 43692.65567		 305.27265			43387.38302		69.64400		324.00000 
 43692.65567		 932.52561			42760.13006		229.54400		875.00000 
 43692.65567		 305.27265			43387.38302		69.64400		324.00000 
 43692.65567		 932.52561			42760.13006		229.54400		875.00000 
 43692.65567		 305.27265			43387.38302		69.64400		324.00000 
 43692.65567		 932.52561			42760.13006		229.54400		875.00000 
 43692.65567		 305.27265			43387.38302		69.64400		324.00000 
 43692.65567		 932.52561			42760.13006		229.54400		875.00000 
 43692.65567		 305.27265			43387.38302		69.64400		324.00000 
 43692.65567		 932.52561			42760.13006		229.54400		875.00000 
 43692.65567		 305.27265			43387.38302		69.64400		324.00000 
 43692.65567		 932.52561			42760.13006		229.54400		875.00000 
 43692.65567		 305.27265			43387.38302		69.64400		324.00000 
 43692.65567		 932.52561			42760.13006		229.54400		875.00000 
 43692.65567		 305.27265			43387.38302		69.64400		324.00000 
 43692.65567		 932.52561			42760.13006		229.54400		875.00000 
 43692.65567		 305.27265			43387.38302		69.64400		324.00000 
 43692.65567		 932.52561			42760.13006		229.54400		875.00000 
 43692.65567		 305.27265			43387.38302		69.64400		324.00000 
 43692.65567		 932.52561			42760.13006		229.54400		875.00000 
 43692.65567		 305.27265			43387.38302		69.64400		324.00000 
 43692.65567		 932.52561			42760.13006		229.54400		875.00000 
 43692.65567		 305.27265			43387.38302		69.64400		324.00000 
 43692.65567		 932.52561			42760.13006		229.54400		875.00000 
 43692.65567		 305.27265			43387.38302		69.64400		324.00000 
 43692.65567		 932.52561			42760.13006		229.54400		875.00000 
 43692.65567		 305.27265			43387.38302		69.64400		324.00000 
 43692.65567		 932.52561			42760.13006		229.54400		875.00000 
 43692.65567		 305.27265			43387.38302		69.64400		324.00000 
 43692.65567		 932.52561			42760.13006		229.54400		875.00000 
 43692.65567		 305.27265			43387.38302		69.64400		324.00000 
 43692.65567		 932.52561			42760.13006		229.54400		875.00000 
 43692.65567		 305.27265			43387.38302		69.64400		324.00000 
 43692.65567		 932.52561			42760.13006		229.54400		875.00000 
 43692.65567		 305.27265			43387.38302		69.64400		324.00000 
 43692.65567		 932.52561			42760.13006		229.54400		875.00000 
 43692.65567		 305.27265			43387.38302		69.64400		324.00000 
 43692.65567		 932.52561			42760.13006		229.54400		875.00000 
 43692.65567		 305.27265			43387.38302		69.64400		324.00000 
 43692.65567		 932.52561			42760.13006		229.54400		875.00000 
 43692.65567		 305.27265			43387.38302		69.64400		324.00000 
 43692.65567		 932.52561			42760.13006		229.54400		875.00000 
 43692.65567		 305.27265			43387.38302		69.64400		324.00000 
 43692.65567		 932.52561			42760.13006		229.54400		875.00000 
 43692.65567		 305.27265			43387.38302		69.64400		324.00000 
 43692.65567		 932.52561			42760.13006		229.54400		875.00000 
 43692.65567		 305.27265			43387.38302		69.64400		324.00000 
 43692.65567		 932.52561			42760.13006		229.54400		875.00000 
 43692.65567		 305.27265			43387.38302		69.64400		324.00000 
 43692.65567		 932.52561			42760.13006		229.54400		875.00000 
 43692.65567		 305.27265			43387.38302		69.64400		324.00000 
 43692.65567		 932.52561			42760.13006		229.54400		875.00000 
 43692.65567		 305.27265			43387.38302		69.64400		324.00000 
 43692.65567		 932.52561			42760.13006		229.54400		875.00000 
 43692.65567		 305.27265			43387.38302		69.64400		324.00000 
 43692.65567		 932.52561			42760.13006		229.54400		875.00000 
 43692.65567		 305.27265			43387.38302		69.64400		324.00000 
 43692.65567		 932.52561			42760.13006		229.54400		875.00000 
 43692.65567		 305.27265			43387.38302		69.64400		324.00000 
 43692.65567		 932.52561			42760.13006		229.54400		875.00000 
 43692.65567		 305.27265			43387.38302		69.64400		324.00000 
 43692.65567		 932.52561			42760.13006		229.54400		875.00000 
 43692.65567		 305.27265			43387.38302		69.64400		324.00000 
 43692.65567		 932.52561			42760.13006		229.54400		875.00000 
 43692.65567		 305.27265			43387.38302		69.64400		324.00000 
 43692.65567		 932.52561			42760.13006		229.54400		875.00000 
 43692.65567		 305.27265			43387.38302		69.64400		324.00000 
 43692.65567		 932.52561			42760.13006		229.54400		875.00000 
 43692.65567		 305.27265			43387.38302		69.64400		324.00000 
 43692.65567		 932.52561			42760.13006		229.54400		875.00000 
 43692.65567		 305.27265			43387.38302		69.64400		324.00000 
 43692.65567		 932.52561			42760.13006		229.54400		875.00000 
 43692.65567		 305.27265			43387.38302		69.64400		324.00000 
 43692.65567		 932.52561			42760.13006		229.54400		875.00000 
 43692.65567		 305.27265			43387.38302		69.64400		324.00000 
 43692.65567		 932.52561			42760.13006		229.54400		875.00000 
 43692.65567		 305.27265			43387.38302		69.64400		324.00000 
 43692.65567		 932.52561			42760.13006		229.54400		875.00000 
 43692.65567		 305.27265			43387.38302		69.64400		324.00000 
 43692.65567		 932.52561			42760.13006		229.54400		875.00000 
 43692.65567		 305.27265			43387.38302		69.64400		324.00000 
 43692.65567		 932.52561			42760.13006		229.54400		875.00000 
 43692.65567		 305.27265			43387.38302		69.64400		324.00000 
 43692.65567		 932.52561			42760.13006		229.54400		875.00000 
 43692.65567		 305.27265			43387.38302		69.64400		324.00000 
 43692.65567		 932.52561			42760.13006		229.54400		875.00000 
 43692.65567		 305.27265			43387.38302		69.64400		324.00000 
 43692.65567		 932.52561			42760.13006		229.54400		875.00000 
 43692.65567		 305.27265			43387.38302		69.64400		324.00000 
 43692.65567		 932.52561			42760.13006		229.54400		875.00000 
 43692.65567		 305.27265			43387.38302		69.64400		324.00000 
 43692.65567		 932.52561			42760.13006		229.54400		875.00000 
 43692.65567		 305.27265			43387.38302		69.64400		324.00000 
 43692.65567		 932.52561			42760.13006		229.54400		875.00000 
 43692.65567		 305.27265			43387.38302		69.64400		324.00000 
 43692.65567		 932.52561			42760.13006		229.54400		875.00000 
 43692.65567		 305.27265			43387.38302		69.64400		324.00000 
 43692.65567		 932.52561			42760.13006		229.54400		875.00000 
 43692.65567		 305.27265			43387.38302		69.64400		324.00000 
 43692.65567		 932.52561			42760.13006		229.54400		875.00000 
 43692.65567		 305.27265			43387.38302		69.64400		324.00000 
 43692.65567		 932.52561			42760.13006		228.94600		875.00000 
 43692.65567		 305.27265			43387.38302		69.64400		324.00000 
 43692.65567		 932.52561			42760.13006		228.94600		875.00000 
 43692.65567		 305.27265			43387.38302		69.64400		324.00000 
 43692.65567		 932.52561			42760.13006		228.94600		875.00000 
 43692.65567		 305.27265			43387.38302		69.64400		324.00000 
 43692.65567		 932.52561			42760.13006		228.94600		875.00000 
 43692.65567		 305.27265			43387.38302		69.64400		324.00000 
 43692.65567		 932.52561			42760.13006		228.94600		875.00000 
 43692.65567		 305.27265			43387.38302		69.64400		324.00000 
 43692.65567		 932.52561			42760.13006		228.94600		875.00000 
 43692.65567		 305.27265			43387.38302		69.64400		324.00000 
 43692.65567		 932.52561			42760.13006		228.94600		875.00000 
 43692.65567		 305.27265			43387.38302		69.64400		324.00000 
 43692.65567		 932.52561			42760.13006		228.94600		875.00000 
 43692.65567		 305.27265			43387.38302		69.64400		324.00000 
 43692.65567		 932.52561			42760.13006		228.94600		875.00000 
 43692.65567		 305.27265			43387.38302		69.64400		324.00000 
 43692.65567		 932.52561			42760.13006		228.94600		875.00000 
 43692.65567		 305.27265			43387.38302		69.64400		324.00000 
 43692.65567		 932.52561			42760.13006		228.94600		875.00000 
 43692.65567		 305.27265			43387.38302		69.64400		324.00000 
 43692.65567		 932.52561			42760.13006		228.94600		875.00000 
 43692.65567		 305.27265			43387.38302		69.64400		324.00000 
 43692.65567		 932.52561			42760.13006		228.94600		875.00000 
 43692.65567		 305.27265			43387.38302		69.64400		324.00000 
 43692.65567		 932.52561			42760.13006		228.94600		875.00000 
 43692.65567		 305.27265			43387.38302		69.64400		324.00000 
 43692.65567		 932.52561			42760.13006		228.94600		875.00000 
 43692.65567		 305.27265			43387.38302		69.64400		324.00000 
 43692.65567		 932.52561			42760.13006		228.94600		875.00000 
 43692.65567		 305.27265			43387.38302		69.64400		324.00000 
 43692.65567		 932.52561			42760.13006		228.94600		875.00000 
 43692.65567		 305.27265			43387.38302		69.64400		324.00000 
 43692.65567		 932.52561			42760.13006		228.94600		875.00000 
 43692.65567		 305.27265			43387.38302		69.64400		324.00000 
 43692.65567		 932.52561			42760.13006		228.94600		875.00000 
 43692.65567		 305.27265			43387.38302		69.64400		324.00000 
 43692.65567		 932.52561			42760.13006		228.94600		875.00000 
 43692.65567		 305.27265			43387.38302		69.64400		324.00000 
 43692.65567		 932.52561			42760.13006		228.94600		875.00000 
 43692.65567		 305.27265			43387.38302		69.64400		324.00000 
 43692.65567		 932.52561			42760.13006		228.94600		875.00000 
 43692.65567		 305.27265			43387.38302		69.64400		324.00000 
 43692.65567		 932.52561			42760.13006		228.94600		875.00000 
 43692.65567		 305.27265			43387.38302		69.64400		324.00000 
 43692.65567		 932.52561			42760.13006		228.94600		875.00000 
 43692.65567		 305.27265			43387.38302		69.64400		324.00000 
 43692.65567		 932.52561			42760.13006		228.94600		875.00000 
 43692.65567		 305.27265			43387.38302		69.64400		324.00000 
 43692.65567		 932.52561			42760.13006		228.94600		875.00000 
 43692.65567		 305.27265			43387.38302		69.64400		324.00000 
 43692.65567		 932.52561			42760.13006		228.94600		875.00000 
 43692.65567		 305.27265			43387.38302		69.64400		324.00000 
 43692.65567		 932.52561			42760.13006		228.94600		875.00000 
 43692.65567		 305.27265			43387.38302		69.64400		324.00000 
 43692.65567		 932.52561			42760.13006		228.94600		875.00000 
 43692.65567		 305.27265			43387.38302		69.64400		324.00000 
 43692.65567		 932.52561			42760.13006		228.94600		875.00000 
 43692.65567		 305.27265			43387.38302		69.64400		324.00000 
 43692.65567		 932.52561			42760.13006		228.94600		875.00000 
 43692.65567		 305.27265			43387.38302		69.64400		324.00000 
 43692.65567		 932.52561			42760.13006		228.94600		875.00000 
 43692.65567		 305.27265			43387.38302		69.64400		324.00000 
 43692.65567		 932.52561			42760.13006		228.94600		875.00000 
 43692.65567		 305.27265			43387.38302		69.64400		324.00000 
 43692.65567		 932.52561			42760.13006		228.94600		875.00000 
 43692.65567		 305.27265			43387.38302		69.64400		324.00000 
 43692.65567		 932.52561			42760.13006		228.94600		875.00000 
 43692.65567		 305.27265			43387.38302		69.64400		324.00000 
 43692.65567		 932.52561			42760.13006		228.94600		875.00000 
 43692.65567		 305.27265			43387.38302		69.64400		324.00000 
 43692.65567		 932.52561			42760.13006		228.94600		875.00000 
 43692.65567		 305.27265			43387.38302		69.64400		324.00000 
 43692.65567		 932.52561			42760.13006		228.94600		875.00000 
 43692.65567		 305.27265			43387.38302		69.64400		324.00000 
 43692.65567		 932.52561			42760.13006		228.94600		875.00000 
 43692.65567		 305.27265			43387.38302		69.64400		324.00000 
 43692.65567		 932.52561			42760.13006		228.94600		875.00000 
 43692.65567		 305.27265			43387.38302		69.64400		324.00000 
 43692.65567		 932.52561			42760.13006		228.94600		875.00000 
 43692.65567		 305.27265			43387.38302		69.64400		324.00000 
 43692.65567		 932.52561			42760.13006		228.94600		875.00000 
 43692.65567		 305.27265			43387.38302		69.64400		324.00000 
 43692.65567		 932.52561			42760.13006		228.94600		875.00000 
 43692.65567		 305.27265			43387.38302		69.64400		324.00000 
 43692.65567		 932.52561			42760.13006		228.94600		875.00000 
 43692.65567		 305.27265			43387.38302		69.64400		324.00000 
 43692.65567		 932.52561			42760.13006		228.94600		875.00000 
 43692.65567		 305.27265			43387.38302		69.64400		324.00000 
 43692.65567		 932.52561			42760.13006		228.94600		875.00000 
 43692.65567		 305.27265			43387.38302		69.64400		324.00000 
 43692.65567		 932.52561			42760.13006		228.94600		875.00000 
 43692.65567		 305.27265			43387.38302		69.64400		324.00000 
 43692.65567		 932.52561			42760.13006		228.94600		875.00000 
 43692.65567		 305.27265			43387.38302		69.64400		324.00000 
 43692.65567		 932.52561			42760.13006		228.94600		875.00000 
 43692.65567		 305.27265			43387.38302		69.64400		324.00000 
 43692.65567		 932.52561			42760.13006		228.94600		875.00000 
 43692.65567		 305.27265			43387.38302		69.64400		324.00000 
 43692.65567		 932.52561			42760.13006		228.94600		875.00000 
 43692.65567		 305.27265			43387.38302		69.64400		324.00000 
 43692.65567		 932.52561			42760.13006		228.94600		875.00000 
 43692.65567		 305.27265			43387.38302		69.64400		324.00000 
 43692.65567		 932.52561			42760.13006		228.94600		875.00000 
 43692.65567		 305.27265			43387.38302		69.64400		324.00000 
 43692.65567		 932.52561			42760.13006		228.94600		875.00000 
 43692.65567		 305.27265			43387.38302		69.64400		324.00000 
 43692.65567		 932.52561			42760.13006		228.94600		875.00000 
 43692.65567		 305.27265			43387.38302		69.64400		324.00000 
 43692.65567		 932.52561			42760.13006		228.94600		875.00000 
 43692.65567		 305.27265			43387.38302		69.64400		324.00000 
 43692.65567		 932.52561			42760.13006		228.94600		875.00000 
 43692.65567		 305.27265			43387.38302		69.64400		324.00000 
 43692.65567		 932.52561			42760.13006		228.94600		875.00000 
 43692.65567		 305.27265			43387.38302		69.64400		324.00000 
 43692.65567		 932.52561			42760.13006		228.94600		875.00000 
 43692.65567		 305.27265			43387.38302		69.64400		324.00000 
 43692.65567		 932.52561			42760.13006		228.94600		875.00000 
 43692.65567		 305.27265			43387.38302		69.64400		324.00000 
 43692.65567		 932.52561			42760.13006		228.94600		875.00000 
 43692.65567		 305.27265			43387.38302		69.64400		324.00000 
 43692.65567		 932.52561			42760.13006		228.94600		875.00000 
 43692.65567		 305.27265			43387.38302		69.64400		324.00000 
 43692.65567		 932.52561			42760.13006		228.94600		875.00000 
 43692.65567		 305.27265			43387.38302		69.64400		324.00000 
 43692.65567		 932.52561			42760.13006		228.94600		875.00000 
 43692.65567		 305.27265			43387.38302		69.64400		324.00000 
 43692.65567		 932.52561			42760.13006		229.54400		875.00000 
 43692.65567		 305.27265			43387.38302		69.64400		324.00000 
 43692.65567		 932.52561			42760.13006		229.54400		875.00000 
 43692.65567		 305.27265			43387.38302		69.64400		324.00000 
 43692.65567		 932.52561			42760.13006		229.54400		875.00000 
 43692.65567		 305.27265			43387.38302		69.64400		324.00000 
 43692.65567		 932.52561			42760.13006		229.54400		875.00000 
 43692.65567		 305.27265			43387.38302		69.64400		324.00000 
 43692.65567		 932.52561			42760.13006		229.54400		875.00000 
 43692.65567		 305.27265			43387.38302		69.64400		324.00000 
 43692.65567		 932.52561			42760.13006		229.54400		875.00000 
 43692.65567		 305.27265			43387.38302		69.64400		324.00000 
 43692.65567		 932.52561			42760.13006		229.54400		875.00000 
 43692.65567		 305.27265			43387.38302		69.64400		324.00000 
 43692.65567		 932.52561			42760.13006		229.54400		875.00000 
 43692.65567		 305.27265			43387.38302		69.64400		324.00000 
 43692.65567		 932.52561			42760.13006		229.54400		875.00000 
 43692.65567		 305.27265			43387.38302		69.64400		324.00000 
 43692.65567		 932.52561			42760.13006		229.54400		875.00000 
 43692.65567		 305.27265			43387.38302		69.64400		324.00000 
 43692.65567		 932.52561			42760.13006		229.54400		875.00000 
 43692.65567		 305.27265			43387.38302		69.64400		324.00000 
 43692.65567		 932.52561			42760.13006		229.54400		875.00000 
 43692.65567		 305.27265			43387.38302		69.64400		324.00000 
 43692.65567		 932.52561			42760.13006		229.54400		875.00000 
 43692.65567		 305.27265			43387.38302		69.64400		324.00000 
 43692.65567		 932.52561			42760.13006		229.54400		875.00000 
 43692.65567		 305.27265			43387.38302		69.64400		324.00000 
 43692.65567		 932.52561			42760.13006		229.54400		875.00000 
 43692.65567		 305.27265			43387.38302		69.64400		324.00000 
 43692.65567		 932.52561			42760.13006		229.54400		875.00000 
 43692.65567		 305.27265			43387.38302		69.64400		324.00000 
 43692.65567		 932.52561			42760.13006		229.54400		875.00000 
 43692.65567		 305.27265			43387.38302		69.64400		324.00000 
 43692.65567		 932.52561			42760.13006		229.54400		875.00000 
 43692.65567		 305.27265			43387.38302		69.64400		324.00000 
 43692.65567		 932.52561			42760.13006		229.54400		875.00000 
 43692.65567		 305.27265			43387.38302		69.64400		324.00000 
 43692.65567		 932.52561			42760.13006		229.54400		875.00000 
 43692.65567		 305.27265			43387.38302		69.64400		324.00000 
 43692.65567		 932.52561			42760.13006		229.54400		875.00000 
 43692.65567		 305.27265			43387.38302		69.64400		324.00000 
 43692.65567		 932.52561			42760.13006		229.54400		875.00000 
 43692.65567		 305.27265			43387.38302		69.64400		324.00000 
 43692.65567		 932.52561			42760.13006		229.54400		875.00000 
 43692.65567		 305.27265			43387.38302		69.64400		324.00000 
 43692.65567		 932.52561			42760.13006		229.54400		875.00000 
 43692.65567		 305.27265			43387.38302		69.64400		324.00000 
 43692.65567		 932.52561			42760.13006		229.54400		875.00000 
 43692.65567		 305.27265			43387.38302		69.64400		324.00000 
 43692.65567		 932.52561			42760.13006		229.54400		875.00000 
 43692.65567		 305.27265			43387.38302		69.64400		324.00000 
 43692.65567		 932.52561			42760.13006		229.54400		875.00000 
 43692.65567		 305.27265			43387.38302		69.64400		324.00000 
 43692.65567		 932.52561			42760.13006		229.54400		875.00000 
 43692.65567		 305.27265			43387.38302		69.64400		324.00000 
 43692.65567		 932.52561			42760.13006		229.54400		875.00000 
 43692.65567		 305.27265			43387.38302		69.64400		324.00000 
 43692.65567		 932.52561			42760.13006		229.54400		875.00000 
 43692.65567		 305.27265			43387.38302		69.64400		324.00000 
 43692.65567		 932.52561			42760.13006		229.54400		875.00000 
 43692.65567		 305.27265			43387.38302		69.64400		324.00000 
 43692.65567		 932.52561			42760.13006		229.54400		875.00000 
 43692.65567		 305.27265			43387.38302		69.64400		324.00000 
 43692.65567		 932.52561			42760.13006		229.54400		875.00000 
 43692.65567		 305.27265			43387.38302		69.64400		324.00000 
 43692.65567		 932.52561			42760.13006		229.54400		875.00000 
 43692.65567		 305.27265			43387.38302		69.64400		324.00000 
 43692.65567		 932.52561			42760.13006		229.54400		875.00000 
 43692.65567		 305.27265			43387.38302		69.64400		324.00000 
 43692.65567		 932.52561			42760.13006		229.54400		875.00000 
 43692.65567		 305.27265			43387.38302		69.64400		324.00000 
 43692.65567		 932.52561			42760.13006		229.54400		875.00000 
 43692.65567		 305.27265			43387.38302		69.64400		324.00000 
 43692.65567		 932.52561			42760.13006		229.54400		875.00000 
 43692.65567		 305.27265			43387.38302		69.64400		324.00000 
 43692.65567		 932.52561			42760.13006		229.54400		875.00000 
 43692.65567		 305.27265			43387.38302		69.64400		324.00000 
 43692.65567		 932.52561			42760.13006		229.54400		875.00000 
 43692.65567		 305.27265			43387.38302		69.64400		324.00000 
 43692.65567		 932.52561			42760.13006		229.54400		875.00000 
 43692.65567		 305.27265			43387.38302		69.64400		324.00000 
 43692.65567		 932.52561			42760.13006		229.54400		875.00000 
 43692.65567		 305.27265			43387.38302		69.64400		324.00000 
 43692.65567		 932.52561			42760.13006		229.54400		875.00000 
 43692.65567		 305.27265			43387.38302		69.64400		324.00000 
 43692.65567		 932.52561			42760.13006		229.54400		875.00000 
 43692.65567		 305.27265			43387.38302		69.64400		324.00000 
 43692.65567		 932.52561			42760.13006		229.54400		875.00000 
 43692.65567		 305.27265			43387.38302		69.64400		324.00000 
 43692.65567		 932.52561			42760.13006		229.54400		875.00000 
 43692.65567		 305.27265			43387.38302		69.64400		324.00000 
 43692.65567		 932.52561			42760.13006		229.54400		875.00000 
 43692.65567		 305.27265			43387.38302		69.64400		324.00000 
 43692.65567		 932.52561			42760.13006		229.54400		875.00000 
 43692.65567		 305.27265			43387.38302		69.64400		324.00000 
 43692.65567		 932.52561			42760.13006		229.54400		875.00000 
 43692.65567		 305.27265			43387.38302		69.64400		324.00000 
 43692.65567		 932.52561			42760.13006		229.54400		875.00000 
 43692.65567		 305.27265			43387.38302		69.64400		324.00000 
 43692.65567		 932.52561			42760.13006		229.54400		875.00000 
 43692.65567		 305.27265			43387.38302		69.64400		324.00000 
 43692.65567		 932.52561			42760.13006		229.54400		875.00000 
 43692.65567		 305.27265			43387.38302		69.64400		324.00000 
 43692.65567		 932.52561			42760.13006		229.54400		875.00000 
 43692.65567		 305.27265			43387.38302		69.64400		324.00000 
 43692.65567		 932.52561			42760.13006		229.54400		875.00000 
 43692.65567		 305.27265			43387.38302		69.64400		324.00000 
 43692.65567		 932.52561			42760.13006		229.54400		875.00000 
 43692.65567		 305.27265			43387.38302		69.64400		324.00000 
 43692.65567		 932.52561			42760.13006		229.54400		875.00000 
 43692.65567		 305.27265			43387.38302		69.64400		324.00000 
 43692.65567		 932.52561			42760.13006		229.54400		875.00000 
 43692.65567		 305.27265			43387.38302		69.64400		324.00000 
 43692.65567		 932.52561			42760.13006		229.54400		875.00000 
 43692.65567		 305.27265			43387.38302		69.64400		324.00000 
 43692.65567		 932.52561			42760.13006		229.54400		875.00000 
 43692.65567		 305.27265			43387.38302		69.64400		324.00000 
 43692.65567		 932.52561			42760.13006		229.54400		875.00000 
 43692.65567		 305.27265			43387.38302		69.64400		324.00000 
 43692.65567		 932.52561			42760.13006		229.54400		875.00000 
 43692.65567		 305.27265			43387.38302		69.64400		324.00000 
 43692.65567		 932.52561			42760.13006		229.54400		875.00000 
 43692.65567		 305.27265			43387.38302		69.64400		324.00000 
 43692.65567		 932.52561			42760.13006		229.54400		875.00000 
 43692.65567		 305.27265			43387.38302		69.64400		324.00000 
 43692.65567		 932.52561			42760.13006		229.54400		875.00000 
 43692.65567		 305.27265			43387.38302		69.64400		324.00000 
 43692.65567		 932.52561			42760.13006		229.54400		875.00000 
 43692.65567		 305.27265			43387.38302		69.64400		324.00000 
 43692.65567		 932.52561			42760.13006		229.54400		875.00000 
 43692.65567		 305.27265			43387.38302		69.64400		324.00000 
 43692.65567		 932.52561			42760.13006		229.54400		875.00000 
 43692.65567		 305.27265			43387.38302		69.64400		324.00000 
 43692.65567		 932.52561			42760.13006		229.54400		875.00000 
 43692.65567		 305.27265			43387.38302		69.64400		324.00000 
 43692.65567		 932.52561			42760.13006		229.54400		875.00000 
 43692.65567		 305.27265			43387.38302		69.64400		324.00000 
 43692.65567		 932.52561			42760.13006		229.54400		875.00000 
 43692.65567		 305.27265			43387.38302		69.64400		324.00000 
 43692.65567		 932.52561			42760.13006		229.54400		875.00000 
 43692.65567		 305.27265			43387.38302		69.64400		324.00000 
 43692.65567		 932.52561			42760.13006		229.54400		875.00000 
 43692.65567		 305.27265			43387.38302		69.64400		324.00000 
 43692.65567		 932.52561			42760.13006		229.54400		875.00000 
 43692.65567		 305.27265			43387.38302		69.64400		324.00000 
 43692.65567		 932.52561			42760.13006		229.54400		875.00000 
 43692.65567		 305.27265			43387.38302		69.64400		324.00000 
 43692.65567		 932.52561			42760.13006		229.54400		875.00000 
 43692.65567		 305.27265			43387.38302		69.64400		324.00000 
 43692.65567		 932.52561			42760.13006		229.54400		875.00000 
 43692.65567		 305.27265			43387.38302		69.64400		324.00000 
 43692.65567		 932.52561			42760.13006		229.54400		875.00000 
 43692.65567		 305.27265			43387.38302		69.64400		324.00000 
 43692.65567		 932.52561			42760.13006		229.54400		875.00000 
 43692.65567		 305.27265			43387.38302		69.64400		324.00000 
 43692.65567		 932.52561			42760.13006		229.54400		875.00000 
 43692.65567		 305.27265			43387.38302		69.64400		324.00000 
 43692.65567		 932.52561			42760.13006		229.54400		875.00000 
 43692.65567		 305.27265			43387.38302		69.64400		324.00000 
 43692.65567		 932.52561			42760.13006		229.54400		875.00000 
 43692.65567		 305.27265			43387.38302		69.64400		324.00000 
 43692.65567		 932.52561			42760.13006		229.54400		875.00000 
 43692.65567		 305.27265			43387.38302		69.64400		324.00000 
 43692.65567		 932.52561			42760.13006		229.54400		875.00000 
 43692.65567		 305.27265			43387.38302		69.64400		324.00000 
 43692.65567		 932.52561			42760.13006		229.54400		875.00000 
 43692.65567		 305.27265			43387.38302		69.64400		324.00000 
 43692.65567		 932.52561			42760.13006		229.54400		875.00000 
 43692.65567		 305.27265			43387.38302		69.64400		324.00000 
 43692.65567		 932.52561			42760.13006		229.54400		875.00000 
 43692.65567		 305.27265			43387.38302		69.64400		324.00000 
 43692.65567		 932.52561			42760.13006		229.54400		875.00000 
 43692.65567		 305.27265			43387.38302		69.64400		324.00000 
 43692.65567		 932.52561			42760.13006		229.54400		875.00000 
 43692.65567		 305.27265			43387.38302		69.64400		324.00000 
 43692.65567		 932.52561			42760.13006		229.54400		875.00000 
 43692.65567		 305.27265			43387.38302		69.64400		324.00000 
 43692.65567		 932.52561			42760.13006		229.54400		875.00000 
 43692.65567		 305.27265			43387.38302		69.64400		324.00000 
 43692.65567		 932.52561			42760.13006		229.54400		875.00000 
 43692.65567		 305.27265			43387.38302		69.64400		324.00000 
 43692.65567		 932.52561			42760.13006		229.54400		875.00000 
 43692.65567		 305.27265			43387.38302		69.64400		324.00000 
 43692.65567		 932.52561			42760.13006		229.54400		875.00000 
 43692.65567		 305.27265			43387.38302		69.64400		324.00000 
 43692.65567		 932.52561			42760.13006		229.54400		875.00000 
 43692.65567		 305.27265			43387.38302		69.64400		324.00000 
 43692.65567		 932.52561			42760.13006		229.54400		875.00000 
 43692.65567		 305.27265			43387.38302		69.64400		324.00000 
 43692.65567		 932.52561			42760.13006		229.54400		875.00000 
 43692.65567		 305.27265			43387.38302		69.64400		324.00000 
 43692.65567		 932.52561			42760.13006		229.54400		875.00000 
 43692.65567		 305.27265			43387.38302		69.64400		324.00000 
 43692.65567		 932.52561			42760.13006		229.54400		875.00000 
 43692.65567		 305.27265			43387.38302		69.64400		324.00000 
 43692.65567		 932.52561			42760.13006		229.54400		875.00000 
 43692.65567		 305.27265			43387.38302		69.64400		324.00000 
 43692.65567		 932.52561			42760.13006		229.54400		875.00000 
 43692.65567		 305.27265			43387.38302		69.64400		324.00000 
 43692.65567		 932.52561			42760.13006		229.54400		875.00000 
 43692.65567		 305.27265			43387.38302		69.64400		324.00000 
 43692.65567		 932.52561			42760.13006		229.54400		875.00000 
 43692.65567		 305.27265			43387.38302		69.64400		324.00000 
 43692.65567		 932.52561			42760.13006		229.54400		875.00000 
 43692.65567		 305.27265			43387.38302		69.64400		324.00000 
 43692.65567		 932.52561			42760.13006		229.54400		875.00000 
 43692.65567		 305.27265			43387.38302		69.64400		324.00000 
 43692.65567		 932.52561			42760.13006		229.54400		875.00000 
 43692.65567		 305.27265			43387.38302		69.64400		324.00000 
 43692.65567		 932.52561			42760.13006		229.54400		875.00000 
 43692.65567		 305.27265			43387.38302		69.64400		324.00000 
 43692.65567		 932.52561			42760.13006		229.54400		875.00000 
 43692.65567		 305.27265			43387.38302		69.64400		324.00000 
 43692.65567		 932.52561			42760.13006		229.54400		875.00000 
 43692.65567		 305.27265			43387.38302		69.64400		324.00000 
 43692.65567		 932.52561			42760.13006		229.54400		875.00000 
 43692.65567		 305.27265			43387.38302		69.64400		324.00000 
 43692.65567		 932.52561			42760.13006		229.54400		875.00000 
 43692.65567		 305.27265			43387.38302		69.64400		324.00000 
 43692.65567		 932.52561			42760.13006		229.54400		875.00000 
 43692.65567		 305.27265			43387.38302		69.64400		324.00000 
 43692.65567		 932.52561			42760.13006		229.54400		875.00000 
 43692.65567		 305.27265			43387.38302		69.64400		324.00000 
 43692.65567		 932.52561			42760.13006		229.54400		875.00000 
 43692.65567		 305.27265			43387.38302		69.64400		324.00000 
 43692.65567		 932.52561			42760.13006		229.54400		875.00000 
 43692.65567		 305.27265			43387.38302		69.64400		324.00000 
 43692.65567		 932.52561			42760.13006		229.54400		875.00000 
 43692.65567		 305.27265			43387.38302		69.64400		324.00000 
 43692.65567		 932.52561			42760.13006		229.54400		875.00000 
 43692.65567		 305.27265			43387.38302		69.64400		324.00000 
 43692.65567		 932.52561			42760.13006		229.54400		875.00000 
 43692.65567		 305.27265			43387.38302		69.64400		324.00000 
 43692.65567		 932.52561			42760.13006		229.54400		875.00000 
 43692.65567		 305.27265			43387.38302		69.64400		324.00000 
 43692.65567		 932.52561			42760.13006		229.54400		875.00000 
 43692.65567		 305.27265			43387.38302		69.64400		324.00000 
 43692.65567		 932.52561			42760.13006		229.54400		875.00000 
 43692.65567		 305.27265			43387.38302		69.64400		324.00000 
 43692.65567		 932.52561			42760.13006		229.54400		875.00000 
 43692.65567		 305.27265			43387.38302		69.64400		324.00000 
 43692.65567		 932.52561			42760.13006		229.54400		875.00000 
 43692.65567		 305.27265			43387.38302		69.64400		324.00000 
 43692.65567		 932.52561			42760.13006		229.54400		875.00000 
 43692.65567		 305.27265			43387.38302		69.64400		324.00000 
 43692.65567		 932.52561			42760.13006		229.54400		875.00000 
 43692.65567		 305.27265			43387.38302		69.64400		324.00000 
 43692.65567		 932.52561			42760.13006		229.54400		875.00000 
 43692.65567		 305.27265			43387.38302		69.64400		324.00000 
 43692.65567		 932.52561			42760.13006		229.54400		875.00000 
 43692.65567		 305.27265			43387.38302		69.64400		324.00000 
 43692.65567		 932.52561			42760.13006		229.54400		875.00000 
 43692.65567		 305.27265			43387.38302		69.64400		324.00000 
 43692.65567		 932.52561			42760.13006		229.54400		875.00000 
 43692.65567		 305.27265			43387.38302		69.64400		324.00000 
 43692.65567		 932.52561			42760.13006		228.94600		875.00000 
 43692.65567		 305.27265			43387.38302		69.64400		324.00000 
 43692.65567		 932.52561			42760.13006		228.94600		875.00000 
 43692.65567		 305.27265			43387.38302		69.64400		324.00000 
 43692.65567		 932.52561			42760.13006		228.94600		875.00000 
 43692.65567		 305.27265			43387.38302		69.64400		324.00000 
 43692.65567		 932.52561			42760.13006		228.94600		875.00000 
 43692.65567		 305.27265			43387.38302		69.64400		324.00000 
 43692.65567		 932.52561			42760.13006		228.94600		875.00000 
 43692.65567		 305.27265			43387.38302		69.64400		324.00000 
 43692.65567		 932.52561			42760.13006		228.94600		875.00000 
 43692.65567		 305.27265			43387.38302		69.64400		324.00000 
 43692.65567		 932.52561			42760.13006		228.94600		875.00000 
 43692.65567		 305.27265			43387.38302		69.64400		324.00000 
 43692.65567		 932.52561			42760.13006		228.94600		875.00000 
 43692.65567		 305.27265			43387.38302		69.64400		324.00000 
 43692.65567		 932.52561			42760.13006		228.94600		875.00000 
 43692.65567		 305.27265			43387.38302		69.64400		324.00000 
 43692.65567		 932.52561			42760.13006		228.94600		875.00000 
 43692.65567		 305.27265			43387.38302		69.64400		324.00000 
 43692.65567		 932.52561			42760.13006		228.94600		875.00000 
 43692.65567		 305.27265			43387.38302		69.64400		324.00000 
 43692.65567		 932.52561			42760.13006		228.94600		875.00000 
 43692.65567		 305.27265			43387.38302		69.64400		324.00000 
 43692.65567		 932.52561			42760.13006		228.94600		875.00000 
 43692.65567		 305.27265			43387.38302		69.64400		324.00000 
 43692.65567		 932.52561			42760.13006		228.94600		875.00000 
 43692.65567		 305.27265			43387.38302		69.64400		324.00000 
 43692.65567		 932.52561			42760.13006		228.94600		875.00000 
 43692.65567		 305.27265			43387.38302		69.64400		324.00000 
 43692.65567		 932.52561			42760.13006		228.94600		875.00000 
 43692.65567		 305.27265			43387.38302		69.64400		324.00000 
 43692.65567		 932.52561			42760.13006		228.94600		875.00000 
 43692.65567		 305.27265			43387.38302		69.64400		324.00000 
 43692.65567		 932.52561			42760.13006		228.94600		875.00000 
 43692.65567		 305.27265			43387.38302		69.64400		324.00000 
 43692.65567		 932.52561			42760.13006		228.94600		875.00000 
 43692.65567		 305.27265			43387.38302		69.64400		324.00000 
 43692.65567		 932.52561			42760.13006		228.94600		875.00000 
 43692.65567		 305.27265			43387.38302		69.64400		324.00000 
 43692.65567		 932.52561			42760.13006		228.94600		875.00000 
 43692.65567		 305.27265			43387.38302		69.64400		324.00000 
 43692.65567		 932.52561			42760.13006		228.94600		875.00000 
 43692.65567		 305.27265			43387.38302		69.64400		324.00000 
 43692.65567		 932.52561			42760.13006		228.94600		875.00000 
 43692.65567		 305.27265			43387.38302		69.64400		324.00000 
 43692.65567		 932.52561			42760.13006		228.94600		875.00000 
 43692.65567		 305.27265			43387.38302		69.64400		324.00000 
 43692.65567		 932.52561			42760.13006		228.94600		875.00000 
 43692.65567		 305.27265			43387.38302		69.64400		324.00000 
 43692.65567		 932.52561			42760.13006		228.94600		875.00000 
 43692.65567		 305.27265			43387.38302		69.64400		324.00000 
 43692.65567		 932.52561			42760.13006		228.94600		875.00000 
 43692.65567		 305.27265			43387.38302		69.64400		324.00000 
 43692.65567		 932.52561			42760.13006		228.94600		875.00000 
 43692.65567		 305.27265			43387.38302		69.64400		324.00000 
 43692.65567		 932.52561			42760.13006		228.94600		875.00000 
 43692.65567		 305.27265			43387.38302		69.64400		324.00000 
 43692.65567		 932.52561			42760.13006		228.94600		875.00000 
 43692.65567		 305.27265			43387.38302		69.64400		324.00000 
 43692.65567		 932.52561			42760.13006		228.94600		875.00000 
 43692.65567		 305.27265			43387.38302		69.64400		324.00000 
 43692.65567		 932.52561			42760.13006		228.94600		875.00000 
 43692.65567		 305.27265			43387.38302		69.64400		324.00000 
 43692.65567		 932.52561			42760.13006		228.94600		875.00000 
 43692.65567		 305.27265			43387.38302		69.64400		324.00000 
 43692.65567		 932.52561			42760.13006		228.94600		875.00000 
 43692.65567		 305.27265			43387.38302		69.64400		324.00000 
 43692.65567		 932.52561			42760.13006		228.94600		875.00000 
 43692.65567		 305.27265			43387.38302		69.64400		324.00000 
 43692.65567		 932.52561			42760.13006		228.94600		875.00000 
 43692.65567		 305.27265			43387.38302		69.64400		324.00000 
 43692.65567		 932.52561			42760.13006		228.94600		875.00000 
 43692.65567		 305.27265			43387.38302		69.64400		324.00000 
 43692.65567		 932.52561			42760.13006		228.94600		875.00000 
 43692.65567		 305.27265			43387.38302		69.64400		324.00000 
 43692.65567		 932.52561			42760.13006		228.94600		875.00000 
 43692.65567		 305.27265			43387.38302		69.64400		324.00000 
 43692.65567		 932.52561			42760.13006		228.94600		875.00000 
 43692.65567		 305.27265			43387.38302		69.64400		324.00000 
 43692.65567		 932.52561			42760.13006		228.94600		875.00000 
 43692.65567		 305.27265			43387.38302		69.64400		324.00000 
 43692.65567		 932.52561			42760.13006		228.94600		875.00000 
 43692.65567		 305.27265			43387.38302		69.64400		324.00000 
 43692.65567		 932.52561			42760.13006		228.94600		875.00000 
 43692.65567		 305.27265			43387.38302		69.64400		324.00000 
 43692.65567		 932.52561			42760.13006		228.94600		875.00000 
 43692.65567		 305.27265			43387.38302		69.64400		324.00000 
 43692.65567		 932.52561			42760.13006		228.94600		875.00000 
 43692.65567		 305.27265			43387.38302		69.64400		324.00000 
 43692.65567		 932.52561			42760.13006		228.94600		875.00000 
 43692.65567		 305.27265			43387.38302		69.64400		324.00000 
 43692.65567		 932.52561			42760.13006		228.94600		875.00000 
 43692.65567		 305.27265			43387.38302		69.64400		324.00000 
 43692.65567		 932.52561			42760.13006		228.94600		875.00000 
 43692.65567		 305.27265			43387.38302		69.64400		324.00000 
 43692.65567		 932.52561			42760.13006		228.94600		875.00000 
 43692.65567		 305.27265			43387.38302		69.64400		324.00000 
 43692.65567		 932.52561			42760.13006		228.94600		875.00000 
 43692.65567		 305.27265			43387.38302		69.64400		324.00000 
 43692.65567		 932.52561			42760.13006		228.94600		875.00000 
 43692.65567		 305.27265			43387.38302		69.64400		324.00000 
 43692.65567		 932.52561			42760.13006		228.94600		875.00000 
 43692.65567		 305.27265			43387.38302		69.64400		324.00000 
 43692.65567		 932.52561			42760.13006		228.94600		875.00000 
 43692.65567		 305.27265			43387.38302		69.64400		324.00000 
 43692.65567		 932.52561			42760.13006		228.94600		875.00000 
 43692.65567		 305.27265			43387.38302		69.64400		324.00000 
 43692.65567		 932.52561			42760.13006		228.94600		875.00000 
 43692.65567		 305.27265			43387.38302		69.64400		324.00000 
 43692.65567		 932.52561			42760.13006		228.94600		875.00000 
 43692.65567		 305.27265			43387.38302		69.64400		324.00000 
 43692.65567		 932.52561			42760.13006		228.94600		875.00000 
 43692.65567		 305.27265			43387.38302		69.64400		324.00000 
 43692.65567		 932.52561			42760.13006		228.94600		875.00000 
 43692.65567		 305.27265			43387.38302		69.64400		324.00000 
 43692.65567		 932.52561			42760.13006		228.94600		875.00000 
 43692.65567		 305.27265			43387.38302		69.64400		324.00000 
 43692.65567		 932.52561			42760.13006		228.94600		875.00000 
 43692.65567		 305.27265			43387.38302		69.64400		324.00000 
 43692.65567		 932.52561			42760.13006		228.94600		875.00000 
 43692.65567		 305.27265			43387.38302		69.64400		324.00000 
 43692.65567		 932.52561			42760.13006		228.94600		875.00000 
 43692.65567		 305.27265			43387.38302		69.64400		324.00000 
 43692.65567		 932.52561			42760.13006		228.94600		875.00000 
 43692.65567		 305.27265			43387.38302		69.64400		324.00000 
 43692.65567		 932.52561			42760.13006		228.94600		875.00000 
 43692.65567		 305.27265			43387.38302		69.64400		324.00000 
 43692.65567		 932.52561			42760.13006		228.94600		875.00000 
 43692.65567		 305.27265			43387.38302		69.64400		324.00000 
 43692.65567		 932.52561			42760.13006		229.54400		875.00000 
 43692.65567		 305.27265			43387.38302		69.64400		324.00000 
 43692.65567		 932.52561			42760.13006		229.54400		875.00000 
 43692.65567		 305.27265			43387.38302		69.64400		324.00000 
 43692.65567		 932.52561			42760.13006		229.54400		875.00000 
 43692.65567		 305.27265			43387.38302		69.64400		324.00000 
 43692.65567		 932.52561			42760.13006		229.54400		875.00000 
 43692.65567		 305.27265			43387.38302		69.64400		324.00000 
 43692.65567		 932.52561			42760.13006		229.54400		875.00000 
 43692.65567		 305.27265			43387.38302		69.64400		324.00000 
 43692.65567		 932.52561			42760.13006		229.54400		875.00000 
 43692.65567		 305.27265			43387.38302		69.64400		324.00000 
 43692.65567		 932.52561			42760.13006		229.54400		875.00000 
 43692.65567		 305.27265			43387.38302		69.64400		324.00000 
 43692.65567		 932.52561			42760.13006		229.54400		875.00000 
 43692.65567		 305.27265			43387.38302		69.64400		324.00000 
 43692.65567		 932.52561			42760.13006		229.54400		875.00000 
 43692.65567		 305.27265			43387.38302		69.64400		324.00000 
 43692.65567		 932.52561			42760.13006		229.54400		875.00000 
 43692.65567		 305.27265			43387.38302		69.64400		324.00000 
 43692.65567		 932.52561			42760.13006		229.54400		875.00000 
 43692.65567		 305.27265			43387.38302		69.64400		324.00000 
 43692.65567		 932.52561			42760.13006		229.54400		875.00000 
 43692.65567		 305.27265			43387.38302		69.64400		324.00000 
 43692.65567		 932.52561			42760.13006		229.54400		875.00000 
 43692.65567		 305.27265			43387.38302		69.64400		324.00000 
 43692.65567		 932.52561			42760.13006		229.54400		875.00000 
 43692.65567		 305.27265			43387.38302		69.64400		324.00000 
 43692.65567		 932.52561			42760.13006		229.54400		875.00000 
 43692.65567		 305.27265			43387.38302		69.64400		324.00000 
 43692.65567		 932.52561			42760.13006		229.54400		875.00000 
 43692.65567		 305.27265			43387.38302		69.64400		324.00000 
 43692.65567		 932.52561			42760.13006		229.54400		875.00000 
 43692.65567		 305.27265			43387.38302		69.64400		324.00000 
 43692.65567		 932.52561			42760.13006		229.54400		875.00000 
 43692.65567		 305.27265			43387.38302		69.64400		324.00000 
 43692.65567		 932.52561			42760.13006		229.54400		875.00000 
 43692.65567		 305.27265			43387.38302		69.64400		324.00000 
 43692.65567		 932.52561			42760.13006		229.54400		875.00000 
 43692.65567		 305.27265			43387.38302		69.64400		324.00000 
 43692.65567		 932.52561			42760.13006		229.54400		875.00000 
 43692.65567		 305.27265			43387.38302		69.64400		324.00000 
 43692.65567		 932.52561			42760.13006		229.54400		875.00000 
 43692.65567		 305.27265			43387.38302		69.64400		324.00000 
 43692.65567		 932.52561			42760.13006		229.54400		875.00000 
 43692.65567		 305.27265			43387.38302		69.64400		324.00000 
 43692.65567		 932.52561			42760.13006		229.54400		875.00000 
 43692.65567		 305.27265			43387.38302		69.64400		324.00000 
 43692.65567		 932.52561			42760.13006		229.54400		875.00000 
 43692.65567		 305.27265			43387.38302		69.64400		324.00000 
 43692.65567		 932.52561			42760.13006		229.54400		875.00000 
 43692.65567		 305.27265			43387.38302		69.64400		324.00000 
 43692.65567		 932.52561			42760.13006		229.54400		875.00000 
 43692.65567		 305.27265			43387.38302		69.64400		324.00000 
 43692.65567		 932.52561			42760.13006		229.54400		875.00000 
 43692.65567		 305.27265			43387.38302		69.64400		324.00000 
 43692.65567		 932.52561			42760.13006		229.54400		875.00000 
 43692.65567		 305.27265			43387.38302		69.64400		324.00000 
 43692.65567		 932.52561			42760.13006		229.54400		875.00000 
 43692.65567		 305.27265			43387.38302		69.64400		324.00000 
 43692.65567		 932.52561			42760.13006		229.54400		875.00000 
 43692.65567		 305.27265			43387.38302		69.64400		324.00000 
 43692.65567		 932.52561			42760.13006		229.54400		875.00000 
 43692.65567		 305.27265			43387.38302		69.64400		324.00000 
 43692.65567		 932.52561			42760.13006		229.54400		875.00000 
 43692.65567		 305.27265			43387.38302		69.64400		324.00000 
 43692.65567		 932.52561			42760.13006		229.54400		875.00000 
 43692.65567		 305.27265			43387.38302		69.64400		324.00000 
 43692.65567		 932.52561			42760.13006		229.54400		875.00000 
 43692.65567		 305.27265			43387.38302		69.64400		324.00000 
 43692.65567		 932.52561			42760.13006		229.54400		875.00000 
 43692.65567		 305.27265			43387.38302		69.64400		324.00000 
 43692.65567		 932.52561			42760.13006		229.54400		875.00000 
 43692.65567		 305.27265			43387.38302		69.64400		324.00000 
 43692.65567		 932.52561			42760.13006		229.54400		875.00000 
 43692.65567		 305.27265			43387.38302		69.64400		324.00000 
 43692.65567		 932.52561			42760.13006		229.54400		875.00000 
 43692.65567		 305.27265			43387.38302		69.64400		324.00000 
 43692.65567		 932.52561			42760.13006		229.54400		875.00000 
 43692.65567		 305.27265			43387.38302		69.64400		324.00000 
 43692.65567		 932.52561			42760.13006		229.54400		875.00000 
 43692.65567		 305.27265			43387.38302		69.64400		324.00000 
 43692.65567		 932.52561			42760.13006		229.54400		875.00000 
 43692.65567		 305.27265			43387.38302		69.64400		324.00000 
 43692.65567		 932.52561			42760.13006		229.54400		875.00000 
 43692.65567		 305.27265			43387.38302		69.64400		324.00000 
 43692.65567		 932.52561			42760.13006		229.54400		875.00000 
 43692.65567		 305.27265			43387.38302		69.64400		324.00000 
 43692.65567		 932.52561			42760.13006		229.54400		875.00000 
 43692.65567		 305.27265			43387.38302		69.64400		324.00000 
 43692.65567		 932.52561			42760.13006		229.54400		875.00000 
 43692.65567		 305.27265			43387.38302		69.64400		324.00000 
 43692.65567		 932.52561			42760.13006		229.54400		875.00000 
 43692.65567		 305.27265			43387.38302		69.64400		324.00000 
 43692.65567		 932.52561			42760.13006		229.54400		875.00000 
 43692.65567		 305.27265			43387.38302		69.64400		324.00000 
 43692.65567		 932.52561			42760.13006		229.54400		875.00000 
 43692.65567		 305.27265			43387.38302		69.64400		324.00000 
 43692.65567		 932.52561			42760.13006		229.54400		875.00000 
 43692.65567		 305.27265			43387.38302		70.24600		324.00000 
 43692.65567		 932.52561			42760.13006		229.54400		875.00000 
 43692.65567		 305.27265			43387.38302		70.24600		324.00000 
 43692.65567		 932.52561			42760.13006		229.54400		875.00000 
 43692.65567		 305.27265			43387.38302		70.24600		324.00000 
 43692.65567		 932.52561			42760.13006		229.54400		875.00000 
 43692.65567		 305.27265			43387.38302		70.24600		324.00000 
 43692.65567		 932.52561			42760.13006		229.54400		875.00000 
 43692.65567		 305.27265			43387.38302		70.24600		324.00000 
 43692.65567		 932.52561			42760.13006		229.54400		875.00000 
 43692.65567		 305.27265			43387.38302		70.24600		324.00000 
 43692.65567		 932.52561			42760.13006		229.54400		875.00000 
 43692.65567		 305.27265			43387.38302		70.24600		324.00000 
 43692.65567		 932.52561			42760.13006		229.54400		875.00000 
 43692.65567		 305.27265			43387.38302		70.24600		324.00000 
 43692.65567		 932.52561			42760.13006		229.54400		875.00000 
 43692.65567		 305.27265			43387.38302		70.24600		324.00000 
 43692.65567		 932.52561			42760.13006		229.54400		875.00000 
 43692.65567		 305.27265			43387.38302		70.24600		324.00000 
 43692.65567		 932.52561			42760.13006		229.54400		875.00000 
 43692.65567		 305.27265			43387.38302		70.24600		324.00000 
 43692.65567		 932.52561			42760.13006		229.54400		875.00000 
 43692.65567		 305.27265			43387.38302		70.24600		324.00000 
 43692.65567		 932.52561			42760.13006		229.54400		875.00000 
 43692.65567		 305.27265			43387.38302		70.24600		324.00000 
 43692.65567		 932.52561			42760.13006		228.84200		875.00000 
 43692.65567		 305.27265			43387.38302		70.24600		324.00000 
 43692.65567		 932.52561			42760.13006		228.84200		875.00000 
 43692.65567		 305.27265			43387.38302		70.24600		324.00000 
 43692.65567		 932.52561			42760.13006		228.84200		875.00000 
 43692.65567		 305.27265			43387.38302		70.24600		324.00000 
 43692.65567		 932.52561			42760.13006		228.84200		875.00000 
 43692.65567		 305.27265			43387.38302		70.24600		324.00000 
 43692.65567		 932.52561			42760.13006		228.84200		875.00000 
 43692.65567		 305.27265			43387.38302		70.24600		324.00000 
 43692.65567		 932.52561			42760.13006		228.84200		875.00000 
 43692.65567		 305.27265			43387.38302		70.24600		324.00000 
 43692.65567		 932.52561			42760.13006		228.84200		875.00000 
 43692.65567		 305.27265			43387.38302		70.24600		324.00000 
 43692.65567		 932.52561			42760.13006		228.84200		875.00000 
 43692.65567		 305.27265			43387.38302		70.24600		324.00000 
 43692.65567		 932.52561			42760.13006		228.84200		875.00000 
 43692.65567		 305.27265			43387.38302		70.24600		324.00000 
 43692.65567		 932.52561			42760.13006		228.84200		875.00000 
 43692.65567		 305.27265			43387.38302		70.24600		324.00000 
 43692.65567		 932.52561			42760.13006		228.84200		875.00000 
 43692.65567		 305.27265			43387.38302		70.24600		324.00000 
 43692.65567		 932.52561			42760.13006		228.84200		875.00000 
 43692.65567		 305.27265			43387.38302		70.24600		324.00000 
 43692.65567		 932.52561			42760.13006		228.84200		875.00000 
 43692.65567		 305.27265			43387.38302		70.24600		324.00000 
 43692.65567		 932.52561			42760.13006		228.84200		875.00000 
 43692.65567		 305.27265			43387.38302		70.24600		324.00000 
 43692.65567		 932.52561			42760.13006		228.84200		875.00000 
 43692.65567		 305.27265			43387.38302		70.24600		324.00000 
 43692.65567		 932.52561			42760.13006		228.84200		875.00000 
 43692.65567		 305.27265			43387.38302		70.24600		324.00000 
 43692.65567		 932.52561			42760.13006		228.84200		875.00000 
 43692.65567		 305.27265			43387.38302		70.24600		324.00000 
 43692.65567		 932.52561			42760.13006		228.84200		875.00000 
 43692.65567		 305.27265			43387.38302		70.24600		324.00000 
 43692.65567		 932.52561			42760.13006		228.84200		875.00000 
 43692.65567		 305.27265			43387.38302		70.24600		324.00000 
 43692.65567		 932.52561			42760.13006		228.84200		875.00000 
 43692.65567		 305.27265			43387.38302		70.24600		324.00000 
 43692.65567		 932.52561			42760.13006		228.84200		875.00000 
 43692.65567		 305.27265			43387.38302		70.24600		324.00000 
 43692.65567		 932.52561			42760.13006		228.84200		875.00000 
 43692.65567		 305.27265			43387.38302		70.24600		324.00000 
 43692.65567		 932.52561			42760.13006		228.84200		875.00000 
 43692.65567		 305.27265			43387.38302		70.24600		324.00000 
 43692.65567		 932.52561			42760.13006		228.84200		875.00000 
 43692.65567		 305.27265			43387.38302		70.24600		324.00000 
 43692.65567		 932.52561			42760.13006		228.84200		875.00000 
 43692.65567		 305.27265			43387.38302		70.24600		324.00000 
 43692.65567		 932.52561			42760.13006		228.84200		875.00000 
 43692.65567		 305.27265			43387.38302		70.24600		324.00000 
 43692.65567		 932.52561			42760.13006		228.84200		875.00000 
 43692.65567		 305.27265			43387.38302		70.24600		324.00000 
 43692.65567		 932.52561			42760.13006		228.84200		875.00000 
 43692.65567		 305.27265			43387.38302		70.24600		324.00000 
 43692.65567		 932.52561			42760.13006		228.84200		875.00000 
 43692.65567		 305.27265			43387.38302		70.24600		324.00000 
 43692.65567		 932.52561			42760.13006		228.84200		875.00000 
 43692.65567		 305.27265			43387.38302		70.24600		324.00000 
 43692.65567		 932.52561			42760.13006		228.84200		875.00000 
 43692.65567		 305.27265			43387.38302		70.24600		324.00000 
 43692.65567		 932.52561			42760.13006		228.84200		875.00000 
 43692.65567		 305.27265			43387.38302		70.24600		324.00000 
 43692.65567		 932.52561			42760.13006		228.84200		875.00000 
 43692.65567		 305.27265			43387.38302		70.24600		324.00000 
 43692.65567		 932.52561			42760.13006		228.84200		875.00000 
 43692.65567		 305.27265			43387.38302		70.24600		324.00000 
 43692.65567		 932.52561			42760.13006		228.84200		875.00000 
 43692.65567		 305.27265			43387.38302		70.24600		324.00000 
 43692.65567		 932.52561			42760.13006		228.84200		875.00000 
 43692.65567		 305.27265			43387.38302		70.24600		324.00000 
 43692.65567		 932.52561			42760.13006		228.84200		875.00000 
 43692.65567		 305.27265			43387.38302		70.24600		324.00000 
 43692.65567		 932.52561			42760.13006		228.84200		875.00000 
 43692.65567		 305.27265			43387.38302		70.24600		324.00000 
 43692.65567		 932.52561			42760.13006		228.84200		875.00000 
 43692.65567		 305.27265			43387.38302		70.24600		324.00000 
 43692.65567		 932.52561			42760.13006		228.84200		875.00000 
 43692.65567		 305.27265			43387.38302		70.24600		324.00000 
 43692.65567		 932.52561			42760.13006		228.84200		875.00000 
 43692.65567		 305.27265			43387.38302		70.24600		324.00000 
 43692.65567		 932.52561			42760.13006		228.84200		875.00000 
 43692.65567		 305.27265			43387.38302		70.24600		324.00000 
 43692.65567		 932.52561			42760.13006		228.84200		875.00000 
 43692.65567		 305.27265			43387.38302		70.24600		324.00000 
 43692.65567		 932.52561			42760.13006		228.84200		875.00000 
 43692.65567		 305.27265			43387.38302		70.24600		324.00000 
 43692.65567		 932.52561			42760.13006		228.84200		875.00000 
 43692.65567		 305.27265			43387.38302		70.24600		324.00000 
 43692.65567		 932.52561			42760.13006		228.84200		875.00000 
 43692.65567		 305.27265			43387.38302		70.24600		324.00000 
 43692.65567		 932.52561			42760.13006		228.84200		875.00000 
 43692.65567		 305.27265			43387.38302		70.24600		324.00000 
 43692.65567		 932.52561			42760.13006		228.84200		875.00000 
 43692.65567		 305.27265			43387.38302		70.24600		324.00000 
 43692.65567		 932.52561			42760.13006		228.84200		875.00000 
 43692.65567		 305.27265			43387.38302		70.24600		324.00000 
 43692.65567		 932.52561			42760.13006		228.84200		875.00000 
 43692.65567		 305.27265			43387.38302		70.24600		324.00000 
 43692.65567		 932.52561			42760.13006		228.84200		875.00000 
 43692.65567		 305.27265			43387.38302		70.24600		324.00000 
 43692.65567		 932.52561			42760.13006		228.84200		875.00000 
 43692.65567		 305.27265			43387.38302		70.24600		324.00000 
 43692.65567		 932.52561			42760.13006		228.84200		875.00000 
 43692.65567		 305.27265			43387.38302		70.24600		324.00000 
 43692.65567		 932.52561			42760.13006		228.84200		875.00000 
 43692.65567		 305.27265			43387.38302		70.24600		324.00000 
 43692.65567		 932.52561			42760.13006		228.84200		875.00000 
 43692.65567		 305.27265			43387.38302		70.24600		324.00000 
 43692.65567		 932.52561			42760.13006		228.84200		875.00000 
 43692.65567		 305.27265			43387.38302		70.24600		324.00000 
 43692.65567		 932.52561			42760.13006		228.84200		875.00000 
 43692.65567		 305.27265			43387.38302		70.24600		324.00000 
 43692.65567		 932.52561			42760.13006		228.84200		875.00000 
 43692.65567		 305.27265			43387.38302		70.24600		324.00000 
 43692.65567		 932.52561			42760.13006		228.84200		875.00000 
 43692.65567		 305.27265			43387.38302		70.24600		324.00000 
 43692.65567		 932.52561			42760.13006		228.84200		875.00000 
 43692.65567		 305.27265			43387.38302		70.24600		324.00000 
 43692.65567		 932.52561			42760.13006		228.84200		875.00000 
 43692.65567		 305.27265			43387.38302		70.24600		324.00000 
 43692.65567		 932.52561			42760.13006		228.84200		875.00000 
 43692.65567		 305.27265			43387.38302		70.24600		324.00000 
 43692.65567		 932.52561			42760.13006		228.84200		875.00000 
 43692.65567		 305.27265			43387.38302		70.24600		324.00000 
 43692.65567		 932.52561			42760.13006		228.84200		875.00000 
 43692.65567		 305.27265			43387.38302		70.24600		324.00000 
 43692.65567		 932.52561			42760.13006		228.84200		875.00000 
 43692.65567		 305.27265			43387.38302		70.24600		324.00000 
 43692.65567		 932.52561			42760.13006		229.54400		875.00000 
 43692.65567		 305.27265			43387.38302		70.24600		324.00000 
 43692.65567		 932.52561			42760.13006		229.54400		875.00000 
 43692.65567		 305.27265			43387.38302		70.24600		324.00000 
 43692.65567		 932.52561			42760.13006		229.54400		875.00000 
 43692.65567		 305.27265			43387.38302		70.24600		324.00000 
 43692.65567		 932.52561			42760.13006		229.54400		875.00000 
 43692.65567		 305.27265			43387.38302		70.24600		324.00000 
 43692.65567		 932.52561			42760.13006		229.54400		875.00000 
 43692.65567		 305.27265			43387.38302		70.24600		324.00000 
 43692.65567		 932.52561			42760.13006		229.54400		875.00000 
 43692.65567		 305.27265			43387.38302		70.24600		324.00000 
 43692.65567		 932.52561			42760.13006		229.54400		875.00000 
 43692.65567		 305.27265			43387.38302		70.24600		324.00000 
 43692.65567		 932.52561			42760.13006		229.54400		875.00000 
 43692.65567		 305.27265			43387.38302		70.24600		324.00000 
 43692.65567		 932.52561			42760.13006		229.54400		875.00000 
 43692.65567		 305.27265			43387.38302		70.24600		324.00000 
 43692.65567		 932.52561			42760.13006		229.54400		875.00000 
 43692.65567		 305.27265			43387.38302		70.24600		324.00000 
 43692.65567		 932.52561			42760.13006		229.54400		875.00000 
 43692.65567		 305.27265			43387.38302		70.24600		324.00000 
 43692.65567		 932.52561			42760.13006		229.54400		875.00000 
 43692.65567		 305.27265			43387.38302		70.24600		324.00000 
 43692.65567		 932.52561			42760.13006		229.54400		875.00000 
 43692.65567		 305.27265			43387.38302		70.24600		324.00000 
 43692.65567		 932.52561			42760.13006		229.54400		875.00000 
 43692.65567		 305.27265			43387.38302		70.24600		324.00000 
 43692.65567		 932.52561			42760.13006		229.54400		875.00000 
 43692.65567		 305.27265			43387.38302		70.24600		324.00000 
 43692.65567		 932.52561			42760.13006		229.54400		875.00000 
 43692.65567		 305.27265			43387.38302		70.24600		324.00000 
 43692.65567		 932.52561			42760.13006		229.54400		875.00000 
 43692.65567		 305.27265			43387.38302		70.24600		324.00000 
 43692.65567		 932.52561			42760.13006		229.54400		875.00000 
 43692.65567		 305.27265			43387.38302		70.24600		324.00000 
 43692.65567		 932.52561			42760.13006		229.54400		875.00000 
 43692.65567		 305.27265			43387.38302		70.24600		324.00000 
 43692.65567		 932.52561			42760.13006		229.54400		875.00000 
 43692.65567		 305.27265			43387.38302		70.24600		324.00000 
 43692.65567		 932.52561			42760.13006		229.54400		875.00000 
 43692.65567		 305.27265			43387.38302		70.24600		324.00000 
 43692.65567		 932.52561			42760.13006		229.54400		875.00000 
 43692.65567		 305.27265			43387.38302		70.24600		324.00000 
 43692.65567		 932.52561			42760.13006		229.54400		875.00000 
 43692.65567		 305.27265			43387.38302		70.24600		324.00000 
 43692.65567		 932.52561			42760.13006		229.54400		875.00000 
 43692.65567		 305.27265			43387.38302		70.24600		324.00000 
 43692.65567		 932.52561			42760.13006		229.54400		875.00000 
 43692.65567		 305.27265			43387.38302		70.24600		324.00000 
 43692.65567		 932.52561			42760.13006		229.54400		875.00000 
 43692.65567		 305.27265			43387.38302		70.24600		324.00000 
 43692.65567		 932.52561			42760.13006		229.54400		875.00000 
 43692.65567		 305.27265			43387.38302		70.24600		324.00000 
 43692.65567		 932.52561			42760.13006		229.54400		875.00000 
 43692.65567		 305.27265			43387.38302		70.24600		324.00000 
 43692.65567		 932.52561			42760.13006		229.54400		875.00000 
 43692.65567		 305.27265			43387.38302		70.24600		324.00000 
 43692.65567		 932.52561			42760.13006		229.54400		875.00000 
 43692.65567		 305.27265			43387.38302		70.24600		324.00000 
 43692.65567		 932.52561			42760.13006		229.54400		875.00000 
 43692.65567		 305.27265			43387.38302		70.24600		324.00000 
 43692.65567		 932.52561			42760.13006		229.54400		875.00000 
 43692.65567		 305.27265			43387.38302		70.24600		324.00000 
 43692.65567		 932.52561			42760.13006		229.54400		875.00000 
 43692.65567		 305.27265			43387.38302		70.24600		324.00000 
 43692.65567		 932.52561			42760.13006		229.54400		875.00000 
 43692.65567		 305.27265			43387.38302		70.24600		324.00000 
 43692.65567		 932.52561			42760.13006		229.54400		875.00000 
 43692.65567		 305.27265			43387.38302		70.24600		324.00000 
 43692.65567		 932.52561			42760.13006		229.54400		875.00000 
 43692.65567		 305.27265			43387.38302		70.24600		324.00000 
 43692.65567		 932.52561			42760.13006		229.54400		875.00000 
 43692.65567		 305.27265			43387.38302		70.24600		324.00000 
 43692.65567		 932.52561			42760.13006		229.54400		875.00000 
 43692.65567		 305.27265			43387.38302		70.24600		324.00000 
 43692.65567		 932.52561			42760.13006		229.54400		875.00000 
 43692.65567		 305.27265			43387.38302		70.24600		324.00000 
 43692.65567		 932.52561			42760.13006		229.54400		875.00000 
 43692.65567		 305.27265			43387.38302		70.24600		324.00000 
 43692.65567		 932.52561			42760.13006		229.54400		875.00000 
 43692.65567		 305.27265			43387.38302		70.24600		324.00000 
 43692.65567		 932.52561			42760.13006		229.54400		875.00000 
 43692.65567		 305.27265			43387.38302		70.24600		324.00000 
 43692.65567		 932.52561			42760.13006		229.54400		875.00000 
 43692.65567		 305.27265			43387.38302		70.24600		324.00000 
 43692.65567		 932.52561			42760.13006		229.54400		875.00000 
 43692.65567		 305.27265			43387.38302		70.24600		324.00000 
 43692.65567		 932.52561			42760.13006		229.54400		875.00000 
 43692.65567		 305.27265			43387.38302		70.24600		324.00000 
 43692.65567		 932.52561			42760.13006		229.54400		875.00000 
 43692.65567		 305.27265			43387.38302		70.24600		324.00000 
 43692.65567		 932.52561			42760.13006		229.54400		875.00000 
 43692.65567		 305.27265			43387.38302		70.24600		324.00000 
 43692.65567		 932.52561			42760.13006		229.54400		875.00000 
 43692.65567		 305.27265			43387.38302		70.24600		324.00000 
 43692.65567		 932.52561			42760.13006		229.54400		875.00000 
 43692.65567		 305.27265			43387.38302		70.24600		324.00000 
 43692.65567		 932.52561			42760.13006		229.54400		875.00000 
 43692.65567		 305.27265			43387.38302		70.24600		324.00000 
 43692.65567		 932.52561			42760.13006		229.54400		875.00000 
 43692.65567		 305.27265			43387.38302		70.24600		324.00000 
 43692.65567		 932.52561			42760.13006		229.54400		875.00000 
 43692.65567		 305.27265			43387.38302		70.24600		324.00000 
 43692.65567		 932.52561			42760.13006		229.54400		875.00000 
 43692.65567		 305.27265			43387.38302		70.24600		324.00000 
 43692.65567		 932.52561			42760.13006		229.54400		875.00000 
 43692.65567		 305.27265			43387.38302		70.24600		324.00000 
 43692.65567		 932.52561			42760.13006		229.54400		875.00000 
 43692.65567		 305.27265			43387.38302		70.24600		324.00000 
 43692.65567		 932.52561			42760.13006		229.54400		875.00000 
 43692.65567		 305.27265			43387.38302		70.24600		324.00000 
 43692.65567		 932.52561			42760.13006		229.54400		875.00000 
 43692.65567		 305.27265			43387.38302		70.24600		324.00000 
 43692.65567		 932.52561			42760.13006		229.54400		875.00000 
 43692.65567		 305.27265			43387.38302		70.24600		324.00000 
 43692.65567		 932.52561			42760.13006		229.54400		875.00000 
 43692.65567		 305.27265			43387.38302		70.24600		324.00000 
 43692.65567		 932.52561			42760.13006		229.54400		875.00000 
 43692.65567		 305.27265			43387.38302		70.24600		324.00000 
 43692.65567		 932.52561			42760.13006		229.54400		875.00000 
 43692.65567		 305.27265			43387.38302		70.24600		324.00000 
 43692.65567		 932.52561			42760.13006		229.54400		875.00000 
 43692.65567		 305.27265			43387.38302		70.24600		324.00000 
 43692.65567		 932.52561			42760.13006		229.54400		875.00000 
 43692.65567		 305.27265			43387.38302		70.24600		324.00000 
 43692.65567		 932.52561			42760.13006		229.54400		875.00000 
 43692.65567		 305.27265			43387.38302		70.24600		324.00000 
 43692.65567		 932.52561			42760.13006		229.54400		875.00000 
 43692.65567		 305.27265			43387.38302		70.24600		324.00000 
 43692.65567		 932.52561			42760.13006		228.94600		875.00000 
 43692.65567		 305.27265			43387.38302		70.24600		324.00000 
 43692.65567		 932.52561			42760.13006		228.94600		875.00000 
 43692.65567		 305.27265			43387.38302		70.24600		324.00000 
 43692.65567		 932.52561			42760.13006		228.94600		875.00000 
 43692.65567		 305.27265			43387.38302		70.24600		324.00000 
 43692.65567		 932.52561			42760.13006		228.94600		875.00000 
 43692.65567		 305.27265			43387.38302		70.24600		324.00000 
 43692.65567		 932.52561			42760.13006		228.94600		875.00000 
 43692.65567		 305.27265			43387.38302		70.24600		324.00000 
 43692.65567		 932.52561			42760.13006		228.94600		875.00000 
 43692.65567		 305.27265			43387.38302		70.24600		324.00000 
 43692.65567		 932.52561			42760.13006		228.94600		875.00000 
 43692.65567		 305.27265			43387.38302		70.24600		324.00000 
 43692.65567		 932.52561			42760.13006		228.94600		875.00000 
 43692.65567		 305.27265			43387.38302		70.24600		324.00000 
 43692.65567		 932.52561			42760.13006		228.94600		875.00000 
 43692.65567		 305.27265			43387.38302		70.24600		324.00000 
 43692.65567		 932.52561			42760.13006		228.94600		875.00000 
 43692.65567		 305.27265			43387.38302		70.24600		324.00000 
 43692.65567		 932.52561			42760.13006		228.94600		875.00000 
 43692.65567		 305.27265			43387.38302		70.24600		324.00000 
 43692.65567		 932.52561			42760.13006		228.94600		875.00000 
 43692.65567		 305.27265			43387.38302		70.24600		324.00000 
 43692.65567		 932.52561			42760.13006		228.94600		875.00000 
 43692.65567		 305.27265			43387.38302		70.24600		324.00000 
 43692.65567		 932.52561			42760.13006		228.94600		875.00000 
 43692.65567		 305.27265			43387.38302		70.24600		324.00000 
 43692.65567		 932.52561			42760.13006		228.94600		875.00000 
 43692.65567		 305.27265			43387.38302		70.24600		324.00000 
 43692.65567		 932.52561			42760.13006		228.94600		875.00000 
 43692.65567		 305.27265			43387.38302		70.24600		324.00000 
 43692.65567		 932.52561			42760.13006		228.94600		875.00000 
 43692.65567		 305.27265			43387.38302		70.24600		324.00000 
 43692.65567		 932.52561			42760.13006		228.94600		875.00000 
 43692.65567		 305.27265			43387.38302		70.24600		324.00000 
 43692.65567		 932.52561			42760.13006		228.94600		875.00000 
 43692.65567		 305.27265			43387.38302		70.24600		324.00000 
 43692.65567		 932.52561			42760.13006		228.94600		875.00000 
 43692.65567		 305.27265			43387.38302		70.24600		324.00000 
 43692.65567		 932.52561			42760.13006		228.94600		875.00000 
 43692.65567		 305.27265			43387.38302		70.24600		324.00000 
 43692.65567		 932.52561			42760.13006		228.94600		875.00000 
 43692.65567		 305.27265			43387.38302		70.24600		324.00000 
 43692.65567		 932.52561			42760.13006		228.94600		875.00000 
 43692.65567		 305.27265			43387.38302		70.24600		324.00000 
 43692.65567		 932.52561			42760.13006		228.94600		875.00000 
 43692.65567		 305.27265			43387.38302		70.24600		324.00000 
 43692.65567		 932.52561			42760.13006		228.94600		875.00000 
 43692.65567		 305.27265			43387.38302		70.24600		324.00000 
 43692.65567		 932.52561			42760.13006		228.94600		875.00000 
 43692.65567		 305.27265			43387.38302		70.24600		324.00000 
 43692.65567		 932.52561			42760.13006		228.94600		875.00000 
 43692.65567		 305.27265			43387.38302		70.24600		324.00000 
 43692.65567		 932.52561			42760.13006		228.94600		875.00000 
 43692.65567		 305.27265			43387.38302		70.24600		324.00000 
 43692.65567		 932.52561			42760.13006		228.94600		875.00000 
 43692.65567		 305.27265			43387.38302		70.24600		324.00000 
 43692.65567		 932.52561			42760.13006		228.94600		875.00000 
 43692.65567		 305.27265			43387.38302		70.24600		324.00000 
 43692.65567		 932.52561			42760.13006		228.94600		875.00000 
 43692.65567		 305.27265			43387.38302		70.24600		324.00000 
 43692.65567		 932.52561			42760.13006		228.94600		875.00000 
 43692.65567		 305.27265			43387.38302		70.24600		324.00000 
 43692.65567		 932.52561			42760.13006		228.94600		875.00000 
 43692.65567		 305.27265			43387.38302		70.24600		324.00000 
 43692.65567		 932.52561			42760.13006		228.94600		875.00000 
 43692.65567		 305.27265			43387.38302		70.24600		324.00000 
 43692.65567		 932.52561			42760.13006		228.94600		875.00000 
 43692.65567		 305.27265			43387.38302		70.24600		324.00000 
 43692.65567		 932.52561			42760.13006		228.94600		875.00000 
 43692.65567		 305.27265			43387.38302		70.24600		324.00000 
 43692.65567		 932.52561			42760.13006		228.94600		875.00000 
 43692.65567		 305.27265			43387.38302		70.24600		324.00000 
 43692.65567		 932.52561			42760.13006		228.94600		875.00000 
 43692.65567		 305.27265			43387.38302		70.24600		324.00000 
 43692.65567		 932.52561			42760.13006		228.94600		875.00000 
 43692.65567		 305.27265			43387.38302		70.24600		324.00000 
 43692.65567		 932.52561			42760.13006		228.94600		875.00000 
 43692.65567		 305.27265			43387.38302		70.24600		324.00000 
 43692.65567		 932.52561			42760.13006		228.94600		875.00000 
 43692.65567		 305.27265			43387.38302		70.24600		324.00000 
 43692.65567		 932.52561			42760.13006		228.94600		875.00000 
 43692.65567		 305.27265			43387.38302		70.24600		324.00000 
 43692.65567		 932.52561			42760.13006		228.94600		875.00000 
 43692.65567		 305.27265			43387.38302		70.24600		324.00000 
 43692.65567		 932.52561			42760.13006		228.94600		875.00000 
 43692.65567		 305.27265			43387.38302		70.24600		324.00000 
 43692.65567		 932.52561			42760.13006		228.94600		875.00000 
 43692.65567		 305.27265			43387.38302		70.24600		324.00000 
 43692.65567		 932.52561			42760.13006		228.94600		875.00000 
 43692.65567		 305.27265			43387.38302		70.24600		324.00000 
 43692.65567		 932.52561			42760.13006		228.94600		875.00000 
 43692.65567		 305.27265			43387.38302		70.24600		324.00000 
 43692.65567		 932.52561			42760.13006		228.94600		875.00000 
 43692.65567		 305.27265			43387.38302		70.24600		324.00000 
 43692.65567		 932.52561			42760.13006		228.94600		875.00000 
 43692.65567		 305.27265			43387.38302		70.24600		324.00000 
 43692.65567		 932.52561			42760.13006		228.94600		875.00000 
 43692.65567		 305.27265			43387.38302		70.24600		324.00000 
 43692.65567		 932.52561			42760.13006		228.94600		875.00000 
 43692.65567		 305.27265			43387.38302		70.24600		324.00000 
 43692.65567		 932.52561			42760.13006		228.94600		875.00000 
 43692.65567		 305.27265			43387.38302		70.24600		324.00000 
 43692.65567		 932.52561			42760.13006		228.94600		875.00000 
 43692.65567		 305.27265			43387.38302		70.24600		324.00000 
 43692.65567		 932.52561			42760.13006		228.94600		875.00000 
 43692.65567		 305.27265			43387.38302		70.24600		324.00000 
 43692.65567		 932.52561			42760.13006		228.94600		875.00000 
 43692.65567		 305.27265			43387.38302		70.24600		324.00000 
 43692.65567		 932.52561			42760.13006		228.94600		875.00000 
 43692.65567		 305.27265			43387.38302		70.24600		324.00000 
 43692.65567		 932.52561			42760.13006		228.94600		875.00000 
 43692.65567		 305.27265			43387.38302		70.24600		324.00000 
 43692.65567		 932.52561			42760.13006		228.94600		875.00000 
 43692.65567		 305.27265			43387.38302		70.24600		324.00000 
 43692.65567		 932.52561			42760.13006		228.94600		875.00000 
 43692.65567		 305.27265			43387.38302		70.24600		324.00000 
 43692.65567		 932.52561			42760.13006		228.94600		875.00000 
 43692.65567		 305.27265			43387.38302		70.24600		324.00000 
 43692.65567		 932.52561			42760.13006		228.94600		875.00000 
 43692.65567		 305.27265			43387.38302		70.24600		324.00000 
 43692.65567		 932.52561			42760.13006		228.94600		875.00000 
 43692.65567		 305.27265			43387.38302		70.24600		324.00000 
 43692.65567		 932.52561			42760.13006		228.94600		875.00000 
 43692.65567		 305.27265			43387.38302		70.24600		324.00000 
 43692.65567		 932.52561			42760.13006		228.94600		875.00000 
 43692.65567		 305.27265			43387.38302		70.24600		324.00000 
 43692.65567		 932.52561			42760.13006		228.94600		875.00000 
 43692.65567		 305.27265			43387.38302		70.24600		324.00000 
 43692.65567		 932.52561			42760.13006		228.94600		875.00000 
 43692.65567		 305.27265			43387.38302		70.24600		324.00000 
 43692.65567		 932.52561			42760.13006		228.94600		875.00000 
 43692.65567		 305.27265			43387.38302		70.24600		324.00000 
 43692.65567		 932.52561			42760.13006		228.94600		875.00000 
 43692.65567		 305.27265			43387.38302		70.24600		324.00000 
 43692.65567		 932.52561			42760.13006		228.94600		875.00000 
 43692.65567		 305.27265			43387.38302		70.24600		324.00000 
 43692.65567		 932.52561			42760.13006		228.94600		875.00000 
 43692.65567		 305.27265			43387.38302		70.24600		324.00000 
 43692.65567		 932.52561			42760.13006		228.94600		875.00000 
 43692.65567		 305.27265			43387.38302		70.24600		324.00000 
 43692.65567		 932.52561			42760.13006		228.94600		875.00000 
 43692.65567		 305.27265			43387.38302		70.24600		324.00000 
 43692.65567		 932.52561			42760.13006		228.94600		875.00000 
 43692.65567		 305.27265			43387.38302		70.24600		324.00000 
 43692.65567		 932.52561			42760.13006		228.94600		875.00000 
 43692.65567		 305.27265			43387.38302		70.24600		324.00000 
 43692.65567		 932.52561			42760.13006		228.94600		875.00000 
 43692.65567		 305.27265			43387.38302		70.24600		324.00000 
 43692.65567		 932.52561			42760.13006		228.94600		875.00000 
 43692.65567		 305.27265			43387.38302		70.24600		324.00000 
 43692.65567		 932.52561			42760.13006		228.94600		875.00000 
 43692.65567		 305.27265			43387.38302		70.24600		324.00000 
 43692.65567		 932.52561			42760.13006		228.94600		875.00000 
 43692.65567		 305.27265			43387.38302		70.24600		324.00000 
 43692.65567		 932.52561			42760.13006		228.94600		875.00000 
 43692.65567		 305.27265			43387.38302		70.24600		324.00000 
 43692.65567		 932.52561			42760.13006		228.94600		875.00000 
 43692.65567		 305.27265			43387.38302		70.24600		324.00000 
 43692.65567		 932.52561			42760.13006		228.94600		875.00000 
 43692.65567		 305.27265			43387.38302		70.24600		324.00000 
 43692.65567		 932.52561			42760.13006		228.94600		875.00000 
 43692.65567		 305.27265			43387.38302		70.24600		324.00000 
 43692.65567		 932.52561			42760.13006		228.94600		875.00000 
 43692.65567		 305.27265			43387.38302		70.24600		324.00000 
 43692.65567		 932.52561			42760.13006		228.94600		875.00000 
 43692.65567		 305.27265			43387.38302		70.24600		324.00000 
 43692.65567		 932.52561			42760.13006		228.94600		875.00000 
 43692.65567		 305.27265			43387.38302		70.24600		324.00000 
 43692.65567		 932.52561			42760.13006		228.94600		875.00000 
 43692.65567		 305.27265			43387.38302		70.24600		324.00000 
 43692.65567		 932.52561			42760.13006		228.94600		875.00000 
 43692.65567		 305.27265			43387.38302		70.24600		324.00000 
 43692.65567		 932.52561			42760.13006		228.94600		875.00000 
 43692.65567		 305.27265			43387.38302		70.24600		324.00000 
 43692.65567		 932.52561			42760.13006		228.94600		875.00000 
 43692.65567		 305.27265			43387.38302		70.24600		324.00000 
 43692.65567		 932.52561			42760.13006		228.94600		875.00000 
 43692.65567		 305.27265			43387.38302		70.24600		324.00000 
 43692.65567		 932.52561			42760.13006		228.94600		875.00000 
 43692.65567		 305.27265			43387.38302		70.24600		324.00000 
 43692.65567		 932.52561			42760.13006		228.94600		875.00000 
 43692.65567		 305.27265			43387.38302		70.24600		324.00000 
 43692.65567		 932.52561			42760.13006		228.94600		875.00000 
 43692.65567		 305.27265			43387.38302		70.24600		324.00000 
 43692.65567		 932.52561			42760.13006		228.94600		875.00000 
 43692.65567		 305.27265			43387.38302		70.24600		324.00000 
 43692.65567		 932.52561			42760.13006		228.94600		875.00000 
 43692.65567		 305.27265			43387.38302		70.24600		324.00000 
 43692.65567		 932.52561			42760.13006		228.94600		875.00000 
 43692.65567		 305.27265			43387.38302		70.24600		324.00000 
 43692.65567		 932.52561			42760.13006		228.94600		875.00000 
 43692.65567		 305.27265			43387.38302		70.24600		324.00000 
 43692.65567		 932.52561			42760.13006		228.94600		875.00000 
 43692.65567		 305.27265			43387.38302		70.24600		324.00000 
 43692.65567		 932.52561			42760.13006		228.94600		875.00000 
 43692.65567		 305.27265			43387.38302		70.24600		324.00000 
 43692.65567		 932.52561			42760.13006		228.94600		875.00000 
 43692.65567		 305.27265			43387.38302		70.24600		324.00000 
 43692.65567		 932.52561			42760.13006		228.94600		875.00000 
 43692.65567		 305.27265			43387.38302		70.24600		324.00000 
 43692.65567		 932.52561			42760.13006		228.94600		875.00000 
 43692.65567		 305.27265			43387.38302		70.24600		324.00000 
 43692.65567		 932.52561			42760.13006		228.94600		875.00000 
 43692.65567		 305.27265			43387.38302		70.24600		324.00000 
 43692.65567		 932.52561			42760.13006		228.94600		875.00000 
 43692.65567		 305.27265			43387.38302		70.24600		324.00000 
 43692.65567		 932.52561			42760.13006		228.94600		875.00000 
 43692.65567		 305.27265			43387.38302		70.24600		324.00000 
 43692.65567		 932.52561			42760.13006		228.94600		875.00000 
 43692.65567		 305.27265			43387.38302		70.24600		324.00000 
 43692.65567		 932.52561			42760.13006		228.94600		875.00000 
 43692.65567		 305.27265			43387.38302		70.24600		324.00000 
 43692.65567		 932.52561			42760.13006		228.94600		875.00000 
 43692.65567		 305.27265			43387.38302		70.24600		324.00000 
 43692.65567		 932.52561			42760.13006		228.94600		875.00000 
 43692.65567		 305.27265			43387.38302		70.24600		324.00000 
 43692.65567		 932.52561			42760.13006		228.94600		875.00000 
 43692.65567		 305.27265			43387.38302		70.24600		324.00000 
 43692.65567		 932.52561			42760.13006		228.94600		875.00000 
 43692.65567		 305.27265			43387.38302		70.24600		324.00000 
 43692.65567		 932.52561			42760.13006		228.94600		875.00000 
 43692.65567		 305.27265			43387.38302		70.24600		324.00000 
 43692.65567		 932.52561			42760.13006		228.94600		875.00000 
 43692.65567		 305.27265			43387.38302		70.24600		324.00000 
 43692.65567		 932.52561			42760.13006		228.94600		875.00000 
 43692.65567		 305.27265			43387.38302		70.24600		324.00000 
 43692.65567		 932.52561			42760.13006		228.94600		875.00000 
 43692.65567		 305.27265			43387.38302		70.24600		324.00000 
 43692.65567		 932.52561			42760.13006		228.94600		875.00000 
 43692.65567		 305.27265			43387.38302		70.24600		324.00000 
 43692.65567		 932.52561			42760.13006		228.94600		875.00000 
 43692.65567		 305.27265			43387.38302		70.24600		324.00000 
 43692.65567		 932.52561			42760.13006		228.94600		875.00000 
 43692.65567		 305.27265			43387.38302		70.24600		324.00000 
 43692.65567		 932.52561			42760.13006		228.94600		875.00000 
 43692.65567		 305.27265			43387.38302		70.24600		324.00000 
 43692.65567		 932.52561			42760.13006		228.94600		875.00000 
 43692.65567		 305.27265			43387.38302		70.24600		324.00000 
 43692.65567		 932.52561			42760.13006		228.94600		875.00000 
 43692.65567		 305.27265			43387.38302		70.24600		324.00000 
 43692.65567		 932.52561			42760.13006		228.94600		875.00000 
 43692.65567		 305.27265			43387.38302		70.24600		324.00000 
 43692.65567		 932.52561			42760.13006		228.94600		875.00000 
 43692.65567		 305.27265			43387.38302		70.24600		324.00000 
 43692.65567		 932.52561			42760.13006		228.94600		875.00000 
 43692.65567		 305.27265			43387.38302		70.24600		324.00000 
 43692.65567		 932.52561			42760.13006		228.94600		875.00000 
 43692.65567		 305.27265			43387.38302		70.24600		324.00000 
 43692.65567		 932.52561			42760.13006		228.94600		875.00000 
 43692.65567		 305.27265			43387.38302		70.24600		324.00000 
 43692.65567		 932.52561			42760.13006		228.94600		875.00000 
 43692.65567		 305.27265			43387.38302		70.24600		324.00000 
 43692.65567		 932.52561			42760.13006		228.94600		875.00000 
 43692.65567		 305.27265			43387.38302		70.24600		324.00000 
 43692.65567		 932.52561			42760.13006		228.94600		875.00000 
 43692.65567		 305.27265			43387.38302		70.24600		324.00000 
 43692.65567		 932.52561			42760.13006		228.94600		875.00000 
 43692.65567		 305.27265			43387.38302		70.24600		324.00000 
 43692.65567		 932.52561			42760.13006		229.54400		875.00000 
 43692.65567		 305.27265			43387.38302		70.24600		324.00000 
 43692.65567		 932.52561			42760.13006		229.54400		875.00000 
 43692.65567		 305.27265			43387.38302		70.24600		324.00000 
 43692.65567		 932.52561			42760.13006		229.54400		875.00000 
 43692.65567		 305.27265			43387.38302		70.24600		324.00000 
 43692.65567		 932.52561			42760.13006		229.54400		875.00000 
 43692.65567		 305.27265			43387.38302		70.24600		324.00000 
 43692.65567		 932.52561			42760.13006		229.54400		875.00000 
 43692.65567		 305.27265			43387.38302		70.24600		324.00000 
 43692.65567		 932.52561			42760.13006		229.54400		875.00000 
 43692.65567		 305.27265			43387.38302		70.24600		324.00000 
 43692.65567		 932.52561			42760.13006		229.54400		875.00000 
 43692.65567		 305.27265			43387.38302		70.24600		324.00000 
 43692.65567		 932.52561			42760.13006		229.54400		875.00000 
 43692.65567		 305.27265			43387.38302		70.24600		324.00000 
 43692.65567		 932.52561			42760.13006		229.54400		875.00000 
 43692.65567		 305.27265			43387.38302		70.24600		324.00000 
 43692.65567		 932.52561			42760.13006		229.54400		875.00000 
 43692.65567		 305.27265			43387.38302		70.24600		324.00000 
 43692.65567		 932.52561			42760.13006		229.54400		875.00000 
 43692.65567		 305.27265			43387.38302		70.24600		324.00000 
 43692.65567		 932.52561			42760.13006		229.54400		875.00000 
 43692.65567		 305.27265			43387.38302		70.24600		324.00000 
 43692.65567		 932.52561			42760.13006		229.54400		875.00000 
 43692.65567		 305.27265			43387.38302		70.24600		324.00000 
 43692.65567		 932.52561			42760.13006		229.54400		875.00000 
 43692.65567		 305.27265			43387.38302		70.24600		324.00000 
 43692.65567		 932.52561			42760.13006		229.54400		875.00000 
 43692.65567		 305.27265			43387.38302		70.24600		324.00000 
 43692.65567		 932.52561			42760.13006		229.54400		875.00000 
 43692.65567		 305.27265			43387.38302		70.24600		324.00000 
 43692.65567		 932.52561			42760.13006		229.54400		875.00000 
 43692.65567		 305.27265			43387.38302		70.24600		324.00000 
 43692.65567		 932.52561			42760.13006		229.54400		875.00000 
 43692.65567		 305.27265			43387.38302		70.24600		324.00000 
 43692.65567		 932.52561			42760.13006		229.54400		875.00000 
 43692.65567		 305.27265			43387.38302		70.24600		324.00000 
 43692.65567		 932.52561			42760.13006		229.54400		875.00000 
 43692.65567		 305.27265			43387.38302		70.24600		324.00000 
 43692.65567		 932.52561			42760.13006		229.54400		875.00000 
 43692.65567		 305.27265			43387.38302		70.24600		324.00000 
 43692.65567		 932.52561			42760.13006		229.54400		875.00000 
 43692.65567		 305.27265			43387.38302		70.24600		324.00000 
 43692.65567		 932.52561			42760.13006		229.54400		875.00000 
 43692.65567		 305.27265			43387.38302		70.24600		324.00000 
 43692.65567		 932.52561			42760.13006		229.54400		875.00000 
 43692.65567		 305.27265			43387.38302		70.24600		324.00000 
 43692.65567		 932.52561			42760.13006		229.54400		875.00000 
 43692.65567		 305.27265			43387.38302		70.24600		324.00000 
 43692.65567		 932.52561			42760.13006		229.54400		875.00000 
 43692.65567		 305.27265			43387.38302		70.24600		324.00000 
 43692.65567		 932.52561			42760.13006		229.54400		875.00000 
 43692.65567		 305.27265			43387.38302		70.24600		324.00000 
 43692.65567		 932.52561			42760.13006		229.54400		875.00000 
 43692.65567		 305.27265			43387.38302		70.24600		324.00000 
 43692.65567		 932.52561			42760.13006		229.54400		875.00000 
 43692.65567		 305.27265			43387.38302		70.24600		324.00000 
 43692.65567		 932.52561			42760.13006		229.54400		875.00000 
 43692.65567		 305.27265			43387.38302		70.24600		324.00000 
 43692.65567		 932.52561			42760.13006		229.54400		875.00000 
 43692.65567		 305.27265			43387.38302		70.24600		324.00000 
 43692.65567		 932.52561			42760.13006		229.54400		875.00000 
 43692.65567		 305.27265			43387.38302		70.24600		324.00000 
 43692.65567		 932.52561			42760.13006		229.54400		875.00000 
 43692.65567		 305.27265			43387.38302		70.24600		324.00000 
 43692.65567		 932.52561			42760.13006		229.54400		875.00000 
 43692.65567		 305.27265			43387.38302		70.24600		324.00000 
 43692.65567		 932.52561			42760.13006		229.54400		875.00000 
 43692.65567		 305.27265			43387.38302		70.24600		324.00000 
 43692.65567		 932.52561			42760.13006		229.54400		875.00000 
 43692.65567		 305.27265			43387.38302		70.24600		324.00000 
 43692.65567		 932.52561			42760.13006		229.54400		875.00000 
 43692.65567		 305.27265			43387.38302		70.24600		324.00000 
 43692.65567		 932.52561			42760.13006		229.54400		875.00000 
 43692.65567		 305.27265			43387.38302		70.24600		324.00000 
 43692.65567		 932.52561			42760.13006		229.54400		875.00000 
 43692.65567		 305.27265			43387.38302		70.24600		324.00000 
 43692.65567		 932.52561			42760.13006		229.54400		875.00000 
 43692.65567		 305.27265			43387.38302		70.24600		324.00000 
 43692.65567		 932.52561			42760.13006		229.54400		875.00000 
 43692.65567		 305.27265			43387.38302		70.24600		324.00000 
 43692.65567		 932.52561			42760.13006		229.54400		875.00000 
 43692.65567		 305.27265			43387.38302		70.24600		324.00000 
 43692.65567		 932.52561			42760.13006		229.54400		875.00000 
 43692.65567		 305.27265			43387.38302		70.24600		324.00000 
 43692.65567		 932.52561			42760.13006		229.54400		875.00000 
 43692.65567		 305.27265			43387.38302		70.24600		324.00000 
 43692.65567		 932.52561			42760.13006		229.54400		875.00000 
 43692.65567		 305.27265			43387.38302		70.24600		324.00000 
 43692.65567		 932.52561			42760.13006		229.54400		875.00000 
 43692.65567		 305.27265			43387.38302		70.24600		324.00000 
 43692.65567		 932.52561			42760.13006		229.54400		875.00000 
 43692.65567		 305.27265			43387.38302		70.24600		324.00000 
 43692.65567		 932.52561			42760.13006		229.54400		875.00000 
 43692.65567		 305.27265			43387.38302		70.24600		324.00000 
 43692.65567		 932.52561			42760.13006		229.54400		875.00000 
 43692.65567		 305.27265			43387.38302		70.24600		324.00000 
 43692.65567		 932.52561			42760.13006		229.54400		875.00000 
 43692.65567		 305.27265			43387.38302		70.24600		324.00000 
 43692.65567		 932.52561			42760.13006		229.54400		875.00000 
 43692.65567		 305.27265			43387.38302		70.24600		324.00000 
 43692.65567		 932.52561			42760.13006		229.54400		875.00000 
 43692.65567		 305.27265			43387.38302		70.24600		324.00000 
 43692.65567		 932.52561			42760.13006		229.54400		875.00000 
 43692.65567		 305.27265			43387.38302		70.24600		324.00000 
 43692.65567		 932.52561			42760.13006		229.54400		875.00000 
 43692.65567		 305.27265			43387.38302		70.24600		324.00000 
 43692.65567		 932.52561			42760.13006		229.54400		875.00000 
 43692.65567		 305.27265			43387.38302		70.24600		324.00000 
 43692.65567		 932.52561			42760.13006		229.54400		875.00000 
 43692.65567		 305.27265			43387.38302		70.24600		324.00000 
 43692.65567		 932.52561			42760.13006		229.54400		875.00000 
 43692.65567		 305.27265			43387.38302		70.24600		324.00000 
 43692.65567		 932.52561			42760.13006		229.54400		875.00000 
 43692.65567		 305.27265			43387.38302		70.24600		324.00000 
 43692.65567		 932.52561			42760.13006		229.54400		875.00000 
 43692.65567		 305.27265			43387.38302		70.24600		324.00000 
 43692.65567		 932.52561			42760.13006		229.54400		875.00000 
 43692.65567		 305.27265			43387.38302		70.24600		324.00000 
 43692.65567		 932.52561			42760.13006		229.54400		875.00000 
 43692.65567		 305.27265			43387.38302		70.24600		324.00000 
 43692.65567		 932.52561			42760.13006		229.54400		875.00000 
 43692.65567		 305.27265			43387.38302		70.24600		324.00000 
 43692.65567		 932.52561			42760.13006		229.54400		875.00000 
 43692.65567		 305.27265			43387.38302		70.24600		324.00000 
 43692.65567		 932.52561			42760.13006		229.54400		875.00000 
 43692.65567		 305.27265			43387.38302		70.24600		324.00000 
 43692.65567		 932.52561			42760.13006		229.54400		875.00000 
 43692.65567		 305.27265			43387.38302		70.24600		324.00000 
 43692.65567		 932.52561			42760.13006		229.54400		875.00000 
 43692.65567		 305.27265			43387.38302		70.24600		324.00000 
 43692.65567		 932.52561			42760.13006		229.54400		875.00000 
 43692.65567		 305.27265			43387.38302		70.24600		324.00000 
 43692.65567		 932.52561			42760.13006		229.54400		875.00000 
 43692.65567		 305.27265			43387.38302		70.24600		324.00000 
 43692.65567		 932.52561			42760.13006		229.54400		875.00000 
 43692.65567		 305.27265			43387.38302		70.24600		324.00000 
 43692.65567		 932.52561			42760.13006		229.54400		875.00000 
 43692.65567		 305.27265			43387.38302		70.24600		324.00000 
 43692.65567		 932.52561			42760.13006		229.54400		875.00000 
 43692.65567		 305.27265			43387.38302		70.24600		324.00000 
 43692.65567		 932.52561			42760.13006		229.54400		875.00000 
 43692.65567		 305.27265			43387.38302		70.24600		324.00000 
 43692.65567		 932.52561			42760.13006		229.54400		875.00000 
 43692.65567		 305.27265			43387.38302		70.24600		324.00000 
 43692.65567		 932.52561			42760.13006		229.54400		875.00000 
 43692.65567		 305.27265			43387.38302		70.24600		324.00000 
 43692.65567		 932.52561			42760.13006		229.54400		875.00000 
 43692.65567		 305.27265			43387.38302		70.24600		324.00000 
 43692.65567		 932.52561			42760.13006		229.54400		875.00000 
 43692.65567		 305.27265			43387.38302		70.24600		324.00000 
 43692.65567		 932.52561			42760.13006		229.54400		875.00000 
 43692.65567		 305.27265			43387.38302		70.24600		324.00000 
 43692.65567		 932.52561			42760.13006		229.54400		875.00000 
 43692.65567		 305.27265			43387.38302		70.24600		324.00000 
 43692.65567		 932.52561			42760.13006		229.54400		875.00000 
 43692.65567		 305.27265			43387.38302		70.24600		324.00000 
 43692.65567		 932.52561			42760.13006		229.54400		875.00000 
 43692.65567		 305.27265			43387.38302		70.24600		324.00000 
 43692.65567		 932.52561			42760.13006		229.54400		875.00000 
 43692.65567		 305.27265			43387.38302		70.24600		324.00000 
 43692.65567		 932.52561			42760.13006		229.54400		875.00000 
 43692.65567		 305.27265			43387.38302		70.24600		324.00000 
 43692.65567		 932.52561			42760.13006		229.54400		875.00000 
 43692.65567		 305.27265			43387.38302		70.24600		324.00000 
 43692.65567		 932.52561			42760.13006		229.54400		875.00000 
 43692.65567		 305.27265			43387.38302		70.24600		324.00000 
 43692.65567		 932.52561			42760.13006		229.54400		875.00000 
 43692.65567		 305.27265			43387.38302		70.24600		324.00000 
 43692.65567		 932.52561			42760.13006		229.54400		875.00000 
 43692.65567		 305.27265			43387.38302		70.24600		324.00000 
 43692.65567		 932.52561			42760.13006		229.54400		875.00000 
 43692.65567		 305.27265			43387.38302		70.24600		324.00000 
 43692.65567		 932.52561			42760.13006		229.54400		875.00000 
 43692.65567		 305.27265			43387.38302		70.24600		324.00000 
 43692.65567		 932.52561			42760.13006		229.54400		875.00000 
 43692.65567		 305.27265			43387.38302		70.24600		324.00000 
 43692.65567		 932.52561			42760.13006		229.54400		875.00000 
 43692.65567		 305.27265			43387.38302		70.24600		324.00000 
 43692.65567		 932.52561			42760.13006		229.54400		875.00000 
 43692.65567		 305.27265			43387.38302		70.24600		324.00000 
 43692.65567		 932.52561			42760.13006		229.54400		875.00000 
 43692.65567		 305.27265			43387.38302		70.24600		324.00000 
 43692.65567		 932.52561			42760.13006		229.54400		875.00000 
 43692.65567		 305.27265			43387.38302		70.24600		324.00000 
 43692.65567		 932.52561			42760.13006		229.54400		875.00000 
 43692.65567		 305.27265			43387.38302		70.24600		324.00000 
 43692.65567		 932.52561			42760.13006		229.54400		875.00000 
 43692.65567		 305.27265			43387.38302		70.24600		324.00000 
 43692.65567		 932.52561			42760.13006		229.54400		875.00000 
 43692.65567		 305.27265			43387.38302		70.24600		324.00000 
 43692.65567		 932.52561			42760.13006		229.54400		875.00000 
 43692.65567		 305.27265			43387.38302		70.24600		324.00000 
 43692.65567		 932.52561			42760.13006		229.54400		875.00000 
 43692.65567		 305.27265			43387.38302		70.24600		324.00000 
 43692.65567		 932.52561			42760.13006		229.54400		875.00000 
 43692.65567		 305.27265			43387.38302		70.24600		324.00000 
 43692.65567		 932.52561			42760.13006		229.54400		875.00000 
 43692.65567		 305.27265			43387.38302		70.24600		324.00000 
 43692.65567		 932.52561			42760.13006		229.54400		875.00000 
 43692.65567		 305.27265			43387.38302		70.24600		324.00000 
 43692.65567		 932.52561			42760.13006		229.54400		875.00000 
 43692.65567		 305.27265			43387.38302		70.24600		324.00000 
 43692.65567		 932.52561			42760.13006		229.54400		875.00000 
 43692.65567		 305.27265			43387.38302		70.24600		324.00000 
 43692.65567		 932.52561			42760.13006		229.54400		875.00000 
 43692.65567		 305.27265			43387.38302		70.24600		324.00000 
 43692.65567		 932.52561			42760.13006		229.54400		875.00000 
 43692.65567		 305.27265			43387.38302		70.24600		324.00000 
 43692.65567		 932.52561			42760.13006		229.54400		875.00000 
 43692.65567		 305.27265			43387.38302		70.24600		324.00000 
 43692.65567		 932.52561			42760.13006		229.54400		875.00000 
 43692.65567		 305.27265			43387.38302		70.24600		324.00000 
 43692.65567		 932.52561			42760.13006		229.54400		875.00000 
 43692.65567		 305.27265			43387.38302		70.24600		324.00000 
 43692.65567		 932.52561			42760.13006		229.54400		875.00000 
 43692.65567		 305.27265			43387.38302		70.24600		324.00000 
 43692.65567		 932.52561			42760.13006		229.54400		875.00000 
 43692.65567		 305.27265			43387.38302		70.24600		324.00000 
 43692.65567		 932.52561			42760.13006		229.54400		875.00000 
 43692.65567		 305.27265			43387.38302		70.24600		324.00000 
 43692.65567		 932.52561			42760.13006		229.54400		875.00000 
 43692.65567		 305.27265			43387.38302		70.24600		324.00000 
 43692.65567		 932.52561			42760.13006		229.54400		875.00000 
 43692.65567		 305.27265			43387.38302		70.24600		324.00000 
 43692.65567		 932.52561			42760.13006		229.54400		875.00000 
 43692.65567		 305.27265			43387.38302		70.24600		324.00000 
 43692.65567		 932.52561			42760.13006		229.54400		875.00000 
 43692.65567		 305.27265			43387.38302		70.24600		324.00000 
 43692.65567		 932.52561			42760.13006		229.54400		875.00000 
 43692.65567		 305.27265			43387.38302		70.24600		324.00000 
 43692.65567		 932.52561			42760.13006		229.54400		875.00000 
 43692.65567		 305.27265			43387.38302		70.24600		324.00000 
 43692.65567		 932.52561			42760.13006		229.54400		875.00000 
 43692.65567		 305.27265			43387.38302		70.24600		324.00000 
 43692.65567		 932.52561			42760.13006		229.54400		875.00000 
 43692.65567		 305.27265			43387.38302		70.24600		324.00000 
 43692.65567		 932.52561			42760.13006		229.54400		875.00000 
 43692.65567		 305.27265			43387.38302		70.24600		324.00000 
 43692.65567		 932.52561			42760.13006		229.54400		875.00000 
 43692.65567		 305.27265			43387.38302		70.24600		324.00000 
 43692.65567		 932.52561			42760.13006		229.54400		875.00000 
 43692.65567		 305.27265			43387.38302		70.24600		324.00000 
 43692.65567		 932.52561			42760.13006		229.54400		875.00000 
 43692.65567		 305.27265			43387.38302		70.24600		324.00000 
 43692.65567		 932.52561			42760.13006		229.54400		875.00000 
 43692.65567		 305.27265			43387.38302		70.24600		324.00000 
 43692.65567		 932.52561			42760.13006		229.54400		875.00000 
 43692.65567		 305.27265			43387.38302		70.24600		324.00000 
 43692.65567		 932.52561			42760.13006		229.54400		875.00000 
 43692.65567		 305.27265			43387.38302		70.24600		324.00000 
 43692.65567		 932.52561			42760.13006		229.54400		875.00000 
 43692.65567		 305.27265			43387.38302		70.24600		324.00000 
 43692.65567		 932.52561			42760.13006		229.54400		875.00000 
 43692.65567		 305.27265			43387.38302		70.24600		324.00000 
 43692.65567		 932.52561			42760.13006		229.54400		875.00000 
 43692.65567		 305.27265			43387.38302		70.24600		324.00000 
 43692.65567		 932.52561			42760.13006		228.94600		875.00000 
 43692.65567		 305.27265			43387.38302		70.24600		324.00000 
 43692.65567		 932.52561			42760.13006		228.94600		875.00000 
 43692.65567		 305.27265			43387.38302		70.24600		324.00000 
 43692.65567		 932.52561			42760.13006		228.94600		875.00000 
 43692.65567		 305.27265			43387.38302		70.24600		324.00000 
 43692.65567		 932.52561			42760.13006		228.94600		875.00000 
 43692.65567		 305.27265			43387.38302		70.24600		324.00000 
 43692.65567		 932.52561			42760.13006		228.94600		875.00000 
 43692.65567		 305.27265			43387.38302		70.24600		324.00000 
 43692.65567		 932.52561			42760.13006		228.94600		875.00000 
 43692.65567		 305.27265			43387.38302		70.24600		324.00000 
 43692.65567		 932.52561			42760.13006		228.94600		875.00000 
 43692.65567		 305.27265			43387.38302		70.24600		324.00000 
 43692.65567		 932.52561			42760.13006		228.94600		875.00000 
 43692.65567		 305.27265			43387.38302		70.24600		324.00000 
 43692.65567		 932.52561			42760.13006		228.94600		875.00000 
 43692.65567		 305.27265			43387.38302		70.24600		324.00000 
 43692.65567		 932.52561			42760.13006		228.94600		875.00000 
 43692.65567		 305.27265			43387.38302		70.24600		324.00000 
 43692.65567		 932.52561			42760.13006		228.94600		875.00000 
 43692.65567		 305.27265			43387.38302		70.24600		324.00000 
 43692.65567		 932.52561			42760.13006		228.94600		875.00000 
 43692.65567		 305.27265			43387.38302		70.24600		324.00000 
 43692.65567		 932.52561			42760.13006		228.94600		875.00000 
 43692.65567		 305.27265			43387.38302		70.24600		324.00000 
 43692.65567		 932.52561			42760.13006		228.94600		875.00000 
 43692.65567		 305.27265			43387.38302		70.24600		324.00000 
 43692.65567		 932.52561			42760.13006		228.94600		875.00000 
 43692.65567		 305.27265			43387.38302		70.24600		324.00000 
 43692.65567		 932.52561			42760.13006		228.94600		875.00000 
 43692.65567		 305.27265			43387.38302		70.24600		324.00000 
 43692.65567		 932.52561			42760.13006		228.94600		875.00000 
 43692.65567		 305.27265			43387.38302		70.24600		324.00000 
 43692.65567		 932.52561			42760.13006		228.94600		875.00000 
 43692.65567		 305.27265			43387.38302		70.24600		324.00000 
 43692.65567		 932.52561			42760.13006		228.94600		875.00000 
 43692.65567		 305.27265			43387.38302		70.24600		324.00000 
 43692.65567		 932.52561			42760.13006		228.94600		875.00000 
 43692.65567		 305.27265			43387.38302		70.24600		324.00000 
 43692.65567		 932.52561			42760.13006		228.94600		875.00000 
 43692.65567		 305.27265			43387.38302		70.24600		324.00000 
 43692.65567		 932.52561			42760.13006		228.94600		875.00000 
 43692.65567		 305.27265			43387.38302		70.24600		324.00000 
 43692.65567		 932.52561			42760.13006		228.94600		875.00000 
 43692.65567		 305.27265			43387.38302		70.24600		324.00000 
 43692.65567		 932.52561			42760.13006		228.94600		875.00000 
 43692.65567		 305.27265			43387.38302		70.24600		324.00000 
 43692.65567		 932.52561			42760.13006		228.94600		875.00000 
 43692.65567		 305.27265			43387.38302		70.24600		324.00000 
 43692.65567		 932.52561			42760.13006		228.94600		875.00000 
 43692.65567		 305.27265			43387.38302		70.24600		324.00000 
 43692.65567		 932.52561			42760.13006		228.94600		875.00000 
 43692.65567		 305.27265			43387.38302		70.24600		324.00000 
 43692.65567		 932.52561			42760.13006		228.94600		875.00000 
 43692.65567		 305.27265			43387.38302		70.24600		324.00000 
 43692.65567		 932.52561			42760.13006		228.94600		875.00000 
 43692.65567		 305.27265			43387.38302		70.24600		324.00000 
 43692.65567		 932.52561			42760.13006		228.94600		875.00000 
 43692.65567		 305.27265			43387.38302		70.24600		324.00000 
 43692.65567		 932.52561			42760.13006		228.94600		875.00000 
 43692.65567		 305.27265			43387.38302		70.24600		324.00000 
 43692.65567		 932.52561			42760.13006		228.94600		875.00000 
 43692.65567		 305.27265			43387.38302		70.24600		324.00000 
 43692.65567		 932.52561			42760.13006		228.94600		875.00000 
 43692.65567		 305.27265			43387.38302		70.24600		324.00000 
 43692.65567		 932.52561			42760.13006		228.94600		875.00000 
 43692.65567		 305.27265			43387.38302		70.24600		324.00000 
 43692.65567		 932.52561			42760.13006		228.94600		875.00000 
 43692.65567		 305.27265			43387.38302		70.24600		324.00000 
 43692.65567		 932.52561			42760.13006		228.94600		875.00000 
 43692.65567		 305.27265			43387.38302		70.24600		324.00000 
 43692.65567		 932.52561			42760.13006		228.94600		875.00000 
 43692.65567		 305.27265			43387.38302		70.24600		324.00000 
 43692.65567		 932.52561			42760.13006		228.94600		875.00000 
 43692.65567		 305.27265			43387.38302		70.24600		324.00000 
 43692.65567		 932.52561			42760.13006		228.94600		875.00000 
 43692.65567		 305.27265			43387.38302		70.24600		324.00000 
 43692.65567		 932.52561			42760.13006		228.94600		875.00000 
 43692.65567		 305.27265			43387.38302		70.24600		324.00000 
 43692.65567		 932.52561			42760.13006		228.94600		875.00000 
 43692.65567		 305.27265			43387.38302		70.24600		324.00000 
 43692.65567		 932.52561			42760.13006		228.94600		875.00000 
 43692.65567		 305.27265			43387.38302		70.24600		324.00000 
 43692.65567		 932.52561			42760.13006		228.94600		875.00000 
 43692.65567		 305.27265			43387.38302		70.24600		324.00000 
 43692.65567		 932.52561			42760.13006		228.94600		875.00000 
 43692.65567		 305.27265			43387.38302		70.24600		324.00000 
 43692.65567		 932.52561			42760.13006		228.94600		875.00000 
 43692.65567		 305.27265			43387.38302		70.24600		324.00000 
 43692.65567		 932.52561			42760.13006		228.94600		875.00000 
 43692.65567		 305.27265			43387.38302		70.24600		324.00000 
 43692.65567		 932.52561			42760.13006		228.94600		875.00000 
 43692.65567		 305.27265			43387.38302		70.24600		324.00000 
 43692.65567		 932.52561			42760.13006		228.94600		875.00000 
 43692.65567		 305.27265			43387.38302		70.24600		324.00000 
 43692.65567		 932.52561			42760.13006		228.94600		875.00000 
 43692.65567		 305.27265			43387.38302		70.24600		324.00000 
 43692.65567		 932.52561			42760.13006		228.94600		875.00000 
 43692.65567		 305.27265			43387.38302		70.24600		324.00000 
 43692.65567		 932.52561			42760.13006		228.94600		875.00000 
 43692.65567		 305.27265			43387.38302		70.24600		324.00000 
 43692.65567		 932.52561			42760.13006		228.94600		875.00000 
 43692.65567		 305.27265			43387.38302		70.24600		324.00000 
 43692.65567		 932.52561			42760.13006		228.94600		875.00000 
 43692.65567		 305.27265			43387.38302		70.24600		324.00000 
 43692.65567		 932.52561			42760.13006		228.94600		875.00000 
 43692.65567		 305.27265			43387.38302		70.24600		324.00000 
 43692.65567		 932.52561			42760.13006		228.94600		875.00000 
 43692.65567		 305.27265			43387.38302		70.24600		324.00000 
 43692.65567		 932.52561			42760.13006		228.94600		875.00000 
 43692.65567		 305.27265			43387.38302		70.24600		324.00000 
 43692.65567		 932.52561			42760.13006		228.94600		875.00000 
 43692.65567		 305.27265			43387.38302		70.24600		324.00000 
 43692.65567		 932.52561			42760.13006		228.94600		875.00000 
 43692.65567		 305.27265			43387.38302		70.24600		324.00000 
 43692.65567		 932.52561			42760.13006		228.94600		875.00000 
 43692.65567		 305.27265			43387.38302		70.24600		324.00000 
 43692.65567		 932.52561			42760.13006		228.94600		875.00000 
 43692.65567		 305.27265			43387.38302		70.24600		324.00000 
 43692.65567		 932.52561			42760.13006		228.94600		875.00000 
 43692.65567		 305.27265			43387.38302		70.24600		324.00000 
 43692.65567		 932.52561			42760.13006		228.94600		875.00000 
 43692.65567		 305.27265			43387.38302		70.24600		324.00000 
 43692.65567		 932.52561			42760.13006		228.94600		875.00000 
 43692.65567		 305.27265			43387.38302		70.24600		324.00000 
 43692.65567		 932.52561			42760.13006		228.94600		875.00000 
 43692.65567		 305.27265			43387.38302		70.24600		324.00000 
 43692.65567		 932.52561			42760.13006		228.94600		875.00000 
 43692.65567		 305.27265			43387.38302		70.24600		324.00000 
 43692.65567		 932.52561			42760.13006		228.94600		875.00000 
 43692.65567		 305.27265			43387.38302		70.24600		324.00000 
 43692.65567		 932.52561			42760.13006		228.94600		875.00000 
 43692.65567		 305.27265			43387.38302		70.24600		324.00000 
 43692.65567		 932.52561			42760.13006		228.94600		875.00000 
 43692.65567		 305.27265			43387.38302		70.24600		324.00000 
 43692.65567		 932.52561			42760.13006		228.94600		875.00000 
 43692.65567		 305.27265			43387.38302		70.24600		324.00000 
 43692.65567		 932.52561			42760.13006		228.94600		875.00000 
 43692.65567		 305.27265			43387.38302		70.24600		324.00000 
 43692.65567		 932.52561			42760.13006		228.94600		875.00000 
 43692.65567		 305.27265			43387.38302		70.24600		324.00000 
 43692.65567		 932.52561			42760.13006		228.94600		875.00000 
 43692.65567		 305.27265			43387.38302		70.24600		324.00000 
 43692.65567		 932.52561			42760.13006		228.94600		875.00000 
 43692.65567		 305.27265			43387.38302		70.24600		324.00000 
 43692.65567		 932.52561			42760.13006		228.94600		875.00000 
 43692.65567		 305.27265			43387.38302		70.24600		324.00000 
 43692.65567		 932.52561			42760.13006		228.94600		875.00000 
 43692.65567		 305.27265			43387.38302		70.24600		324.00000 
 43692.65567		 932.52561			42760.13006		228.94600		875.00000 
 43692.65567		 305.27265			43387.38302		70.24600		324.00000 
 43692.65567		 932.52561			42760.13006		228.94600		875.00000 
 43692.65567		 305.27265			43387.38302		70.24600		324.00000 
 43692.65567		 932.52561			42760.13006		228.94600		875.00000 
 43692.65567		 305.27265			43387.38302		70.24600		324.00000 
 43692.65567		 932.52561			42760.13006		228.94600		875.00000 
 43692.65567		 305.27265			43387.38302		70.24600		324.00000 
 43692.65567		 932.52561			42760.13006		228.94600		875.00000 
 43692.65567		 305.27265			43387.38302		70.24600		324.00000 
 43692.65567		 932.52561			42760.13006		228.94600		875.00000 
 43692.65567		 305.27265			43387.38302		70.24600		324.00000 
 43692.65567		 932.52561			42760.13006		228.94600		875.00000 
 43692.65567		 305.27265			43387.38302		70.24600		324.00000 
 43692.65567		 932.52561			42760.13006		228.94600		875.00000 
 43692.65567		 305.27265			43387.38302		70.24600		324.00000 
 43692.65567		 932.52561			42760.13006		228.94600		875.00000 
 43692.65567		 305.27265			43387.38302		70.24600		324.00000 
 43692.65567		 932.52561			42760.13006		228.94600		875.00000 
 43692.65567		 305.27265			43387.38302		70.24600		324.00000 
 43692.65567		 932.52561			42760.13006		228.94600		875.00000 
 43692.65567		 305.27265			43387.38302		70.24600		324.00000 
 43692.65567		 932.52561			42760.13006		228.94600		875.00000 
 43692.65567		 305.27265			43387.38302		70.24600		324.00000 
 43692.65567		 932.52561			42760.13006		228.94600		875.00000 
 43692.65567		 305.27265			43387.38302		70.24600		324.00000 
 43692.65567		 932.52561			42760.13006		228.94600		875.00000 
 43692.65567		 305.27265			43387.38302		70.24600		324.00000 
 43692.65567		 932.52561			42760.13006		228.94600		875.00000 
 43692.65567		 305.27265			43387.38302		70.24600		324.00000 
 43692.65567		 932.52561			42760.13006		228.94600		875.00000 
 43692.65567		 305.27265			43387.38302		70.24600		324.00000 
 43692.65567		 932.52561			42760.13006		228.94600		875.00000 
 43692.65567		 305.27265			43387.38302		70.24600		324.00000 
 43692.65567		 932.52561			42760.13006		228.94600		875.00000 
 43692.65567		 305.27265			43387.38302		70.24600		324.00000 
 43692.65567		 932.52561			42760.13006		228.94600		875.00000 
 43692.65567		 305.27265			43387.38302		70.24600		324.00000 
 43692.65567		 932.52561			42760.13006		228.94600		875.00000 
 43692.65567		 305.27265			43387.38302		70.24600		324.00000 
 43692.65567		 932.52561			42760.13006		228.94600		875.00000 
 43692.65567		 305.27265			43387.38302		70.24600		324.00000 
 43692.65567		 932.52561			42760.13006		228.94600		875.00000 
 43692.65567		 305.27265			43387.38302		70.24600		324.00000 
 43692.65567		 932.52561			42760.13006		228.94600		875.00000 
 43692.65567		 305.27265			43387.38302		70.24600		324.00000 
 43692.65567		 932.52561			42760.13006		228.94600		875.00000 
 43692.65567		 305.27265			43387.38302		70.24600		324.00000 
 43692.65567		 932.52561			42760.13006		228.94600		875.00000 
 43692.65567		 305.27265			43387.38302		70.24600		324.00000 
 43692.65567		 932.52561			42760.13006		228.94600		875.00000 
 43692.65567		 305.27265			43387.38302		70.24600		324.00000 
 43692.65567		 932.52561			42760.13006		228.94600		875.00000 
 43692.65567		 305.27265			43387.38302		70.24600		324.00000 
 43692.65567		 932.52561			42760.13006		228.94600		875.00000 
 43692.65567		 305.27265			43387.38302		70.24600		324.00000 
 43692.65567		 932.52561			42760.13006		228.94600		875.00000 
 43692.65567		 305.27265			43387.38302		70.24600		324.00000 
 43692.65567		 932.52561			42760.13006		228.94600		875.00000 
 43692.65567		 305.27265			43387.38302		70.24600		324.00000 
 43692.65567		 932.52561			42760.13006		228.94600		875.00000 
 43692.65567		 305.27265			43387.38302		70.24600		324.00000 
 43692.65567		 932.52561			42760.13006		228.94600		875.00000 
 43692.65567		 305.27265			43387.38302		70.24600		324.00000 
 43692.65567		 932.52561			42760.13006		228.94600		875.00000 
 43692.65567		 305.27265			43387.38302		70.24600		324.00000 
 43692.65567		 932.52561			42760.13006		228.94600		875.00000 
 43692.65567		 305.27265			43387.38302		70.24600		324.00000 
 43692.65567		 932.52561			42760.13006		228.94600		875.00000 
 43692.65567		 305.27265			43387.38302		70.24600		324.00000 
 43692.65567		 932.52561			42760.13006		228.94600		875.00000 
 43692.65567		 305.27265			43387.38302		70.24600		324.00000 
 43692.65567		 932.52561			42760.13006		228.94600		875.00000 
 43692.65567		 305.27265			43387.38302		70.24600		324.00000 
 43692.65567		 932.52561			42760.13006		228.94600		875.00000 
 43692.65567		 305.27265			43387.38302		70.24600		324.00000 
 43692.65567		 932.52561			42760.13006		228.94600		875.00000 
 43692.65567		 305.27265			43387.38302		70.24600		324.00000 
 43692.65567		 932.52561			42760.13006		228.94600		875.00000 
 43692.65567		 305.27265			43387.38302		70.24600		324.00000 
 43692.65567		 932.52561			42760.13006		228.94600		875.00000 
 43692.65567		 305.27265			43387.38302		70.24600		324.00000 
 43692.65567		 932.52561			42760.13006		228.94600		875.00000 
 43692.65567		 305.27265			43387.38302		70.24600		324.00000 
 43692.65567		 932.52561			42760.13006		228.94600		875.00000 
 43692.65567		 305.27265			43387.38302		70.24600		324.00000 
 43692.65567		 932.52561			42760.13006		228.94600		875.00000 
 43692.65567		 305.27265			43387.38302		70.24600		324.00000 
 43692.65567		 932.52561			42760.13006		228.94600		875.00000 
 43692.65567		 305.27265			43387.38302		70.24600		324.00000 
 43692.65567		 932.52561			42760.13006		228.94600		875.00000 
 43692.65567		 305.27265			43387.38302		70.24600		324.00000 
 43692.65567		 932.52561			42760.13006		228.94600		875.00000 
 43692.65567		 305.27265			43387.38302		70.24600		324.00000 
 43692.65567		 932.52561			42760.13006		228.94600		875.00000 
 43692.65567		 305.27265			43387.38302		70.24600		324.00000 
 43692.65567		 932.52561			42760.13006		228.94600		875.00000 
 43692.65567		 305.27265			43387.38302		70.24600		324.00000 
 43692.65567		 932.52561			42760.13006		228.94600		875.00000 
 43692.65567		 305.27265			43387.38302		70.24600		324.00000 
 43692.65567		 932.52561			42760.13006		228.94600		875.00000 
 43692.65567		 305.27265			43387.38302		70.24600		324.00000 
 43692.65567		 932.52561			42760.13006		228.94600		875.00000 
 43692.65567		 305.27265			43387.38302		70.24600		324.00000 
 43692.65567		 932.52561			42760.13006		228.94600		875.00000 
 43692.65567		 305.27265			43387.38302		70.24600		324.00000 
 43692.65567		 932.52561			42760.13006		228.94600		875.00000 
 43692.65567		 305.27265			43387.38302		70.24600		324.00000 
 43692.65567		 932.52561			42760.13006		228.94600		875.00000 
 43692.65567		 305.27265			43387.38302		70.24600		324.00000 
 43692.65567		 932.52561			42760.13006		228.94600		875.00000 
 43692.65567		 305.27265			43387.38302		70.24600		324.00000 
 43692.65567		 932.52561			42760.13006		228.94600		875.00000 
 43692.65567		 305.27265			43387.38302		70.24600		324.00000 
 43692.65567		 932.52561			42760.13006		228.94600		875.00000 
 43692.65567		 305.27265			43387.38302		70.24600		324.00000 
 43692.65567		 932.52561			42760.13006		228.94600		875.00000 
 43692.65567		 305.27265			43387.38302		70.24600		324.00000 
 43692.65567		 932.52561			42760.13006		228.94600		875.00000 
 43692.65567		 305.27265			43387.38302		70.24600		324.00000 
 43692.65567		 932.52561			42760.13006		228.94600		875.00000 
 43692.65567		 305.27265			43387.38302		70.24600		324.00000 
 43692.65567		 800.77385			42891.88183		228.94600		875.00000 
 43692.65567		 305.27265			43387.38302		70.24600		324.00000 
 43692.65567		 800.77385			42891.88183		228.94600		875.00000 
 43692.65567		 305.27265			43387.38302		70.24600		324.00000 
 43692.65567		 669.02208			43023.63359		228.94600		875.00000 
 43692.65567		 305.27265			43387.38302		70.24600		324.00000 
 43692.65567		 669.02208			43023.63359		228.94600		875.00000 
 43692.65567		 305.27265			43387.38302		70.24600		324.00000 
 43692.65567		 537.27032			43155.38535		228.94600		875.00000 
 43692.65567		 305.27265			43387.38302		70.24600		324.00000 
 43692.65567		 537.27032			43155.38535		228.94600		875.00000 
 43692.65567		 305.27265			43387.38302		70.24600		324.00000 
 43692.65567		 537.27032			43155.38535		228.94600		875.00000 
 43692.65567		 305.27265			43387.38302		70.24600		324.00000 
 43692.65567		 537.27032			43155.38535		228.94600		875.00000 
 43692.65567		 305.27265			43387.38302		70.24600		324.00000 
 43692.65567		 537.27032			43155.38535		228.94600		875.00000 
 43692.65567		 305.27265			43387.38302		70.24600		324.00000 
 43692.65567		 537.27032			43155.38535		228.94600		875.00000 
 43692.65567		 305.27265			43387.38302		70.24600		324.00000 
 43692.65567		 537.27032			43155.38535		228.94600		875.00000 
 43692.65567		 305.27265			43387.38302		70.24600		324.00000 
 43692.65567		 537.27032			43155.38535		228.94600		875.00000 
 43692.65567		 305.27265			43387.38302		70.24600		324.00000 
 43692.65567		 537.27032			43155.38535		228.94600		875.00000 
 43692.65567		 305.27265			43387.38302		70.24600		324.00000 
 43692.65567		 537.27032			43155.38535		228.94600		875.00000 
 43692.65567		 305.27265			43387.38302		70.24600		324.00000 
 43692.65567		 537.27032			43155.38535		228.94600		875.00000 
 43692.65567		 305.27265			43387.38302		70.24600		324.00000 
 43692.65567		 537.27032			43155.38535		228.94600		875.00000 
 43692.65567		 305.27265			43387.38302		70.24600		324.00000 
 43692.65567		 537.27032			43155.38535		228.94600		875.00000 
 43692.65567		 305.27265			43387.38302		70.24600		324.00000 
 43692.65567		 537.27032			43155.38535		228.94600		875.00000 
 43692.65567		 305.27265			43387.38302		70.24600		324.00000 
 43692.65567		 537.27032			43155.38535		228.94600		875.00000 
 43692.65567		 305.27265			43387.38302		70.24600		324.00000 
 43692.65567		 537.27032			43155.38535		228.94600		875.00000 
 43692.65567		 305.27265			43387.38302		70.24600		324.00000 
 43692.65567		 537.27032			43155.38535		228.94600		875.00000 
 43692.65567		 305.27265			43387.38302		70.24600		324.00000 
 43692.65567		 537.27032			43155.38535		228.94600		875.00000 
 43692.65567		 305.27265			43387.38302		70.24600		324.00000 
 43692.65567		 537.27032			43155.38535		228.94600		875.00000 
 43692.65567		 305.27265			43387.38302		70.24600		324.00000 
 43692.65567		 537.27032			43155.38535		228.94600		875.00000 
 43692.65567		 305.27265			43387.38302		70.24600		324.00000 
 43692.65567		 525.81365			43166.84203		228.94600		875.00000 
 43692.65567		 305.27265			43387.38302		70.24600		324.00000 
 43692.65567		 525.81365			43166.84203		228.94600		875.00000 
 43692.65567		 261.35540			43431.30027		70.24600		324.00000 
 43692.65567		 261.35540			43431.30027		228.94600		875.00000 
 43692.65567		 261.35540			43431.30027		70.24600		324.00000 
