Memory Total (MiB) 	 Memory Used (MiB) 	    Memory Free (MiB) 	 Power Drawed (W) 	 Clocks (Mhz) 	 
 43692.65567		 261.35540			43431.30027		218.13000		875.00000 
 43692.65567		 261.35540			43431.30027		65.60600		324.00000 
 43692.65567		 261.35540			43431.30027		218.13000		875.00000 
 43692.65567		 261.35540			43431.30027		65.60600		324.00000 
 43692.65567		 261.35540			43431.30027		218.13000		875.00000 
 43692.65567		 261.35540			43431.30027		65.60600		324.00000 
 43692.65567		 261.35540			43431.30027		218.13000		875.00000 
 43692.65567		 261.35540			43431.30027		65.60600		324.00000 
 43692.65567		 261.35540			43431.30027		218.13000		875.00000 
 43692.65567		 261.35540			43431.30027		65.60600		324.00000 
 43692.65567		 261.35540			43431.30027		218.13000		875.00000 
 43692.65567		 261.35540			43431.30027		65.60600		324.00000 
 43692.65567		 261.35540			43431.30027		218.13000		875.00000 
 43692.65567		 261.35540			43431.30027		65.60600		324.00000 
 43692.65567		 261.35540			43431.30027		218.13000		875.00000 
 43692.65567		 261.35540			43431.30027		65.60600		324.00000 
 43692.65567		 261.35540			43431.30027		165.85000		875.00000 
 43692.65567		 261.35540			43431.30027		65.60600		324.00000 
 43692.65567		 261.35540			43431.30027		165.85000		875.00000 
 43692.65567		 261.35540			43431.30027		65.60600		324.00000 
 43692.65567		 261.35540			43431.30027		165.85000		875.00000 
 43692.65567		 261.35540			43431.30027		65.60600		324.00000 
 43692.65567		 261.35540			43431.30027		165.85000		875.00000 
 43692.65567		 261.35540			43431.30027		65.60600		324.00000 
 43692.65567		 261.35540			43431.30027		165.85000		875.00000 
 43692.65567		 261.35540			43431.30027		65.60600		324.00000 
 43692.65567		 261.35540			43431.30027		165.85000		875.00000 
 43692.65567		 261.35540			43431.30027		65.60600		324.00000 
 43692.65567		 261.35540			43431.30027		165.85000		875.00000 
 43692.65567		 261.35540			43431.30027		65.60600		324.00000 
 43692.65567		 261.35540			43431.30027		165.85000		875.00000 
 43692.65567		 261.35540			43431.30027		65.60600		324.00000 
 43692.65567		 261.35540			43431.30027		165.85000		875.00000 
 43692.65567		 261.35540			43431.30027		65.60600		324.00000 
 43692.65567		 261.35540			43431.30027		165.85000		875.00000 
 43692.65567		 261.35540			43431.30027		65.60600		324.00000 
 43692.65567		 265.17429			43427.48138		165.85000		875.00000 
 43692.65567		 261.35540			43431.30027		65.60600		324.00000 
 43692.65567		 265.17429			43427.48138		165.85000		875.00000 
 43692.65567		 261.35540			43431.30027		65.60600		324.00000 
 43692.65567		 272.81207			43419.84360		165.85000		875.00000 
 43692.65567		 261.35540			43431.30027		65.60600		324.00000 
 43692.65567		 272.81207			43419.84360		165.85000		875.00000 
 43692.65567		 261.35540			43431.30027		65.60600		324.00000 
 43692.65567		 272.81207			43419.84360		165.85000		875.00000 
 43692.65567		 265.17429			43427.48138		65.60600		324.00000 
 43692.65567		 272.81207			43419.84360		165.85000		875.00000 
 43692.65567		 265.17429			43427.48138		65.60600		324.00000 
 43692.65567		 272.81207			43419.84360		165.85000		875.00000 
 43692.65567		 272.81207			43419.84360		65.60600		324.00000 
 43692.65567		 272.81207			43419.84360		165.85000		875.00000 
 43692.65567		 272.81207			43419.84360		65.60600		324.00000 
 43692.65567		 272.81207			43419.84360		165.85000		875.00000 
 43692.65567		 272.81207			43419.84360		65.60600		324.00000 
 43692.65567		 305.27265			43387.38302		165.85000		875.00000 
 43692.65567		 305.27265			43387.38302		65.60600		324.00000 
 43692.65567		 305.27265			43387.38302		165.85000		875.00000 
 43692.65567		 305.27265			43387.38302		65.60600		324.00000 
 43692.65567		 305.27265			43387.38302		165.85000		875.00000 
 43692.65567		 305.27265			43387.38302		65.60600		324.00000 
 43692.65567		 305.27265			43387.38302		165.85000		875.00000 
 43692.65567		 305.27265			43387.38302		65.60600		324.00000 
 43692.65567		 305.27265			43387.38302		165.85000		875.00000 
 43692.65567		 305.27265			43387.38302		65.60600		324.00000 
 43692.65567		 309.09154			43383.56413		165.85000		875.00000 
 43692.65567		 305.27265			43387.38302		65.60600		324.00000 
 43692.65567		 310.52363			43382.13204		165.85000		875.00000 
 43692.65567		 305.27265			43387.38302		65.60600		324.00000 
 43692.65567		 311.00099			43381.65468		165.85000		875.00000 
 43692.65567		 305.27265			43387.38302		65.60600		324.00000 
 43692.65567		 311.00099			43381.65468		165.85000		875.00000 
 43692.65567		 305.27265			43387.38302		65.60600		324.00000 
 43692.65567		 311.00099			43381.65468		165.85000		875.00000 
 43692.65567		 305.27265			43387.38302		65.60600		324.00000 
 43692.65567		 311.00099			43381.65468		165.85000		875.00000 
 43692.65567		 305.27265			43387.38302		65.60600		324.00000 
 43692.65567		 311.00099			43381.65468		165.85000		875.00000 
 43692.65567		 305.27265			43387.38302		65.60600		324.00000 
 43692.65567		 311.00099			43381.65468		165.85000		875.00000 
 43692.65567		 305.27265			43387.38302		65.60600		324.00000 
 43692.65567		 311.00099			43381.65468		165.85000		875.00000 
 43692.65567		 305.27265			43387.38302		65.60600		324.00000 
 43692.65567		 311.00099			43381.65468		143.89200		875.00000 
 43692.65567		 305.27265			43387.38302		65.60600		324.00000 
 43692.65567		 311.00099			43381.65468		143.89200		875.00000 
 43692.65567		 305.27265			43387.38302		65.60600		324.00000 
 43692.65567		 311.00099			43381.65468		143.89200		875.00000 
 43692.65567		 305.27265			43387.38302		65.60600		324.00000 
 43692.65567		 311.00099			43381.65468		143.89200		875.00000 
 43692.65567		 305.27265			43387.38302		65.60600		324.00000 
 43692.65567		 311.00099			43381.65468		143.89200		875.00000 
 43692.65567		 305.27265			43387.38302		65.60600		324.00000 
 43692.65567		 311.00099			43381.65468		143.89200		875.00000 
 43692.65567		 305.27265			43387.38302		65.60600		324.00000 
 43692.65567		 311.00099			43381.65468		143.89200		875.00000 
 43692.65567		 305.27265			43387.38302		65.60600		324.00000 
 43692.65567		 311.00099			43381.65468		143.89200		875.00000 
 43692.65567		 305.27265			43387.38302		65.60600		324.00000 
 43692.65567		 311.00099			43381.65468		143.89200		875.00000 
 43692.65567		 305.27265			43387.38302		65.60600		324.00000 
 43692.65567		 311.00099			43381.65468		143.89200		875.00000 
 43692.65567		 305.27265			43387.38302		65.60600		324.00000 
 43692.65567		 311.00099			43381.65468		143.89200		875.00000 
 43692.65567		 305.27265			43387.38302		65.60600		324.00000 
 43692.65567		 311.00099			43381.65468		143.89200		875.00000 
 43692.65567		 305.27265			43387.38302		65.60600		324.00000 
 43692.65567		 311.00099			43381.65468		143.89200		875.00000 
 43692.65567		 305.27265			43387.38302		65.60600		324.00000 
 43692.65567		 311.00099			43381.65468		143.89200		875.00000 
 43692.65567		 305.27265			43387.38302		65.60600		324.00000 
 43692.65567		 311.00099			43381.65468		143.89200		875.00000 
 43692.65567		 305.27265			43387.38302		65.60600		324.00000 
 43692.65567		 311.00099			43381.65468		143.89200		875.00000 
 43692.65567		 305.27265			43387.38302		65.60600		324.00000 
 43692.65567		 311.00099			43381.65468		143.89200		875.00000 
 43692.65567		 305.27265			43387.38302		65.60600		324.00000 
 43692.65567		 311.00099			43381.65468		143.89200		875.00000 
 43692.65567		 305.27265			43387.38302		65.60600		324.00000 
 43692.65567		 311.00099			43381.65468		143.89200		875.00000 
 43692.65567		 305.27265			43387.38302		65.60600		324.00000 
 43692.65567		 311.00099			43381.65468		143.89200		875.00000 
 43692.65567		 305.27265			43387.38302		65.60600		324.00000 
 43692.65567		 311.00099			43381.65468		143.89200		875.00000 
 43692.65567		 305.27265			43387.38302		65.60600		324.00000 
 43692.65567		 311.00099			43381.65468		143.89200		875.00000 
 43692.65567		 305.27265			43387.38302		65.60600		324.00000 
 43692.65567		 311.00099			43381.65468		143.89200		875.00000 
 43692.65567		 305.27265			43387.38302		65.60600		324.00000 
 43692.65567		 311.00099			43381.65468		143.89200		875.00000 
 43692.65567		 305.27265			43387.38302		65.60600		324.00000 
 43692.65567		 311.00099			43381.65468		143.89200		875.00000 
 43692.65567		 305.27265			43387.38302		65.60600		324.00000 
 43692.65567		 311.00099			43381.65468		143.89200		875.00000 
 43692.65567		 305.27265			43387.38302		65.60600		324.00000 
 43692.65567		 311.00099			43381.65468		143.89200		875.00000 
 43692.65567		 305.27265			43387.38302		65.60600		324.00000 
 43692.65567		 311.00099			43381.65468		143.89200		875.00000 
 43692.65567		 305.27265			43387.38302		65.60600		324.00000 
 43692.65567		 311.00099			43381.65468		143.89200		875.00000 
 43692.65567		 305.27265			43387.38302		65.60600		324.00000 
 43692.65567		 311.00099			43381.65468		143.89200		875.00000 
 43692.65567		 305.27265			43387.38302		65.60600		324.00000 
 43692.65567		 311.00099			43381.65468		135.80200		875.00000 
 43692.65567		 305.27265			43387.38302		65.60600		324.00000 
 43692.65567		 311.00099			43381.65468		135.80200		875.00000 
 43692.65567		 305.27265			43387.38302		65.60600		324.00000 
 43692.65567		 311.00099			43381.65468		135.80200		875.00000 
 43692.65567		 305.27265			43387.38302		65.60600		324.00000 
 43692.65567		 311.00099			43381.65468		135.80200		875.00000 
 43692.65567		 305.27265			43387.38302		65.60600		324.00000 
 43692.65567		 311.00099			43381.65468		135.80200		875.00000 
 43692.65567		 305.27265			43387.38302		65.60600		324.00000 
 43692.65567		 311.00099			43381.65468		135.80200		875.00000 
 43692.65567		 305.27265			43387.38302		65.60600		324.00000 
 43692.65567		 311.00099			43381.65468		135.80200		875.00000 
 43692.65567		 305.27265			43387.38302		65.60600		324.00000 
 43692.65567		 311.00099			43381.65468		135.80200		875.00000 
 43692.65567		 305.27265			43387.38302		65.60600		324.00000 
 43692.65567		 311.00099			43381.65468		135.80200		875.00000 
 43692.65567		 305.27265			43387.38302		65.60600		324.00000 
 43692.65567		 311.00099			43381.65468		135.80200		875.00000 
 43692.65567		 305.27265			43387.38302		65.60600		324.00000 
 43692.65567		 311.00099			43381.65468		135.80200		875.00000 
 43692.65567		 305.27265			43387.38302		65.60600		324.00000 
 43692.65567		 311.00099			43381.65468		135.80200		875.00000 
 43692.65567		 305.27265			43387.38302		65.60600		324.00000 
 43692.65567		 311.00099			43381.65468		135.80200		875.00000 
 43692.65567		 305.27265			43387.38302		65.60600		324.00000 
 43692.65567		 311.00099			43381.65468		135.80200		875.00000 
 43692.65567		 305.27265			43387.38302		65.60600		324.00000 
 43692.65567		 314.81988			43377.83579		135.80200		875.00000 
 43692.65567		 305.27265			43387.38302		65.60600		324.00000 
 43692.65567		 314.81988			43377.83579		135.80200		875.00000 
 43692.65567		 305.27265			43387.38302		65.60600		324.00000 
 43692.65567		 314.81988			43377.83579		135.80200		875.00000 
 43692.65567		 305.27265			43387.38302		65.60600		324.00000 
 43692.65567		 318.63877			43374.01690		135.80200		875.00000 
 43692.65567		 305.27265			43387.38302		65.60600		324.00000 
 43692.65567		 322.45767			43370.19801		135.80200		875.00000 
 43692.65567		 305.27265			43387.38302		65.60600		324.00000 
 43692.65567		 326.27656			43366.37912		135.80200		875.00000 
 43692.65567		 305.27265			43387.38302		65.60600		324.00000 
 43692.65567		 326.27656			43366.37912		135.80200		875.00000 
 43692.65567		 305.27265			43387.38302		65.60600		324.00000 
 43692.65567		 326.27656			43366.37912		135.80200		875.00000 
 43692.65567		 305.27265			43387.38302		65.60600		324.00000 
 43692.65567		 537.27032			43155.38535		135.80200		875.00000 
 43692.65567		 305.27265			43387.38302		65.60600		324.00000 
 43692.65567		 583.09702			43109.55865		135.80200		875.00000 
 43692.65567		 305.27265			43387.38302		65.60600		324.00000 
 43692.65567		 606.01037			43086.64530		135.80200		875.00000 
 43692.65567		 305.27265			43387.38302		65.60600		324.00000 
 43692.65567		 606.01037			43086.64530		135.80200		875.00000 
 43692.65567		 305.27265			43387.38302		65.60600		324.00000 
 43692.65567		 606.01037			43086.64530		135.80200		875.00000 
 43692.65567		 305.27265			43387.38302		65.60600		324.00000 
 43692.65567		 606.01037			43086.64530		135.80200		875.00000 
 43692.65567		 305.27265			43387.38302		65.60600		324.00000 
 43692.65567		 606.01037			43086.64530		135.80200		875.00000 
 43692.65567		 305.27265			43387.38302		65.60600		324.00000 
 43692.65567		 606.01037			43086.64530		135.80200		875.00000 
 43692.65567		 305.27265			43387.38302		65.60600		324.00000 
 43692.65567		 606.01037			43086.64530		135.80200		875.00000 
 43692.65567		 305.27265			43387.38302		65.60600		324.00000 
 43692.65567		 606.01037			43086.64530		135.80200		875.00000 
 43692.65567		 305.27265			43387.38302		65.60600		324.00000 
 43692.65567		 606.01037			43086.64530		135.80200		875.00000 
 43692.65567		 305.27265			43387.38302		65.60600		324.00000 
 43692.65567		 606.01037			43086.64530		135.80200		875.00000 
 43692.65567		 305.27265			43387.38302		65.60600		324.00000 
 43692.65567		 606.01037			43086.64530		135.80200		875.00000 
 43692.65567		 305.27265			43387.38302		65.60600		324.00000 
 43692.65567		 606.01037			43086.64530		135.80200		875.00000 
 43692.65567		 305.27265			43387.38302		65.60600		324.00000 
 43692.65567		 606.01037			43086.64530		135.80200		875.00000 
 43692.65567		 305.27265			43387.38302		65.60600		324.00000 
 43692.65567		 606.01037			43086.64530		135.80200		875.00000 
 43692.65567		 305.27265			43387.38302		65.60600		324.00000 
 43692.65567		 606.01037			43086.64530		135.80200		875.00000 
 43692.65567		 305.27265			43387.38302		65.60600		324.00000 
 43692.65567		 606.01037			43086.64530		135.80200		875.00000 
 43692.65567		 305.27265			43387.38302		65.60600		324.00000 
 43692.65567		 606.01037			43086.64530		135.80200		875.00000 
 43692.65567		 305.27265			43387.38302		65.60600		324.00000 
 43692.65567		 606.01037			43086.64530		135.80200		875.00000 
 43692.65567		 305.27265			43387.38302		65.60600		324.00000 
 43692.65567		 606.01037			43086.64530		135.80200		875.00000 
 43692.65567		 305.27265			43387.38302		65.60600		324.00000 
 43692.65567		 606.01037			43086.64530		135.80200		875.00000 
 43692.65567		 305.27265			43387.38302		65.60600		324.00000 
 43692.65567		 606.01037			43086.64530		156.73000		875.00000 
 43692.65567		 305.27265			43387.38302		65.60600		324.00000 
 43692.65567		 606.01037			43086.64530		156.73000		875.00000 
 43692.65567		 305.27265			43387.38302		65.60600		324.00000 
 43692.65567		 606.01037			43086.64530		156.73000		875.00000 
 43692.65567		 305.27265			43387.38302		65.60600		324.00000 
 43692.65567		 606.01037			43086.64530		156.73000		875.00000 
 43692.65567		 305.27265			43387.38302		65.60600		324.00000 
 43692.65567		 606.01037			43086.64530		156.73000		875.00000 
 43692.65567		 305.27265			43387.38302		65.60600		324.00000 
 43692.65567		 606.01037			43086.64530		156.73000		875.00000 
 43692.65567		 305.27265			43387.38302		65.60600		324.00000 
 43692.65567		 606.01037			43086.64530		156.73000		875.00000 
 43692.65567		 305.27265			43387.38302		65.60600		324.00000 
 43692.65567		 606.01037			43086.64530		156.73000		875.00000 
 43692.65567		 305.27265			43387.38302		65.60600		324.00000 
 43692.65567		 606.01037			43086.64530		156.73000		875.00000 
 43692.65567		 305.27265			43387.38302		65.60600		324.00000 
 43692.65567		 606.01037			43086.64530		156.73000		875.00000 
 43692.65567		 305.27265			43387.38302		65.60600		324.00000 
 43692.65567		 606.01037			43086.64530		156.73000		875.00000 
 43692.65567		 305.27265			43387.38302		65.60600		324.00000 
 43692.65567		 606.01037			43086.64530		156.73000		875.00000 
 43692.65567		 305.27265			43387.38302		65.60600		324.00000 
 43692.65567		 606.01037			43086.64530		156.73000		875.00000 
 43692.65567		 305.27265			43387.38302		65.60600		324.00000 
 43692.65567		 606.01037			43086.64530		156.73000		875.00000 
 43692.65567		 305.27265			43387.38302		65.60600		324.00000 
 43692.65567		 606.01037			43086.64530		156.73000		875.00000 
 43692.65567		 305.27265			43387.38302		65.60600		324.00000 
 43692.65567		 606.01037			43086.64530		156.73000		875.00000 
 43692.65567		 305.27265			43387.38302		65.60600		324.00000 
 43692.65567		 606.01037			43086.64530		156.73000		875.00000 
 43692.65567		 305.27265			43387.38302		65.60600		324.00000 
 43692.65567		 606.01037			43086.64530		156.73000		875.00000 
 43692.65567		 305.27265			43387.38302		65.60600		324.00000 
 43692.65567		 606.01037			43086.64530		156.73000		875.00000 
 43692.65567		 305.27265			43387.38302		65.60600		324.00000 
 43692.65567		 606.01037			43086.64530		156.73000		875.00000 
 43692.65567		 305.27265			43387.38302		65.60600		324.00000 
 43692.65567		 606.01037			43086.64530		156.73000		875.00000 
 43692.65567		 305.27265			43387.38302		65.60600		324.00000 
 43692.65567		 606.01037			43086.64530		156.73000		875.00000 
 43692.65567		 305.27265			43387.38302		65.60600		324.00000 
 43692.65567		 606.01037			43086.64530		156.73000		875.00000 
 43692.65567		 305.27265			43387.38302		65.60600		324.00000 
 43692.65567		 606.01037			43086.64530		156.73000		875.00000 
 43692.65567		 305.27265			43387.38302		65.60600		324.00000 
 43692.65567		 606.01037			43086.64530		156.73000		875.00000 
 43692.65567		 305.27265			43387.38302		65.60600		324.00000 
 43692.65567		 606.01037			43086.64530		156.73000		875.00000 
 43692.65567		 305.27265			43387.38302		65.60600		324.00000 
 43692.65567		 606.01037			43086.64530		156.73000		875.00000 
 43692.65567		 305.27265			43387.38302		65.60600		324.00000 
 43692.65567		 606.01037			43086.64530		156.73000		875.00000 
 43692.65567		 305.27265			43387.38302		65.60600		324.00000 
 43692.65567		 606.01037			43086.64530		156.73000		875.00000 
 43692.65567		 305.27265			43387.38302		65.60600		324.00000 
 43692.65567		 606.01037			43086.64530		156.73000		875.00000 
 43692.65567		 305.27265			43387.38302		65.60600		324.00000 
 43692.65567		 606.01037			43086.64530		156.73000		875.00000 
 43692.65567		 305.27265			43387.38302		65.60600		324.00000 
 43692.65567		 606.01037			43086.64530		156.73000		875.00000 
 43692.65567		 305.27265			43387.38302		65.60600		324.00000 
 43692.65567		 606.01037			43086.64530		156.73000		875.00000 
 43692.65567		 305.27265			43387.38302		65.60600		324.00000 
 43692.65567		 606.01037			43086.64530		156.73000		875.00000 
 43692.65567		 305.27265			43387.38302		65.60600		324.00000 
 43692.65567		 606.01037			43086.64530		156.73000		875.00000 
 43692.65567		 305.27265			43387.38302		65.60600		324.00000 
 43692.65567		 606.01037			43086.64530		156.73000		875.00000 
 43692.65567		 305.27265			43387.38302		65.60600		324.00000 
 43692.65567		 606.01037			43086.64530		156.73000		875.00000 
 43692.65567		 305.27265			43387.38302		65.60600		324.00000 
 43692.65567		 606.01037			43086.64530		156.73000		875.00000 
 43692.65567		 305.27265			43387.38302		65.60600		324.00000 
 43692.65567		 606.01037			43086.64530		156.73000		875.00000 
 43692.65567		 305.27265			43387.38302		65.60600		324.00000 
 43692.65567		 606.01037			43086.64530		156.73000		875.00000 
 43692.65567		 305.27265			43387.38302		65.60600		324.00000 
 43692.65567		 606.01037			43086.64530		156.73000		875.00000 
 43692.65567		 305.27265			43387.38302		65.60600		324.00000 
 43692.65567		 606.01037			43086.64530		156.73000		875.00000 
 43692.65567		 305.27265			43387.38302		65.60600		324.00000 
 43692.65567		 606.01037			43086.64530		156.73000		875.00000 
 43692.65567		 305.27265			43387.38302		65.60600		324.00000 
 43692.65567		 606.01037			43086.64530		156.73000		875.00000 
 43692.65567		 305.27265			43387.38302		65.60600		324.00000 
 43692.65567		 606.01037			43086.64530		156.73000		875.00000 
 43692.65567		 305.27265			43387.38302		65.60600		324.00000 
 43692.65567		 606.01037			43086.64530		156.73000		875.00000 
 43692.65567		 305.27265			43387.38302		65.60600		324.00000 
 43692.65567		 606.01037			43086.64530		156.73000		875.00000 
 43692.65567		 305.27265			43387.38302		65.60600		324.00000 
 43692.65567		 606.01037			43086.64530		156.73000		875.00000 
 43692.65567		 305.27265			43387.38302		65.60600		324.00000 
 43692.65567		 606.01037			43086.64530		156.73000		875.00000 
 43692.65567		 305.27265			43387.38302		65.60600		324.00000 
 43692.65567		 606.01037			43086.64530		156.73000		875.00000 
 43692.65567		 305.27265			43387.38302		65.60600		324.00000 
 43692.65567		 606.01037			43086.64530		156.73000		875.00000 
 43692.65567		 305.27265			43387.38302		65.60600		324.00000 
 43692.65567		 606.01037			43086.64530		156.73000		875.00000 
 43692.65567		 305.27265			43387.38302		65.60600		324.00000 
 43692.65567		 606.01037			43086.64530		156.73000		875.00000 
 43692.65567		 305.27265			43387.38302		65.60600		324.00000 
 43692.65567		 606.01037			43086.64530		156.73000		875.00000 
 43692.65567		 305.27265			43387.38302		65.60600		324.00000 
 43692.65567		 606.01037			43086.64530		156.73000		875.00000 
 43692.65567		 305.27265			43387.38302		65.60600		324.00000 
 43692.65567		 606.01037			43086.64530		194.31200		875.00000 
 43692.65567		 305.27265			43387.38302		65.60600		324.00000 
 43692.65567		 606.01037			43086.64530		194.31200		875.00000 
 43692.65567		 305.27265			43387.38302		65.60600		324.00000 
 43692.65567		 606.01037			43086.64530		194.31200		875.00000 
 43692.65567		 305.27265			43387.38302		65.60600		324.00000 
 43692.65567		 606.01037			43086.64530		194.31200		875.00000 
 43692.65567		 305.27265			43387.38302		65.60600		324.00000 
 43692.65567		 606.01037			43086.64530		194.31200		875.00000 
 43692.65567		 305.27265			43387.38302		65.60600		324.00000 
 43692.65567		 606.01037			43086.64530		194.31200		875.00000 
 43692.65567		 305.27265			43387.38302		65.60600		324.00000 
 43692.65567		 606.01037			43086.64530		194.31200		875.00000 
 43692.65567		 305.27265			43387.38302		65.60600		324.00000 
 43692.65567		 606.01037			43086.64530		194.31200		875.00000 
 43692.65567		 305.27265			43387.38302		65.60600		324.00000 
 43692.65567		 606.01037			43086.64530		194.31200		875.00000 
 43692.65567		 305.27265			43387.38302		65.60600		324.00000 
 43692.65567		 606.01037			43086.64530		194.31200		875.00000 
 43692.65567		 305.27265			43387.38302		65.60600		324.00000 
 43692.65567		 606.01037			43086.64530		194.31200		875.00000 
 43692.65567		 305.27265			43387.38302		65.60600		324.00000 
 43692.65567		 606.01037			43086.64530		194.31200		875.00000 
 43692.65567		 305.27265			43387.38302		65.60600		324.00000 
 43692.65567		 606.01037			43086.64530		194.31200		875.00000 
 43692.65567		 305.27265			43387.38302		65.60600		324.00000 
 43692.65567		 606.01037			43086.64530		194.31200		875.00000 
 43692.65567		 305.27265			43387.38302		65.60600		324.00000 
 43692.65567		 606.01037			43086.64530		194.31200		875.00000 
 43692.65567		 305.27265			43387.38302		65.60600		324.00000 
 43692.65567		 606.01037			43086.64530		194.31200		875.00000 
 43692.65567		 305.27265			43387.38302		65.60600		324.00000 
 43692.65567		 606.01037			43086.64530		194.31200		875.00000 
 43692.65567		 305.27265			43387.38302		65.60600		324.00000 
 43692.65567		 606.01037			43086.64530		194.31200		875.00000 
 43692.65567		 305.27265			43387.38302		65.60600		324.00000 
 43692.65567		 606.01037			43086.64530		194.31200		875.00000 
 43692.65567		 305.27265			43387.38302		65.60600		324.00000 
 43692.65567		 606.01037			43086.64530		194.31200		875.00000 
 43692.65567		 305.27265			43387.38302		65.60600		324.00000 
 43692.65567		 606.01037			43086.64530		194.31200		875.00000 
 43692.65567		 305.27265			43387.38302		65.60600		324.00000 
 43692.65567		 606.01037			43086.64530		194.31200		875.00000 
 43692.65567		 305.27265			43387.38302		65.60600		324.00000 
 43692.65567		 606.01037			43086.64530		194.31200		875.00000 
 43692.65567		 305.27265			43387.38302		65.60600		324.00000 
 43692.65567		 606.01037			43086.64530		194.31200		875.00000 
 43692.65567		 305.27265			43387.38302		65.60600		324.00000 
 43692.65567		 606.01037			43086.64530		194.31200		875.00000 
 43692.65567		 305.27265			43387.38302		65.60600		324.00000 
 43692.65567		 606.01037			43086.64530		194.31200		875.00000 
 43692.65567		 305.27265			43387.38302		65.60600		324.00000 
 43692.65567		 606.01037			43086.64530		194.31200		875.00000 
 43692.65567		 305.27265			43387.38302		65.60600		324.00000 
 43692.65567		 606.01037			43086.64530		194.31200		875.00000 
 43692.65567		 305.27265			43387.38302		65.60600		324.00000 
 43692.65567		 606.01037			43086.64530		194.31200		875.00000 
 43692.65567		 305.27265			43387.38302		65.60600		324.00000 
 43692.65567		 606.01037			43086.64530		194.31200		875.00000 
 43692.65567		 305.27265			43387.38302		65.60600		324.00000 
 43692.65567		 606.01037			43086.64530		194.31200		875.00000 
 43692.65567		 305.27265			43387.38302		65.60600		324.00000 
 43692.65567		 606.01037			43086.64530		194.31200		875.00000 
 43692.65567		 305.27265			43387.38302		65.60600		324.00000 
 43692.65567		 606.01037			43086.64530		194.31200		875.00000 
 43692.65567		 305.27265			43387.38302		65.60600		324.00000 
 43692.65567		 606.01037			43086.64530		194.31200		875.00000 
 43692.65567		 305.27265			43387.38302		65.60600		324.00000 
 43692.65567		 606.01037			43086.64530		194.31200		875.00000 
 43692.65567		 305.27265			43387.38302		65.60600		324.00000 
 43692.65567		 606.01037			43086.64530		194.31200		875.00000 
 43692.65567		 305.27265			43387.38302		65.60600		324.00000 
 43692.65567		 606.01037			43086.64530		194.31200		875.00000 
 43692.65567		 305.27265			43387.38302		65.60600		324.00000 
 43692.65567		 606.01037			43086.64530		194.31200		875.00000 
 43692.65567		 305.27265			43387.38302		65.60600		324.00000 
 43692.65567		 606.01037			43086.64530		194.31200		875.00000 
 43692.65567		 305.27265			43387.38302		65.60600		324.00000 
 43692.65567		 606.01037			43086.64530		194.31200		875.00000 
 43692.65567		 305.27265			43387.38302		65.60600		324.00000 
 43692.65567		 606.01037			43086.64530		194.31200		875.00000 
 43692.65567		 305.27265			43387.38302		65.60600		324.00000 
 43692.65567		 606.01037			43086.64530		194.31200		875.00000 
 43692.65567		 305.27265			43387.38302		65.60600		324.00000 
 43692.65567		 606.01037			43086.64530		194.31200		875.00000 
 43692.65567		 305.27265			43387.38302		65.60600		324.00000 
 43692.65567		 606.01037			43086.64530		194.31200		875.00000 
 43692.65567		 305.27265			43387.38302		65.60600		324.00000 
 43692.65567		 606.01037			43086.64530		194.31200		875.00000 
 43692.65567		 305.27265			43387.38302		65.60600		324.00000 
 43692.65567		 606.01037			43086.64530		194.31200		875.00000 
 43692.65567		 305.27265			43387.38302		65.60600		324.00000 
 43692.65567		 606.01037			43086.64530		194.31200		875.00000 
 43692.65567		 305.27265			43387.38302		65.60600		324.00000 
 43692.65567		 606.01037			43086.64530		194.31200		875.00000 
 43692.65567		 305.27265			43387.38302		65.60600		324.00000 
 43692.65567		 606.01037			43086.64530		194.31200		875.00000 
 43692.65567		 305.27265			43387.38302		65.60600		324.00000 
 43692.65567		 606.01037			43086.64530		194.31200		875.00000 
 43692.65567		 305.27265			43387.38302		65.60600		324.00000 
 43692.65567		 606.01037			43086.64530		194.31200		875.00000 
 43692.65567		 305.27265			43387.38302		65.60600		324.00000 
 43692.65567		 606.01037			43086.64530		194.31200		875.00000 
 43692.65567		 305.27265			43387.38302		65.60600		324.00000 
 43692.65567		 606.01037			43086.64530		194.31200		875.00000 
 43692.65567		 305.27265			43387.38302		65.60600		324.00000 
 43692.65567		 606.01037			43086.64530		194.31200		875.00000 
 43692.65567		 305.27265			43387.38302		65.60600		324.00000 
 43692.65567		 606.01037			43086.64530		194.31200		875.00000 
 43692.65567		 305.27265			43387.38302		65.60600		324.00000 
 43692.65567		 606.01037			43086.64530		194.31200		875.00000 
 43692.65567		 305.27265			43387.38302		65.60600		324.00000 
 43692.65567		 606.01037			43086.64530		194.31200		875.00000 
 43692.65567		 305.27265			43387.38302		65.60600		324.00000 
 43692.65567		 606.01037			43086.64530		194.31200		875.00000 
 43692.65567		 305.27265			43387.38302		65.60600		324.00000 
 43692.65567		 606.01037			43086.64530		194.31200		875.00000 
 43692.65567		 305.27265			43387.38302		65.60600		324.00000 
 43692.65567		 606.01037			43086.64530		194.31200		875.00000 
 43692.65567		 305.27265			43387.38302		65.60600		324.00000 
 43692.65567		 606.01037			43086.64530		194.31200		875.00000 
 43692.65567		 305.27265			43387.38302		65.60600		324.00000 
 43692.65567		 606.01037			43086.64530		208.94000		875.00000 
 43692.65567		 305.27265			43387.38302		65.60600		324.00000 
 43692.65567		 606.01037			43086.64530		208.94000		875.00000 
 43692.65567		 305.27265			43387.38302		65.60600		324.00000 
 43692.65567		 606.01037			43086.64530		208.94000		875.00000 
 43692.65567		 305.27265			43387.38302		65.60600		324.00000 
 43692.65567		 606.01037			43086.64530		208.94000		875.00000 
 43692.65567		 305.27265			43387.38302		65.60600		324.00000 
 43692.65567		 606.01037			43086.64530		208.94000		875.00000 
 43692.65567		 305.27265			43387.38302		65.60600		324.00000 
 43692.65567		 606.01037			43086.64530		208.94000		875.00000 
 43692.65567		 305.27265			43387.38302		65.60600		324.00000 
 43692.65567		 606.01037			43086.64530		208.94000		875.00000 
 43692.65567		 305.27265			43387.38302		65.60600		324.00000 
 43692.65567		 606.01037			43086.64530		208.94000		875.00000 
 43692.65567		 305.27265			43387.38302		65.60600		324.00000 
 43692.65567		 606.01037			43086.64530		208.94000		875.00000 
 43692.65567		 305.27265			43387.38302		65.60600		324.00000 
 43692.65567		 606.01037			43086.64530		208.94000		875.00000 
 43692.65567		 305.27265			43387.38302		65.60600		324.00000 
 43692.65567		 606.01037			43086.64530		208.94000		875.00000 
 43692.65567		 305.27265			43387.38302		65.60600		324.00000 
 43692.65567		 606.01037			43086.64530		208.94000		875.00000 
 43692.65567		 305.27265			43387.38302		65.60600		324.00000 
 43692.65567		 606.01037			43086.64530		208.94000		875.00000 
 43692.65567		 305.27265			43387.38302		68.08800		324.00000 
 43692.65567		 606.01037			43086.64530		208.94000		875.00000 
 43692.65567		 305.27265			43387.38302		68.08800		324.00000 
 43692.65567		 606.01037			43086.64530		208.94000		875.00000 
 43692.65567		 305.27265			43387.38302		68.08800		324.00000 
 43692.65567		 606.01037			43086.64530		208.94000		875.00000 
 43692.65567		 305.27265			43387.38302		68.08800		324.00000 
 43692.65567		 606.01037			43086.64530		208.94000		875.00000 
 43692.65567		 305.27265			43387.38302		68.08800		324.00000 
 43692.65567		 606.01037			43086.64530		208.94000		875.00000 
 43692.65567		 305.27265			43387.38302		68.08800		324.00000 
 43692.65567		 606.01037			43086.64530		208.94000		875.00000 
 43692.65567		 305.27265			43387.38302		68.08800		324.00000 
 43692.65567		 606.01037			43086.64530		208.94000		875.00000 
 43692.65567		 305.27265			43387.38302		68.08800		324.00000 
 43692.65567		 606.01037			43086.64530		208.94000		875.00000 
 43692.65567		 305.27265			43387.38302		68.08800		324.00000 
 43692.65567		 606.01037			43086.64530		208.94000		875.00000 
 43692.65567		 305.27265			43387.38302		68.08800		324.00000 
 43692.65567		 606.01037			43086.64530		208.94000		875.00000 
 43692.65567		 305.27265			43387.38302		68.08800		324.00000 
 43692.65567		 606.01037			43086.64530		208.94000		875.00000 
 43692.65567		 305.27265			43387.38302		68.08800		324.00000 
 43692.65567		 606.01037			43086.64530		208.94000		875.00000 
 43692.65567		 305.27265			43387.38302		68.08800		324.00000 
 43692.65567		 606.01037			43086.64530		208.94000		875.00000 
 43692.65567		 305.27265			43387.38302		68.08800		324.00000 
 43692.65567		 606.01037			43086.64530		208.94000		875.00000 
 43692.65567		 305.27265			43387.38302		68.08800		324.00000 
 43692.65567		 606.01037			43086.64530		208.94000		875.00000 
 43692.65567		 305.27265			43387.38302		68.08800		324.00000 
 43692.65567		 606.01037			43086.64530		208.94000		875.00000 
 43692.65567		 305.27265			43387.38302		68.08800		324.00000 
 43692.65567		 606.01037			43086.64530		208.94000		875.00000 
 43692.65567		 305.27265			43387.38302		68.08800		324.00000 
 43692.65567		 606.01037			43086.64530		208.94000		875.00000 
 43692.65567		 305.27265			43387.38302		68.08800		324.00000 
 43692.65567		 606.01037			43086.64530		208.94000		875.00000 
 43692.65567		 305.27265			43387.38302		68.08800		324.00000 
 43692.65567		 606.01037			43086.64530		208.94000		875.00000 
 43692.65567		 305.27265			43387.38302		68.08800		324.00000 
 43692.65567		 606.01037			43086.64530		208.94000		875.00000 
 43692.65567		 305.27265			43387.38302		68.08800		324.00000 
 43692.65567		 606.01037			43086.64530		208.94000		875.00000 
 43692.65567		 305.27265			43387.38302		68.08800		324.00000 
 43692.65567		 606.01037			43086.64530		208.94000		875.00000 
 43692.65567		 305.27265			43387.38302		68.08800		324.00000 
 43692.65567		 606.01037			43086.64530		208.94000		875.00000 
 43692.65567		 305.27265			43387.38302		68.08800		324.00000 
 43692.65567		 606.01037			43086.64530		208.94000		875.00000 
 43692.65567		 305.27265			43387.38302		68.08800		324.00000 
 43692.65567		 606.01037			43086.64530		208.94000		875.00000 
 43692.65567		 305.27265			43387.38302		68.08800		324.00000 
 43692.65567		 606.01037			43086.64530		208.94000		875.00000 
 43692.65567		 305.27265			43387.38302		68.08800		324.00000 
 43692.65567		 606.01037			43086.64530		208.94000		875.00000 
 43692.65567		 305.27265			43387.38302		68.08800		324.00000 
 43692.65567		 606.01037			43086.64530		208.94000		875.00000 
 43692.65567		 305.27265			43387.38302		68.08800		324.00000 
 43692.65567		 606.01037			43086.64530		208.94000		875.00000 
 43692.65567		 305.27265			43387.38302		68.08800		324.00000 
 43692.65567		 606.01037			43086.64530		208.94000		875.00000 
 43692.65567		 305.27265			43387.38302		68.08800		324.00000 
 43692.65567		 606.01037			43086.64530		208.94000		875.00000 
 43692.65567		 305.27265			43387.38302		68.08800		324.00000 
 43692.65567		 606.01037			43086.64530		208.94000		875.00000 
 43692.65567		 305.27265			43387.38302		68.08800		324.00000 
 43692.65567		 606.01037			43086.64530		208.94000		875.00000 
 43692.65567		 305.27265			43387.38302		68.08800		324.00000 
 43692.65567		 606.01037			43086.64530		208.94000		875.00000 
 43692.65567		 305.27265			43387.38302		68.08800		324.00000 
 43692.65567		 606.01037			43086.64530		208.94000		875.00000 
 43692.65567		 305.27265			43387.38302		68.08800		324.00000 
 43692.65567		 606.01037			43086.64530		208.94000		875.00000 
 43692.65567		 305.27265			43387.38302		68.08800		324.00000 
 43692.65567		 606.01037			43086.64530		208.94000		875.00000 
 43692.65567		 305.27265			43387.38302		68.08800		324.00000 
 43692.65567		 606.01037			43086.64530		208.94000		875.00000 
 43692.65567		 305.27265			43387.38302		68.08800		324.00000 
 43692.65567		 606.01037			43086.64530		208.94000		875.00000 
 43692.65567		 305.27265			43387.38302		68.08800		324.00000 
 43692.65567		 606.01037			43086.64530		208.94000		875.00000 
 43692.65567		 305.27265			43387.38302		68.08800		324.00000 
 43692.65567		 606.01037			43086.64530		208.94000		875.00000 
 43692.65567		 305.27265			43387.38302		68.08800		324.00000 
 43692.65567		 606.01037			43086.64530		208.94000		875.00000 
 43692.65567		 305.27265			43387.38302		68.08800		324.00000 
 43692.65567		 606.01037			43086.64530		208.94000		875.00000 
 43692.65567		 305.27265			43387.38302		68.08800		324.00000 
 43692.65567		 606.01037			43086.64530		208.94000		875.00000 
 43692.65567		 305.27265			43387.38302		68.08800		324.00000 
 43692.65567		 606.01037			43086.64530		208.94000		875.00000 
 43692.65567		 305.27265			43387.38302		68.08800		324.00000 
 43692.65567		 606.01037			43086.64530		214.09400		875.00000 
 43692.65567		 305.27265			43387.38302		68.08800		324.00000 
 43692.65567		 606.01037			43086.64530		214.09400		875.00000 
 43692.65567		 305.27265			43387.38302		68.08800		324.00000 
 43692.65567		 606.01037			43086.64530		214.09400		875.00000 
 43692.65567		 305.27265			43387.38302		68.08800		324.00000 
 43692.65567		 606.01037			43086.64530		214.09400		875.00000 
 43692.65567		 305.27265			43387.38302		68.08800		324.00000 
 43692.65567		 606.01037			43086.64530		214.09400		875.00000 
 43692.65567		 305.27265			43387.38302		68.08800		324.00000 
 43692.65567		 606.01037			43086.64530		214.09400		875.00000 
 43692.65567		 305.27265			43387.38302		68.08800		324.00000 
 43692.65567		 606.01037			43086.64530		214.09400		875.00000 
 43692.65567		 305.27265			43387.38302		68.08800		324.00000 
 43692.65567		 606.01037			43086.64530		214.09400		875.00000 
 43692.65567		 305.27265			43387.38302		68.08800		324.00000 
 43692.65567		 606.01037			43086.64530		214.09400		875.00000 
 43692.65567		 305.27265			43387.38302		68.08800		324.00000 
 43692.65567		 606.01037			43086.64530		214.09400		875.00000 
 43692.65567		 305.27265			43387.38302		68.08800		324.00000 
 43692.65567		 606.01037			43086.64530		214.09400		875.00000 
 43692.65567		 305.27265			43387.38302		68.08800		324.00000 
 43692.65567		 606.01037			43086.64530		214.09400		875.00000 
 43692.65567		 305.27265			43387.38302		68.08800		324.00000 
 43692.65567		 606.01037			43086.64530		214.09400		875.00000 
 43692.65567		 305.27265			43387.38302		68.08800		324.00000 
 43692.65567		 606.01037			43086.64530		214.09400		875.00000 
 43692.65567		 305.27265			43387.38302		68.08800		324.00000 
 43692.65567		 606.01037			43086.64530		214.09400		875.00000 
 43692.65567		 305.27265			43387.38302		68.08800		324.00000 
 43692.65567		 606.01037			43086.64530		214.09400		875.00000 
 43692.65567		 305.27265			43387.38302		68.08800		324.00000 
 43692.65567		 606.01037			43086.64530		214.09400		875.00000 
 43692.65567		 305.27265			43387.38302		68.08800		324.00000 
 43692.65567		 606.01037			43086.64530		214.09400		875.00000 
 43692.65567		 305.27265			43387.38302		68.08800		324.00000 
 43692.65567		 606.01037			43086.64530		214.09400		875.00000 
 43692.65567		 305.27265			43387.38302		68.08800		324.00000 
 43692.65567		 606.01037			43086.64530		214.09400		875.00000 
 43692.65567		 305.27265			43387.38302		68.08800		324.00000 
 43692.65567		 606.01037			43086.64530		214.09400		875.00000 
 43692.65567		 305.27265			43387.38302		68.08800		324.00000 
 43692.65567		 606.01037			43086.64530		214.09400		875.00000 
 43692.65567		 305.27265			43387.38302		68.08800		324.00000 
 43692.65567		 606.01037			43086.64530		214.09400		875.00000 
 43692.65567		 305.27265			43387.38302		68.08800		324.00000 
 43692.65567		 606.01037			43086.64530		214.09400		875.00000 
 43692.65567		 305.27265			43387.38302		68.08800		324.00000 
 43692.65567		 606.01037			43086.64530		214.09400		875.00000 
 43692.65567		 305.27265			43387.38302		68.08800		324.00000 
 43692.65567		 606.01037			43086.64530		214.09400		875.00000 
 43692.65567		 305.27265			43387.38302		68.08800		324.00000 
 43692.65567		 606.01037			43086.64530		214.09400		875.00000 
 43692.65567		 305.27265			43387.38302		68.08800		324.00000 
 43692.65567		 606.01037			43086.64530		214.09400		875.00000 
 43692.65567		 305.27265			43387.38302		68.08800		324.00000 
 43692.65567		 606.01037			43086.64530		214.09400		875.00000 
 43692.65567		 305.27265			43387.38302		68.08800		324.00000 
 43692.65567		 606.01037			43086.64530		214.09400		875.00000 
 43692.65567		 305.27265			43387.38302		68.08800		324.00000 
 43692.65567		 606.01037			43086.64530		214.09400		875.00000 
 43692.65567		 305.27265			43387.38302		68.08800		324.00000 
 43692.65567		 606.01037			43086.64530		214.09400		875.00000 
 43692.65567		 305.27265			43387.38302		68.08800		324.00000 
 43692.65567		 606.01037			43086.64530		214.09400		875.00000 
 43692.65567		 305.27265			43387.38302		68.08800		324.00000 
 43692.65567		 606.01037			43086.64530		214.09400		875.00000 
 43692.65567		 305.27265			43387.38302		68.08800		324.00000 
 43692.65567		 606.01037			43086.64530		214.09400		875.00000 
 43692.65567		 305.27265			43387.38302		68.08800		324.00000 
 43692.65567		 606.01037			43086.64530		214.09400		875.00000 
 43692.65567		 305.27265			43387.38302		68.08800		324.00000 
 43692.65567		 606.01037			43086.64530		214.09400		875.00000 
 43692.65567		 305.27265			43387.38302		68.08800		324.00000 
 43692.65567		 606.01037			43086.64530		214.09400		875.00000 
 43692.65567		 305.27265			43387.38302		68.08800		324.00000 
 43692.65567		 606.01037			43086.64530		214.09400		875.00000 
 43692.65567		 305.27265			43387.38302		68.08800		324.00000 
 43692.65567		 606.01037			43086.64530		214.09400		875.00000 
 43692.65567		 305.27265			43387.38302		68.08800		324.00000 
 43692.65567		 606.01037			43086.64530		214.09400		875.00000 
 43692.65567		 305.27265			43387.38302		68.08800		324.00000 
 43692.65567		 606.01037			43086.64530		214.09400		875.00000 
 43692.65567		 305.27265			43387.38302		68.08800		324.00000 
 43692.65567		 606.01037			43086.64530		214.09400		875.00000 
 43692.65567		 305.27265			43387.38302		68.08800		324.00000 
 43692.65567		 606.01037			43086.64530		214.09400		875.00000 
 43692.65567		 305.27265			43387.38302		68.08800		324.00000 
 43692.65567		 606.01037			43086.64530		214.09400		875.00000 
 43692.65567		 305.27265			43387.38302		68.08800		324.00000 
 43692.65567		 606.01037			43086.64530		214.09400		875.00000 
 43692.65567		 305.27265			43387.38302		68.08800		324.00000 
 43692.65567		 606.01037			43086.64530		214.09400		875.00000 
 43692.65567		 305.27265			43387.38302		68.08800		324.00000 
 43692.65567		 606.01037			43086.64530		214.09400		875.00000 
 43692.65567		 305.27265			43387.38302		68.08800		324.00000 
 43692.65567		 606.01037			43086.64530		214.09400		875.00000 
 43692.65567		 305.27265			43387.38302		68.08800		324.00000 
 43692.65567		 606.01037			43086.64530		214.09400		875.00000 
 43692.65567		 305.27265			43387.38302		68.08800		324.00000 
 43692.65567		 606.01037			43086.64530		214.09400		875.00000 
 43692.65567		 305.27265			43387.38302		68.08800		324.00000 
 43692.65567		 606.01037			43086.64530		214.09400		875.00000 
 43692.65567		 305.27265			43387.38302		68.08800		324.00000 
 43692.65567		 537.27032			43155.38535		214.09400		875.00000 
 43692.65567		 305.27265			43387.38302		68.08800		324.00000 
 43692.65567		 537.27032			43155.38535		214.09400		875.00000 
 43692.65567		 305.27265			43387.38302		68.08800		324.00000 
 43692.65567		 537.27032			43155.38535		214.09400		875.00000 
 43692.65567		 305.27265			43387.38302		68.08800		324.00000 
 43692.65567		 537.27032			43155.38535		214.09400		875.00000 
 43692.65567		 305.27265			43387.38302		68.08800		324.00000 
 43692.65567		 537.27032			43155.38535		214.09400		875.00000 
 43692.65567		 305.27265			43387.38302		68.08800		324.00000 
 43692.65567		 537.27032			43155.38535		214.09400		875.00000 
 43692.65567		 305.27265			43387.38302		68.08800		324.00000 
 43692.65567		 537.27032			43155.38535		214.09400		875.00000 
 43692.65567		 305.27265			43387.38302		68.08800		324.00000 
 43692.65567		 537.27032			43155.38535		203.32600		875.00000 
 43692.65567		 305.27265			43387.38302		68.08800		324.00000 
 43692.65567		 537.27032			43155.38535		203.32600		875.00000 
 43692.65567		 305.27265			43387.38302		68.08800		324.00000 
 43692.65567		 537.27032			43155.38535		203.32600		875.00000 
 43692.65567		 305.27265			43387.38302		68.08800		324.00000 
 43692.65567		 537.27032			43155.38535		203.32600		875.00000 
 43692.65567		 305.27265			43387.38302		68.08800		324.00000 
 43692.65567		 537.27032			43155.38535		203.32600		875.00000 
 43692.65567		 305.27265			43387.38302		68.08800		324.00000 
 43692.65567		 537.27032			43155.38535		203.32600		875.00000 
 43692.65567		 305.27265			43387.38302		68.08800		324.00000 
 43692.65567		 537.27032			43155.38535		203.32600		875.00000 
 43692.65567		 305.27265			43387.38302		68.08800		324.00000 
 43692.65567		 537.27032			43155.38535		203.32600		875.00000 
 43692.65567		 305.27265			43387.38302		68.08800		324.00000 
 43692.65567		 537.27032			43155.38535		203.32600		875.00000 
 43692.65567		 305.27265			43387.38302		68.08800		324.00000 
 43692.65567		 537.27032			43155.38535		203.32600		875.00000 
 43692.65567		 305.27265			43387.38302		68.08800		324.00000 
 43692.65567		 537.27032			43155.38535		203.32600		875.00000 
 43692.65567		 305.27265			43387.38302		68.08800		324.00000 
 43692.65567		 537.27032			43155.38535		203.32600		875.00000 
 43692.65567		 305.27265			43387.38302		68.08800		324.00000 
 43692.65567		 529.63254			43163.02313		203.32600		875.00000 
 43692.65567		 305.27265			43387.38302		68.08800		324.00000 
 43692.65567		 525.81365			43166.84203		203.32600		875.00000 
 43692.65567		 305.27265			43387.38302		68.08800		324.00000 
 43692.65567		 525.81365			43166.84203		203.32600		875.00000 
 43692.65567		 261.35540			43431.30027		68.08800		324.00000 
