Memory Total (MiB) 	 Memory Used (MiB) 	    Memory Free (MiB) 	 Power Drawed (W) 	 Clocks (Mhz) 	 
 43692.65567		 261.35540			43431.30027		209.62000		875.00000 
 43692.65567		 261.35540			43431.30027		70.12600		324.00000 
 43692.65567		 261.35540			43431.30027		209.62000		875.00000 
 43692.65567		 261.35540			43431.30027		70.12600		324.00000 
 43692.65567		 261.35540			43431.30027		209.62000		875.00000 
 43692.65567		 261.35540			43431.30027		70.12600		324.00000 
 43692.65567		 261.35540			43431.30027		209.62000		875.00000 
 43692.65567		 261.35540			43431.30027		70.12600		324.00000 
 43692.65567		 261.35540			43431.30027		209.62000		875.00000 
 43692.65567		 261.35540			43431.30027		70.12600		324.00000 
 43692.65567		 261.35540			43431.30027		209.62000		875.00000 
 43692.65567		 261.35540			43431.30027		70.12600		324.00000 
 43692.65567		 261.35540			43431.30027		209.62000		875.00000 
 43692.65567		 261.35540			43431.30027		70.12600		324.00000 
 43692.65567		 261.35540			43431.30027		209.62000		875.00000 
 43692.65567		 261.35540			43431.30027		70.12600		324.00000 
 43692.65567		 261.35540			43431.30027		209.62000		875.00000 
 43692.65567		 261.35540			43431.30027		70.12600		324.00000 
 43692.65567		 261.35540			43431.30027		209.62000		875.00000 
 43692.65567		 261.35540			43431.30027		70.12600		324.00000 
 43692.65567		 261.35540			43431.30027		209.62000		875.00000 
 43692.65567		 261.35540			43431.30027		70.12600		324.00000 
 43692.65567		 261.35540			43431.30027		161.81000		875.00000 
 43692.65567		 261.35540			43431.30027		70.12600		324.00000 
 43692.65567		 261.35540			43431.30027		161.81000		875.00000 
 43692.65567		 261.35540			43431.30027		70.12600		324.00000 
 43692.65567		 261.35540			43431.30027		161.81000		875.00000 
 43692.65567		 261.35540			43431.30027		70.12600		324.00000 
 43692.65567		 261.35540			43431.30027		161.81000		875.00000 
 43692.65567		 261.35540			43431.30027		70.12600		324.00000 
 43692.65567		 261.35540			43431.30027		161.81000		875.00000 
 43692.65567		 261.35540			43431.30027		70.12600		324.00000 
 43692.65567		 261.35540			43431.30027		161.81000		875.00000 
 43692.65567		 261.35540			43431.30027		70.12600		324.00000 
 43692.65567		 261.35540			43431.30027		161.81000		875.00000 
 43692.65567		 261.35540			43431.30027		70.12600		324.00000 
 43692.65567		 261.35540			43431.30027		161.81000		875.00000 
 43692.65567		 261.35540			43431.30027		70.12600		324.00000 
 43692.65567		 265.17429			43427.48138		161.81000		875.00000 
 43692.65567		 261.35540			43431.30027		70.12600		324.00000 
 43692.65567		 272.81207			43419.84360		161.81000		875.00000 
 43692.65567		 261.35540			43431.30027		70.12600		324.00000 
 43692.65567		 272.81207			43419.84360		161.81000		875.00000 
 43692.65567		 261.35540			43431.30027		70.12600		324.00000 
 43692.65567		 272.81207			43419.84360		161.81000		875.00000 
 43692.65567		 265.17429			43427.48138		70.12600		324.00000 
 43692.65567		 272.81207			43419.84360		161.81000		875.00000 
 43692.65567		 265.17429			43427.48138		70.12600		324.00000 
 43692.65567		 272.81207			43419.84360		161.81000		875.00000 
 43692.65567		 265.17429			43427.48138		70.12600		324.00000 
 43692.65567		 272.81207			43419.84360		161.81000		875.00000 
 43692.65567		 272.81207			43419.84360		70.12600		324.00000 
 43692.65567		 272.81207			43419.84360		161.81000		875.00000 
 43692.65567		 272.81207			43419.84360		70.12600		324.00000 
 43692.65567		 272.81207			43419.84360		161.81000		875.00000 
 43692.65567		 272.81207			43419.84360		70.12600		324.00000 
 43692.65567		 305.27265			43387.38302		161.81000		875.00000 
 43692.65567		 305.27265			43387.38302		70.12600		324.00000 
 43692.65567		 305.27265			43387.38302		161.81000		875.00000 
 43692.65567		 305.27265			43387.38302		70.12600		324.00000 
 43692.65567		 305.27265			43387.38302		161.81000		875.00000 
 43692.65567		 305.27265			43387.38302		70.12600		324.00000 
 43692.65567		 305.27265			43387.38302		161.81000		875.00000 
 43692.65567		 305.27265			43387.38302		70.12600		324.00000 
 43692.65567		 305.27265			43387.38302		161.81000		875.00000 
 43692.65567		 305.27265			43387.38302		70.12600		324.00000 
 43692.65567		 309.56891			43383.08677		161.81000		875.00000 
 43692.65567		 305.27265			43387.38302		70.12600		324.00000 
 43692.65567		 311.00099			43381.65468		161.81000		875.00000 
 43692.65567		 305.27265			43387.38302		70.12600		324.00000 
 43692.65567		 311.00099			43381.65468		161.81000		875.00000 
 43692.65567		 305.27265			43387.38302		70.12600		324.00000 
 43692.65567		 311.00099			43381.65468		161.81000		875.00000 
 43692.65567		 305.27265			43387.38302		70.12600		324.00000 
 43692.65567		 311.00099			43381.65468		161.81000		875.00000 
 43692.65567		 305.27265			43387.38302		70.12600		324.00000 
 43692.65567		 311.00099			43381.65468		161.81000		875.00000 
 43692.65567		 305.27265			43387.38302		70.12600		324.00000 
 43692.65567		 311.00099			43381.65468		161.81000		875.00000 
 43692.65567		 305.27265			43387.38302		70.12600		324.00000 
 43692.65567		 311.00099			43381.65468		161.81000		875.00000 
 43692.65567		 305.27265			43387.38302		70.12600		324.00000 
 43692.65567		 311.00099			43381.65468		161.81000		875.00000 
 43692.65567		 305.27265			43387.38302		70.12600		324.00000 
 43692.65567		 311.00099			43381.65468		142.94800		875.00000 
 43692.65567		 305.27265			43387.38302		70.12600		324.00000 
 43692.65567		 311.00099			43381.65468		142.94800		875.00000 
 43692.65567		 305.27265			43387.38302		70.12600		324.00000 
 43692.65567		 311.00099			43381.65468		142.94800		875.00000 
 43692.65567		 305.27265			43387.38302		70.12600		324.00000 
 43692.65567		 311.00099			43381.65468		142.94800		875.00000 
 43692.65567		 305.27265			43387.38302		70.12600		324.00000 
 43692.65567		 311.00099			43381.65468		142.94800		875.00000 
 43692.65567		 305.27265			43387.38302		70.12600		324.00000 
 43692.65567		 311.00099			43381.65468		142.94800		875.00000 
 43692.65567		 305.27265			43387.38302		70.12600		324.00000 
 43692.65567		 311.00099			43381.65468		142.94800		875.00000 
 43692.65567		 305.27265			43387.38302		70.12600		324.00000 
 43692.65567		 311.00099			43381.65468		142.94800		875.00000 
 43692.65567		 305.27265			43387.38302		70.12600		324.00000 
 43692.65567		 311.00099			43381.65468		142.94800		875.00000 
 43692.65567		 305.27265			43387.38302		70.12600		324.00000 
 43692.65567		 311.00099			43381.65468		142.94800		875.00000 
 43692.65567		 305.27265			43387.38302		70.12600		324.00000 
 43692.65567		 311.00099			43381.65468		142.94800		875.00000 
 43692.65567		 305.27265			43387.38302		70.12600		324.00000 
 43692.65567		 311.00099			43381.65468		142.94800		875.00000 
 43692.65567		 305.27265			43387.38302		70.12600		324.00000 
 43692.65567		 311.00099			43381.65468		142.94800		875.00000 
 43692.65567		 305.27265			43387.38302		70.12600		324.00000 
 43692.65567		 311.00099			43381.65468		142.94800		875.00000 
 43692.65567		 305.27265			43387.38302		70.12600		324.00000 
 43692.65567		 311.00099			43381.65468		142.94800		875.00000 
 43692.65567		 305.27265			43387.38302		70.12600		324.00000 
 43692.65567		 311.00099			43381.65468		142.94800		875.00000 
 43692.65567		 305.27265			43387.38302		70.12600		324.00000 
 43692.65567		 311.00099			43381.65468		142.94800		875.00000 
 43692.65567		 305.27265			43387.38302		70.12600		324.00000 
 43692.65567		 311.00099			43381.65468		142.94800		875.00000 
 43692.65567		 305.27265			43387.38302		70.12600		324.00000 
 43692.65567		 311.00099			43381.65468		142.94800		875.00000 
 43692.65567		 305.27265			43387.38302		70.12600		324.00000 
 43692.65567		 311.00099			43381.65468		142.94800		875.00000 
 43692.65567		 305.27265			43387.38302		70.12600		324.00000 
 43692.65567		 311.00099			43381.65468		142.94800		875.00000 
 43692.65567		 305.27265			43387.38302		70.12600		324.00000 
 43692.65567		 311.00099			43381.65468		142.94800		875.00000 
 43692.65567		 305.27265			43387.38302		70.12600		324.00000 
 43692.65567		 311.00099			43381.65468		142.94800		875.00000 
 43692.65567		 305.27265			43387.38302		70.12600		324.00000 
 43692.65567		 311.00099			43381.65468		142.94800		875.00000 
 43692.65567		 305.27265			43387.38302		70.12600		324.00000 
 43692.65567		 311.00099			43381.65468		142.94800		875.00000 
 43692.65567		 305.27265			43387.38302		70.12600		324.00000 
 43692.65567		 311.00099			43381.65468		142.94800		875.00000 
 43692.65567		 305.27265			43387.38302		70.12600		324.00000 
 43692.65567		 311.00099			43381.65468		142.94800		875.00000 
 43692.65567		 305.27265			43387.38302		70.12600		324.00000 
 43692.65567		 311.00099			43381.65468		142.94800		875.00000 
 43692.65567		 305.27265			43387.38302		70.12600		324.00000 
 43692.65567		 311.00099			43381.65468		142.94800		875.00000 
 43692.65567		 305.27265			43387.38302		70.12600		324.00000 
 43692.65567		 311.00099			43381.65468		142.94800		875.00000 
 43692.65567		 305.27265			43387.38302		70.12600		324.00000 
 43692.65567		 311.00099			43381.65468		142.94800		875.00000 
 43692.65567		 305.27265			43387.38302		70.12600		324.00000 
 43692.65567		 311.00099			43381.65468		135.94000		875.00000 
 43692.65567		 305.27265			43387.38302		70.12600		324.00000 
 43692.65567		 311.00099			43381.65468		135.94000		875.00000 
 43692.65567		 305.27265			43387.38302		70.12600		324.00000 
 43692.65567		 311.00099			43381.65468		135.94000		875.00000 
 43692.65567		 305.27265			43387.38302		70.12600		324.00000 
 43692.65567		 311.00099			43381.65468		135.94000		875.00000 
 43692.65567		 305.27265			43387.38302		70.12600		324.00000 
 43692.65567		 311.00099			43381.65468		135.94000		875.00000 
 43692.65567		 305.27265			43387.38302		70.12600		324.00000 
 43692.65567		 311.00099			43381.65468		135.94000		875.00000 
 43692.65567		 305.27265			43387.38302		70.12600		324.00000 
 43692.65567		 311.00099			43381.65468		135.94000		875.00000 
 43692.65567		 305.27265			43387.38302		70.12600		324.00000 
 43692.65567		 311.00099			43381.65468		135.94000		875.00000 
 43692.65567		 305.27265			43387.38302		70.12600		324.00000 
 43692.65567		 311.00099			43381.65468		135.94000		875.00000 
 43692.65567		 305.27265			43387.38302		70.12600		324.00000 
 43692.65567		 311.00099			43381.65468		135.94000		875.00000 
 43692.65567		 305.27265			43387.38302		70.12600		324.00000 
 43692.65567		 311.00099			43381.65468		135.94000		875.00000 
 43692.65567		 305.27265			43387.38302		70.12600		324.00000 
 43692.65567		 311.00099			43381.65468		135.94000		875.00000 
 43692.65567		 305.27265			43387.38302		70.12600		324.00000 
 43692.65567		 311.00099			43381.65468		135.94000		875.00000 
 43692.65567		 305.27265			43387.38302		70.12600		324.00000 
 43692.65567		 314.81988			43377.83579		135.94000		875.00000 
 43692.65567		 305.27265			43387.38302		70.12600		324.00000 
 43692.65567		 314.81988			43377.83579		135.94000		875.00000 
 43692.65567		 305.27265			43387.38302		70.12600		324.00000 
 43692.65567		 314.81988			43377.83579		135.94000		875.00000 
 43692.65567		 305.27265			43387.38302		70.12600		324.00000 
 43692.65567		 318.63877			43374.01690		135.94000		875.00000 
 43692.65567		 305.27265			43387.38302		70.12600		324.00000 
 43692.65567		 322.45767			43370.19801		135.94000		875.00000 
 43692.65567		 305.27265			43387.38302		70.12600		324.00000 
 43692.65567		 326.27656			43366.37912		135.94000		875.00000 
 43692.65567		 305.27265			43387.38302		70.12600		324.00000 
 43692.65567		 326.27656			43366.37912		135.94000		875.00000 
 43692.65567		 305.27265			43387.38302		70.12600		324.00000 
 43692.65567		 326.27656			43366.37912		135.94000		875.00000 
 43692.65567		 305.27265			43387.38302		70.12600		324.00000 
 43692.65567		 537.27032			43155.38535		135.94000		875.00000 
 43692.65567		 305.27265			43387.38302		70.12600		324.00000 
 43692.65567		 609.82926			43082.82641		135.94000		875.00000 
 43692.65567		 305.27265			43387.38302		70.12600		324.00000 
 43692.65567		 754.94715			42937.70853		135.94000		875.00000 
 43692.65567		 305.27265			43387.38302		70.12600		324.00000 
 43692.65567		 754.94715			42937.70853		135.94000		875.00000 
 43692.65567		 305.27265			43387.38302		70.12600		324.00000 
 43692.65567		 754.94715			42937.70853		135.94000		875.00000 
 43692.65567		 305.27265			43387.38302		70.12600		324.00000 
 43692.65567		 754.94715			42937.70853		135.94000		875.00000 
 43692.65567		 305.27265			43387.38302		70.12600		324.00000 
 43692.65567		 754.94715			42937.70853		135.94000		875.00000 
 43692.65567		 305.27265			43387.38302		70.12600		324.00000 
 43692.65567		 754.94715			42937.70853		135.94000		875.00000 
 43692.65567		 305.27265			43387.38302		70.12600		324.00000 
 43692.65567		 754.94715			42937.70853		135.94000		875.00000 
 43692.65567		 305.27265			43387.38302		70.12600		324.00000 
 43692.65567		 754.94715			42937.70853		135.94000		875.00000 
 43692.65567		 305.27265			43387.38302		70.12600		324.00000 
 43692.65567		 754.94715			42937.70853		135.94000		875.00000 
 43692.65567		 305.27265			43387.38302		70.12600		324.00000 
 43692.65567		 754.94715			42937.70853		135.94000		875.00000 
 43692.65567		 305.27265			43387.38302		70.12600		324.00000 
 43692.65567		 754.94715			42937.70853		135.94000		875.00000 
 43692.65567		 305.27265			43387.38302		70.12600		324.00000 
 43692.65567		 754.94715			42937.70853		135.94000		875.00000 
 43692.65567		 305.27265			43387.38302		70.12600		324.00000 
 43692.65567		 754.94715			42937.70853		135.94000		875.00000 
 43692.65567		 305.27265			43387.38302		70.12600		324.00000 
 43692.65567		 754.94715			42937.70853		135.94000		875.00000 
 43692.65567		 305.27265			43387.38302		70.12600		324.00000 
 43692.65567		 754.94715			42937.70853		135.94000		875.00000 
 43692.65567		 305.27265			43387.38302		70.12600		324.00000 
 43692.65567		 754.94715			42937.70853		135.94000		875.00000 
 43692.65567		 305.27265			43387.38302		70.12600		324.00000 
 43692.65567		 754.94715			42937.70853		135.94000		875.00000 
 43692.65567		 305.27265			43387.38302		70.12600		324.00000 
 43692.65567		 754.94715			42937.70853		135.94000		875.00000 
 43692.65567		 305.27265			43387.38302		70.12600		324.00000 
 43692.65567		 754.94715			42937.70853		135.94000		875.00000 
 43692.65567		 305.27265			43387.38302		70.12600		324.00000 
 43692.65567		 754.94715			42937.70853		135.94000		875.00000 
 43692.65567		 305.27265			43387.38302		70.12600		324.00000 
 43692.65567		 754.94715			42937.70853		135.94000		875.00000 
 43692.65567		 305.27265			43387.38302		70.12600		324.00000 
 43692.65567		 754.94715			42937.70853		135.94000		875.00000 
 43692.65567		 305.27265			43387.38302		70.12600		324.00000 
 43692.65567		 754.94715			42937.70853		135.94000		875.00000 
 43692.65567		 305.27265			43387.38302		70.12600		324.00000 
 43692.65567		 754.94715			42937.70853		161.03200		875.00000 
 43692.65567		 305.27265			43387.38302		70.12600		324.00000 
 43692.65567		 754.94715			42937.70853		161.03200		875.00000 
 43692.65567		 305.27265			43387.38302		70.12600		324.00000 
 43692.65567		 754.94715			42937.70853		161.03200		875.00000 
 43692.65567		 305.27265			43387.38302		70.12600		324.00000 
 43692.65567		 754.94715			42937.70853		161.03200		875.00000 
 43692.65567		 305.27265			43387.38302		70.12600		324.00000 
 43692.65567		 754.94715			42937.70853		161.03200		875.00000 
 43692.65567		 305.27265			43387.38302		70.12600		324.00000 
 43692.65567		 754.94715			42937.70853		161.03200		875.00000 
 43692.65567		 305.27265			43387.38302		70.12600		324.00000 
 43692.65567		 754.94715			42937.70853		161.03200		875.00000 
 43692.65567		 305.27265			43387.38302		70.12600		324.00000 
 43692.65567		 754.94715			42937.70853		161.03200		875.00000 
 43692.65567		 305.27265			43387.38302		70.12600		324.00000 
 43692.65567		 754.94715			42937.70853		161.03200		875.00000 
 43692.65567		 305.27265			43387.38302		70.12600		324.00000 
 43692.65567		 754.94715			42937.70853		161.03200		875.00000 
 43692.65567		 305.27265			43387.38302		70.12600		324.00000 
 43692.65567		 754.94715			42937.70853		161.03200		875.00000 
 43692.65567		 305.27265			43387.38302		70.12600		324.00000 
 43692.65567		 754.94715			42937.70853		161.03200		875.00000 
 43692.65567		 305.27265			43387.38302		70.12600		324.00000 
 43692.65567		 754.94715			42937.70853		161.03200		875.00000 
 43692.65567		 305.27265			43387.38302		70.12600		324.00000 
 43692.65567		 754.94715			42937.70853		161.03200		875.00000 
 43692.65567		 305.27265			43387.38302		70.12600		324.00000 
 43692.65567		 754.94715			42937.70853		161.03200		875.00000 
 43692.65567		 305.27265			43387.38302		70.12600		324.00000 
 43692.65567		 754.94715			42937.70853		161.03200		875.00000 
 43692.65567		 305.27265			43387.38302		70.12600		324.00000 
 43692.65567		 754.94715			42937.70853		161.03200		875.00000 
 43692.65567		 305.27265			43387.38302		70.12600		324.00000 
 43692.65567		 754.94715			42937.70853		161.03200		875.00000 
 43692.65567		 305.27265			43387.38302		70.12600		324.00000 
 43692.65567		 754.94715			42937.70853		161.03200		875.00000 
 43692.65567		 305.27265			43387.38302		70.12600		324.00000 
 43692.65567		 754.94715			42937.70853		161.03200		875.00000 
 43692.65567		 305.27265			43387.38302		70.12600		324.00000 
 43692.65567		 754.94715			42937.70853		161.03200		875.00000 
 43692.65567		 305.27265			43387.38302		70.12600		324.00000 
 43692.65567		 754.94715			42937.70853		161.03200		875.00000 
 43692.65567		 305.27265			43387.38302		70.12600		324.00000 
 43692.65567		 754.94715			42937.70853		161.03200		875.00000 
 43692.65567		 305.27265			43387.38302		70.12600		324.00000 
 43692.65567		 754.94715			42937.70853		161.03200		875.00000 
 43692.65567		 305.27265			43387.38302		70.12600		324.00000 
 43692.65567		 754.94715			42937.70853		161.03200		875.00000 
 43692.65567		 305.27265			43387.38302		70.12600		324.00000 
 43692.65567		 754.94715			42937.70853		161.03200		875.00000 
 43692.65567		 305.27265			43387.38302		70.12600		324.00000 
 43692.65567		 754.94715			42937.70853		161.03200		875.00000 
 43692.65567		 305.27265			43387.38302		70.12600		324.00000 
 43692.65567		 754.94715			42937.70853		161.03200		875.00000 
 43692.65567		 305.27265			43387.38302		70.12600		324.00000 
 43692.65567		 754.94715			42937.70853		161.03200		875.00000 
 43692.65567		 305.27265			43387.38302		70.12600		324.00000 
 43692.65567		 754.94715			42937.70853		161.03200		875.00000 
 43692.65567		 305.27265			43387.38302		70.12600		324.00000 
 43692.65567		 754.94715			42937.70853		161.03200		875.00000 
 43692.65567		 305.27265			43387.38302		70.12600		324.00000 
 43692.65567		 754.94715			42937.70853		161.03200		875.00000 
 43692.65567		 305.27265			43387.38302		70.12600		324.00000 
 43692.65567		 754.94715			42937.70853		161.03200		875.00000 
 43692.65567		 305.27265			43387.38302		70.12600		324.00000 
 43692.65567		 754.94715			42937.70853		161.03200		875.00000 
 43692.65567		 305.27265			43387.38302		70.12600		324.00000 
 43692.65567		 754.94715			42937.70853		161.03200		875.00000 
 43692.65567		 305.27265			43387.38302		70.12600		324.00000 
 43692.65567		 754.94715			42937.70853		161.03200		875.00000 
 43692.65567		 305.27265			43387.38302		70.12600		324.00000 
 43692.65567		 754.94715			42937.70853		161.03200		875.00000 
 43692.65567		 305.27265			43387.38302		70.12600		324.00000 
 43692.65567		 754.94715			42937.70853		161.03200		875.00000 
 43692.65567		 305.27265			43387.38302		70.12600		324.00000 
 43692.65567		 754.94715			42937.70853		161.03200		875.00000 
 43692.65567		 305.27265			43387.38302		70.12600		324.00000 
 43692.65567		 754.94715			42937.70853		161.03200		875.00000 
 43692.65567		 305.27265			43387.38302		70.12600		324.00000 
 43692.65567		 754.94715			42937.70853		161.03200		875.00000 
 43692.65567		 305.27265			43387.38302		70.12600		324.00000 
 43692.65567		 754.94715			42937.70853		161.03200		875.00000 
 43692.65567		 305.27265			43387.38302		70.12600		324.00000 
 43692.65567		 754.94715			42937.70853		161.03200		875.00000 
 43692.65567		 305.27265			43387.38302		70.12600		324.00000 
 43692.65567		 754.94715			42937.70853		161.03200		875.00000 
 43692.65567		 305.27265			43387.38302		70.12600		324.00000 
 43692.65567		 754.94715			42937.70853		161.03200		875.00000 
 43692.65567		 305.27265			43387.38302		70.12600		324.00000 
 43692.65567		 754.94715			42937.70853		161.03200		875.00000 
 43692.65567		 305.27265			43387.38302		70.12600		324.00000 
 43692.65567		 754.94715			42937.70853		161.03200		875.00000 
 43692.65567		 305.27265			43387.38302		70.12600		324.00000 
 43692.65567		 754.94715			42937.70853		161.03200		875.00000 
 43692.65567		 305.27265			43387.38302		70.12600		324.00000 
 43692.65567		 754.94715			42937.70853		161.03200		875.00000 
 43692.65567		 305.27265			43387.38302		70.12600		324.00000 
 43692.65567		 754.94715			42937.70853		161.03200		875.00000 
 43692.65567		 305.27265			43387.38302		70.12600		324.00000 
 43692.65567		 754.94715			42937.70853		161.03200		875.00000 
 43692.65567		 305.27265			43387.38302		70.12600		324.00000 
 43692.65567		 754.94715			42937.70853		161.03200		875.00000 
 43692.65567		 305.27265			43387.38302		70.12600		324.00000 
 43692.65567		 754.94715			42937.70853		161.03200		875.00000 
 43692.65567		 305.27265			43387.38302		70.12600		324.00000 
 43692.65567		 754.94715			42937.70853		161.03200		875.00000 
 43692.65567		 305.27265			43387.38302		70.12600		324.00000 
 43692.65567		 754.94715			42937.70853		161.03200		875.00000 
 43692.65567		 305.27265			43387.38302		70.12600		324.00000 
 43692.65567		 754.94715			42937.70853		161.03200		875.00000 
 43692.65567		 305.27265			43387.38302		70.12600		324.00000 
 43692.65567		 754.94715			42937.70853		161.03200		875.00000 
 43692.65567		 305.27265			43387.38302		70.12600		324.00000 
 43692.65567		 754.94715			42937.70853		161.03200		875.00000 
 43692.65567		 305.27265			43387.38302		70.12600		324.00000 
 43692.65567		 754.94715			42937.70853		161.03200		875.00000 
 43692.65567		 305.27265			43387.38302		70.12600		324.00000 
 43692.65567		 754.94715			42937.70853		161.03200		875.00000 
 43692.65567		 305.27265			43387.38302		70.12600		324.00000 
 43692.65567		 754.94715			42937.70853		161.03200		875.00000 
 43692.65567		 305.27265			43387.38302		70.12600		324.00000 
 43692.65567		 754.94715			42937.70853		161.03200		875.00000 
 43692.65567		 305.27265			43387.38302		70.12600		324.00000 
 43692.65567		 754.94715			42937.70853		161.03200		875.00000 
 43692.65567		 305.27265			43387.38302		70.12600		324.00000 
 43692.65567		 754.94715			42937.70853		161.03200		875.00000 
 43692.65567		 305.27265			43387.38302		70.12600		324.00000 
 43692.65567		 754.94715			42937.70853		161.03200		875.00000 
 43692.65567		 305.27265			43387.38302		70.12600		324.00000 
 43692.65567		 754.94715			42937.70853		201.71400		875.00000 
 43692.65567		 305.27265			43387.38302		70.12600		324.00000 
 43692.65567		 754.94715			42937.70853		201.71400		875.00000 
 43692.65567		 305.27265			43387.38302		70.12600		324.00000 
 43692.65567		 754.94715			42937.70853		201.71400		875.00000 
 43692.65567		 305.27265			43387.38302		70.12600		324.00000 
 43692.65567		 754.94715			42937.70853		201.71400		875.00000 
 43692.65567		 305.27265			43387.38302		67.61200		324.00000 
 43692.65567		 754.94715			42937.70853		201.71400		875.00000 
 43692.65567		 305.27265			43387.38302		67.61200		324.00000 
 43692.65567		 754.94715			42937.70853		201.71400		875.00000 
 43692.65567		 305.27265			43387.38302		67.61200		324.00000 
 43692.65567		 754.94715			42937.70853		201.71400		875.00000 
 43692.65567		 305.27265			43387.38302		67.61200		324.00000 
 43692.65567		 754.94715			42937.70853		201.71400		875.00000 
 43692.65567		 305.27265			43387.38302		67.61200		324.00000 
 43692.65567		 754.94715			42937.70853		201.71400		875.00000 
 43692.65567		 305.27265			43387.38302		67.61200		324.00000 
 43692.65567		 754.94715			42937.70853		201.71400		875.00000 
 43692.65567		 305.27265			43387.38302		67.61200		324.00000 
 43692.65567		 754.94715			42937.70853		201.71400		875.00000 
 43692.65567		 305.27265			43387.38302		67.61200		324.00000 
 43692.65567		 754.94715			42937.70853		201.71400		875.00000 
 43692.65567		 305.27265			43387.38302		67.61200		324.00000 
 43692.65567		 754.94715			42937.70853		201.71400		875.00000 
 43692.65567		 305.27265			43387.38302		67.61200		324.00000 
 43692.65567		 754.94715			42937.70853		201.71400		875.00000 
 43692.65567		 305.27265			43387.38302		67.61200		324.00000 
 43692.65567		 754.94715			42937.70853		201.71400		875.00000 
 43692.65567		 305.27265			43387.38302		67.61200		324.00000 
 43692.65567		 754.94715			42937.70853		201.71400		875.00000 
 43692.65567		 305.27265			43387.38302		67.61200		324.00000 
 43692.65567		 754.94715			42937.70853		201.71400		875.00000 
 43692.65567		 305.27265			43387.38302		67.61200		324.00000 
 43692.65567		 754.94715			42937.70853		201.71400		875.00000 
 43692.65567		 305.27265			43387.38302		67.61200		324.00000 
 43692.65567		 754.94715			42937.70853		201.71400		875.00000 
 43692.65567		 305.27265			43387.38302		67.61200		324.00000 
 43692.65567		 754.94715			42937.70853		201.71400		875.00000 
 43692.65567		 305.27265			43387.38302		67.61200		324.00000 
 43692.65567		 754.94715			42937.70853		201.71400		875.00000 
 43692.65567		 305.27265			43387.38302		67.61200		324.00000 
 43692.65567		 754.94715			42937.70853		201.71400		875.00000 
 43692.65567		 305.27265			43387.38302		67.61200		324.00000 
 43692.65567		 754.94715			42937.70853		201.71400		875.00000 
 43692.65567		 305.27265			43387.38302		67.61200		324.00000 
 43692.65567		 754.94715			42937.70853		201.71400		875.00000 
 43692.65567		 305.27265			43387.38302		67.61200		324.00000 
 43692.65567		 754.94715			42937.70853		201.71400		875.00000 
 43692.65567		 305.27265			43387.38302		67.61200		324.00000 
 43692.65567		 754.94715			42937.70853		201.71400		875.00000 
 43692.65567		 305.27265			43387.38302		67.61200		324.00000 
 43692.65567		 754.94715			42937.70853		201.71400		875.00000 
 43692.65567		 305.27265			43387.38302		67.61200		324.00000 
 43692.65567		 754.94715			42937.70853		201.71400		875.00000 
 43692.65567		 305.27265			43387.38302		67.61200		324.00000 
 43692.65567		 754.94715			42937.70853		201.71400		875.00000 
 43692.65567		 305.27265			43387.38302		67.61200		324.00000 
 43692.65567		 754.94715			42937.70853		201.71400		875.00000 
 43692.65567		 305.27265			43387.38302		67.61200		324.00000 
 43692.65567		 754.94715			42937.70853		201.71400		875.00000 
 43692.65567		 305.27265			43387.38302		67.61200		324.00000 
 43692.65567		 754.94715			42937.70853		201.71400		875.00000 
 43692.65567		 305.27265			43387.38302		67.61200		324.00000 
 43692.65567		 754.94715			42937.70853		201.71400		875.00000 
 43692.65567		 305.27265			43387.38302		67.61200		324.00000 
 43692.65567		 754.94715			42937.70853		201.71400		875.00000 
 43692.65567		 305.27265			43387.38302		67.61200		324.00000 
 43692.65567		 754.94715			42937.70853		201.71400		875.00000 
 43692.65567		 305.27265			43387.38302		67.61200		324.00000 
 43692.65567		 754.94715			42937.70853		201.71400		875.00000 
 43692.65567		 305.27265			43387.38302		67.61200		324.00000 
 43692.65567		 754.94715			42937.70853		201.71400		875.00000 
 43692.65567		 305.27265			43387.38302		67.61200		324.00000 
 43692.65567		 754.94715			42937.70853		201.71400		875.00000 
 43692.65567		 305.27265			43387.38302		67.61200		324.00000 
 43692.65567		 754.94715			42937.70853		201.71400		875.00000 
 43692.65567		 305.27265			43387.38302		67.61200		324.00000 
 43692.65567		 754.94715			42937.70853		201.71400		875.00000 
 43692.65567		 305.27265			43387.38302		67.61200		324.00000 
 43692.65567		 754.94715			42937.70853		201.71400		875.00000 
 43692.65567		 305.27265			43387.38302		67.61200		324.00000 
 43692.65567		 754.94715			42937.70853		201.71400		875.00000 
 43692.65567		 305.27265			43387.38302		67.61200		324.00000 
 43692.65567		 754.94715			42937.70853		201.71400		875.00000 
 43692.65567		 305.27265			43387.38302		67.61200		324.00000 
 43692.65567		 754.94715			42937.70853		201.71400		875.00000 
 43692.65567		 305.27265			43387.38302		67.61200		324.00000 
 43692.65567		 754.94715			42937.70853		201.71400		875.00000 
 43692.65567		 305.27265			43387.38302		67.61200		324.00000 
 43692.65567		 754.94715			42937.70853		201.71400		875.00000 
 43692.65567		 305.27265			43387.38302		67.61200		324.00000 
 43692.65567		 754.94715			42937.70853		201.71400		875.00000 
 43692.65567		 305.27265			43387.38302		67.61200		324.00000 
 43692.65567		 754.94715			42937.70853		201.71400		875.00000 
 43692.65567		 305.27265			43387.38302		67.61200		324.00000 
 43692.65567		 754.94715			42937.70853		201.71400		875.00000 
 43692.65567		 305.27265			43387.38302		67.61200		324.00000 
 43692.65567		 754.94715			42937.70853		201.71400		875.00000 
 43692.65567		 305.27265			43387.38302		67.61200		324.00000 
 43692.65567		 754.94715			42937.70853		201.71400		875.00000 
 43692.65567		 305.27265			43387.38302		67.61200		324.00000 
 43692.65567		 754.94715			42937.70853		201.71400		875.00000 
 43692.65567		 305.27265			43387.38302		67.61200		324.00000 
 43692.65567		 754.94715			42937.70853		201.71400		875.00000 
 43692.65567		 305.27265			43387.38302		67.61200		324.00000 
 43692.65567		 754.94715			42937.70853		201.71400		875.00000 
 43692.65567		 305.27265			43387.38302		67.61200		324.00000 
 43692.65567		 754.94715			42937.70853		201.71400		875.00000 
 43692.65567		 305.27265			43387.38302		67.61200		324.00000 
 43692.65567		 754.94715			42937.70853		201.71400		875.00000 
 43692.65567		 305.27265			43387.38302		67.61200		324.00000 
 43692.65567		 754.94715			42937.70853		201.71400		875.00000 
 43692.65567		 305.27265			43387.38302		67.61200		324.00000 
 43692.65567		 754.94715			42937.70853		201.71400		875.00000 
 43692.65567		 305.27265			43387.38302		67.61200		324.00000 
 43692.65567		 754.94715			42937.70853		201.71400		875.00000 
 43692.65567		 305.27265			43387.38302		67.61200		324.00000 
 43692.65567		 754.94715			42937.70853		201.71400		875.00000 
 43692.65567		 305.27265			43387.38302		67.61200		324.00000 
 43692.65567		 754.94715			42937.70853		201.71400		875.00000 
 43692.65567		 305.27265			43387.38302		67.61200		324.00000 
 43692.65567		 754.94715			42937.70853		201.71400		875.00000 
 43692.65567		 305.27265			43387.38302		67.61200		324.00000 
 43692.65567		 754.94715			42937.70853		216.62200		875.00000 
 43692.65567		 305.27265			43387.38302		67.61200		324.00000 
 43692.65567		 754.94715			42937.70853		216.62200		875.00000 
 43692.65567		 305.27265			43387.38302		67.61200		324.00000 
 43692.65567		 754.94715			42937.70853		216.62200		875.00000 
 43692.65567		 305.27265			43387.38302		67.61200		324.00000 
 43692.65567		 754.94715			42937.70853		216.62200		875.00000 
 43692.65567		 305.27265			43387.38302		67.61200		324.00000 
 43692.65567		 754.94715			42937.70853		216.62200		875.00000 
 43692.65567		 305.27265			43387.38302		67.61200		324.00000 
 43692.65567		 754.94715			42937.70853		216.62200		875.00000 
 43692.65567		 305.27265			43387.38302		67.61200		324.00000 
 43692.65567		 754.94715			42937.70853		216.62200		875.00000 
 43692.65567		 305.27265			43387.38302		67.61200		324.00000 
 43692.65567		 754.94715			42937.70853		216.62200		875.00000 
 43692.65567		 305.27265			43387.38302		67.61200		324.00000 
 43692.65567		 754.94715			42937.70853		216.62200		875.00000 
 43692.65567		 305.27265			43387.38302		67.61200		324.00000 
 43692.65567		 754.94715			42937.70853		216.62200		875.00000 
 43692.65567		 305.27265			43387.38302		67.61200		324.00000 
 43692.65567		 754.94715			42937.70853		216.62200		875.00000 
 43692.65567		 305.27265			43387.38302		67.61200		324.00000 
 43692.65567		 754.94715			42937.70853		216.62200		875.00000 
 43692.65567		 305.27265			43387.38302		67.61200		324.00000 
 43692.65567		 754.94715			42937.70853		216.62200		875.00000 
 43692.65567		 305.27265			43387.38302		67.61200		324.00000 
 43692.65567		 754.94715			42937.70853		216.62200		875.00000 
 43692.65567		 305.27265			43387.38302		67.61200		324.00000 
 43692.65567		 754.94715			42937.70853		216.62200		875.00000 
 43692.65567		 305.27265			43387.38302		67.61200		324.00000 
 43692.65567		 754.94715			42937.70853		216.62200		875.00000 
 43692.65567		 305.27265			43387.38302		67.61200		324.00000 
 43692.65567		 754.94715			42937.70853		216.62200		875.00000 
 43692.65567		 305.27265			43387.38302		67.61200		324.00000 
 43692.65567		 754.94715			42937.70853		216.62200		875.00000 
 43692.65567		 305.27265			43387.38302		67.61200		324.00000 
 43692.65567		 754.94715			42937.70853		216.62200		875.00000 
 43692.65567		 305.27265			43387.38302		67.61200		324.00000 
 43692.65567		 754.94715			42937.70853		216.62200		875.00000 
 43692.65567		 305.27265			43387.38302		67.61200		324.00000 
 43692.65567		 754.94715			42937.70853		216.62200		875.00000 
 43692.65567		 305.27265			43387.38302		67.61200		324.00000 
 43692.65567		 754.94715			42937.70853		216.62200		875.00000 
 43692.65567		 305.27265			43387.38302		67.61200		324.00000 
 43692.65567		 754.94715			42937.70853		216.62200		875.00000 
 43692.65567		 305.27265			43387.38302		67.61200		324.00000 
 43692.65567		 754.94715			42937.70853		216.62200		875.00000 
 43692.65567		 305.27265			43387.38302		67.61200		324.00000 
 43692.65567		 754.94715			42937.70853		216.62200		875.00000 
 43692.65567		 305.27265			43387.38302		67.61200		324.00000 
 43692.65567		 754.94715			42937.70853		216.62200		875.00000 
 43692.65567		 305.27265			43387.38302		67.61200		324.00000 
 43692.65567		 754.94715			42937.70853		216.62200		875.00000 
 43692.65567		 305.27265			43387.38302		67.61200		324.00000 
 43692.65567		 754.94715			42937.70853		216.62200		875.00000 
 43692.65567		 305.27265			43387.38302		67.61200		324.00000 
 43692.65567		 754.94715			42937.70853		216.62200		875.00000 
 43692.65567		 305.27265			43387.38302		67.61200		324.00000 
 43692.65567		 754.94715			42937.70853		216.62200		875.00000 
 43692.65567		 305.27265			43387.38302		67.61200		324.00000 
 43692.65567		 754.94715			42937.70853		216.62200		875.00000 
 43692.65567		 305.27265			43387.38302		67.61200		324.00000 
 43692.65567		 754.94715			42937.70853		216.62200		875.00000 
 43692.65567		 305.27265			43387.38302		67.61200		324.00000 
 43692.65567		 754.94715			42937.70853		216.62200		875.00000 
 43692.65567		 305.27265			43387.38302		67.61200		324.00000 
 43692.65567		 754.94715			42937.70853		216.62200		875.00000 
 43692.65567		 305.27265			43387.38302		67.61200		324.00000 
 43692.65567		 754.94715			42937.70853		216.62200		875.00000 
 43692.65567		 305.27265			43387.38302		67.61200		324.00000 
 43692.65567		 754.94715			42937.70853		216.62200		875.00000 
 43692.65567		 305.27265			43387.38302		67.61200		324.00000 
 43692.65567		 754.94715			42937.70853		216.62200		875.00000 
 43692.65567		 305.27265			43387.38302		67.61200		324.00000 
 43692.65567		 754.94715			42937.70853		216.62200		875.00000 
 43692.65567		 305.27265			43387.38302		67.61200		324.00000 
 43692.65567		 754.94715			42937.70853		216.62200		875.00000 
 43692.65567		 305.27265			43387.38302		67.61200		324.00000 
 43692.65567		 754.94715			42937.70853		216.62200		875.00000 
 43692.65567		 305.27265			43387.38302		67.61200		324.00000 
 43692.65567		 754.94715			42937.70853		216.62200		875.00000 
 43692.65567		 305.27265			43387.38302		67.61200		324.00000 
 43692.65567		 754.94715			42937.70853		216.62200		875.00000 
 43692.65567		 305.27265			43387.38302		67.61200		324.00000 
 43692.65567		 754.94715			42937.70853		216.62200		875.00000 
 43692.65567		 305.27265			43387.38302		67.61200		324.00000 
 43692.65567		 754.94715			42937.70853		216.62200		875.00000 
 43692.65567		 305.27265			43387.38302		67.61200		324.00000 
 43692.65567		 754.94715			42937.70853		216.62200		875.00000 
 43692.65567		 305.27265			43387.38302		67.61200		324.00000 
 43692.65567		 754.94715			42937.70853		216.62200		875.00000 
 43692.65567		 305.27265			43387.38302		67.61200		324.00000 
 43692.65567		 754.94715			42937.70853		216.62200		875.00000 
 43692.65567		 305.27265			43387.38302		67.61200		324.00000 
 43692.65567		 754.94715			42937.70853		216.62200		875.00000 
 43692.65567		 305.27265			43387.38302		67.61200		324.00000 
 43692.65567		 754.94715			42937.70853		216.62200		875.00000 
 43692.65567		 305.27265			43387.38302		67.61200		324.00000 
 43692.65567		 754.94715			42937.70853		216.62200		875.00000 
 43692.65567		 305.27265			43387.38302		67.61200		324.00000 
 43692.65567		 754.94715			42937.70853		216.62200		875.00000 
 43692.65567		 305.27265			43387.38302		67.61200		324.00000 
 43692.65567		 754.94715			42937.70853		216.62200		875.00000 
 43692.65567		 305.27265			43387.38302		67.61200		324.00000 
 43692.65567		 754.94715			42937.70853		216.62200		875.00000 
 43692.65567		 305.27265			43387.38302		67.61200		324.00000 
 43692.65567		 754.94715			42937.70853		216.62200		875.00000 
 43692.65567		 305.27265			43387.38302		67.61200		324.00000 
 43692.65567		 754.94715			42937.70853		216.62200		875.00000 
 43692.65567		 305.27265			43387.38302		67.61200		324.00000 
 43692.65567		 754.94715			42937.70853		216.62200		875.00000 
 43692.65567		 305.27265			43387.38302		67.61200		324.00000 
 43692.65567		 754.94715			42937.70853		216.62200		875.00000 
 43692.65567		 305.27265			43387.38302		67.61200		324.00000 
 43692.65567		 754.94715			42937.70853		216.62200		875.00000 
 43692.65567		 305.27265			43387.38302		67.61200		324.00000 
 43692.65567		 754.94715			42937.70853		216.62200		875.00000 
 43692.65567		 305.27265			43387.38302		67.61200		324.00000 
 43692.65567		 754.94715			42937.70853		216.62200		875.00000 
 43692.65567		 305.27265			43387.38302		67.61200		324.00000 
 43692.65567		 754.94715			42937.70853		216.62200		875.00000 
 43692.65567		 305.27265			43387.38302		67.61200		324.00000 
 43692.65567		 754.94715			42937.70853		216.62200		875.00000 
 43692.65567		 305.27265			43387.38302		67.61200		324.00000 
 43692.65567		 754.94715			42937.70853		216.62200		875.00000 
 43692.65567		 305.27265			43387.38302		67.61200		324.00000 
 43692.65567		 754.94715			42937.70853		216.62200		875.00000 
 43692.65567		 305.27265			43387.38302		67.61200		324.00000 
 43692.65567		 754.94715			42937.70853		221.81800		875.00000 
 43692.65567		 305.27265			43387.38302		67.61200		324.00000 
 43692.65567		 754.94715			42937.70853		221.81800		875.00000 
 43692.65567		 305.27265			43387.38302		67.61200		324.00000 
 43692.65567		 754.94715			42937.70853		221.81800		875.00000 
 43692.65567		 305.27265			43387.38302		67.61200		324.00000 
 43692.65567		 754.94715			42937.70853		221.81800		875.00000 
 43692.65567		 305.27265			43387.38302		67.61200		324.00000 
 43692.65567		 754.94715			42937.70853		221.81800		875.00000 
 43692.65567		 305.27265			43387.38302		67.61200		324.00000 
 43692.65567		 754.94715			42937.70853		221.81800		875.00000 
 43692.65567		 305.27265			43387.38302		67.61200		324.00000 
 43692.65567		 754.94715			42937.70853		221.81800		875.00000 
 43692.65567		 305.27265			43387.38302		67.61200		324.00000 
 43692.65567		 754.94715			42937.70853		221.81800		875.00000 
 43692.65567		 305.27265			43387.38302		67.61200		324.00000 
 43692.65567		 754.94715			42937.70853		221.81800		875.00000 
 43692.65567		 305.27265			43387.38302		67.61200		324.00000 
 43692.65567		 754.94715			42937.70853		221.81800		875.00000 
 43692.65567		 305.27265			43387.38302		67.61200		324.00000 
 43692.65567		 754.94715			42937.70853		221.81800		875.00000 
 43692.65567		 305.27265			43387.38302		67.61200		324.00000 
 43692.65567		 754.94715			42937.70853		221.81800		875.00000 
 43692.65567		 305.27265			43387.38302		67.61200		324.00000 
 43692.65567		 754.94715			42937.70853		221.81800		875.00000 
 43692.65567		 305.27265			43387.38302		67.61200		324.00000 
 43692.65567		 754.94715			42937.70853		221.81800		875.00000 
 43692.65567		 305.27265			43387.38302		67.61200		324.00000 
 43692.65567		 754.94715			42937.70853		221.81800		875.00000 
 43692.65567		 305.27265			43387.38302		67.61200		324.00000 
 43692.65567		 754.94715			42937.70853		221.81800		875.00000 
 43692.65567		 305.27265			43387.38302		67.61200		324.00000 
 43692.65567		 754.94715			42937.70853		221.81800		875.00000 
 43692.65567		 305.27265			43387.38302		67.61200		324.00000 
 43692.65567		 754.94715			42937.70853		221.81800		875.00000 
 43692.65567		 305.27265			43387.38302		67.61200		324.00000 
 43692.65567		 754.94715			42937.70853		221.81800		875.00000 
 43692.65567		 305.27265			43387.38302		67.61200		324.00000 
 43692.65567		 754.94715			42937.70853		221.81800		875.00000 
 43692.65567		 305.27265			43387.38302		67.61200		324.00000 
 43692.65567		 754.94715			42937.70853		221.81800		875.00000 
 43692.65567		 305.27265			43387.38302		67.61200		324.00000 
 43692.65567		 754.94715			42937.70853		221.81800		875.00000 
 43692.65567		 305.27265			43387.38302		67.61200		324.00000 
 43692.65567		 754.94715			42937.70853		221.81800		875.00000 
 43692.65567		 305.27265			43387.38302		67.61200		324.00000 
 43692.65567		 754.94715			42937.70853		221.81800		875.00000 
 43692.65567		 305.27265			43387.38302		67.61200		324.00000 
 43692.65567		 754.94715			42937.70853		221.81800		875.00000 
 43692.65567		 305.27265			43387.38302		67.61200		324.00000 
 43692.65567		 754.94715			42937.70853		221.81800		875.00000 
 43692.65567		 305.27265			43387.38302		67.61200		324.00000 
 43692.65567		 754.94715			42937.70853		221.81800		875.00000 
 43692.65567		 305.27265			43387.38302		67.61200		324.00000 
 43692.65567		 754.94715			42937.70853		221.81800		875.00000 
 43692.65567		 305.27265			43387.38302		67.61200		324.00000 
 43692.65567		 754.94715			42937.70853		221.81800		875.00000 
 43692.65567		 305.27265			43387.38302		67.61200		324.00000 
 43692.65567		 754.94715			42937.70853		221.81800		875.00000 
 43692.65567		 305.27265			43387.38302		67.61200		324.00000 
 43692.65567		 754.94715			42937.70853		221.81800		875.00000 
 43692.65567		 305.27265			43387.38302		67.61200		324.00000 
 43692.65567		 754.94715			42937.70853		221.81800		875.00000 
 43692.65567		 305.27265			43387.38302		67.61200		324.00000 
 43692.65567		 754.94715			42937.70853		221.81800		875.00000 
 43692.65567		 305.27265			43387.38302		67.61200		324.00000 
 43692.65567		 754.94715			42937.70853		221.81800		875.00000 
 43692.65567		 305.27265			43387.38302		67.61200		324.00000 
 43692.65567		 754.94715			42937.70853		221.81800		875.00000 
 43692.65567		 305.27265			43387.38302		67.61200		324.00000 
 43692.65567		 754.94715			42937.70853		221.81800		875.00000 
 43692.65567		 305.27265			43387.38302		67.61200		324.00000 
 43692.65567		 754.94715			42937.70853		221.81800		875.00000 
 43692.65567		 305.27265			43387.38302		67.61200		324.00000 
 43692.65567		 754.94715			42937.70853		221.81800		875.00000 
 43692.65567		 305.27265			43387.38302		67.61200		324.00000 
 43692.65567		 754.94715			42937.70853		221.81800		875.00000 
 43692.65567		 305.27265			43387.38302		67.61200		324.00000 
 43692.65567		 754.94715			42937.70853		221.81800		875.00000 
 43692.65567		 305.27265			43387.38302		67.61200		324.00000 
 43692.65567		 754.94715			42937.70853		221.81800		875.00000 
 43692.65567		 305.27265			43387.38302		67.61200		324.00000 
 43692.65567		 754.94715			42937.70853		221.81800		875.00000 
 43692.65567		 305.27265			43387.38302		67.61200		324.00000 
 43692.65567		 754.94715			42937.70853		221.81800		875.00000 
 43692.65567		 305.27265			43387.38302		67.61200		324.00000 
 43692.65567		 754.94715			42937.70853		221.81800		875.00000 
 43692.65567		 305.27265			43387.38302		67.61200		324.00000 
 43692.65567		 754.94715			42937.70853		221.81800		875.00000 
 43692.65567		 305.27265			43387.38302		67.61200		324.00000 
 43692.65567		 754.94715			42937.70853		221.81800		875.00000 
 43692.65567		 305.27265			43387.38302		67.61200		324.00000 
 43692.65567		 754.94715			42937.70853		221.81800		875.00000 
 43692.65567		 305.27265			43387.38302		67.61200		324.00000 
 43692.65567		 754.94715			42937.70853		221.81800		875.00000 
 43692.65567		 305.27265			43387.38302		67.61200		324.00000 
 43692.65567		 754.94715			42937.70853		221.81800		875.00000 
 43692.65567		 305.27265			43387.38302		67.61200		324.00000 
 43692.65567		 754.94715			42937.70853		221.81800		875.00000 
 43692.65567		 305.27265			43387.38302		67.61200		324.00000 
 43692.65567		 754.94715			42937.70853		221.81800		875.00000 
 43692.65567		 305.27265			43387.38302		67.61200		324.00000 
 43692.65567		 754.94715			42937.70853		221.81800		875.00000 
 43692.65567		 305.27265			43387.38302		67.61200		324.00000 
 43692.65567		 754.94715			42937.70853		221.81800		875.00000 
 43692.65567		 305.27265			43387.38302		67.61200		324.00000 
 43692.65567		 754.94715			42937.70853		221.81800		875.00000 
 43692.65567		 305.27265			43387.38302		67.61200		324.00000 
 43692.65567		 754.94715			42937.70853		221.81800		875.00000 
 43692.65567		 305.27265			43387.38302		67.61200		324.00000 
 43692.65567		 754.94715			42937.70853		221.81800		875.00000 
 43692.65567		 305.27265			43387.38302		67.61200		324.00000 
 43692.65567		 754.94715			42937.70853		221.81800		875.00000 
 43692.65567		 305.27265			43387.38302		67.61200		324.00000 
 43692.65567		 754.94715			42937.70853		221.81800		875.00000 
 43692.65567		 305.27265			43387.38302		67.61200		324.00000 
 43692.65567		 754.94715			42937.70853		221.81800		875.00000 
 43692.65567		 305.27265			43387.38302		67.61200		324.00000 
 43692.65567		 754.94715			42937.70853		221.81800		875.00000 
 43692.65567		 305.27265			43387.38302		67.61200		324.00000 
 43692.65567		 754.94715			42937.70853		221.81800		875.00000 
 43692.65567		 305.27265			43387.38302		67.61200		324.00000 
 43692.65567		 754.94715			42937.70853		221.81800		875.00000 
 43692.65567		 305.27265			43387.38302		67.61200		324.00000 
 43692.65567		 754.94715			42937.70853		221.81800		875.00000 
 43692.65567		 305.27265			43387.38302		67.61200		324.00000 
 43692.65567		 754.94715			42937.70853		221.81800		875.00000 
 43692.65567		 305.27265			43387.38302		67.61200		324.00000 
 43692.65567		 754.94715			42937.70853		224.17600		875.00000 
 43692.65567		 305.27265			43387.38302		67.61200		324.00000 
 43692.65567		 754.94715			42937.70853		224.17600		875.00000 
 43692.65567		 305.27265			43387.38302		67.61200		324.00000 
 43692.65567		 754.94715			42937.70853		224.17600		875.00000 
 43692.65567		 305.27265			43387.38302		67.61200		324.00000 
 43692.65567		 754.94715			42937.70853		224.17600		875.00000 
 43692.65567		 305.27265			43387.38302		67.61200		324.00000 
 43692.65567		 754.94715			42937.70853		224.17600		875.00000 
 43692.65567		 305.27265			43387.38302		67.61200		324.00000 
 43692.65567		 754.94715			42937.70853		224.17600		875.00000 
 43692.65567		 305.27265			43387.38302		67.61200		324.00000 
 43692.65567		 754.94715			42937.70853		224.17600		875.00000 
 43692.65567		 305.27265			43387.38302		67.61200		324.00000 
 43692.65567		 754.94715			42937.70853		224.17600		875.00000 
 43692.65567		 305.27265			43387.38302		67.61200		324.00000 
 43692.65567		 754.94715			42937.70853		224.17600		875.00000 
 43692.65567		 305.27265			43387.38302		67.61200		324.00000 
 43692.65567		 754.94715			42937.70853		224.17600		875.00000 
 43692.65567		 305.27265			43387.38302		67.61200		324.00000 
 43692.65567		 754.94715			42937.70853		224.17600		875.00000 
 43692.65567		 305.27265			43387.38302		67.61200		324.00000 
 43692.65567		 754.94715			42937.70853		224.17600		875.00000 
 43692.65567		 305.27265			43387.38302		67.61200		324.00000 
 43692.65567		 754.94715			42937.70853		224.17600		875.00000 
 43692.65567		 305.27265			43387.38302		67.61200		324.00000 
 43692.65567		 754.94715			42937.70853		224.17600		875.00000 
 43692.65567		 305.27265			43387.38302		67.61200		324.00000 
 43692.65567		 754.94715			42937.70853		224.17600		875.00000 
 43692.65567		 305.27265			43387.38302		67.61200		324.00000 
 43692.65567		 754.94715			42937.70853		224.17600		875.00000 
 43692.65567		 305.27265			43387.38302		67.61200		324.00000 
 43692.65567		 754.94715			42937.70853		224.17600		875.00000 
 43692.65567		 305.27265			43387.38302		67.61200		324.00000 
 43692.65567		 754.94715			42937.70853		224.17600		875.00000 
 43692.65567		 305.27265			43387.38302		67.61200		324.00000 
 43692.65567		 754.94715			42937.70853		224.17600		875.00000 
 43692.65567		 305.27265			43387.38302		67.61200		324.00000 
 43692.65567		 754.94715			42937.70853		224.17600		875.00000 
 43692.65567		 305.27265			43387.38302		67.61200		324.00000 
 43692.65567		 754.94715			42937.70853		224.17600		875.00000 
 43692.65567		 305.27265			43387.38302		67.61200		324.00000 
 43692.65567		 754.94715			42937.70853		224.17600		875.00000 
 43692.65567		 305.27265			43387.38302		67.61200		324.00000 
 43692.65567		 754.94715			42937.70853		224.17600		875.00000 
 43692.65567		 305.27265			43387.38302		67.61200		324.00000 
 43692.65567		 754.94715			42937.70853		224.17600		875.00000 
 43692.65567		 305.27265			43387.38302		67.61200		324.00000 
 43692.65567		 754.94715			42937.70853		224.17600		875.00000 
 43692.65567		 305.27265			43387.38302		67.61200		324.00000 
 43692.65567		 754.94715			42937.70853		224.17600		875.00000 
 43692.65567		 305.27265			43387.38302		67.61200		324.00000 
 43692.65567		 754.94715			42937.70853		224.17600		875.00000 
 43692.65567		 305.27265			43387.38302		67.61200		324.00000 
 43692.65567		 754.94715			42937.70853		224.17600		875.00000 
 43692.65567		 305.27265			43387.38302		67.61200		324.00000 
 43692.65567		 754.94715			42937.70853		224.17600		875.00000 
 43692.65567		 305.27265			43387.38302		67.61200		324.00000 
 43692.65567		 754.94715			42937.70853		224.17600		875.00000 
 43692.65567		 305.27265			43387.38302		67.61200		324.00000 
 43692.65567		 754.94715			42937.70853		224.17600		875.00000 
 43692.65567		 305.27265			43387.38302		67.61200		324.00000 
 43692.65567		 754.94715			42937.70853		224.17600		875.00000 
 43692.65567		 305.27265			43387.38302		67.61200		324.00000 
 43692.65567		 754.94715			42937.70853		224.17600		875.00000 
 43692.65567		 305.27265			43387.38302		67.61200		324.00000 
 43692.65567		 754.94715			42937.70853		224.17600		875.00000 
 43692.65567		 305.27265			43387.38302		67.61200		324.00000 
 43692.65567		 754.94715			42937.70853		224.17600		875.00000 
 43692.65567		 305.27265			43387.38302		67.61200		324.00000 
 43692.65567		 754.94715			42937.70853		224.17600		875.00000 
 43692.65567		 305.27265			43387.38302		67.61200		324.00000 
 43692.65567		 754.94715			42937.70853		224.17600		875.00000 
 43692.65567		 305.27265			43387.38302		67.61200		324.00000 
 43692.65567		 754.94715			42937.70853		224.17600		875.00000 
 43692.65567		 305.27265			43387.38302		67.61200		324.00000 
 43692.65567		 754.94715			42937.70853		224.17600		875.00000 
 43692.65567		 305.27265			43387.38302		67.61200		324.00000 
 43692.65567		 754.94715			42937.70853		224.17600		875.00000 
 43692.65567		 305.27265			43387.38302		67.61200		324.00000 
 43692.65567		 754.94715			42937.70853		224.17600		875.00000 
 43692.65567		 305.27265			43387.38302		67.61200		324.00000 
 43692.65567		 754.94715			42937.70853		224.17600		875.00000 
 43692.65567		 305.27265			43387.38302		67.61200		324.00000 
 43692.65567		 754.94715			42937.70853		224.17600		875.00000 
 43692.65567		 305.27265			43387.38302		67.61200		324.00000 
 43692.65567		 754.94715			42937.70853		224.17600		875.00000 
 43692.65567		 305.27265			43387.38302		67.61200		324.00000 
 43692.65567		 754.94715			42937.70853		224.17600		875.00000 
 43692.65567		 305.27265			43387.38302		67.61200		324.00000 
 43692.65567		 754.94715			42937.70853		224.17600		875.00000 
 43692.65567		 305.27265			43387.38302		67.61200		324.00000 
 43692.65567		 754.94715			42937.70853		224.17600		875.00000 
 43692.65567		 305.27265			43387.38302		67.61200		324.00000 
 43692.65567		 754.94715			42937.70853		224.17600		875.00000 
 43692.65567		 305.27265			43387.38302		67.61200		324.00000 
 43692.65567		 754.94715			42937.70853		224.17600		875.00000 
 43692.65567		 305.27265			43387.38302		67.61200		324.00000 
 43692.65567		 754.94715			42937.70853		224.17600		875.00000 
 43692.65567		 305.27265			43387.38302		67.61200		324.00000 
 43692.65567		 754.94715			42937.70853		224.17600		875.00000 
 43692.65567		 305.27265			43387.38302		67.61200		324.00000 
 43692.65567		 754.94715			42937.70853		224.17600		875.00000 
 43692.65567		 305.27265			43387.38302		67.61200		324.00000 
 43692.65567		 754.94715			42937.70853		224.17600		875.00000 
 43692.65567		 305.27265			43387.38302		67.61200		324.00000 
 43692.65567		 754.94715			42937.70853		224.17600		875.00000 
 43692.65567		 305.27265			43387.38302		67.61200		324.00000 
 43692.65567		 754.94715			42937.70853		224.17600		875.00000 
 43692.65567		 305.27265			43387.38302		67.61200		324.00000 
 43692.65567		 754.94715			42937.70853		224.17600		875.00000 
 43692.65567		 305.27265			43387.38302		67.61200		324.00000 
 43692.65567		 754.94715			42937.70853		224.17600		875.00000 
 43692.65567		 305.27265			43387.38302		67.61200		324.00000 
 43692.65567		 754.94715			42937.70853		224.17600		875.00000 
 43692.65567		 305.27265			43387.38302		67.61200		324.00000 
 43692.65567		 754.94715			42937.70853		224.17600		875.00000 
 43692.65567		 305.27265			43387.38302		67.61200		324.00000 
 43692.65567		 754.94715			42937.70853		224.17600		875.00000 
 43692.65567		 305.27265			43387.38302		67.61200		324.00000 
 43692.65567		 754.94715			42937.70853		224.17600		875.00000 
 43692.65567		 305.27265			43387.38302		67.61200		324.00000 
 43692.65567		 754.94715			42937.70853		224.17600		875.00000 
 43692.65567		 305.27265			43387.38302		67.61200		324.00000 
 43692.65567		 754.94715			42937.70853		224.17600		875.00000 
 43692.65567		 305.27265			43387.38302		67.61200		324.00000 
 43692.65567		 754.94715			42937.70853		224.17600		875.00000 
 43692.65567		 305.27265			43387.38302		67.61200		324.00000 
 43692.65567		 754.94715			42937.70853		224.98400		875.00000 
 43692.65567		 305.27265			43387.38302		67.61200		324.00000 
 43692.65567		 754.94715			42937.70853		224.98400		875.00000 
 43692.65567		 305.27265			43387.38302		67.61200		324.00000 
 43692.65567		 754.94715			42937.70853		224.98400		875.00000 
 43692.65567		 305.27265			43387.38302		67.61200		324.00000 
 43692.65567		 754.94715			42937.70853		224.98400		875.00000 
 43692.65567		 305.27265			43387.38302		67.61200		324.00000 
 43692.65567		 754.94715			42937.70853		224.98400		875.00000 
 43692.65567		 305.27265			43387.38302		67.61200		324.00000 
 43692.65567		 754.94715			42937.70853		224.98400		875.00000 
 43692.65567		 305.27265			43387.38302		67.61200		324.00000 
 43692.65567		 754.94715			42937.70853		224.98400		875.00000 
 43692.65567		 305.27265			43387.38302		67.61200		324.00000 
 43692.65567		 754.94715			42937.70853		224.98400		875.00000 
 43692.65567		 305.27265			43387.38302		67.61200		324.00000 
 43692.65567		 754.94715			42937.70853		224.98400		875.00000 
 43692.65567		 305.27265			43387.38302		67.61200		324.00000 
 43692.65567		 754.94715			42937.70853		224.98400		875.00000 
 43692.65567		 305.27265			43387.38302		67.61200		324.00000 
 43692.65567		 754.94715			42937.70853		224.98400		875.00000 
 43692.65567		 305.27265			43387.38302		67.61200		324.00000 
 43692.65567		 754.94715			42937.70853		224.98400		875.00000 
 43692.65567		 305.27265			43387.38302		67.61200		324.00000 
 43692.65567		 754.94715			42937.70853		224.98400		875.00000 
 43692.65567		 305.27265			43387.38302		67.61200		324.00000 
 43692.65567		 754.94715			42937.70853		224.98400		875.00000 
 43692.65567		 305.27265			43387.38302		67.61200		324.00000 
 43692.65567		 754.94715			42937.70853		224.98400		875.00000 
 43692.65567		 305.27265			43387.38302		67.61200		324.00000 
 43692.65567		 754.94715			42937.70853		224.98400		875.00000 
 43692.65567		 305.27265			43387.38302		67.61200		324.00000 
 43692.65567		 754.94715			42937.70853		224.98400		875.00000 
 43692.65567		 305.27265			43387.38302		67.61200		324.00000 
 43692.65567		 754.94715			42937.70853		224.98400		875.00000 
 43692.65567		 305.27265			43387.38302		67.61200		324.00000 
 43692.65567		 754.94715			42937.70853		224.98400		875.00000 
 43692.65567		 305.27265			43387.38302		67.61200		324.00000 
 43692.65567		 754.94715			42937.70853		224.98400		875.00000 
 43692.65567		 305.27265			43387.38302		67.61200		324.00000 
 43692.65567		 754.94715			42937.70853		224.98400		875.00000 
 43692.65567		 305.27265			43387.38302		67.61200		324.00000 
 43692.65567		 754.94715			42937.70853		224.98400		875.00000 
 43692.65567		 305.27265			43387.38302		67.61200		324.00000 
 43692.65567		 754.94715			42937.70853		224.98400		875.00000 
 43692.65567		 305.27265			43387.38302		67.61200		324.00000 
 43692.65567		 754.94715			42937.70853		224.98400		875.00000 
 43692.65567		 305.27265			43387.38302		67.61200		324.00000 
 43692.65567		 754.94715			42937.70853		224.98400		875.00000 
 43692.65567		 305.27265			43387.38302		67.61200		324.00000 
 43692.65567		 754.94715			42937.70853		224.98400		875.00000 
 43692.65567		 305.27265			43387.38302		67.61200		324.00000 
 43692.65567		 754.94715			42937.70853		224.98400		875.00000 
 43692.65567		 305.27265			43387.38302		67.61200		324.00000 
 43692.65567		 754.94715			42937.70853		224.98400		875.00000 
 43692.65567		 305.27265			43387.38302		67.61200		324.00000 
 43692.65567		 754.94715			42937.70853		224.98400		875.00000 
 43692.65567		 305.27265			43387.38302		67.61200		324.00000 
 43692.65567		 754.94715			42937.70853		224.98400		875.00000 
 43692.65567		 305.27265			43387.38302		67.61200		324.00000 
 43692.65567		 754.94715			42937.70853		224.98400		875.00000 
 43692.65567		 305.27265			43387.38302		67.61200		324.00000 
 43692.65567		 754.94715			42937.70853		224.98400		875.00000 
 43692.65567		 305.27265			43387.38302		67.61200		324.00000 
 43692.65567		 754.94715			42937.70853		224.98400		875.00000 
 43692.65567		 305.27265			43387.38302		67.61200		324.00000 
 43692.65567		 754.94715			42937.70853		224.98400		875.00000 
 43692.65567		 305.27265			43387.38302		67.61200		324.00000 
 43692.65567		 754.94715			42937.70853		224.98400		875.00000 
 43692.65567		 305.27265			43387.38302		67.61200		324.00000 
 43692.65567		 754.94715			42937.70853		224.98400		875.00000 
 43692.65567		 305.27265			43387.38302		67.61200		324.00000 
 43692.65567		 754.94715			42937.70853		224.98400		875.00000 
 43692.65567		 305.27265			43387.38302		67.61200		324.00000 
 43692.65567		 754.94715			42937.70853		224.98400		875.00000 
 43692.65567		 305.27265			43387.38302		67.61200		324.00000 
 43692.65567		 754.94715			42937.70853		224.98400		875.00000 
 43692.65567		 305.27265			43387.38302		67.61200		324.00000 
 43692.65567		 754.94715			42937.70853		224.98400		875.00000 
 43692.65567		 305.27265			43387.38302		67.61200		324.00000 
 43692.65567		 754.94715			42937.70853		224.98400		875.00000 
 43692.65567		 305.27265			43387.38302		67.61200		324.00000 
 43692.65567		 754.94715			42937.70853		224.98400		875.00000 
 43692.65567		 305.27265			43387.38302		67.61200		324.00000 
 43692.65567		 754.94715			42937.70853		224.98400		875.00000 
 43692.65567		 305.27265			43387.38302		67.61200		324.00000 
 43692.65567		 754.94715			42937.70853		224.98400		875.00000 
 43692.65567		 305.27265			43387.38302		67.61200		324.00000 
 43692.65567		 754.94715			42937.70853		224.98400		875.00000 
 43692.65567		 305.27265			43387.38302		67.61200		324.00000 
 43692.65567		 754.94715			42937.70853		224.98400		875.00000 
 43692.65567		 305.27265			43387.38302		67.61200		324.00000 
 43692.65567		 754.94715			42937.70853		224.98400		875.00000 
 43692.65567		 305.27265			43387.38302		67.61200		324.00000 
 43692.65567		 754.94715			42937.70853		224.98400		875.00000 
 43692.65567		 305.27265			43387.38302		67.61200		324.00000 
 43692.65567		 754.94715			42937.70853		224.98400		875.00000 
 43692.65567		 305.27265			43387.38302		67.61200		324.00000 
 43692.65567		 754.94715			42937.70853		224.98400		875.00000 
 43692.65567		 305.27265			43387.38302		67.61200		324.00000 
 43692.65567		 754.94715			42937.70853		224.98400		875.00000 
 43692.65567		 305.27265			43387.38302		67.61200		324.00000 
 43692.65567		 754.94715			42937.70853		224.98400		875.00000 
 43692.65567		 305.27265			43387.38302		67.61200		324.00000 
 43692.65567		 754.94715			42937.70853		224.98400		875.00000 
 43692.65567		 305.27265			43387.38302		67.61200		324.00000 
 43692.65567		 754.94715			42937.70853		224.98400		875.00000 
 43692.65567		 305.27265			43387.38302		67.61200		324.00000 
 43692.65567		 754.94715			42937.70853		224.98400		875.00000 
 43692.65567		 305.27265			43387.38302		67.61200		324.00000 
 43692.65567		 754.94715			42937.70853		224.98400		875.00000 
 43692.65567		 305.27265			43387.38302		67.61200		324.00000 
 43692.65567		 754.94715			42937.70853		224.98400		875.00000 
 43692.65567		 305.27265			43387.38302		67.61200		324.00000 
 43692.65567		 754.94715			42937.70853		224.98400		875.00000 
 43692.65567		 305.27265			43387.38302		67.61200		324.00000 
 43692.65567		 754.94715			42937.70853		224.98400		875.00000 
 43692.65567		 305.27265			43387.38302		67.61200		324.00000 
 43692.65567		 754.94715			42937.70853		224.98400		875.00000 
 43692.65567		 305.27265			43387.38302		67.61200		324.00000 
 43692.65567		 754.94715			42937.70853		224.98400		875.00000 
 43692.65567		 305.27265			43387.38302		67.61200		324.00000 
 43692.65567		 754.94715			42937.70853		224.98400		875.00000 
 43692.65567		 305.27265			43387.38302		67.61200		324.00000 
 43692.65567		 754.94715			42937.70853		224.98400		875.00000 
 43692.65567		 305.27265			43387.38302		67.61200		324.00000 
 43692.65567		 754.94715			42937.70853		224.38800		875.00000 
 43692.65567		 305.27265			43387.38302		67.61200		324.00000 
 43692.65567		 754.94715			42937.70853		224.38800		875.00000 
 43692.65567		 305.27265			43387.38302		67.61200		324.00000 
 43692.65567		 754.94715			42937.70853		224.38800		875.00000 
 43692.65567		 305.27265			43387.38302		67.61200		324.00000 
 43692.65567		 754.94715			42937.70853		224.38800		875.00000 
 43692.65567		 305.27265			43387.38302		67.61200		324.00000 
 43692.65567		 754.94715			42937.70853		224.38800		875.00000 
 43692.65567		 305.27265			43387.38302		67.61200		324.00000 
 43692.65567		 754.94715			42937.70853		224.38800		875.00000 
 43692.65567		 305.27265			43387.38302		67.61200		324.00000 
 43692.65567		 754.94715			42937.70853		224.38800		875.00000 
 43692.65567		 305.27265			43387.38302		67.61200		324.00000 
 43692.65567		 754.94715			42937.70853		224.38800		875.00000 
 43692.65567		 305.27265			43387.38302		67.61200		324.00000 
 43692.65567		 754.94715			42937.70853		224.38800		875.00000 
 43692.65567		 305.27265			43387.38302		67.61200		324.00000 
 43692.65567		 754.94715			42937.70853		224.38800		875.00000 
 43692.65567		 305.27265			43387.38302		67.61200		324.00000 
 43692.65567		 754.94715			42937.70853		224.38800		875.00000 
 43692.65567		 305.27265			43387.38302		67.61200		324.00000 
 43692.65567		 754.94715			42937.70853		224.38800		875.00000 
 43692.65567		 305.27265			43387.38302		67.61200		324.00000 
 43692.65567		 754.94715			42937.70853		224.38800		875.00000 
 43692.65567		 305.27265			43387.38302		67.61200		324.00000 
 43692.65567		 754.94715			42937.70853		224.38800		875.00000 
 43692.65567		 305.27265			43387.38302		67.61200		324.00000 
 43692.65567		 754.94715			42937.70853		224.38800		875.00000 
 43692.65567		 305.27265			43387.38302		67.61200		324.00000 
 43692.65567		 754.94715			42937.70853		224.38800		875.00000 
 43692.65567		 305.27265			43387.38302		67.61200		324.00000 
 43692.65567		 754.94715			42937.70853		224.38800		875.00000 
 43692.65567		 305.27265			43387.38302		67.61200		324.00000 
 43692.65567		 754.94715			42937.70853		224.38800		875.00000 
 43692.65567		 305.27265			43387.38302		67.61200		324.00000 
 43692.65567		 754.94715			42937.70853		224.38800		875.00000 
 43692.65567		 305.27265			43387.38302		67.61200		324.00000 
 43692.65567		 754.94715			42937.70853		224.38800		875.00000 
 43692.65567		 305.27265			43387.38302		67.61200		324.00000 
 43692.65567		 754.94715			42937.70853		224.38800		875.00000 
 43692.65567		 305.27265			43387.38302		67.61200		324.00000 
 43692.65567		 754.94715			42937.70853		224.38800		875.00000 
 43692.65567		 305.27265			43387.38302		67.61200		324.00000 
 43692.65567		 754.94715			42937.70853		224.38800		875.00000 
 43692.65567		 305.27265			43387.38302		67.61200		324.00000 
 43692.65567		 754.94715			42937.70853		224.38800		875.00000 
 43692.65567		 305.27265			43387.38302		67.61200		324.00000 
 43692.65567		 754.94715			42937.70853		224.38800		875.00000 
 43692.65567		 305.27265			43387.38302		67.61200		324.00000 
 43692.65567		 754.94715			42937.70853		224.38800		875.00000 
 43692.65567		 305.27265			43387.38302		67.61200		324.00000 
 43692.65567		 754.94715			42937.70853		224.38800		875.00000 
 43692.65567		 305.27265			43387.38302		67.61200		324.00000 
 43692.65567		 754.94715			42937.70853		224.38800		875.00000 
 43692.65567		 305.27265			43387.38302		67.61200		324.00000 
 43692.65567		 754.94715			42937.70853		224.38800		875.00000 
 43692.65567		 305.27265			43387.38302		67.61200		324.00000 
 43692.65567		 754.94715			42937.70853		224.38800		875.00000 
 43692.65567		 305.27265			43387.38302		67.61200		324.00000 
 43692.65567		 754.94715			42937.70853		224.38800		875.00000 
 43692.65567		 305.27265			43387.38302		67.61200		324.00000 
 43692.65567		 754.94715			42937.70853		224.38800		875.00000 
 43692.65567		 305.27265			43387.38302		67.61200		324.00000 
 43692.65567		 754.94715			42937.70853		224.38800		875.00000 
 43692.65567		 305.27265			43387.38302		67.61200		324.00000 
 43692.65567		 754.94715			42937.70853		224.38800		875.00000 
 43692.65567		 305.27265			43387.38302		67.61200		324.00000 
 43692.65567		 754.94715			42937.70853		224.38800		875.00000 
 43692.65567		 305.27265			43387.38302		67.61200		324.00000 
 43692.65567		 754.94715			42937.70853		224.38800		875.00000 
 43692.65567		 305.27265			43387.38302		67.61200		324.00000 
 43692.65567		 754.94715			42937.70853		224.38800		875.00000 
 43692.65567		 305.27265			43387.38302		67.61200		324.00000 
 43692.65567		 754.94715			42937.70853		224.38800		875.00000 
 43692.65567		 305.27265			43387.38302		67.61200		324.00000 
 43692.65567		 754.94715			42937.70853		224.38800		875.00000 
 43692.65567		 305.27265			43387.38302		67.61200		324.00000 
 43692.65567		 754.94715			42937.70853		224.38800		875.00000 
 43692.65567		 305.27265			43387.38302		67.61200		324.00000 
 43692.65567		 754.94715			42937.70853		224.38800		875.00000 
 43692.65567		 305.27265			43387.38302		67.61200		324.00000 
 43692.65567		 754.94715			42937.70853		224.38800		875.00000 
 43692.65567		 305.27265			43387.38302		67.61200		324.00000 
 43692.65567		 754.94715			42937.70853		224.38800		875.00000 
 43692.65567		 305.27265			43387.38302		67.61200		324.00000 
 43692.65567		 754.94715			42937.70853		224.38800		875.00000 
 43692.65567		 305.27265			43387.38302		67.61200		324.00000 
 43692.65567		 754.94715			42937.70853		224.38800		875.00000 
 43692.65567		 305.27265			43387.38302		67.61200		324.00000 
 43692.65567		 754.94715			42937.70853		224.38800		875.00000 
 43692.65567		 305.27265			43387.38302		67.61200		324.00000 
 43692.65567		 754.94715			42937.70853		224.38800		875.00000 
 43692.65567		 305.27265			43387.38302		67.61200		324.00000 
 43692.65567		 754.94715			42937.70853		224.38800		875.00000 
 43692.65567		 305.27265			43387.38302		67.61200		324.00000 
 43692.65567		 754.94715			42937.70853		224.38800		875.00000 
 43692.65567		 305.27265			43387.38302		67.61200		324.00000 
 43692.65567		 754.94715			42937.70853		224.38800		875.00000 
 43692.65567		 305.27265			43387.38302		67.61200		324.00000 
 43692.65567		 754.94715			42937.70853		224.38800		875.00000 
 43692.65567		 305.27265			43387.38302		67.61200		324.00000 
 43692.65567		 754.94715			42937.70853		224.38800		875.00000 
 43692.65567		 305.27265			43387.38302		67.61200		324.00000 
 43692.65567		 754.94715			42937.70853		224.38800		875.00000 
 43692.65567		 305.27265			43387.38302		67.61200		324.00000 
 43692.65567		 754.94715			42937.70853		224.38800		875.00000 
 43692.65567		 305.27265			43387.38302		67.61200		324.00000 
 43692.65567		 754.94715			42937.70853		224.38800		875.00000 
 43692.65567		 305.27265			43387.38302		67.61200		324.00000 
 43692.65567		 754.94715			42937.70853		224.38800		875.00000 
 43692.65567		 305.27265			43387.38302		67.61200		324.00000 
 43692.65567		 754.94715			42937.70853		224.38800		875.00000 
 43692.65567		 305.27265			43387.38302		67.61200		324.00000 
 43692.65567		 754.94715			42937.70853		224.38800		875.00000 
 43692.65567		 305.27265			43387.38302		67.61200		324.00000 
 43692.65567		 754.94715			42937.70853		224.38800		875.00000 
 43692.65567		 305.27265			43387.38302		67.61200		324.00000 
 43692.65567		 754.94715			42937.70853		224.38800		875.00000 
 43692.65567		 305.27265			43387.38302		67.61200		324.00000 
 43692.65567		 754.94715			42937.70853		224.38800		875.00000 
 43692.65567		 305.27265			43387.38302		67.61200		324.00000 
 43692.65567		 754.94715			42937.70853		224.38800		875.00000 
 43692.65567		 305.27265			43387.38302		67.61200		324.00000 
 43692.65567		 754.94715			42937.70853		224.38800		875.00000 
 43692.65567		 305.27265			43387.38302		67.61200		324.00000 
 43692.65567		 754.94715			42937.70853		224.38800		875.00000 
 43692.65567		 305.27265			43387.38302		67.61200		324.00000 
 43692.65567		 754.94715			42937.70853		224.38800		875.00000 
 43692.65567		 305.27265			43387.38302		67.61200		324.00000 
 43692.65567		 754.94715			42937.70853		224.38800		875.00000 
 43692.65567		 305.27265			43387.38302		67.61200		324.00000 
 43692.65567		 754.94715			42937.70853		224.38800		875.00000 
 43692.65567		 305.27265			43387.38302		67.61200		324.00000 
 43692.65567		 754.94715			42937.70853		224.38800		875.00000 
 43692.65567		 305.27265			43387.38302		67.61200		324.00000 
 43692.65567		 754.94715			42937.70853		224.38800		875.00000 
 43692.65567		 305.27265			43387.38302		67.61200		324.00000 
 43692.65567		 754.94715			42937.70853		224.38800		875.00000 
 43692.65567		 305.27265			43387.38302		67.61200		324.00000 
 43692.65567		 754.94715			42937.70853		224.38800		875.00000 
 43692.65567		 305.27265			43387.38302		67.61200		324.00000 
 43692.65567		 754.94715			42937.70853		224.38800		875.00000 
 43692.65567		 305.27265			43387.38302		67.61200		324.00000 
 43692.65567		 754.94715			42937.70853		224.38800		875.00000 
 43692.65567		 305.27265			43387.38302		67.61200		324.00000 
 43692.65567		 754.94715			42937.70853		224.38800		875.00000 
 43692.65567		 305.27265			43387.38302		67.61200		324.00000 
 43692.65567		 754.94715			42937.70853		224.38800		875.00000 
 43692.65567		 305.27265			43387.38302		67.61200		324.00000 
 43692.65567		 754.94715			42937.70853		224.38800		875.00000 
 43692.65567		 305.27265			43387.38302		67.61200		324.00000 
 43692.65567		 754.94715			42937.70853		224.38800		875.00000 
 43692.65567		 305.27265			43387.38302		67.61200		324.00000 
 43692.65567		 754.94715			42937.70853		224.38800		875.00000 
 43692.65567		 305.27265			43387.38302		67.61200		324.00000 
 43692.65567		 754.94715			42937.70853		224.38800		875.00000 
 43692.65567		 305.27265			43387.38302		67.61200		324.00000 
 43692.65567		 754.94715			42937.70853		224.38800		875.00000 
 43692.65567		 305.27265			43387.38302		67.61200		324.00000 
 43692.65567		 754.94715			42937.70853		224.38800		875.00000 
 43692.65567		 305.27265			43387.38302		67.61200		324.00000 
 43692.65567		 754.94715			42937.70853		224.38800		875.00000 
 43692.65567		 305.27265			43387.38302		67.61200		324.00000 
 43692.65567		 754.94715			42937.70853		224.38800		875.00000 
 43692.65567		 305.27265			43387.38302		67.61200		324.00000 
 43692.65567		 754.94715			42937.70853		224.38800		875.00000 
 43692.65567		 305.27265			43387.38302		67.61200		324.00000 
 43692.65567		 754.94715			42937.70853		224.38800		875.00000 
 43692.65567		 305.27265			43387.38302		67.61200		324.00000 
 43692.65567		 754.94715			42937.70853		224.38800		875.00000 
 43692.65567		 305.27265			43387.38302		67.61200		324.00000 
 43692.65567		 754.94715			42937.70853		224.38800		875.00000 
 43692.65567		 305.27265			43387.38302		67.61200		324.00000 
 43692.65567		 754.94715			42937.70853		224.38800		875.00000 
 43692.65567		 305.27265			43387.38302		67.61200		324.00000 
 43692.65567		 754.94715			42937.70853		224.38800		875.00000 
 43692.65567		 305.27265			43387.38302		67.61200		324.00000 
 43692.65567		 754.94715			42937.70853		224.38800		875.00000 
 43692.65567		 305.27265			43387.38302		67.61200		324.00000 
 43692.65567		 754.94715			42937.70853		224.38800		875.00000 
 43692.65567		 305.27265			43387.38302		67.61200		324.00000 
 43692.65567		 754.94715			42937.70853		224.38800		875.00000 
 43692.65567		 305.27265			43387.38302		67.61200		324.00000 
 43692.65567		 754.94715			42937.70853		224.38800		875.00000 
 43692.65567		 305.27265			43387.38302		67.61200		324.00000 
 43692.65567		 754.94715			42937.70853		224.38800		875.00000 
 43692.65567		 305.27265			43387.38302		67.61200		324.00000 
 43692.65567		 754.94715			42937.70853		224.38800		875.00000 
 43692.65567		 305.27265			43387.38302		67.61200		324.00000 
 43692.65567		 754.94715			42937.70853		224.38800		875.00000 
 43692.65567		 305.27265			43387.38302		67.61200		324.00000 
 43692.65567		 754.94715			42937.70853		224.38800		875.00000 
 43692.65567		 305.27265			43387.38302		67.61200		324.00000 
 43692.65567		 754.94715			42937.70853		224.38800		875.00000 
 43692.65567		 305.27265			43387.38302		67.61200		324.00000 
 43692.65567		 754.94715			42937.70853		224.38800		875.00000 
 43692.65567		 305.27265			43387.38302		67.61200		324.00000 
 43692.65567		 754.94715			42937.70853		224.38800		875.00000 
 43692.65567		 305.27265			43387.38302		67.61200		324.00000 
 43692.65567		 754.94715			42937.70853		224.38800		875.00000 
 43692.65567		 305.27265			43387.38302		67.61200		324.00000 
 43692.65567		 754.94715			42937.70853		224.38800		875.00000 
 43692.65567		 305.27265			43387.38302		67.61200		324.00000 
 43692.65567		 754.94715			42937.70853		224.38800		875.00000 
 43692.65567		 305.27265			43387.38302		67.61200		324.00000 
 43692.65567		 754.94715			42937.70853		224.38800		875.00000 
 43692.65567		 305.27265			43387.38302		67.61200		324.00000 
 43692.65567		 754.94715			42937.70853		224.38800		875.00000 
 43692.65567		 305.27265			43387.38302		67.61200		324.00000 
 43692.65567		 754.94715			42937.70853		224.38800		875.00000 
 43692.65567		 305.27265			43387.38302		67.61200		324.00000 
 43692.65567		 754.94715			42937.70853		224.38800		875.00000 
 43692.65567		 305.27265			43387.38302		67.61200		324.00000 
 43692.65567		 754.94715			42937.70853		224.38800		875.00000 
 43692.65567		 305.27265			43387.38302		67.61200		324.00000 
 43692.65567		 754.94715			42937.70853		224.38800		875.00000 
 43692.65567		 305.27265			43387.38302		67.61200		324.00000 
 43692.65567		 754.94715			42937.70853		224.38800		875.00000 
 43692.65567		 305.27265			43387.38302		67.61200		324.00000 
 43692.65567		 754.94715			42937.70853		224.38800		875.00000 
 43692.65567		 305.27265			43387.38302		67.61200		324.00000 
 43692.65567		 754.94715			42937.70853		224.38800		875.00000 
 43692.65567		 305.27265			43387.38302		67.61200		324.00000 
 43692.65567		 754.94715			42937.70853		224.38800		875.00000 
 43692.65567		 305.27265			43387.38302		67.61200		324.00000 
 43692.65567		 754.94715			42937.70853		224.38800		875.00000 
 43692.65567		 305.27265			43387.38302		67.61200		324.00000 
 43692.65567		 754.94715			42937.70853		224.38800		875.00000 
 43692.65567		 305.27265			43387.38302		67.61200		324.00000 
 43692.65567		 754.94715			42937.70853		224.38800		875.00000 
 43692.65567		 305.27265			43387.38302		67.61200		324.00000 
 43692.65567		 754.94715			42937.70853		224.38800		875.00000 
 43692.65567		 305.27265			43387.38302		67.61200		324.00000 
 43692.65567		 754.94715			42937.70853		224.38800		875.00000 
 43692.65567		 305.27265			43387.38302		67.61200		324.00000 
 43692.65567		 754.94715			42937.70853		224.38800		875.00000 
 43692.65567		 305.27265			43387.38302		67.61200		324.00000 
 43692.65567		 754.94715			42937.70853		224.38800		875.00000 
 43692.65567		 305.27265			43387.38302		67.61200		324.00000 
 43692.65567		 754.94715			42937.70853		224.38800		875.00000 
 43692.65567		 305.27265			43387.38302		67.61200		324.00000 
 43692.65567		 754.94715			42937.70853		224.38800		875.00000 
 43692.65567		 305.27265			43387.38302		67.61200		324.00000 
 43692.65567		 754.94715			42937.70853		224.38800		875.00000 
 43692.65567		 305.27265			43387.38302		67.61200		324.00000 
 43692.65567		 754.94715			42937.70853		224.38800		875.00000 
 43692.65567		 305.27265			43387.38302		67.61200		324.00000 
 43692.65567		 754.94715			42937.70853		224.38800		875.00000 
 43692.65567		 305.27265			43387.38302		67.61200		324.00000 
 43692.65567		 754.94715			42937.70853		224.38800		875.00000 
 43692.65567		 305.27265			43387.38302		67.61200		324.00000 
 43692.65567		 754.94715			42937.70853		224.38800		875.00000 
 43692.65567		 305.27265			43387.38302		67.61200		324.00000 
 43692.65567		 754.94715			42937.70853		224.38800		875.00000 
 43692.65567		 305.27265			43387.38302		67.61200		324.00000 
 43692.65567		 754.94715			42937.70853		224.38800		875.00000 
 43692.65567		 305.27265			43387.38302		67.61200		324.00000 
 43692.65567		 754.94715			42937.70853		224.38800		875.00000 
 43692.65567		 305.27265			43387.38302		67.61200		324.00000 
 43692.65567		 754.94715			42937.70853		224.38800		875.00000 
 43692.65567		 305.27265			43387.38302		67.61200		324.00000 
 43692.65567		 754.94715			42937.70853		224.38800		875.00000 
 43692.65567		 305.27265			43387.38302		67.61200		324.00000 
 43692.65567		 754.94715			42937.70853		224.38800		875.00000 
 43692.65567		 305.27265			43387.38302		67.61200		324.00000 
 43692.65567		 754.94715			42937.70853		224.38800		875.00000 
 43692.65567		 305.27265			43387.38302		67.61200		324.00000 
 43692.65567		 754.94715			42937.70853		224.38800		875.00000 
 43692.65567		 305.27265			43387.38302		67.61200		324.00000 
 43692.65567		 754.94715			42937.70853		224.38800		875.00000 
 43692.65567		 305.27265			43387.38302		67.61200		324.00000 
 43692.65567		 754.94715			42937.70853		224.38800		875.00000 
 43692.65567		 305.27265			43387.38302		67.61200		324.00000 
 43692.65567		 754.94715			42937.70853		224.38800		875.00000 
 43692.65567		 305.27265			43387.38302		67.61200		324.00000 
 43692.65567		 754.94715			42937.70853		224.38800		875.00000 
 43692.65567		 305.27265			43387.38302		67.61200		324.00000 
 43692.65567		 754.94715			42937.70853		224.38800		875.00000 
 43692.65567		 305.27265			43387.38302		67.61200		324.00000 
 43692.65567		 754.94715			42937.70853		224.38800		875.00000 
 43692.65567		 305.27265			43387.38302		67.61200		324.00000 
 43692.65567		 754.94715			42937.70853		224.38800		875.00000 
 43692.65567		 305.27265			43387.38302		67.61200		324.00000 
 43692.65567		 754.94715			42937.70853		224.38800		875.00000 
 43692.65567		 305.27265			43387.38302		67.61200		324.00000 
 43692.65567		 754.94715			42937.70853		224.38800		875.00000 
 43692.65567		 305.27265			43387.38302		67.61200		324.00000 
 43692.65567		 754.94715			42937.70853		224.38800		875.00000 
 43692.65567		 305.27265			43387.38302		67.61200		324.00000 
 43692.65567		 754.94715			42937.70853		224.38800		875.00000 
 43692.65567		 305.27265			43387.38302		67.61200		324.00000 
 43692.65567		 754.94715			42937.70853		224.38800		875.00000 
 43692.65567		 305.27265			43387.38302		67.61200		324.00000 
 43692.65567		 754.94715			42937.70853		224.38800		875.00000 
 43692.65567		 305.27265			43387.38302		67.61200		324.00000 
 43692.65567		 754.94715			42937.70853		224.38800		875.00000 
 43692.65567		 305.27265			43387.38302		67.61200		324.00000 
 43692.65567		 754.94715			42937.70853		224.38800		875.00000 
 43692.65567		 305.27265			43387.38302		67.61200		324.00000 
 43692.65567		 754.94715			42937.70853		224.38800		875.00000 
 43692.65567		 305.27265			43387.38302		67.61200		324.00000 
 43692.65567		 754.94715			42937.70853		224.38800		875.00000 
 43692.65567		 305.27265			43387.38302		67.61200		324.00000 
 43692.65567		 754.94715			42937.70853		224.38800		875.00000 
 43692.65567		 305.27265			43387.38302		67.61200		324.00000 
 43692.65567		 754.94715			42937.70853		224.38800		875.00000 
 43692.65567		 305.27265			43387.38302		67.61200		324.00000 
 43692.65567		 754.94715			42937.70853		224.38800		875.00000 
 43692.65567		 305.27265			43387.38302		67.61200		324.00000 
 43692.65567		 754.94715			42937.70853		224.38800		875.00000 
 43692.65567		 305.27265			43387.38302		67.61200		324.00000 
 43692.65567		 754.94715			42937.70853		224.38800		875.00000 
 43692.65567		 305.27265			43387.38302		67.61200		324.00000 
 43692.65567		 754.94715			42937.70853		224.38800		875.00000 
 43692.65567		 305.27265			43387.38302		67.61200		324.00000 
 43692.65567		 754.94715			42937.70853		224.38800		875.00000 
 43692.65567		 305.27265			43387.38302		67.61200		324.00000 
 43692.65567		 754.94715			42937.70853		224.38800		875.00000 
 43692.65567		 305.27265			43387.38302		67.61200		324.00000 
 43692.65567		 754.94715			42937.70853		224.38800		875.00000 
 43692.65567		 305.27265			43387.38302		67.61200		324.00000 
 43692.65567		 754.94715			42937.70853		224.38800		875.00000 
 43692.65567		 305.27265			43387.38302		67.61200		324.00000 
 43692.65567		 754.94715			42937.70853		224.38800		875.00000 
 43692.65567		 305.27265			43387.38302		67.61200		324.00000 
 43692.65567		 754.94715			42937.70853		224.38800		875.00000 
 43692.65567		 305.27265			43387.38302		67.61200		324.00000 
 43692.65567		 754.94715			42937.70853		224.38800		875.00000 
 43692.65567		 305.27265			43387.38302		67.61200		324.00000 
 43692.65567		 754.94715			42937.70853		224.38800		875.00000 
 43692.65567		 305.27265			43387.38302		67.61200		324.00000 
 43692.65567		 754.94715			42937.70853		224.38800		875.00000 
 43692.65567		 305.27265			43387.38302		67.61200		324.00000 
 43692.65567		 754.94715			42937.70853		224.38800		875.00000 
 43692.65567		 305.27265			43387.38302		67.61200		324.00000 
 43692.65567		 754.94715			42937.70853		224.38800		875.00000 
 43692.65567		 305.27265			43387.38302		67.61200		324.00000 
 43692.65567		 754.94715			42937.70853		224.38800		875.00000 
 43692.65567		 305.27265			43387.38302		67.61200		324.00000 
 43692.65567		 754.94715			42937.70853		224.38800		875.00000 
 43692.65567		 305.27265			43387.38302		67.61200		324.00000 
 43692.65567		 754.94715			42937.70853		224.38800		875.00000 
 43692.65567		 305.27265			43387.38302		67.61200		324.00000 
 43692.65567		 754.94715			42937.70853		224.38800		875.00000 
 43692.65567		 305.27265			43387.38302		67.61200		324.00000 
 43692.65567		 754.94715			42937.70853		224.38800		875.00000 
 43692.65567		 305.27265			43387.38302		67.61200		324.00000 
 43692.65567		 754.94715			42937.70853		224.38800		875.00000 
 43692.65567		 305.27265			43387.38302		67.61200		324.00000 
 43692.65567		 754.94715			42937.70853		224.38800		875.00000 
 43692.65567		 305.27265			43387.38302		67.61200		324.00000 
 43692.65567		 754.94715			42937.70853		224.38800		875.00000 
 43692.65567		 305.27265			43387.38302		67.61200		324.00000 
 43692.65567		 754.94715			42937.70853		224.38800		875.00000 
 43692.65567		 305.27265			43387.38302		67.61200		324.00000 
 43692.65567		 754.94715			42937.70853		224.38800		875.00000 
 43692.65567		 305.27265			43387.38302		67.61200		324.00000 
 43692.65567		 754.94715			42937.70853		224.38800		875.00000 
 43692.65567		 305.27265			43387.38302		67.61200		324.00000 
 43692.65567		 754.94715			42937.70853		224.38800		875.00000 
 43692.65567		 305.27265			43387.38302		67.61200		324.00000 
 43692.65567		 754.94715			42937.70853		224.38800		875.00000 
 43692.65567		 305.27265			43387.38302		67.61200		324.00000 
 43692.65567		 754.94715			42937.70853		224.38800		875.00000 
 43692.65567		 305.27265			43387.38302		67.61200		324.00000 
 43692.65567		 754.94715			42937.70853		224.38800		875.00000 
 43692.65567		 305.27265			43387.38302		67.61200		324.00000 
 43692.65567		 754.94715			42937.70853		224.38800		875.00000 
 43692.65567		 305.27265			43387.38302		67.61200		324.00000 
 43692.65567		 754.94715			42937.70853		224.38800		875.00000 
 43692.65567		 305.27265			43387.38302		67.61200		324.00000 
 43692.65567		 754.94715			42937.70853		224.38800		875.00000 
 43692.65567		 305.27265			43387.38302		67.61200		324.00000 
 43692.65567		 754.94715			42937.70853		224.38800		875.00000 
 43692.65567		 305.27265			43387.38302		67.61200		324.00000 
 43692.65567		 754.94715			42937.70853		224.38800		875.00000 
 43692.65567		 305.27265			43387.38302		67.61200		324.00000 
 43692.65567		 754.94715			42937.70853		224.38800		875.00000 
 43692.65567		 305.27265			43387.38302		67.61200		324.00000 
 43692.65567		 754.94715			42937.70853		224.38800		875.00000 
 43692.65567		 305.27265			43387.38302		67.61200		324.00000 
 43692.65567		 754.94715			42937.70853		224.38800		875.00000 
 43692.65567		 305.27265			43387.38302		67.61200		324.00000 
 43692.65567		 754.94715			42937.70853		224.38800		875.00000 
 43692.65567		 305.27265			43387.38302		67.61200		324.00000 
 43692.65567		 754.94715			42937.70853		224.38800		875.00000 
 43692.65567		 305.27265			43387.38302		67.61200		324.00000 
 43692.65567		 754.94715			42937.70853		224.38800		875.00000 
 43692.65567		 305.27265			43387.38302		67.61200		324.00000 
 43692.65567		 754.94715			42937.70853		224.38800		875.00000 
 43692.65567		 305.27265			43387.38302		67.61200		324.00000 
 43692.65567		 754.94715			42937.70853		224.38800		875.00000 
 43692.65567		 305.27265			43387.38302		67.61200		324.00000 
 43692.65567		 754.94715			42937.70853		224.38800		875.00000 
 43692.65567		 305.27265			43387.38302		67.61200		324.00000 
 43692.65567		 754.94715			42937.70853		224.38800		875.00000 
 43692.65567		 305.27265			43387.38302		67.61200		324.00000 
 43692.65567		 754.94715			42937.70853		224.38800		875.00000 
 43692.65567		 305.27265			43387.38302		67.61200		324.00000 
 43692.65567		 754.94715			42937.70853		224.38800		875.00000 
 43692.65567		 305.27265			43387.38302		67.61200		324.00000 
 43692.65567		 754.94715			42937.70853		224.38800		875.00000 
 43692.65567		 305.27265			43387.38302		67.61200		324.00000 
 43692.65567		 754.94715			42937.70853		224.38800		875.00000 
 43692.65567		 305.27265			43387.38302		67.61200		324.00000 
 43692.65567		 754.94715			42937.70853		224.38800		875.00000 
 43692.65567		 305.27265			43387.38302		67.61200		324.00000 
 43692.65567		 754.94715			42937.70853		224.38800		875.00000 
 43692.65567		 305.27265			43387.38302		67.61200		324.00000 
 43692.65567		 754.94715			42937.70853		224.38800		875.00000 
 43692.65567		 305.27265			43387.38302		67.61200		324.00000 
 43692.65567		 754.94715			42937.70853		224.38800		875.00000 
 43692.65567		 305.27265			43387.38302		67.61200		324.00000 
 43692.65567		 754.94715			42937.70853		224.38800		875.00000 
 43692.65567		 305.27265			43387.38302		67.61200		324.00000 
 43692.65567		 754.94715			42937.70853		224.38800		875.00000 
 43692.65567		 305.27265			43387.38302		67.61200		324.00000 
 43692.65567		 754.94715			42937.70853		224.38800		875.00000 
 43692.65567		 305.27265			43387.38302		67.61200		324.00000 
 43692.65567		 754.94715			42937.70853		224.38800		875.00000 
 43692.65567		 305.27265			43387.38302		67.61200		324.00000 
 43692.65567		 754.94715			42937.70853		224.38800		875.00000 
 43692.65567		 305.27265			43387.38302		67.61200		324.00000 
 43692.65567		 754.94715			42937.70853		224.38800		875.00000 
 43692.65567		 305.27265			43387.38302		67.61200		324.00000 
 43692.65567		 754.94715			42937.70853		224.38800		875.00000 
 43692.65567		 305.27265			43387.38302		67.61200		324.00000 
 43692.65567		 754.94715			42937.70853		224.38800		875.00000 
 43692.65567		 305.27265			43387.38302		67.61200		324.00000 
 43692.65567		 754.94715			42937.70853		224.38800		875.00000 
 43692.65567		 305.27265			43387.38302		67.61200		324.00000 
 43692.65567		 754.94715			42937.70853		224.38800		875.00000 
 43692.65567		 305.27265			43387.38302		67.61200		324.00000 
 43692.65567		 754.94715			42937.70853		224.38800		875.00000 
 43692.65567		 305.27265			43387.38302		67.61200		324.00000 
 43692.65567		 754.94715			42937.70853		224.38800		875.00000 
 43692.65567		 305.27265			43387.38302		67.61200		324.00000 
 43692.65567		 754.94715			42937.70853		224.38800		875.00000 
 43692.65567		 305.27265			43387.38302		67.61200		324.00000 
 43692.65567		 754.94715			42937.70853		224.38800		875.00000 
 43692.65567		 305.27265			43387.38302		67.61200		324.00000 
 43692.65567		 754.94715			42937.70853		224.38800		875.00000 
 43692.65567		 305.27265			43387.38302		67.61200		324.00000 
 43692.65567		 754.94715			42937.70853		224.38800		875.00000 
 43692.65567		 305.27265			43387.38302		67.61200		324.00000 
 43692.65567		 754.94715			42937.70853		224.38800		875.00000 
 43692.65567		 305.27265			43387.38302		67.61200		324.00000 
 43692.65567		 754.94715			42937.70853		224.38800		875.00000 
 43692.65567		 305.27265			43387.38302		67.61200		324.00000 
 43692.65567		 754.94715			42937.70853		224.38800		875.00000 
 43692.65567		 305.27265			43387.38302		67.61200		324.00000 
 43692.65567		 754.94715			42937.70853		224.38800		875.00000 
 43692.65567		 305.27265			43387.38302		67.61200		324.00000 
 43692.65567		 754.94715			42937.70853		224.38800		875.00000 
 43692.65567		 305.27265			43387.38302		67.61200		324.00000 
 43692.65567		 754.94715			42937.70853		224.38800		875.00000 
 43692.65567		 305.27265			43387.38302		67.61200		324.00000 
 43692.65567		 754.94715			42937.70853		224.38800		875.00000 
 43692.65567		 305.27265			43387.38302		67.61200		324.00000 
 43692.65567		 754.94715			42937.70853		224.38800		875.00000 
 43692.65567		 305.27265			43387.38302		67.61200		324.00000 
 43692.65567		 754.94715			42937.70853		224.38800		875.00000 
 43692.65567		 305.27265			43387.38302		67.61200		324.00000 
 43692.65567		 754.94715			42937.70853		224.38800		875.00000 
 43692.65567		 305.27265			43387.38302		67.61200		324.00000 
 43692.65567		 754.94715			42937.70853		224.38800		875.00000 
 43692.65567		 305.27265			43387.38302		67.61200		324.00000 
 43692.65567		 754.94715			42937.70853		224.38800		875.00000 
 43692.65567		 305.27265			43387.38302		67.61200		324.00000 
 43692.65567		 754.94715			42937.70853		224.38800		875.00000 
 43692.65567		 305.27265			43387.38302		67.61200		324.00000 
 43692.65567		 754.94715			42937.70853		224.38800		875.00000 
 43692.65567		 305.27265			43387.38302		67.61200		324.00000 
 43692.65567		 754.94715			42937.70853		224.38800		875.00000 
 43692.65567		 305.27265			43387.38302		67.61200		324.00000 
 43692.65567		 754.94715			42937.70853		224.38800		875.00000 
 43692.65567		 305.27265			43387.38302		67.61200		324.00000 
 43692.65567		 754.94715			42937.70853		224.38800		875.00000 
 43692.65567		 305.27265			43387.38302		67.61200		324.00000 
 43692.65567		 754.94715			42937.70853		224.38800		875.00000 
 43692.65567		 305.27265			43387.38302		67.61200		324.00000 
 43692.65567		 754.94715			42937.70853		224.38800		875.00000 
 43692.65567		 305.27265			43387.38302		67.61200		324.00000 
 43692.65567		 754.94715			42937.70853		224.38800		875.00000 
 43692.65567		 305.27265			43387.38302		67.61200		324.00000 
 43692.65567		 754.94715			42937.70853		224.38800		875.00000 
 43692.65567		 305.27265			43387.38302		67.61200		324.00000 
 43692.65567		 754.94715			42937.70853		224.38800		875.00000 
 43692.65567		 305.27265			43387.38302		67.61200		324.00000 
 43692.65567		 754.94715			42937.70853		224.38800		875.00000 
 43692.65567		 305.27265			43387.38302		67.61200		324.00000 
 43692.65567		 754.94715			42937.70853		224.38800		875.00000 
 43692.65567		 305.27265			43387.38302		67.61200		324.00000 
 43692.65567		 754.94715			42937.70853		224.38800		875.00000 
 43692.65567		 305.27265			43387.38302		67.61200		324.00000 
 43692.65567		 754.94715			42937.70853		224.38800		875.00000 
 43692.65567		 305.27265			43387.38302		67.61200		324.00000 
 43692.65567		 754.94715			42937.70853		224.38800		875.00000 
 43692.65567		 305.27265			43387.38302		67.61200		324.00000 
 43692.65567		 754.94715			42937.70853		224.38800		875.00000 
 43692.65567		 305.27265			43387.38302		67.61200		324.00000 
 43692.65567		 754.94715			42937.70853		224.38800		875.00000 
 43692.65567		 305.27265			43387.38302		67.61200		324.00000 
 43692.65567		 754.94715			42937.70853		224.38800		875.00000 
 43692.65567		 305.27265			43387.38302		67.61200		324.00000 
 43692.65567		 754.94715			42937.70853		224.38800		875.00000 
 43692.65567		 305.27265			43387.38302		67.61200		324.00000 
 43692.65567		 754.94715			42937.70853		224.38800		875.00000 
 43692.65567		 305.27265			43387.38302		67.61200		324.00000 
 43692.65567		 754.94715			42937.70853		224.38800		875.00000 
 43692.65567		 305.27265			43387.38302		67.61200		324.00000 
 43692.65567		 754.94715			42937.70853		224.38800		875.00000 
 43692.65567		 305.27265			43387.38302		67.61200		324.00000 
 43692.65567		 754.94715			42937.70853		224.38800		875.00000 
 43692.65567		 305.27265			43387.38302		67.61200		324.00000 
 43692.65567		 754.94715			42937.70853		224.38800		875.00000 
 43692.65567		 305.27265			43387.38302		67.61200		324.00000 
 43692.65567		 754.94715			42937.70853		224.38800		875.00000 
 43692.65567		 305.27265			43387.38302		67.61200		324.00000 
 43692.65567		 754.94715			42937.70853		224.38800		875.00000 
 43692.65567		 305.27265			43387.38302		67.61200		324.00000 
 43692.65567		 754.94715			42937.70853		224.38800		875.00000 
 43692.65567		 305.27265			43387.38302		67.61200		324.00000 
 43692.65567		 754.94715			42937.70853		224.38800		875.00000 
 43692.65567		 305.27265			43387.38302		67.61200		324.00000 
 43692.65567		 754.94715			42937.70853		224.38800		875.00000 
 43692.65567		 305.27265			43387.38302		67.61200		324.00000 
 43692.65567		 754.94715			42937.70853		224.38800		875.00000 
 43692.65567		 305.27265			43387.38302		67.61200		324.00000 
 43692.65567		 754.94715			42937.70853		224.38800		875.00000 
 43692.65567		 305.27265			43387.38302		67.61200		324.00000 
 43692.65567		 754.94715			42937.70853		224.38800		875.00000 
 43692.65567		 305.27265			43387.38302		67.61200		324.00000 
 43692.65567		 754.94715			42937.70853		224.38800		875.00000 
 43692.65567		 305.27265			43387.38302		67.61200		324.00000 
 43692.65567		 754.94715			42937.70853		224.38800		875.00000 
 43692.65567		 305.27265			43387.38302		67.61200		324.00000 
 43692.65567		 754.94715			42937.70853		224.38800		875.00000 
 43692.65567		 305.27265			43387.38302		67.61200		324.00000 
 43692.65567		 754.94715			42937.70853		224.38800		875.00000 
 43692.65567		 305.27265			43387.38302		67.61200		324.00000 
 43692.65567		 754.94715			42937.70853		224.38800		875.00000 
 43692.65567		 305.27265			43387.38302		67.61200		324.00000 
 43692.65567		 754.94715			42937.70853		224.38800		875.00000 
 43692.65567		 305.27265			43387.38302		67.61200		324.00000 
 43692.65567		 754.94715			42937.70853		224.38800		875.00000 
 43692.65567		 305.27265			43387.38302		67.61200		324.00000 
 43692.65567		 754.94715			42937.70853		224.38800		875.00000 
 43692.65567		 305.27265			43387.38302		67.61200		324.00000 
 43692.65567		 754.94715			42937.70853		224.38800		875.00000 
 43692.65567		 305.27265			43387.38302		67.61200		324.00000 
 43692.65567		 754.94715			42937.70853		224.38800		875.00000 
 43692.65567		 305.27265			43387.38302		67.61200		324.00000 
 43692.65567		 754.94715			42937.70853		224.38800		875.00000 
 43692.65567		 305.27265			43387.38302		67.61200		324.00000 
 43692.65567		 754.94715			42937.70853		224.38800		875.00000 
 43692.65567		 305.27265			43387.38302		67.61200		324.00000 
 43692.65567		 754.94715			42937.70853		224.38800		875.00000 
 43692.65567		 305.27265			43387.38302		67.61200		324.00000 
 43692.65567		 754.94715			42937.70853		224.38800		875.00000 
 43692.65567		 305.27265			43387.38302		67.61200		324.00000 
 43692.65567		 754.94715			42937.70853		224.38800		875.00000 
 43692.65567		 305.27265			43387.38302		67.61200		324.00000 
 43692.65567		 754.94715			42937.70853		224.38800		875.00000 
 43692.65567		 305.27265			43387.38302		67.61200		324.00000 
 43692.65567		 754.94715			42937.70853		224.38800		875.00000 
 43692.65567		 305.27265			43387.38302		67.61200		324.00000 
 43692.65567		 754.94715			42937.70853		224.38800		875.00000 
 43692.65567		 305.27265			43387.38302		67.61200		324.00000 
 43692.65567		 754.94715			42937.70853		224.38800		875.00000 
 43692.65567		 305.27265			43387.38302		67.61200		324.00000 
 43692.65567		 754.94715			42937.70853		224.38800		875.00000 
 43692.65567		 305.27265			43387.38302		67.61200		324.00000 
 43692.65567		 754.94715			42937.70853		224.38800		875.00000 
 43692.65567		 305.27265			43387.38302		67.61200		324.00000 
 43692.65567		 754.94715			42937.70853		224.38800		875.00000 
 43692.65567		 305.27265			43387.38302		67.61200		324.00000 
 43692.65567		 754.94715			42937.70853		224.38800		875.00000 
 43692.65567		 305.27265			43387.38302		67.61200		324.00000 
 43692.65567		 754.94715			42937.70853		224.38800		875.00000 
 43692.65567		 305.27265			43387.38302		67.61200		324.00000 
 43692.65567		 754.94715			42937.70853		224.38800		875.00000 
 43692.65567		 305.27265			43387.38302		67.61200		324.00000 
 43692.65567		 754.94715			42937.70853		224.38800		875.00000 
 43692.65567		 305.27265			43387.38302		67.61200		324.00000 
 43692.65567		 754.94715			42937.70853		224.38800		875.00000 
 43692.65567		 305.27265			43387.38302		67.61200		324.00000 
 43692.65567		 754.94715			42937.70853		224.38800		875.00000 
 43692.65567		 305.27265			43387.38302		67.61200		324.00000 
 43692.65567		 754.94715			42937.70853		224.38800		875.00000 
 43692.65567		 305.27265			43387.38302		67.61200		324.00000 
 43692.65567		 754.94715			42937.70853		224.38800		875.00000 
 43692.65567		 305.27265			43387.38302		67.61200		324.00000 
 43692.65567		 754.94715			42937.70853		224.38800		875.00000 
 43692.65567		 305.27265			43387.38302		67.61200		324.00000 
 43692.65567		 754.94715			42937.70853		224.38800		875.00000 
 43692.65567		 305.27265			43387.38302		67.61200		324.00000 
 43692.65567		 754.94715			42937.70853		224.38800		875.00000 
 43692.65567		 305.27265			43387.38302		67.61200		324.00000 
 43692.65567		 754.94715			42937.70853		224.38800		875.00000 
 43692.65567		 305.27265			43387.38302		67.61200		324.00000 
 43692.65567		 754.94715			42937.70853		224.38800		875.00000 
 43692.65567		 305.27265			43387.38302		67.61200		324.00000 
 43692.65567		 754.94715			42937.70853		224.38800		875.00000 
 43692.65567		 305.27265			43387.38302		67.61200		324.00000 
 43692.65567		 754.94715			42937.70853		224.38800		875.00000 
 43692.65567		 305.27265			43387.38302		67.61200		324.00000 
 43692.65567		 754.94715			42937.70853		224.38800		875.00000 
 43692.65567		 305.27265			43387.38302		67.61200		324.00000 
 43692.65567		 754.94715			42937.70853		224.38800		875.00000 
 43692.65567		 305.27265			43387.38302		67.61200		324.00000 
 43692.65567		 754.94715			42937.70853		224.38800		875.00000 
 43692.65567		 305.27265			43387.38302		67.61200		324.00000 
 43692.65567		 754.94715			42937.70853		224.38800		875.00000 
 43692.65567		 305.27265			43387.38302		67.61200		324.00000 
 43692.65567		 754.94715			42937.70853		224.38800		875.00000 
 43692.65567		 305.27265			43387.38302		67.61200		324.00000 
 43692.65567		 754.94715			42937.70853		224.38800		875.00000 
 43692.65567		 305.27265			43387.38302		67.61200		324.00000 
 43692.65567		 754.94715			42937.70853		224.38800		875.00000 
 43692.65567		 305.27265			43387.38302		67.61200		324.00000 
 43692.65567		 754.94715			42937.70853		224.38800		875.00000 
 43692.65567		 305.27265			43387.38302		67.61200		324.00000 
 43692.65567		 754.94715			42937.70853		224.38800		875.00000 
 43692.65567		 305.27265			43387.38302		67.61200		324.00000 
 43692.65567		 754.94715			42937.70853		224.38800		875.00000 
 43692.65567		 305.27265			43387.38302		67.61200		324.00000 
 43692.65567		 754.94715			42937.70853		224.38800		875.00000 
 43692.65567		 305.27265			43387.38302		67.61200		324.00000 
 43692.65567		 754.94715			42937.70853		224.38800		875.00000 
 43692.65567		 305.27265			43387.38302		67.61200		324.00000 
 43692.65567		 754.94715			42937.70853		224.38800		875.00000 
 43692.65567		 305.27265			43387.38302		67.61200		324.00000 
 43692.65567		 754.94715			42937.70853		224.38800		875.00000 
 43692.65567		 305.27265			43387.38302		67.61200		324.00000 
 43692.65567		 754.94715			42937.70853		224.38800		875.00000 
 43692.65567		 305.27265			43387.38302		67.61200		324.00000 
 43692.65567		 754.94715			42937.70853		224.38800		875.00000 
 43692.65567		 305.27265			43387.38302		67.61200		324.00000 
 43692.65567		 754.94715			42937.70853		224.38800		875.00000 
 43692.65567		 305.27265			43387.38302		67.61200		324.00000 
 43692.65567		 754.94715			42937.70853		224.38800		875.00000 
 43692.65567		 305.27265			43387.38302		67.61200		324.00000 
 43692.65567		 754.94715			42937.70853		224.38800		875.00000 
 43692.65567		 305.27265			43387.38302		67.61200		324.00000 
 43692.65567		 754.94715			42937.70853		224.38800		875.00000 
 43692.65567		 305.27265			43387.38302		67.61200		324.00000 
 43692.65567		 754.94715			42937.70853		224.38800		875.00000 
 43692.65567		 305.27265			43387.38302		67.61200		324.00000 
 43692.65567		 754.94715			42937.70853		224.38800		875.00000 
 43692.65567		 305.27265			43387.38302		67.61200		324.00000 
 43692.65567		 754.94715			42937.70853		224.38800		875.00000 
 43692.65567		 305.27265			43387.38302		67.61200		324.00000 
 43692.65567		 754.94715			42937.70853		224.38800		875.00000 
 43692.65567		 305.27265			43387.38302		67.61200		324.00000 
 43692.65567		 754.94715			42937.70853		224.38800		875.00000 
 43692.65567		 305.27265			43387.38302		67.61200		324.00000 
 43692.65567		 754.94715			42937.70853		224.38800		875.00000 
 43692.65567		 305.27265			43387.38302		67.61200		324.00000 
 43692.65567		 754.94715			42937.70853		224.38800		875.00000 
 43692.65567		 305.27265			43387.38302		67.61200		324.00000 
 43692.65567		 754.94715			42937.70853		224.38800		875.00000 
 43692.65567		 305.27265			43387.38302		67.61200		324.00000 
 43692.65567		 754.94715			42937.70853		224.38800		875.00000 
 43692.65567		 305.27265			43387.38302		67.61200		324.00000 
 43692.65567		 754.94715			42937.70853		224.38800		875.00000 
 43692.65567		 305.27265			43387.38302		67.61200		324.00000 
 43692.65567		 754.94715			42937.70853		224.38800		875.00000 
 43692.65567		 305.27265			43387.38302		67.61200		324.00000 
 43692.65567		 754.94715			42937.70853		224.38800		875.00000 
 43692.65567		 305.27265			43387.38302		67.61200		324.00000 
 43692.65567		 754.94715			42937.70853		224.38800		875.00000 
 43692.65567		 305.27265			43387.38302		67.61200		324.00000 
 43692.65567		 754.94715			42937.70853		224.38800		875.00000 
 43692.65567		 305.27265			43387.38302		67.61200		324.00000 
 43692.65567		 754.94715			42937.70853		224.38800		875.00000 
 43692.65567		 305.27265			43387.38302		67.61200		324.00000 
 43692.65567		 754.94715			42937.70853		224.38800		875.00000 
 43692.65567		 305.27265			43387.38302		67.61200		324.00000 
 43692.65567		 754.94715			42937.70853		224.38800		875.00000 
 43692.65567		 305.27265			43387.38302		67.61200		324.00000 
 43692.65567		 754.94715			42937.70853		224.38800		875.00000 
 43692.65567		 305.27265			43387.38302		67.61200		324.00000 
 43692.65567		 754.94715			42937.70853		224.38800		875.00000 
 43692.65567		 305.27265			43387.38302		67.61200		324.00000 
 43692.65567		 754.94715			42937.70853		224.38800		875.00000 
 43692.65567		 305.27265			43387.38302		67.61200		324.00000 
 43692.65567		 754.94715			42937.70853		224.38800		875.00000 
 43692.65567		 305.27265			43387.38302		67.61200		324.00000 
 43692.65567		 754.94715			42937.70853		224.38800		875.00000 
 43692.65567		 305.27265			43387.38302		70.12600		324.00000 
 43692.65567		 754.94715			42937.70853		224.38800		875.00000 
 43692.65567		 305.27265			43387.38302		70.12600		324.00000 
 43692.65567		 754.94715			42937.70853		224.38800		875.00000 
 43692.65567		 305.27265			43387.38302		70.12600		324.00000 
 43692.65567		 754.94715			42937.70853		224.38800		875.00000 
 43692.65567		 305.27265			43387.38302		70.12600		324.00000 
 43692.65567		 754.94715			42937.70853		224.38800		875.00000 
 43692.65567		 305.27265			43387.38302		70.12600		324.00000 
 43692.65567		 754.94715			42937.70853		224.38800		875.00000 
 43692.65567		 305.27265			43387.38302		70.12600		324.00000 
 43692.65567		 754.94715			42937.70853		224.38800		875.00000 
 43692.65567		 305.27265			43387.38302		70.12600		324.00000 
 43692.65567		 754.94715			42937.70853		224.38800		875.00000 
 43692.65567		 305.27265			43387.38302		70.12600		324.00000 
 43692.65567		 754.94715			42937.70853		224.38800		875.00000 
 43692.65567		 305.27265			43387.38302		70.12600		324.00000 
 43692.65567		 754.94715			42937.70853		224.38800		875.00000 
 43692.65567		 305.27265			43387.38302		70.12600		324.00000 
 43692.65567		 754.94715			42937.70853		224.38800		875.00000 
 43692.65567		 305.27265			43387.38302		70.12600		324.00000 
 43692.65567		 754.94715			42937.70853		224.38800		875.00000 
 43692.65567		 305.27265			43387.38302		70.12600		324.00000 
 43692.65567		 754.94715			42937.70853		224.38800		875.00000 
 43692.65567		 305.27265			43387.38302		70.12600		324.00000 
 43692.65567		 754.94715			42937.70853		224.38800		875.00000 
 43692.65567		 305.27265			43387.38302		70.12600		324.00000 
 43692.65567		 754.94715			42937.70853		224.38800		875.00000 
 43692.65567		 305.27265			43387.38302		70.12600		324.00000 
 43692.65567		 754.94715			42937.70853		224.38800		875.00000 
 43692.65567		 305.27265			43387.38302		70.12600		324.00000 
 43692.65567		 754.94715			42937.70853		224.38800		875.00000 
 43692.65567		 305.27265			43387.38302		70.12600		324.00000 
 43692.65567		 754.94715			42937.70853		224.38800		875.00000 
 43692.65567		 305.27265			43387.38302		70.12600		324.00000 
 43692.65567		 754.94715			42937.70853		224.38800		875.00000 
 43692.65567		 305.27265			43387.38302		70.12600		324.00000 
 43692.65567		 754.94715			42937.70853		224.38800		875.00000 
 43692.65567		 305.27265			43387.38302		70.12600		324.00000 
 43692.65567		 754.94715			42937.70853		224.38800		875.00000 
 43692.65567		 305.27265			43387.38302		70.12600		324.00000 
 43692.65567		 754.94715			42937.70853		224.38800		875.00000 
 43692.65567		 305.27265			43387.38302		70.12600		324.00000 
 43692.65567		 754.94715			42937.70853		224.38800		875.00000 
 43692.65567		 305.27265			43387.38302		70.12600		324.00000 
 43692.65567		 754.94715			42937.70853		224.38800		875.00000 
 43692.65567		 305.27265			43387.38302		70.12600		324.00000 
 43692.65567		 754.94715			42937.70853		224.38800		875.00000 
 43692.65567		 305.27265			43387.38302		70.12600		324.00000 
 43692.65567		 754.94715			42937.70853		224.38800		875.00000 
 43692.65567		 305.27265			43387.38302		70.12600		324.00000 
 43692.65567		 754.94715			42937.70853		224.38800		875.00000 
 43692.65567		 305.27265			43387.38302		70.12600		324.00000 
 43692.65567		 682.38821			43010.26747		224.38800		875.00000 
 43692.65567		 305.27265			43387.38302		70.12600		324.00000 
 43692.65567		 609.82926			43082.82641		224.38800		875.00000 
 43692.65567		 305.27265			43387.38302		70.12600		324.00000 
 43692.65567		 537.27032			43155.38535		224.38800		875.00000 
 43692.65567		 305.27265			43387.38302		70.12600		324.00000 
 43692.65567		 537.27032			43155.38535		224.38800		875.00000 
 43692.65567		 305.27265			43387.38302		70.12600		324.00000 
 43692.65567		 537.27032			43155.38535		224.38800		875.00000 
 43692.65567		 305.27265			43387.38302		70.12600		324.00000 
 43692.65567		 537.27032			43155.38535		224.38800		875.00000 
 43692.65567		 305.27265			43387.38302		70.12600		324.00000 
 43692.65567		 537.27032			43155.38535		224.38800		875.00000 
 43692.65567		 305.27265			43387.38302		70.12600		324.00000 
 43692.65567		 537.27032			43155.38535		224.38800		875.00000 
 43692.65567		 305.27265			43387.38302		70.12600		324.00000 
 43692.65567		 537.27032			43155.38535		224.38800		875.00000 
 43692.65567		 305.27265			43387.38302		70.12600		324.00000 
 43692.65567		 537.27032			43155.38535		224.38800		875.00000 
 43692.65567		 305.27265			43387.38302		70.12600		324.00000 
 43692.65567		 537.27032			43155.38535		209.38400		875.00000 
 43692.65567		 305.27265			43387.38302		70.12600		324.00000 
 43692.65567		 537.27032			43155.38535		209.38400		875.00000 
 43692.65567		 305.27265			43387.38302		70.12600		324.00000 
 43692.65567		 537.27032			43155.38535		209.38400		875.00000 
 43692.65567		 305.27265			43387.38302		70.12600		324.00000 
 43692.65567		 537.27032			43155.38535		209.38400		875.00000 
 43692.65567		 305.27265			43387.38302		70.12600		324.00000 
 43692.65567		 537.27032			43155.38535		209.38400		875.00000 
 43692.65567		 305.27265			43387.38302		70.12600		324.00000 
 43692.65567		 537.27032			43155.38535		209.38400		875.00000 
 43692.65567		 305.27265			43387.38302		70.12600		324.00000 
 43692.65567		 537.27032			43155.38535		209.38400		875.00000 
 43692.65567		 305.27265			43387.38302		70.12600		324.00000 
 43692.65567		 537.27032			43155.38535		209.38400		875.00000 
 43692.65567		 305.27265			43387.38302		70.12600		324.00000 
 43692.65567		 537.27032			43155.38535		209.38400		875.00000 
 43692.65567		 305.27265			43387.38302		70.12600		324.00000 
 43692.65567		 537.27032			43155.38535		209.38400		875.00000 
 43692.65567		 305.27265			43387.38302		70.12600		324.00000 
 43692.65567		 537.27032			43155.38535		209.38400		875.00000 
 43692.65567		 305.27265			43387.38302		70.12600		324.00000 
 43692.65567		 537.27032			43155.38535		209.38400		875.00000 
 43692.65567		 305.27265			43387.38302		70.12600		324.00000 
 43692.65567		 537.27032			43155.38535		209.38400		875.00000 
 43692.65567		 305.27265			43387.38302		70.12600		324.00000 
 43692.65567		 529.63254			43163.02313		209.38400		875.00000 
 43692.65567		 305.27265			43387.38302		70.12600		324.00000 
 43692.65567		 525.81365			43166.84203		209.38400		875.00000 
 43692.65567		 305.27265			43387.38302		70.12600		324.00000 
 43692.65567		 525.81365			43166.84203		209.38400		875.00000 
 43692.65567		 261.35540			43431.30027		70.12600		324.00000 
