Memory Total (MiB) 	 Memory Used (MiB) 	    Memory Free (MiB) 	 Power Drawed (W) 	 Clocks (Mhz) 	 
 43692.65567		 261.35540			43431.30027		176.95800		875.00000 
 43692.65567		 261.35540			43431.30027		69.17800		324.00000 
 43692.65567		 261.35540			43431.30027		176.95800		875.00000 
 43692.65567		 261.35540			43431.30027		69.17800		324.00000 
 43692.65567		 261.35540			43431.30027		176.95800		875.00000 
 43692.65567		 261.35540			43431.30027		69.17800		324.00000 
 43692.65567		 261.35540			43431.30027		176.95800		875.00000 
 43692.65567		 261.35540			43431.30027		67.63800		324.00000 
 43692.65567		 261.35540			43431.30027		176.95800		875.00000 
 43692.65567		 261.35540			43431.30027		67.63800		324.00000 
 43692.65567		 261.35540			43431.30027		176.95800		875.00000 
 43692.65567		 261.35540			43431.30027		67.63800		324.00000 
 43692.65567		 261.35540			43431.30027		176.95800		875.00000 
 43692.65567		 261.35540			43431.30027		67.63800		324.00000 
 43692.65567		 261.35540			43431.30027		176.95800		875.00000 
 43692.65567		 261.35540			43431.30027		67.63800		324.00000 
 43692.65567		 261.35540			43431.30027		176.95800		875.00000 
 43692.65567		 261.35540			43431.30027		67.63800		324.00000 
 43692.65567		 261.35540			43431.30027		176.95800		875.00000 
 43692.65567		 261.35540			43431.30027		67.63800		324.00000 
 43692.65567		 261.35540			43431.30027		176.95800		875.00000 
 43692.65567		 261.35540			43431.30027		67.63800		324.00000 
 43692.65567		 261.35540			43431.30027		176.95800		875.00000 
 43692.65567		 261.35540			43431.30027		67.63800		324.00000 
 43692.65567		 261.35540			43431.30027		176.95800		875.00000 
 43692.65567		 261.35540			43431.30027		67.63800		324.00000 
 43692.65567		 261.35540			43431.30027		176.95800		875.00000 
 43692.65567		 261.35540			43431.30027		67.63800		324.00000 
 43692.65567		 261.35540			43431.30027		176.95800		875.00000 
 43692.65567		 261.35540			43431.30027		67.63800		324.00000 
 43692.65567		 261.35540			43431.30027		176.95800		875.00000 
 43692.65567		 261.35540			43431.30027		67.63800		324.00000 
 43692.65567		 261.35540			43431.30027		176.95800		875.00000 
 43692.65567		 261.35540			43431.30027		67.63800		324.00000 
 43692.65567		 265.17429			43427.48138		176.95800		875.00000 
 43692.65567		 261.35540			43431.30027		67.63800		324.00000 
 43692.65567		 265.17429			43427.48138		176.95800		875.00000 
 43692.65567		 261.35540			43431.30027		67.63800		324.00000 
 43692.65567		 272.81207			43419.84360		176.95800		875.00000 
 43692.65567		 261.35540			43431.30027		67.63800		324.00000 
 43692.65567		 272.81207			43419.84360		176.95800		875.00000 
 43692.65567		 261.35540			43431.30027		67.63800		324.00000 
 43692.65567		 272.81207			43419.84360		176.95800		875.00000 
 43692.65567		 265.17429			43427.48138		67.63800		324.00000 
 43692.65567		 272.81207			43419.84360		176.95800		875.00000 
 43692.65567		 265.17429			43427.48138		67.63800		324.00000 
 43692.65567		 272.81207			43419.84360		176.95800		875.00000 
 43692.65567		 265.17429			43427.48138		67.63800		324.00000 
 43692.65567		 272.81207			43419.84360		176.95800		875.00000 
 43692.65567		 272.81207			43419.84360		67.63800		324.00000 
 43692.65567		 272.81207			43419.84360		176.95800		875.00000 
 43692.65567		 272.81207			43419.84360		67.63800		324.00000 
 43692.65567		 272.81207			43419.84360		176.95800		875.00000 
 43692.65567		 272.81207			43419.84360		67.63800		324.00000 
 43692.65567		 305.27265			43387.38302		176.95800		875.00000 
 43692.65567		 305.27265			43387.38302		67.63800		324.00000 
 43692.65567		 305.27265			43387.38302		176.95800		875.00000 
 43692.65567		 305.27265			43387.38302		67.63800		324.00000 
 43692.65567		 305.27265			43387.38302		176.95800		875.00000 
 43692.65567		 305.27265			43387.38302		67.63800		324.00000 
 43692.65567		 305.27265			43387.38302		176.95800		875.00000 
 43692.65567		 305.27265			43387.38302		67.63800		324.00000 
 43692.65567		 305.27265			43387.38302		176.95800		875.00000 
 43692.65567		 305.27265			43387.38302		67.63800		324.00000 
 43692.65567		 309.09154			43383.56413		176.95800		875.00000 
 43692.65567		 305.27265			43387.38302		67.63800		324.00000 
 43692.65567		 310.52363			43382.13204		148.06400		875.00000 
 43692.65567		 305.27265			43387.38302		67.63800		324.00000 
 43692.65567		 311.00099			43381.65468		148.06400		875.00000 
 43692.65567		 305.27265			43387.38302		67.63800		324.00000 
 43692.65567		 311.00099			43381.65468		148.06400		875.00000 
 43692.65567		 305.27265			43387.38302		67.63800		324.00000 
 43692.65567		 311.00099			43381.65468		148.06400		875.00000 
 43692.65567		 305.27265			43387.38302		67.63800		324.00000 
 43692.65567		 311.00099			43381.65468		148.06400		875.00000 
 43692.65567		 305.27265			43387.38302		67.63800		324.00000 
 43692.65567		 311.00099			43381.65468		148.06400		875.00000 
 43692.65567		 305.27265			43387.38302		67.63800		324.00000 
 43692.65567		 311.00099			43381.65468		148.06400		875.00000 
 43692.65567		 305.27265			43387.38302		67.63800		324.00000 
 43692.65567		 311.00099			43381.65468		148.06400		875.00000 
 43692.65567		 305.27265			43387.38302		67.63800		324.00000 
 43692.65567		 311.00099			43381.65468		148.06400		875.00000 
 43692.65567		 305.27265			43387.38302		67.63800		324.00000 
 43692.65567		 311.00099			43381.65468		148.06400		875.00000 
 43692.65567		 305.27265			43387.38302		67.63800		324.00000 
 43692.65567		 311.00099			43381.65468		148.06400		875.00000 
 43692.65567		 305.27265			43387.38302		67.63800		324.00000 
 43692.65567		 311.00099			43381.65468		148.06400		875.00000 
 43692.65567		 305.27265			43387.38302		67.63800		324.00000 
 43692.65567		 311.00099			43381.65468		148.06400		875.00000 
 43692.65567		 305.27265			43387.38302		67.63800		324.00000 
 43692.65567		 311.00099			43381.65468		148.06400		875.00000 
 43692.65567		 305.27265			43387.38302		67.63800		324.00000 
 43692.65567		 311.00099			43381.65468		148.06400		875.00000 
 43692.65567		 305.27265			43387.38302		67.63800		324.00000 
 43692.65567		 311.00099			43381.65468		148.06400		875.00000 
 43692.65567		 305.27265			43387.38302		67.63800		324.00000 
 43692.65567		 311.00099			43381.65468		148.06400		875.00000 
 43692.65567		 305.27265			43387.38302		67.63800		324.00000 
 43692.65567		 311.00099			43381.65468		148.06400		875.00000 
 43692.65567		 305.27265			43387.38302		67.63800		324.00000 
 43692.65567		 311.00099			43381.65468		148.06400		875.00000 
 43692.65567		 305.27265			43387.38302		67.63800		324.00000 
 43692.65567		 311.00099			43381.65468		148.06400		875.00000 
 43692.65567		 305.27265			43387.38302		67.63800		324.00000 
 43692.65567		 311.00099			43381.65468		148.06400		875.00000 
 43692.65567		 305.27265			43387.38302		67.63800		324.00000 
 43692.65567		 311.00099			43381.65468		148.06400		875.00000 
 43692.65567		 305.27265			43387.38302		67.63800		324.00000 
 43692.65567		 311.00099			43381.65468		148.06400		875.00000 
 43692.65567		 305.27265			43387.38302		67.63800		324.00000 
 43692.65567		 311.00099			43381.65468		148.06400		875.00000 
 43692.65567		 305.27265			43387.38302		67.63800		324.00000 
 43692.65567		 311.00099			43381.65468		148.06400		875.00000 
 43692.65567		 305.27265			43387.38302		67.63800		324.00000 
 43692.65567		 311.00099			43381.65468		148.06400		875.00000 
 43692.65567		 305.27265			43387.38302		67.63800		324.00000 
 43692.65567		 311.00099			43381.65468		148.06400		875.00000 
 43692.65567		 305.27265			43387.38302		67.63800		324.00000 
 43692.65567		 311.00099			43381.65468		148.06400		875.00000 
 43692.65567		 305.27265			43387.38302		67.63800		324.00000 
 43692.65567		 311.00099			43381.65468		148.06400		875.00000 
 43692.65567		 305.27265			43387.38302		67.63800		324.00000 
 43692.65567		 311.00099			43381.65468		148.06400		875.00000 
 43692.65567		 305.27265			43387.38302		67.63800		324.00000 
 43692.65567		 311.00099			43381.65468		148.06400		875.00000 
 43692.65567		 305.27265			43387.38302		67.63800		324.00000 
 43692.65567		 311.00099			43381.65468		148.06400		875.00000 
 43692.65567		 305.27265			43387.38302		67.63800		324.00000 
 43692.65567		 311.00099			43381.65468		138.68600		875.00000 
 43692.65567		 305.27265			43387.38302		67.63800		324.00000 
 43692.65567		 311.00099			43381.65468		138.68600		875.00000 
 43692.65567		 305.27265			43387.38302		67.63800		324.00000 
 43692.65567		 311.00099			43381.65468		138.68600		875.00000 
 43692.65567		 305.27265			43387.38302		67.63800		324.00000 
 43692.65567		 311.00099			43381.65468		138.68600		875.00000 
 43692.65567		 305.27265			43387.38302		67.63800		324.00000 
 43692.65567		 311.00099			43381.65468		138.68600		875.00000 
 43692.65567		 305.27265			43387.38302		67.63800		324.00000 
 43692.65567		 311.00099			43381.65468		138.68600		875.00000 
 43692.65567		 305.27265			43387.38302		67.63800		324.00000 
 43692.65567		 311.00099			43381.65468		138.68600		875.00000 
 43692.65567		 305.27265			43387.38302		67.63800		324.00000 
 43692.65567		 311.00099			43381.65468		138.68600		875.00000 
 43692.65567		 305.27265			43387.38302		67.63800		324.00000 
 43692.65567		 311.00099			43381.65468		138.68600		875.00000 
 43692.65567		 305.27265			43387.38302		67.63800		324.00000 
 43692.65567		 311.00099			43381.65468		138.68600		875.00000 
 43692.65567		 305.27265			43387.38302		67.63800		324.00000 
 43692.65567		 311.00099			43381.65468		138.68600		875.00000 
 43692.65567		 305.27265			43387.38302		67.63800		324.00000 
 43692.65567		 311.00099			43381.65468		138.68600		875.00000 
 43692.65567		 305.27265			43387.38302		67.63800		324.00000 
 43692.65567		 311.00099			43381.65468		138.68600		875.00000 
 43692.65567		 305.27265			43387.38302		67.63800		324.00000 
 43692.65567		 311.00099			43381.65468		138.68600		875.00000 
 43692.65567		 305.27265			43387.38302		67.63800		324.00000 
 43692.65567		 311.00099			43381.65468		138.68600		875.00000 
 43692.65567		 305.27265			43387.38302		67.63800		324.00000 
 43692.65567		 311.00099			43381.65468		138.68600		875.00000 
 43692.65567		 305.27265			43387.38302		67.63800		324.00000 
 43692.65567		 311.00099			43381.65468		138.68600		875.00000 
 43692.65567		 305.27265			43387.38302		67.63800		324.00000 
 43692.65567		 311.00099			43381.65468		138.68600		875.00000 
 43692.65567		 305.27265			43387.38302		67.63800		324.00000 
 43692.65567		 311.00099			43381.65468		138.68600		875.00000 
 43692.65567		 305.27265			43387.38302		67.63800		324.00000 
 43692.65567		 314.81988			43377.83579		138.68600		875.00000 
 43692.65567		 305.27265			43387.38302		67.63800		324.00000 
 43692.65567		 314.81988			43377.83579		138.68600		875.00000 
 43692.65567		 305.27265			43387.38302		67.63800		324.00000 
 43692.65567		 314.81988			43377.83579		138.68600		875.00000 
 43692.65567		 305.27265			43387.38302		67.63800		324.00000 
 43692.65567		 322.45767			43370.19801		138.68600		875.00000 
 43692.65567		 305.27265			43387.38302		67.63800		324.00000 
 43692.65567		 326.27656			43366.37912		138.68600		875.00000 
 43692.65567		 305.27265			43387.38302		67.63800		324.00000 
 43692.65567		 326.27656			43366.37912		138.68600		875.00000 
 43692.65567		 305.27265			43387.38302		67.63800		324.00000 
 43692.65567		 326.27656			43366.37912		138.68600		875.00000 
 43692.65567		 305.27265			43387.38302		67.63800		324.00000 
 43692.65567		 326.27656			43366.37912		138.68600		875.00000 
 43692.65567		 305.27265			43387.38302		67.63800		324.00000 
 43692.65567		 537.27032			43155.38535		138.68600		875.00000 
 43692.65567		 305.27265			43387.38302		67.63800		324.00000 
 43692.65567		 599.80467			43092.85100		138.68600		875.00000 
 43692.65567		 305.27265			43387.38302		67.63800		324.00000 
 43692.65567		 724.87338			42967.78230		138.68600		875.00000 
 43692.65567		 305.27265			43387.38302		67.63800		324.00000 
 43692.65567		 724.87338			42967.78230		138.68600		875.00000 
 43692.65567		 305.27265			43387.38302		67.63800		324.00000 
 43692.65567		 724.87338			42967.78230		138.68600		875.00000 
 43692.65567		 305.27265			43387.38302		67.63800		324.00000 
 43692.65567		 724.87338			42967.78230		138.68600		875.00000 
 43692.65567		 305.27265			43387.38302		67.63800		324.00000 
 43692.65567		 724.87338			42967.78230		138.68600		875.00000 
 43692.65567		 305.27265			43387.38302		67.63800		324.00000 
 43692.65567		 724.87338			42967.78230		138.68600		875.00000 
 43692.65567		 305.27265			43387.38302		67.63800		324.00000 
 43692.65567		 724.87338			42967.78230		138.68600		875.00000 
 43692.65567		 305.27265			43387.38302		67.63800		324.00000 
 43692.65567		 724.87338			42967.78230		138.68600		875.00000 
 43692.65567		 305.27265			43387.38302		67.63800		324.00000 
 43692.65567		 724.87338			42967.78230		138.68600		875.00000 
 43692.65567		 305.27265			43387.38302		67.63800		324.00000 
 43692.65567		 724.87338			42967.78230		138.68600		875.00000 
 43692.65567		 305.27265			43387.38302		67.63800		324.00000 
 43692.65567		 724.87338			42967.78230		147.33000		875.00000 
 43692.65567		 305.27265			43387.38302		67.63800		324.00000 
 43692.65567		 724.87338			42967.78230		147.33000		875.00000 
 43692.65567		 305.27265			43387.38302		67.63800		324.00000 
 43692.65567		 724.87338			42967.78230		147.33000		875.00000 
 43692.65567		 305.27265			43387.38302		67.63800		324.00000 
 43692.65567		 724.87338			42967.78230		147.33000		875.00000 
 43692.65567		 305.27265			43387.38302		67.63800		324.00000 
 43692.65567		 724.87338			42967.78230		147.33000		875.00000 
 43692.65567		 305.27265			43387.38302		67.63800		324.00000 
 43692.65567		 724.87338			42967.78230		147.33000		875.00000 
 43692.65567		 305.27265			43387.38302		67.63800		324.00000 
 43692.65567		 724.87338			42967.78230		147.33000		875.00000 
 43692.65567		 305.27265			43387.38302		67.63800		324.00000 
 43692.65567		 724.87338			42967.78230		147.33000		875.00000 
 43692.65567		 305.27265			43387.38302		67.63800		324.00000 
 43692.65567		 724.87338			42967.78230		147.33000		875.00000 
 43692.65567		 305.27265			43387.38302		67.63800		324.00000 
 43692.65567		 724.87338			42967.78230		147.33000		875.00000 
 43692.65567		 305.27265			43387.38302		67.63800		324.00000 
 43692.65567		 724.87338			42967.78230		147.33000		875.00000 
 43692.65567		 305.27265			43387.38302		67.63800		324.00000 
 43692.65567		 724.87338			42967.78230		147.33000		875.00000 
 43692.65567		 305.27265			43387.38302		67.63800		324.00000 
 43692.65567		 724.87338			42967.78230		147.33000		875.00000 
 43692.65567		 305.27265			43387.38302		67.63800		324.00000 
 43692.65567		 724.87338			42967.78230		147.33000		875.00000 
 43692.65567		 305.27265			43387.38302		67.63800		324.00000 
 43692.65567		 724.87338			42967.78230		147.33000		875.00000 
 43692.65567		 305.27265			43387.38302		67.63800		324.00000 
 43692.65567		 724.87338			42967.78230		147.33000		875.00000 
 43692.65567		 305.27265			43387.38302		67.63800		324.00000 
 43692.65567		 724.87338			42967.78230		147.33000		875.00000 
 43692.65567		 305.27265			43387.38302		67.63800		324.00000 
 43692.65567		 724.87338			42967.78230		147.33000		875.00000 
 43692.65567		 305.27265			43387.38302		67.63800		324.00000 
 43692.65567		 724.87338			42967.78230		147.33000		875.00000 
 43692.65567		 305.27265			43387.38302		67.63800		324.00000 
 43692.65567		 724.87338			42967.78230		147.33000		875.00000 
 43692.65567		 305.27265			43387.38302		67.63800		324.00000 
 43692.65567		 724.87338			42967.78230		147.33000		875.00000 
 43692.65567		 305.27265			43387.38302		67.63800		324.00000 
 43692.65567		 724.87338			42967.78230		147.33000		875.00000 
 43692.65567		 305.27265			43387.38302		67.63800		324.00000 
 43692.65567		 724.87338			42967.78230		147.33000		875.00000 
 43692.65567		 305.27265			43387.38302		67.63800		324.00000 
 43692.65567		 724.87338			42967.78230		147.33000		875.00000 
 43692.65567		 305.27265			43387.38302		67.63800		324.00000 
 43692.65567		 724.87338			42967.78230		147.33000		875.00000 
 43692.65567		 305.27265			43387.38302		67.63800		324.00000 
 43692.65567		 724.87338			42967.78230		147.33000		875.00000 
 43692.65567		 305.27265			43387.38302		67.63800		324.00000 
 43692.65567		 724.87338			42967.78230		147.33000		875.00000 
 43692.65567		 305.27265			43387.38302		67.63800		324.00000 
 43692.65567		 724.87338			42967.78230		147.33000		875.00000 
 43692.65567		 305.27265			43387.38302		67.63800		324.00000 
 43692.65567		 724.87338			42967.78230		147.33000		875.00000 
 43692.65567		 305.27265			43387.38302		67.63800		324.00000 
 43692.65567		 724.87338			42967.78230		147.33000		875.00000 
 43692.65567		 305.27265			43387.38302		67.63800		324.00000 
 43692.65567		 724.87338			42967.78230		147.33000		875.00000 
 43692.65567		 305.27265			43387.38302		67.63800		324.00000 
 43692.65567		 724.87338			42967.78230		147.33000		875.00000 
 43692.65567		 305.27265			43387.38302		67.63800		324.00000 
 43692.65567		 724.87338			42967.78230		147.33000		875.00000 
 43692.65567		 305.27265			43387.38302		67.63800		324.00000 
 43692.65567		 724.87338			42967.78230		147.33000		875.00000 
 43692.65567		 305.27265			43387.38302		67.63800		324.00000 
 43692.65567		 724.87338			42967.78230		147.33000		875.00000 
 43692.65567		 305.27265			43387.38302		67.63800		324.00000 
 43692.65567		 724.87338			42967.78230		147.33000		875.00000 
 43692.65567		 305.27265			43387.38302		67.63800		324.00000 
 43692.65567		 724.87338			42967.78230		147.33000		875.00000 
 43692.65567		 305.27265			43387.38302		67.63800		324.00000 
 43692.65567		 724.87338			42967.78230		147.33000		875.00000 
 43692.65567		 305.27265			43387.38302		67.63800		324.00000 
 43692.65567		 724.87338			42967.78230		147.33000		875.00000 
 43692.65567		 305.27265			43387.38302		67.63800		324.00000 
 43692.65567		 724.87338			42967.78230		147.33000		875.00000 
 43692.65567		 305.27265			43387.38302		67.63800		324.00000 
 43692.65567		 724.87338			42967.78230		147.33000		875.00000 
 43692.65567		 305.27265			43387.38302		67.63800		324.00000 
 43692.65567		 724.87338			42967.78230		147.33000		875.00000 
 43692.65567		 305.27265			43387.38302		67.63800		324.00000 
 43692.65567		 724.87338			42967.78230		147.33000		875.00000 
 43692.65567		 305.27265			43387.38302		67.63800		324.00000 
 43692.65567		 724.87338			42967.78230		147.33000		875.00000 
 43692.65567		 305.27265			43387.38302		67.63800		324.00000 
 43692.65567		 724.87338			42967.78230		147.33000		875.00000 
 43692.65567		 305.27265			43387.38302		67.63800		324.00000 
 43692.65567		 724.87338			42967.78230		147.33000		875.00000 
 43692.65567		 305.27265			43387.38302		67.63800		324.00000 
 43692.65567		 724.87338			42967.78230		147.33000		875.00000 
 43692.65567		 305.27265			43387.38302		67.63800		324.00000 
 43692.65567		 724.87338			42967.78230		147.33000		875.00000 
 43692.65567		 305.27265			43387.38302		67.63800		324.00000 
 43692.65567		 724.87338			42967.78230		147.33000		875.00000 
 43692.65567		 305.27265			43387.38302		67.63800		324.00000 
 43692.65567		 724.87338			42967.78230		147.33000		875.00000 
 43692.65567		 305.27265			43387.38302		67.63800		324.00000 
 43692.65567		 724.87338			42967.78230		147.33000		875.00000 
 43692.65567		 305.27265			43387.38302		67.63800		324.00000 
 43692.65567		 724.87338			42967.78230		147.33000		875.00000 
 43692.65567		 305.27265			43387.38302		67.63800		324.00000 
 43692.65567		 724.87338			42967.78230		147.33000		875.00000 
 43692.65567		 305.27265			43387.38302		67.63800		324.00000 
 43692.65567		 724.87338			42967.78230		147.33000		875.00000 
 43692.65567		 305.27265			43387.38302		67.63800		324.00000 
 43692.65567		 724.87338			42967.78230		147.33000		875.00000 
 43692.65567		 305.27265			43387.38302		67.63800		324.00000 
 43692.65567		 724.87338			42967.78230		147.33000		875.00000 
 43692.65567		 305.27265			43387.38302		67.63800		324.00000 
 43692.65567		 724.87338			42967.78230		147.33000		875.00000 
 43692.65567		 305.27265			43387.38302		67.63800		324.00000 
 43692.65567		 724.87338			42967.78230		147.33000		875.00000 
 43692.65567		 305.27265			43387.38302		67.63800		324.00000 
 43692.65567		 724.87338			42967.78230		147.33000		875.00000 
 43692.65567		 305.27265			43387.38302		67.63800		324.00000 
 43692.65567		 724.87338			42967.78230		147.33000		875.00000 
 43692.65567		 305.27265			43387.38302		67.63800		324.00000 
 43692.65567		 724.87338			42967.78230		147.33000		875.00000 
 43692.65567		 305.27265			43387.38302		67.63800		324.00000 
 43692.65567		 724.87338			42967.78230		147.33000		875.00000 
 43692.65567		 305.27265			43387.38302		67.63800		324.00000 
 43692.65567		 724.87338			42967.78230		147.33000		875.00000 
 43692.65567		 305.27265			43387.38302		67.63800		324.00000 
 43692.65567		 724.87338			42967.78230		147.33000		875.00000 
 43692.65567		 305.27265			43387.38302		67.63800		324.00000 
 43692.65567		 724.87338			42967.78230		194.02200		875.00000 
 43692.65567		 305.27265			43387.38302		67.63800		324.00000 
 43692.65567		 724.87338			42967.78230		194.02200		875.00000 
 43692.65567		 305.27265			43387.38302		67.63800		324.00000 
 43692.65567		 724.87338			42967.78230		194.02200		875.00000 
 43692.65567		 305.27265			43387.38302		67.63800		324.00000 
 43692.65567		 724.87338			42967.78230		194.02200		875.00000 
 43692.65567		 305.27265			43387.38302		67.63800		324.00000 
 43692.65567		 724.87338			42967.78230		194.02200		875.00000 
 43692.65567		 305.27265			43387.38302		67.63800		324.00000 
 43692.65567		 724.87338			42967.78230		194.02200		875.00000 
 43692.65567		 305.27265			43387.38302		67.63800		324.00000 
 43692.65567		 724.87338			42967.78230		194.02200		875.00000 
 43692.65567		 305.27265			43387.38302		67.63800		324.00000 
 43692.65567		 724.87338			42967.78230		194.02200		875.00000 
 43692.65567		 305.27265			43387.38302		67.63800		324.00000 
 43692.65567		 724.87338			42967.78230		194.02200		875.00000 
 43692.65567		 305.27265			43387.38302		67.63800		324.00000 
 43692.65567		 724.87338			42967.78230		194.02200		875.00000 
 43692.65567		 305.27265			43387.38302		67.63800		324.00000 
 43692.65567		 724.87338			42967.78230		194.02200		875.00000 
 43692.65567		 305.27265			43387.38302		67.63800		324.00000 
 43692.65567		 724.87338			42967.78230		194.02200		875.00000 
 43692.65567		 305.27265			43387.38302		67.63800		324.00000 
 43692.65567		 724.87338			42967.78230		194.02200		875.00000 
 43692.65567		 305.27265			43387.38302		67.63800		324.00000 
 43692.65567		 724.87338			42967.78230		194.02200		875.00000 
 43692.65567		 305.27265			43387.38302		67.63800		324.00000 
 43692.65567		 724.87338			42967.78230		194.02200		875.00000 
 43692.65567		 305.27265			43387.38302		67.63800		324.00000 
 43692.65567		 724.87338			42967.78230		194.02200		875.00000 
 43692.65567		 305.27265			43387.38302		67.63800		324.00000 
 43692.65567		 724.87338			42967.78230		194.02200		875.00000 
 43692.65567		 305.27265			43387.38302		67.63800		324.00000 
 43692.65567		 724.87338			42967.78230		194.02200		875.00000 
 43692.65567		 305.27265			43387.38302		67.63800		324.00000 
 43692.65567		 724.87338			42967.78230		194.02200		875.00000 
 43692.65567		 305.27265			43387.38302		67.63800		324.00000 
 43692.65567		 724.87338			42967.78230		194.02200		875.00000 
 43692.65567		 305.27265			43387.38302		67.63800		324.00000 
 43692.65567		 724.87338			42967.78230		194.02200		875.00000 
 43692.65567		 305.27265			43387.38302		67.63800		324.00000 
 43692.65567		 724.87338			42967.78230		194.02200		875.00000 
 43692.65567		 305.27265			43387.38302		67.63800		324.00000 
 43692.65567		 724.87338			42967.78230		194.02200		875.00000 
 43692.65567		 305.27265			43387.38302		67.63800		324.00000 
 43692.65567		 724.87338			42967.78230		194.02200		875.00000 
 43692.65567		 305.27265			43387.38302		67.63800		324.00000 
 43692.65567		 724.87338			42967.78230		194.02200		875.00000 
 43692.65567		 305.27265			43387.38302		67.63800		324.00000 
 43692.65567		 724.87338			42967.78230		194.02200		875.00000 
 43692.65567		 305.27265			43387.38302		67.63800		324.00000 
 43692.65567		 724.87338			42967.78230		194.02200		875.00000 
 43692.65567		 305.27265			43387.38302		67.63800		324.00000 
 43692.65567		 724.87338			42967.78230		194.02200		875.00000 
 43692.65567		 305.27265			43387.38302		67.63800		324.00000 
 43692.65567		 724.87338			42967.78230		194.02200		875.00000 
 43692.65567		 305.27265			43387.38302		67.63800		324.00000 
 43692.65567		 724.87338			42967.78230		194.02200		875.00000 
 43692.65567		 305.27265			43387.38302		67.63800		324.00000 
 43692.65567		 724.87338			42967.78230		194.02200		875.00000 
 43692.65567		 305.27265			43387.38302		67.63800		324.00000 
 43692.65567		 724.87338			42967.78230		194.02200		875.00000 
 43692.65567		 305.27265			43387.38302		67.63800		324.00000 
 43692.65567		 724.87338			42967.78230		194.02200		875.00000 
 43692.65567		 305.27265			43387.38302		67.63800		324.00000 
 43692.65567		 724.87338			42967.78230		194.02200		875.00000 
 43692.65567		 305.27265			43387.38302		67.63800		324.00000 
 43692.65567		 724.87338			42967.78230		194.02200		875.00000 
 43692.65567		 305.27265			43387.38302		67.63800		324.00000 
 43692.65567		 724.87338			42967.78230		194.02200		875.00000 
 43692.65567		 305.27265			43387.38302		67.63800		324.00000 
 43692.65567		 724.87338			42967.78230		194.02200		875.00000 
 43692.65567		 305.27265			43387.38302		67.63800		324.00000 
 43692.65567		 724.87338			42967.78230		194.02200		875.00000 
 43692.65567		 305.27265			43387.38302		67.63800		324.00000 
 43692.65567		 724.87338			42967.78230		194.02200		875.00000 
 43692.65567		 305.27265			43387.38302		67.63800		324.00000 
 43692.65567		 724.87338			42967.78230		194.02200		875.00000 
 43692.65567		 305.27265			43387.38302		67.63800		324.00000 
 43692.65567		 724.87338			42967.78230		194.02200		875.00000 
 43692.65567		 305.27265			43387.38302		67.63800		324.00000 
 43692.65567		 724.87338			42967.78230		194.02200		875.00000 
 43692.65567		 305.27265			43387.38302		67.63800		324.00000 
 43692.65567		 724.87338			42967.78230		194.02200		875.00000 
 43692.65567		 305.27265			43387.38302		67.63800		324.00000 
 43692.65567		 724.87338			42967.78230		194.02200		875.00000 
 43692.65567		 305.27265			43387.38302		67.63800		324.00000 
 43692.65567		 724.87338			42967.78230		194.02200		875.00000 
 43692.65567		 305.27265			43387.38302		67.63800		324.00000 
 43692.65567		 724.87338			42967.78230		194.02200		875.00000 
 43692.65567		 305.27265			43387.38302		67.63800		324.00000 
 43692.65567		 724.87338			42967.78230		194.02200		875.00000 
 43692.65567		 305.27265			43387.38302		67.63800		324.00000 
 43692.65567		 724.87338			42967.78230		194.02200		875.00000 
 43692.65567		 305.27265			43387.38302		67.63800		324.00000 
 43692.65567		 724.87338			42967.78230		194.02200		875.00000 
 43692.65567		 305.27265			43387.38302		67.63800		324.00000 
 43692.65567		 724.87338			42967.78230		194.02200		875.00000 
 43692.65567		 305.27265			43387.38302		67.63800		324.00000 
 43692.65567		 724.87338			42967.78230		194.02200		875.00000 
 43692.65567		 305.27265			43387.38302		67.63800		324.00000 
 43692.65567		 724.87338			42967.78230		194.02200		875.00000 
 43692.65567		 305.27265			43387.38302		67.63800		324.00000 
 43692.65567		 724.87338			42967.78230		194.02200		875.00000 
 43692.65567		 305.27265			43387.38302		67.63800		324.00000 
 43692.65567		 724.87338			42967.78230		194.02200		875.00000 
 43692.65567		 305.27265			43387.38302		67.63800		324.00000 
 43692.65567		 724.87338			42967.78230		194.02200		875.00000 
 43692.65567		 305.27265			43387.38302		67.63800		324.00000 
 43692.65567		 724.87338			42967.78230		194.02200		875.00000 
 43692.65567		 305.27265			43387.38302		67.63800		324.00000 
 43692.65567		 724.87338			42967.78230		194.02200		875.00000 
 43692.65567		 305.27265			43387.38302		67.63800		324.00000 
 43692.65567		 724.87338			42967.78230		194.02200		875.00000 
 43692.65567		 305.27265			43387.38302		67.63800		324.00000 
 43692.65567		 724.87338			42967.78230		194.02200		875.00000 
 43692.65567		 305.27265			43387.38302		67.63800		324.00000 
 43692.65567		 724.87338			42967.78230		194.02200		875.00000 
 43692.65567		 305.27265			43387.38302		67.63800		324.00000 
 43692.65567		 724.87338			42967.78230		194.02200		875.00000 
 43692.65567		 305.27265			43387.38302		67.63800		324.00000 
 43692.65567		 724.87338			42967.78230		194.02200		875.00000 
 43692.65567		 305.27265			43387.38302		67.63800		324.00000 
 43692.65567		 724.87338			42967.78230		194.02200		875.00000 
 43692.65567		 305.27265			43387.38302		67.63800		324.00000 
 43692.65567		 724.87338			42967.78230		194.02200		875.00000 
 43692.65567		 305.27265			43387.38302		67.63800		324.00000 
 43692.65567		 724.87338			42967.78230		211.55400		875.00000 
 43692.65567		 305.27265			43387.38302		67.63800		324.00000 
 43692.65567		 724.87338			42967.78230		211.55400		875.00000 
 43692.65567		 305.27265			43387.38302		67.63800		324.00000 
 43692.65567		 724.87338			42967.78230		211.55400		875.00000 
 43692.65567		 305.27265			43387.38302		67.63800		324.00000 
 43692.65567		 724.87338			42967.78230		211.55400		875.00000 
 43692.65567		 305.27265			43387.38302		67.63800		324.00000 
 43692.65567		 724.87338			42967.78230		211.55400		875.00000 
 43692.65567		 305.27265			43387.38302		67.63800		324.00000 
 43692.65567		 724.87338			42967.78230		211.55400		875.00000 
 43692.65567		 305.27265			43387.38302		67.63800		324.00000 
 43692.65567		 724.87338			42967.78230		211.55400		875.00000 
 43692.65567		 305.27265			43387.38302		67.63800		324.00000 
 43692.65567		 724.87338			42967.78230		211.55400		875.00000 
 43692.65567		 305.27265			43387.38302		67.63800		324.00000 
 43692.65567		 724.87338			42967.78230		211.55400		875.00000 
 43692.65567		 305.27265			43387.38302		67.63800		324.00000 
 43692.65567		 724.87338			42967.78230		211.55400		875.00000 
 43692.65567		 305.27265			43387.38302		67.63800		324.00000 
 43692.65567		 724.87338			42967.78230		211.55400		875.00000 
 43692.65567		 305.27265			43387.38302		67.63800		324.00000 
 43692.65567		 724.87338			42967.78230		211.55400		875.00000 
 43692.65567		 305.27265			43387.38302		67.63800		324.00000 
 43692.65567		 724.87338			42967.78230		211.55400		875.00000 
 43692.65567		 305.27265			43387.38302		67.63800		324.00000 
 43692.65567		 724.87338			42967.78230		211.55400		875.00000 
 43692.65567		 305.27265			43387.38302		67.63800		324.00000 
 43692.65567		 724.87338			42967.78230		211.55400		875.00000 
 43692.65567		 305.27265			43387.38302		67.63800		324.00000 
 43692.65567		 724.87338			42967.78230		211.55400		875.00000 
 43692.65567		 305.27265			43387.38302		67.63800		324.00000 
 43692.65567		 724.87338			42967.78230		211.55400		875.00000 
 43692.65567		 305.27265			43387.38302		67.63800		324.00000 
 43692.65567		 724.87338			42967.78230		211.55400		875.00000 
 43692.65567		 305.27265			43387.38302		67.63800		324.00000 
 43692.65567		 724.87338			42967.78230		211.55400		875.00000 
 43692.65567		 305.27265			43387.38302		67.63800		324.00000 
 43692.65567		 724.87338			42967.78230		211.55400		875.00000 
 43692.65567		 305.27265			43387.38302		67.63800		324.00000 
 43692.65567		 724.87338			42967.78230		211.55400		875.00000 
 43692.65567		 305.27265			43387.38302		67.63800		324.00000 
 43692.65567		 724.87338			42967.78230		211.55400		875.00000 
 43692.65567		 305.27265			43387.38302		67.63800		324.00000 
 43692.65567		 724.87338			42967.78230		211.55400		875.00000 
 43692.65567		 305.27265			43387.38302		67.63800		324.00000 
 43692.65567		 724.87338			42967.78230		211.55400		875.00000 
 43692.65567		 305.27265			43387.38302		67.63800		324.00000 
 43692.65567		 724.87338			42967.78230		211.55400		875.00000 
 43692.65567		 305.27265			43387.38302		67.63800		324.00000 
 43692.65567		 724.87338			42967.78230		211.55400		875.00000 
 43692.65567		 305.27265			43387.38302		67.63800		324.00000 
 43692.65567		 724.87338			42967.78230		211.55400		875.00000 
 43692.65567		 305.27265			43387.38302		67.63800		324.00000 
 43692.65567		 724.87338			42967.78230		211.55400		875.00000 
 43692.65567		 305.27265			43387.38302		67.63800		324.00000 
 43692.65567		 724.87338			42967.78230		211.55400		875.00000 
 43692.65567		 305.27265			43387.38302		67.63800		324.00000 
 43692.65567		 724.87338			42967.78230		211.55400		875.00000 
 43692.65567		 305.27265			43387.38302		67.63800		324.00000 
 43692.65567		 724.87338			42967.78230		211.55400		875.00000 
 43692.65567		 305.27265			43387.38302		67.63800		324.00000 
 43692.65567		 724.87338			42967.78230		211.55400		875.00000 
 43692.65567		 305.27265			43387.38302		67.63800		324.00000 
 43692.65567		 724.87338			42967.78230		211.55400		875.00000 
 43692.65567		 305.27265			43387.38302		67.63800		324.00000 
 43692.65567		 724.87338			42967.78230		211.55400		875.00000 
 43692.65567		 305.27265			43387.38302		67.63800		324.00000 
 43692.65567		 724.87338			42967.78230		211.55400		875.00000 
 43692.65567		 305.27265			43387.38302		67.63800		324.00000 
 43692.65567		 724.87338			42967.78230		211.55400		875.00000 
 43692.65567		 305.27265			43387.38302		67.63800		324.00000 
 43692.65567		 724.87338			42967.78230		211.55400		875.00000 
 43692.65567		 305.27265			43387.38302		67.63800		324.00000 
 43692.65567		 724.87338			42967.78230		211.55400		875.00000 
 43692.65567		 305.27265			43387.38302		67.63800		324.00000 
 43692.65567		 724.87338			42967.78230		211.55400		875.00000 
 43692.65567		 305.27265			43387.38302		67.63800		324.00000 
 43692.65567		 724.87338			42967.78230		211.55400		875.00000 
 43692.65567		 305.27265			43387.38302		67.63800		324.00000 
 43692.65567		 724.87338			42967.78230		211.55400		875.00000 
 43692.65567		 305.27265			43387.38302		67.63800		324.00000 
 43692.65567		 724.87338			42967.78230		211.55400		875.00000 
 43692.65567		 305.27265			43387.38302		67.63800		324.00000 
 43692.65567		 724.87338			42967.78230		211.55400		875.00000 
 43692.65567		 305.27265			43387.38302		67.63800		324.00000 
 43692.65567		 724.87338			42967.78230		211.55400		875.00000 
 43692.65567		 305.27265			43387.38302		67.63800		324.00000 
 43692.65567		 724.87338			42967.78230		211.55400		875.00000 
 43692.65567		 305.27265			43387.38302		67.63800		324.00000 
 43692.65567		 724.87338			42967.78230		211.55400		875.00000 
 43692.65567		 305.27265			43387.38302		67.63800		324.00000 
 43692.65567		 724.87338			42967.78230		211.55400		875.00000 
 43692.65567		 305.27265			43387.38302		67.63800		324.00000 
 43692.65567		 724.87338			42967.78230		211.55400		875.00000 
 43692.65567		 305.27265			43387.38302		67.63800		324.00000 
 43692.65567		 724.87338			42967.78230		211.55400		875.00000 
 43692.65567		 305.27265			43387.38302		67.63800		324.00000 
 43692.65567		 724.87338			42967.78230		211.55400		875.00000 
 43692.65567		 305.27265			43387.38302		67.63800		324.00000 
 43692.65567		 724.87338			42967.78230		211.55400		875.00000 
 43692.65567		 305.27265			43387.38302		67.63800		324.00000 
 43692.65567		 724.87338			42967.78230		211.55400		875.00000 
 43692.65567		 305.27265			43387.38302		67.63800		324.00000 
 43692.65567		 724.87338			42967.78230		211.55400		875.00000 
 43692.65567		 305.27265			43387.38302		67.63800		324.00000 
 43692.65567		 724.87338			42967.78230		211.55400		875.00000 
 43692.65567		 305.27265			43387.38302		67.63800		324.00000 
 43692.65567		 724.87338			42967.78230		211.55400		875.00000 
 43692.65567		 305.27265			43387.38302		67.63800		324.00000 
 43692.65567		 724.87338			42967.78230		211.55400		875.00000 
 43692.65567		 305.27265			43387.38302		67.63800		324.00000 
 43692.65567		 724.87338			42967.78230		211.55400		875.00000 
 43692.65567		 305.27265			43387.38302		67.63800		324.00000 
 43692.65567		 724.87338			42967.78230		211.55400		875.00000 
 43692.65567		 305.27265			43387.38302		67.63800		324.00000 
 43692.65567		 724.87338			42967.78230		211.55400		875.00000 
 43692.65567		 305.27265			43387.38302		67.63800		324.00000 
 43692.65567		 724.87338			42967.78230		211.55400		875.00000 
 43692.65567		 305.27265			43387.38302		67.63800		324.00000 
 43692.65567		 724.87338			42967.78230		211.55400		875.00000 
 43692.65567		 305.27265			43387.38302		67.63800		324.00000 
 43692.65567		 724.87338			42967.78230		211.55400		875.00000 
 43692.65567		 305.27265			43387.38302		67.63800		324.00000 
 43692.65567		 724.87338			42967.78230		211.55400		875.00000 
 43692.65567		 305.27265			43387.38302		67.63800		324.00000 
 43692.65567		 724.87338			42967.78230		211.55400		875.00000 
 43692.65567		 305.27265			43387.38302		67.63800		324.00000 
 43692.65567		 724.87338			42967.78230		218.34400		875.00000 
 43692.65567		 305.27265			43387.38302		67.63800		324.00000 
 43692.65567		 724.87338			42967.78230		218.34400		875.00000 
 43692.65567		 305.27265			43387.38302		67.63800		324.00000 
 43692.65567		 724.87338			42967.78230		218.34400		875.00000 
 43692.65567		 305.27265			43387.38302		67.63800		324.00000 
 43692.65567		 724.87338			42967.78230		218.34400		875.00000 
 43692.65567		 305.27265			43387.38302		67.63800		324.00000 
 43692.65567		 724.87338			42967.78230		218.34400		875.00000 
 43692.65567		 305.27265			43387.38302		67.63800		324.00000 
 43692.65567		 724.87338			42967.78230		218.34400		875.00000 
 43692.65567		 305.27265			43387.38302		67.63800		324.00000 
 43692.65567		 724.87338			42967.78230		218.34400		875.00000 
 43692.65567		 305.27265			43387.38302		67.63800		324.00000 
 43692.65567		 724.87338			42967.78230		218.34400		875.00000 
 43692.65567		 305.27265			43387.38302		67.63800		324.00000 
 43692.65567		 724.87338			42967.78230		218.34400		875.00000 
 43692.65567		 305.27265			43387.38302		67.63800		324.00000 
 43692.65567		 724.87338			42967.78230		218.34400		875.00000 
 43692.65567		 305.27265			43387.38302		67.63800		324.00000 
 43692.65567		 724.87338			42967.78230		218.34400		875.00000 
 43692.65567		 305.27265			43387.38302		67.63800		324.00000 
 43692.65567		 724.87338			42967.78230		218.34400		875.00000 
 43692.65567		 305.27265			43387.38302		67.63800		324.00000 
 43692.65567		 724.87338			42967.78230		218.34400		875.00000 
 43692.65567		 305.27265			43387.38302		67.63800		324.00000 
 43692.65567		 724.87338			42967.78230		218.34400		875.00000 
 43692.65567		 305.27265			43387.38302		67.63800		324.00000 
 43692.65567		 724.87338			42967.78230		218.34400		875.00000 
 43692.65567		 305.27265			43387.38302		67.63800		324.00000 
 43692.65567		 724.87338			42967.78230		218.34400		875.00000 
 43692.65567		 305.27265			43387.38302		67.63800		324.00000 
 43692.65567		 724.87338			42967.78230		218.34400		875.00000 
 43692.65567		 305.27265			43387.38302		67.63800		324.00000 
 43692.65567		 724.87338			42967.78230		218.34400		875.00000 
 43692.65567		 305.27265			43387.38302		67.63800		324.00000 
 43692.65567		 724.87338			42967.78230		218.34400		875.00000 
 43692.65567		 305.27265			43387.38302		67.63800		324.00000 
 43692.65567		 724.87338			42967.78230		218.34400		875.00000 
 43692.65567		 305.27265			43387.38302		67.63800		324.00000 
 43692.65567		 724.87338			42967.78230		218.34400		875.00000 
 43692.65567		 305.27265			43387.38302		67.63800		324.00000 
 43692.65567		 724.87338			42967.78230		218.34400		875.00000 
 43692.65567		 305.27265			43387.38302		67.63800		324.00000 
 43692.65567		 724.87338			42967.78230		218.34400		875.00000 
 43692.65567		 305.27265			43387.38302		67.63800		324.00000 
 43692.65567		 724.87338			42967.78230		218.34400		875.00000 
 43692.65567		 305.27265			43387.38302		67.63800		324.00000 
 43692.65567		 724.87338			42967.78230		218.34400		875.00000 
 43692.65567		 305.27265			43387.38302		67.63800		324.00000 
 43692.65567		 724.87338			42967.78230		218.34400		875.00000 
 43692.65567		 305.27265			43387.38302		67.63800		324.00000 
 43692.65567		 724.87338			42967.78230		218.34400		875.00000 
 43692.65567		 305.27265			43387.38302		67.63800		324.00000 
 43692.65567		 724.87338			42967.78230		218.34400		875.00000 
 43692.65567		 305.27265			43387.38302		67.63800		324.00000 
 43692.65567		 724.87338			42967.78230		218.34400		875.00000 
 43692.65567		 305.27265			43387.38302		67.63800		324.00000 
 43692.65567		 724.87338			42967.78230		218.34400		875.00000 
 43692.65567		 305.27265			43387.38302		67.63800		324.00000 
 43692.65567		 724.87338			42967.78230		218.34400		875.00000 
 43692.65567		 305.27265			43387.38302		67.63800		324.00000 
 43692.65567		 724.87338			42967.78230		218.34400		875.00000 
 43692.65567		 305.27265			43387.38302		67.63800		324.00000 
 43692.65567		 724.87338			42967.78230		218.34400		875.00000 
 43692.65567		 305.27265			43387.38302		67.63800		324.00000 
 43692.65567		 724.87338			42967.78230		218.34400		875.00000 
 43692.65567		 305.27265			43387.38302		67.63800		324.00000 
 43692.65567		 724.87338			42967.78230		218.34400		875.00000 
 43692.65567		 305.27265			43387.38302		67.63800		324.00000 
 43692.65567		 724.87338			42967.78230		218.34400		875.00000 
 43692.65567		 305.27265			43387.38302		67.63800		324.00000 
 43692.65567		 724.87338			42967.78230		218.34400		875.00000 
 43692.65567		 305.27265			43387.38302		67.63800		324.00000 
 43692.65567		 724.87338			42967.78230		218.34400		875.00000 
 43692.65567		 305.27265			43387.38302		67.63800		324.00000 
 43692.65567		 724.87338			42967.78230		218.34400		875.00000 
 43692.65567		 305.27265			43387.38302		67.63800		324.00000 
 43692.65567		 724.87338			42967.78230		218.34400		875.00000 
 43692.65567		 305.27265			43387.38302		67.63800		324.00000 
 43692.65567		 724.87338			42967.78230		218.34400		875.00000 
 43692.65567		 305.27265			43387.38302		67.63800		324.00000 
 43692.65567		 724.87338			42967.78230		218.34400		875.00000 
 43692.65567		 305.27265			43387.38302		67.63800		324.00000 
 43692.65567		 724.87338			42967.78230		218.34400		875.00000 
 43692.65567		 305.27265			43387.38302		67.63800		324.00000 
 43692.65567		 724.87338			42967.78230		218.34400		875.00000 
 43692.65567		 305.27265			43387.38302		67.63800		324.00000 
 43692.65567		 724.87338			42967.78230		218.34400		875.00000 
 43692.65567		 305.27265			43387.38302		67.63800		324.00000 
 43692.65567		 724.87338			42967.78230		218.34400		875.00000 
 43692.65567		 305.27265			43387.38302		67.63800		324.00000 
 43692.65567		 724.87338			42967.78230		218.34400		875.00000 
 43692.65567		 305.27265			43387.38302		67.63800		324.00000 
 43692.65567		 724.87338			42967.78230		218.34400		875.00000 
 43692.65567		 305.27265			43387.38302		67.63800		324.00000 
 43692.65567		 724.87338			42967.78230		218.34400		875.00000 
 43692.65567		 305.27265			43387.38302		67.63800		324.00000 
 43692.65567		 724.87338			42967.78230		218.34400		875.00000 
 43692.65567		 305.27265			43387.38302		67.63800		324.00000 
 43692.65567		 724.87338			42967.78230		218.34400		875.00000 
 43692.65567		 305.27265			43387.38302		67.63800		324.00000 
 43692.65567		 724.87338			42967.78230		218.34400		875.00000 
 43692.65567		 305.27265			43387.38302		67.63800		324.00000 
 43692.65567		 724.87338			42967.78230		218.34400		875.00000 
 43692.65567		 305.27265			43387.38302		67.63800		324.00000 
 43692.65567		 724.87338			42967.78230		218.34400		875.00000 
 43692.65567		 305.27265			43387.38302		67.63800		324.00000 
 43692.65567		 724.87338			42967.78230		218.34400		875.00000 
 43692.65567		 305.27265			43387.38302		67.63800		324.00000 
 43692.65567		 724.87338			42967.78230		218.34400		875.00000 
 43692.65567		 305.27265			43387.38302		67.63800		324.00000 
 43692.65567		 724.87338			42967.78230		218.34400		875.00000 
 43692.65567		 305.27265			43387.38302		67.63800		324.00000 
 43692.65567		 724.87338			42967.78230		218.34400		875.00000 
 43692.65567		 305.27265			43387.38302		67.63800		324.00000 
 43692.65567		 724.87338			42967.78230		218.34400		875.00000 
 43692.65567		 305.27265			43387.38302		67.63800		324.00000 
 43692.65567		 724.87338			42967.78230		218.34400		875.00000 
 43692.65567		 305.27265			43387.38302		67.63800		324.00000 
 43692.65567		 724.87338			42967.78230		218.34400		875.00000 
 43692.65567		 305.27265			43387.38302		67.63800		324.00000 
 43692.65567		 724.87338			42967.78230		218.34400		875.00000 
 43692.65567		 305.27265			43387.38302		67.63800		324.00000 
 43692.65567		 724.87338			42967.78230		218.34400		875.00000 
 43692.65567		 305.27265			43387.38302		67.63800		324.00000 
 43692.65567		 724.87338			42967.78230		218.34400		875.00000 
 43692.65567		 305.27265			43387.38302		67.63800		324.00000 
 43692.65567		 724.87338			42967.78230		220.31200		875.00000 
 43692.65567		 305.27265			43387.38302		67.63800		324.00000 
 43692.65567		 724.87338			42967.78230		220.31200		875.00000 
 43692.65567		 305.27265			43387.38302		67.63800		324.00000 
 43692.65567		 724.87338			42967.78230		220.31200		875.00000 
 43692.65567		 305.27265			43387.38302		67.63800		324.00000 
 43692.65567		 724.87338			42967.78230		220.31200		875.00000 
 43692.65567		 305.27265			43387.38302		67.63800		324.00000 
 43692.65567		 724.87338			42967.78230		220.31200		875.00000 
 43692.65567		 305.27265			43387.38302		67.63800		324.00000 
 43692.65567		 724.87338			42967.78230		220.31200		875.00000 
 43692.65567		 305.27265			43387.38302		67.63800		324.00000 
 43692.65567		 724.87338			42967.78230		220.31200		875.00000 
 43692.65567		 305.27265			43387.38302		67.63800		324.00000 
 43692.65567		 724.87338			42967.78230		220.31200		875.00000 
 43692.65567		 305.27265			43387.38302		67.63800		324.00000 
 43692.65567		 724.87338			42967.78230		220.31200		875.00000 
 43692.65567		 305.27265			43387.38302		67.63800		324.00000 
 43692.65567		 724.87338			42967.78230		220.31200		875.00000 
 43692.65567		 305.27265			43387.38302		67.63800		324.00000 
 43692.65567		 724.87338			42967.78230		220.31200		875.00000 
 43692.65567		 305.27265			43387.38302		67.63800		324.00000 
 43692.65567		 724.87338			42967.78230		220.31200		875.00000 
 43692.65567		 305.27265			43387.38302		67.63800		324.00000 
 43692.65567		 724.87338			42967.78230		220.31200		875.00000 
 43692.65567		 305.27265			43387.38302		67.63800		324.00000 
 43692.65567		 724.87338			42967.78230		220.31200		875.00000 
 43692.65567		 305.27265			43387.38302		67.63800		324.00000 
 43692.65567		 724.87338			42967.78230		220.31200		875.00000 
 43692.65567		 305.27265			43387.38302		67.63800		324.00000 
 43692.65567		 724.87338			42967.78230		220.31200		875.00000 
 43692.65567		 305.27265			43387.38302		67.63800		324.00000 
 43692.65567		 724.87338			42967.78230		220.31200		875.00000 
 43692.65567		 305.27265			43387.38302		67.63800		324.00000 
 43692.65567		 724.87338			42967.78230		220.31200		875.00000 
 43692.65567		 305.27265			43387.38302		67.63800		324.00000 
 43692.65567		 724.87338			42967.78230		220.31200		875.00000 
 43692.65567		 305.27265			43387.38302		67.63800		324.00000 
 43692.65567		 724.87338			42967.78230		220.31200		875.00000 
 43692.65567		 305.27265			43387.38302		67.63800		324.00000 
 43692.65567		 724.87338			42967.78230		220.31200		875.00000 
 43692.65567		 305.27265			43387.38302		67.63800		324.00000 
 43692.65567		 724.87338			42967.78230		220.31200		875.00000 
 43692.65567		 305.27265			43387.38302		67.63800		324.00000 
 43692.65567		 724.87338			42967.78230		220.31200		875.00000 
 43692.65567		 305.27265			43387.38302		67.63800		324.00000 
 43692.65567		 724.87338			42967.78230		220.31200		875.00000 
 43692.65567		 305.27265			43387.38302		67.63800		324.00000 
 43692.65567		 724.87338			42967.78230		220.31200		875.00000 
 43692.65567		 305.27265			43387.38302		67.63800		324.00000 
 43692.65567		 724.87338			42967.78230		220.31200		875.00000 
 43692.65567		 305.27265			43387.38302		67.63800		324.00000 
 43692.65567		 724.87338			42967.78230		220.31200		875.00000 
 43692.65567		 305.27265			43387.38302		67.63800		324.00000 
 43692.65567		 724.87338			42967.78230		220.31200		875.00000 
 43692.65567		 305.27265			43387.38302		67.63800		324.00000 
 43692.65567		 724.87338			42967.78230		220.31200		875.00000 
 43692.65567		 305.27265			43387.38302		67.63800		324.00000 
 43692.65567		 724.87338			42967.78230		220.31200		875.00000 
 43692.65567		 305.27265			43387.38302		67.63800		324.00000 
 43692.65567		 724.87338			42967.78230		220.31200		875.00000 
 43692.65567		 305.27265			43387.38302		67.63800		324.00000 
 43692.65567		 724.87338			42967.78230		220.31200		875.00000 
 43692.65567		 305.27265			43387.38302		67.63800		324.00000 
 43692.65567		 724.87338			42967.78230		220.31200		875.00000 
 43692.65567		 305.27265			43387.38302		67.63800		324.00000 
 43692.65567		 724.87338			42967.78230		220.31200		875.00000 
 43692.65567		 305.27265			43387.38302		67.63800		324.00000 
 43692.65567		 724.87338			42967.78230		220.31200		875.00000 
 43692.65567		 305.27265			43387.38302		67.63800		324.00000 
 43692.65567		 724.87338			42967.78230		220.31200		875.00000 
 43692.65567		 305.27265			43387.38302		67.63800		324.00000 
 43692.65567		 724.87338			42967.78230		220.31200		875.00000 
 43692.65567		 305.27265			43387.38302		67.63800		324.00000 
 43692.65567		 724.87338			42967.78230		220.31200		875.00000 
 43692.65567		 305.27265			43387.38302		67.63800		324.00000 
 43692.65567		 724.87338			42967.78230		220.31200		875.00000 
 43692.65567		 305.27265			43387.38302		67.63800		324.00000 
 43692.65567		 724.87338			42967.78230		220.31200		875.00000 
 43692.65567		 305.27265			43387.38302		67.63800		324.00000 
 43692.65567		 724.87338			42967.78230		220.31200		875.00000 
 43692.65567		 305.27265			43387.38302		67.63800		324.00000 
 43692.65567		 724.87338			42967.78230		220.31200		875.00000 
 43692.65567		 305.27265			43387.38302		67.63800		324.00000 
 43692.65567		 724.87338			42967.78230		220.31200		875.00000 
 43692.65567		 305.27265			43387.38302		67.63800		324.00000 
 43692.65567		 724.87338			42967.78230		220.31200		875.00000 
 43692.65567		 305.27265			43387.38302		67.63800		324.00000 
 43692.65567		 724.87338			42967.78230		220.31200		875.00000 
 43692.65567		 305.27265			43387.38302		67.63800		324.00000 
 43692.65567		 724.87338			42967.78230		220.31200		875.00000 
 43692.65567		 305.27265			43387.38302		67.63800		324.00000 
 43692.65567		 724.87338			42967.78230		220.31200		875.00000 
 43692.65567		 305.27265			43387.38302		67.63800		324.00000 
 43692.65567		 724.87338			42967.78230		220.31200		875.00000 
 43692.65567		 305.27265			43387.38302		67.63800		324.00000 
 43692.65567		 724.87338			42967.78230		220.31200		875.00000 
 43692.65567		 305.27265			43387.38302		67.63800		324.00000 
 43692.65567		 724.87338			42967.78230		220.31200		875.00000 
 43692.65567		 305.27265			43387.38302		67.63800		324.00000 
 43692.65567		 724.87338			42967.78230		220.31200		875.00000 
 43692.65567		 305.27265			43387.38302		67.63800		324.00000 
 43692.65567		 724.87338			42967.78230		220.31200		875.00000 
 43692.65567		 305.27265			43387.38302		67.63800		324.00000 
 43692.65567		 724.87338			42967.78230		220.31200		875.00000 
 43692.65567		 305.27265			43387.38302		67.63800		324.00000 
 43692.65567		 724.87338			42967.78230		220.31200		875.00000 
 43692.65567		 305.27265			43387.38302		67.63800		324.00000 
 43692.65567		 724.87338			42967.78230		220.31200		875.00000 
 43692.65567		 305.27265			43387.38302		67.63800		324.00000 
 43692.65567		 724.87338			42967.78230		220.31200		875.00000 
 43692.65567		 305.27265			43387.38302		67.63800		324.00000 
 43692.65567		 724.87338			42967.78230		220.31200		875.00000 
 43692.65567		 305.27265			43387.38302		67.63800		324.00000 
 43692.65567		 724.87338			42967.78230		220.31200		875.00000 
 43692.65567		 305.27265			43387.38302		67.63800		324.00000 
 43692.65567		 724.87338			42967.78230		220.31200		875.00000 
 43692.65567		 305.27265			43387.38302		67.63800		324.00000 
 43692.65567		 724.87338			42967.78230		220.31200		875.00000 
 43692.65567		 305.27265			43387.38302		67.63800		324.00000 
 43692.65567		 724.87338			42967.78230		220.31200		875.00000 
 43692.65567		 305.27265			43387.38302		67.63800		324.00000 
 43692.65567		 724.87338			42967.78230		220.31200		875.00000 
 43692.65567		 305.27265			43387.38302		67.63800		324.00000 
 43692.65567		 724.87338			42967.78230		220.31200		875.00000 
 43692.65567		 305.27265			43387.38302		67.63800		324.00000 
 43692.65567		 724.87338			42967.78230		220.31200		875.00000 
 43692.65567		 305.27265			43387.38302		67.63800		324.00000 
 43692.65567		 724.87338			42967.78230		220.86200		875.00000 
 43692.65567		 305.27265			43387.38302		67.63800		324.00000 
 43692.65567		 724.87338			42967.78230		220.86200		875.00000 
 43692.65567		 305.27265			43387.38302		67.63800		324.00000 
 43692.65567		 724.87338			42967.78230		220.86200		875.00000 
 43692.65567		 305.27265			43387.38302		67.63800		324.00000 
 43692.65567		 724.87338			42967.78230		220.86200		875.00000 
 43692.65567		 305.27265			43387.38302		67.63800		324.00000 
 43692.65567		 724.87338			42967.78230		220.86200		875.00000 
 43692.65567		 305.27265			43387.38302		67.63800		324.00000 
 43692.65567		 724.87338			42967.78230		220.86200		875.00000 
 43692.65567		 305.27265			43387.38302		67.63800		324.00000 
 43692.65567		 724.87338			42967.78230		220.86200		875.00000 
 43692.65567		 305.27265			43387.38302		67.63800		324.00000 
 43692.65567		 724.87338			42967.78230		220.86200		875.00000 
 43692.65567		 305.27265			43387.38302		67.63800		324.00000 
 43692.65567		 724.87338			42967.78230		220.86200		875.00000 
 43692.65567		 305.27265			43387.38302		67.63800		324.00000 
 43692.65567		 724.87338			42967.78230		220.86200		875.00000 
 43692.65567		 305.27265			43387.38302		67.63800		324.00000 
 43692.65567		 724.87338			42967.78230		220.86200		875.00000 
 43692.65567		 305.27265			43387.38302		67.63800		324.00000 
 43692.65567		 724.87338			42967.78230		220.86200		875.00000 
 43692.65567		 305.27265			43387.38302		67.63800		324.00000 
 43692.65567		 724.87338			42967.78230		220.86200		875.00000 
 43692.65567		 305.27265			43387.38302		67.63800		324.00000 
 43692.65567		 724.87338			42967.78230		220.86200		875.00000 
 43692.65567		 305.27265			43387.38302		67.63800		324.00000 
 43692.65567		 724.87338			42967.78230		220.86200		875.00000 
 43692.65567		 305.27265			43387.38302		67.63800		324.00000 
 43692.65567		 724.87338			42967.78230		220.86200		875.00000 
 43692.65567		 305.27265			43387.38302		67.63800		324.00000 
 43692.65567		 724.87338			42967.78230		220.86200		875.00000 
 43692.65567		 305.27265			43387.38302		67.63800		324.00000 
 43692.65567		 724.87338			42967.78230		220.86200		875.00000 
 43692.65567		 305.27265			43387.38302		67.63800		324.00000 
 43692.65567		 724.87338			42967.78230		220.86200		875.00000 
 43692.65567		 305.27265			43387.38302		67.63800		324.00000 
 43692.65567		 724.87338			42967.78230		220.86200		875.00000 
 43692.65567		 305.27265			43387.38302		67.63800		324.00000 
 43692.65567		 724.87338			42967.78230		220.86200		875.00000 
 43692.65567		 305.27265			43387.38302		67.63800		324.00000 
 43692.65567		 724.87338			42967.78230		220.86200		875.00000 
 43692.65567		 305.27265			43387.38302		67.63800		324.00000 
 43692.65567		 724.87338			42967.78230		220.86200		875.00000 
 43692.65567		 305.27265			43387.38302		67.63800		324.00000 
 43692.65567		 724.87338			42967.78230		220.86200		875.00000 
 43692.65567		 305.27265			43387.38302		67.63800		324.00000 
 43692.65567		 724.87338			42967.78230		220.86200		875.00000 
 43692.65567		 305.27265			43387.38302		67.63800		324.00000 
 43692.65567		 724.87338			42967.78230		220.86200		875.00000 
 43692.65567		 305.27265			43387.38302		67.63800		324.00000 
 43692.65567		 724.87338			42967.78230		220.86200		875.00000 
 43692.65567		 305.27265			43387.38302		67.63800		324.00000 
 43692.65567		 724.87338			42967.78230		220.86200		875.00000 
 43692.65567		 305.27265			43387.38302		67.63800		324.00000 
 43692.65567		 724.87338			42967.78230		220.86200		875.00000 
 43692.65567		 305.27265			43387.38302		67.63800		324.00000 
 43692.65567		 724.87338			42967.78230		220.86200		875.00000 
 43692.65567		 305.27265			43387.38302		67.63800		324.00000 
 43692.65567		 724.87338			42967.78230		220.86200		875.00000 
 43692.65567		 305.27265			43387.38302		67.63800		324.00000 
 43692.65567		 724.87338			42967.78230		220.86200		875.00000 
 43692.65567		 305.27265			43387.38302		67.63800		324.00000 
 43692.65567		 724.87338			42967.78230		220.86200		875.00000 
 43692.65567		 305.27265			43387.38302		67.63800		324.00000 
 43692.65567		 724.87338			42967.78230		220.86200		875.00000 
 43692.65567		 305.27265			43387.38302		67.63800		324.00000 
 43692.65567		 724.87338			42967.78230		220.86200		875.00000 
 43692.65567		 305.27265			43387.38302		67.63800		324.00000 
 43692.65567		 724.87338			42967.78230		220.86200		875.00000 
 43692.65567		 305.27265			43387.38302		67.63800		324.00000 
 43692.65567		 724.87338			42967.78230		220.86200		875.00000 
 43692.65567		 305.27265			43387.38302		67.63800		324.00000 
 43692.65567		 724.87338			42967.78230		220.86200		875.00000 
 43692.65567		 305.27265			43387.38302		67.63800		324.00000 
 43692.65567		 724.87338			42967.78230		220.86200		875.00000 
 43692.65567		 305.27265			43387.38302		67.63800		324.00000 
 43692.65567		 724.87338			42967.78230		220.86200		875.00000 
 43692.65567		 305.27265			43387.38302		67.63800		324.00000 
 43692.65567		 724.87338			42967.78230		220.86200		875.00000 
 43692.65567		 305.27265			43387.38302		67.63800		324.00000 
 43692.65567		 724.87338			42967.78230		220.86200		875.00000 
 43692.65567		 305.27265			43387.38302		67.63800		324.00000 
 43692.65567		 724.87338			42967.78230		220.86200		875.00000 
 43692.65567		 305.27265			43387.38302		67.63800		324.00000 
 43692.65567		 724.87338			42967.78230		220.86200		875.00000 
 43692.65567		 305.27265			43387.38302		67.63800		324.00000 
 43692.65567		 724.87338			42967.78230		220.86200		875.00000 
 43692.65567		 305.27265			43387.38302		67.63800		324.00000 
 43692.65567		 724.87338			42967.78230		220.86200		875.00000 
 43692.65567		 305.27265			43387.38302		67.63800		324.00000 
 43692.65567		 724.87338			42967.78230		220.86200		875.00000 
 43692.65567		 305.27265			43387.38302		67.63800		324.00000 
 43692.65567		 724.87338			42967.78230		220.86200		875.00000 
 43692.65567		 305.27265			43387.38302		67.63800		324.00000 
 43692.65567		 724.87338			42967.78230		220.86200		875.00000 
 43692.65567		 305.27265			43387.38302		67.63800		324.00000 
 43692.65567		 724.87338			42967.78230		220.86200		875.00000 
 43692.65567		 305.27265			43387.38302		67.63800		324.00000 
 43692.65567		 724.87338			42967.78230		220.86200		875.00000 
 43692.65567		 305.27265			43387.38302		67.63800		324.00000 
 43692.65567		 724.87338			42967.78230		220.86200		875.00000 
 43692.65567		 305.27265			43387.38302		67.63800		324.00000 
 43692.65567		 724.87338			42967.78230		220.86200		875.00000 
 43692.65567		 305.27265			43387.38302		67.63800		324.00000 
 43692.65567		 724.87338			42967.78230		220.86200		875.00000 
 43692.65567		 305.27265			43387.38302		67.63800		324.00000 
 43692.65567		 724.87338			42967.78230		220.86200		875.00000 
 43692.65567		 305.27265			43387.38302		67.63800		324.00000 
 43692.65567		 724.87338			42967.78230		220.86200		875.00000 
 43692.65567		 305.27265			43387.38302		67.63800		324.00000 
 43692.65567		 724.87338			42967.78230		220.86200		875.00000 
 43692.65567		 305.27265			43387.38302		67.63800		324.00000 
 43692.65567		 724.87338			42967.78230		220.86200		875.00000 
 43692.65567		 305.27265			43387.38302		67.63800		324.00000 
 43692.65567		 724.87338			42967.78230		220.86200		875.00000 
 43692.65567		 305.27265			43387.38302		67.63800		324.00000 
 43692.65567		 724.87338			42967.78230		220.86200		875.00000 
 43692.65567		 305.27265			43387.38302		67.63800		324.00000 
 43692.65567		 724.87338			42967.78230		220.86200		875.00000 
 43692.65567		 305.27265			43387.38302		67.63800		324.00000 
 43692.65567		 724.87338			42967.78230		220.86200		875.00000 
 43692.65567		 305.27265			43387.38302		67.63800		324.00000 
 43692.65567		 724.87338			42967.78230		220.86200		875.00000 
 43692.65567		 305.27265			43387.38302		67.63800		324.00000 
 43692.65567		 724.87338			42967.78230		220.86200		875.00000 
 43692.65567		 305.27265			43387.38302		67.63800		324.00000 
 43692.65567		 724.87338			42967.78230		220.86200		875.00000 
 43692.65567		 305.27265			43387.38302		67.63800		324.00000 
 43692.65567		 724.87338			42967.78230		221.46000		875.00000 
 43692.65567		 305.27265			43387.38302		67.63800		324.00000 
 43692.65567		 724.87338			42967.78230		221.46000		875.00000 
 43692.65567		 305.27265			43387.38302		67.63800		324.00000 
 43692.65567		 724.87338			42967.78230		221.46000		875.00000 
 43692.65567		 305.27265			43387.38302		67.63800		324.00000 
 43692.65567		 724.87338			42967.78230		221.46000		875.00000 
 43692.65567		 305.27265			43387.38302		67.63800		324.00000 
 43692.65567		 724.87338			42967.78230		221.46000		875.00000 
 43692.65567		 305.27265			43387.38302		67.63800		324.00000 
 43692.65567		 724.87338			42967.78230		221.46000		875.00000 
 43692.65567		 305.27265			43387.38302		67.63800		324.00000 
 43692.65567		 724.87338			42967.78230		221.46000		875.00000 
 43692.65567		 305.27265			43387.38302		67.63800		324.00000 
 43692.65567		 724.87338			42967.78230		221.46000		875.00000 
 43692.65567		 305.27265			43387.38302		67.63800		324.00000 
 43692.65567		 724.87338			42967.78230		221.46000		875.00000 
 43692.65567		 305.27265			43387.38302		67.63800		324.00000 
 43692.65567		 724.87338			42967.78230		221.46000		875.00000 
 43692.65567		 305.27265			43387.38302		67.63800		324.00000 
 43692.65567		 724.87338			42967.78230		221.46000		875.00000 
 43692.65567		 305.27265			43387.38302		67.63800		324.00000 
 43692.65567		 724.87338			42967.78230		221.46000		875.00000 
 43692.65567		 305.27265			43387.38302		67.63800		324.00000 
 43692.65567		 724.87338			42967.78230		221.46000		875.00000 
 43692.65567		 305.27265			43387.38302		67.63800		324.00000 
 43692.65567		 724.87338			42967.78230		221.46000		875.00000 
 43692.65567		 305.27265			43387.38302		67.63800		324.00000 
 43692.65567		 724.87338			42967.78230		221.46000		875.00000 
 43692.65567		 305.27265			43387.38302		67.63800		324.00000 
 43692.65567		 724.87338			42967.78230		221.46000		875.00000 
 43692.65567		 305.27265			43387.38302		67.63800		324.00000 
 43692.65567		 724.87338			42967.78230		221.46000		875.00000 
 43692.65567		 305.27265			43387.38302		67.63800		324.00000 
 43692.65567		 724.87338			42967.78230		221.46000		875.00000 
 43692.65567		 305.27265			43387.38302		67.63800		324.00000 
 43692.65567		 724.87338			42967.78230		221.46000		875.00000 
 43692.65567		 305.27265			43387.38302		67.63800		324.00000 
 43692.65567		 724.87338			42967.78230		221.46000		875.00000 
 43692.65567		 305.27265			43387.38302		67.63800		324.00000 
 43692.65567		 724.87338			42967.78230		221.46000		875.00000 
 43692.65567		 305.27265			43387.38302		67.63800		324.00000 
 43692.65567		 724.87338			42967.78230		221.46000		875.00000 
 43692.65567		 305.27265			43387.38302		67.63800		324.00000 
 43692.65567		 724.87338			42967.78230		221.46000		875.00000 
 43692.65567		 305.27265			43387.38302		67.63800		324.00000 
 43692.65567		 724.87338			42967.78230		221.46000		875.00000 
 43692.65567		 305.27265			43387.38302		67.63800		324.00000 
 43692.65567		 724.87338			42967.78230		221.46000		875.00000 
 43692.65567		 305.27265			43387.38302		67.63800		324.00000 
 43692.65567		 724.87338			42967.78230		221.46000		875.00000 
 43692.65567		 305.27265			43387.38302		67.63800		324.00000 
 43692.65567		 724.87338			42967.78230		221.46000		875.00000 
 43692.65567		 305.27265			43387.38302		67.63800		324.00000 
 43692.65567		 724.87338			42967.78230		221.46000		875.00000 
 43692.65567		 305.27265			43387.38302		67.63800		324.00000 
 43692.65567		 724.87338			42967.78230		221.46000		875.00000 
 43692.65567		 305.27265			43387.38302		67.63800		324.00000 
 43692.65567		 724.87338			42967.78230		221.46000		875.00000 
 43692.65567		 305.27265			43387.38302		67.63800		324.00000 
 43692.65567		 724.87338			42967.78230		221.46000		875.00000 
 43692.65567		 305.27265			43387.38302		67.63800		324.00000 
 43692.65567		 724.87338			42967.78230		221.46000		875.00000 
 43692.65567		 305.27265			43387.38302		67.63800		324.00000 
 43692.65567		 724.87338			42967.78230		221.46000		875.00000 
 43692.65567		 305.27265			43387.38302		67.63800		324.00000 
 43692.65567		 724.87338			42967.78230		221.46000		875.00000 
 43692.65567		 305.27265			43387.38302		67.63800		324.00000 
 43692.65567		 724.87338			42967.78230		221.46000		875.00000 
 43692.65567		 305.27265			43387.38302		67.63800		324.00000 
 43692.65567		 724.87338			42967.78230		221.46000		875.00000 
 43692.65567		 305.27265			43387.38302		67.63800		324.00000 
 43692.65567		 724.87338			42967.78230		221.46000		875.00000 
 43692.65567		 305.27265			43387.38302		67.63800		324.00000 
 43692.65567		 724.87338			42967.78230		221.46000		875.00000 
 43692.65567		 305.27265			43387.38302		67.63800		324.00000 
 43692.65567		 724.87338			42967.78230		221.46000		875.00000 
 43692.65567		 305.27265			43387.38302		67.63800		324.00000 
 43692.65567		 724.87338			42967.78230		221.46000		875.00000 
 43692.65567		 305.27265			43387.38302		67.63800		324.00000 
 43692.65567		 724.87338			42967.78230		221.46000		875.00000 
 43692.65567		 305.27265			43387.38302		67.63800		324.00000 
 43692.65567		 724.87338			42967.78230		221.46000		875.00000 
 43692.65567		 305.27265			43387.38302		67.63800		324.00000 
 43692.65567		 724.87338			42967.78230		221.46000		875.00000 
 43692.65567		 305.27265			43387.38302		67.63800		324.00000 
 43692.65567		 724.87338			42967.78230		221.46000		875.00000 
 43692.65567		 305.27265			43387.38302		67.63800		324.00000 
 43692.65567		 724.87338			42967.78230		221.46000		875.00000 
 43692.65567		 305.27265			43387.38302		67.63800		324.00000 
 43692.65567		 724.87338			42967.78230		221.46000		875.00000 
 43692.65567		 305.27265			43387.38302		67.63800		324.00000 
 43692.65567		 724.87338			42967.78230		221.46000		875.00000 
 43692.65567		 305.27265			43387.38302		67.63800		324.00000 
 43692.65567		 724.87338			42967.78230		221.46000		875.00000 
 43692.65567		 305.27265			43387.38302		67.63800		324.00000 
 43692.65567		 724.87338			42967.78230		221.46000		875.00000 
 43692.65567		 305.27265			43387.38302		67.63800		324.00000 
 43692.65567		 724.87338			42967.78230		221.46000		875.00000 
 43692.65567		 305.27265			43387.38302		67.63800		324.00000 
 43692.65567		 724.87338			42967.78230		221.46000		875.00000 
 43692.65567		 305.27265			43387.38302		67.63800		324.00000 
 43692.65567		 724.87338			42967.78230		221.46000		875.00000 
 43692.65567		 305.27265			43387.38302		67.63800		324.00000 
 43692.65567		 724.87338			42967.78230		221.46000		875.00000 
 43692.65567		 305.27265			43387.38302		67.63800		324.00000 
 43692.65567		 724.87338			42967.78230		221.46000		875.00000 
 43692.65567		 305.27265			43387.38302		67.63800		324.00000 
 43692.65567		 724.87338			42967.78230		221.46000		875.00000 
 43692.65567		 305.27265			43387.38302		67.63800		324.00000 
 43692.65567		 724.87338			42967.78230		221.46000		875.00000 
 43692.65567		 305.27265			43387.38302		67.63800		324.00000 
 43692.65567		 724.87338			42967.78230		221.46000		875.00000 
 43692.65567		 305.27265			43387.38302		67.63800		324.00000 
 43692.65567		 724.87338			42967.78230		221.46000		875.00000 
 43692.65567		 305.27265			43387.38302		67.63800		324.00000 
 43692.65567		 724.87338			42967.78230		221.46000		875.00000 
 43692.65567		 305.27265			43387.38302		67.63800		324.00000 
 43692.65567		 724.87338			42967.78230		221.46000		875.00000 
 43692.65567		 305.27265			43387.38302		67.63800		324.00000 
 43692.65567		 724.87338			42967.78230		221.46000		875.00000 
 43692.65567		 305.27265			43387.38302		67.63800		324.00000 
 43692.65567		 724.87338			42967.78230		221.46000		875.00000 
 43692.65567		 305.27265			43387.38302		67.63800		324.00000 
 43692.65567		 724.87338			42967.78230		221.46000		875.00000 
 43692.65567		 305.27265			43387.38302		67.63800		324.00000 
 43692.65567		 724.87338			42967.78230		221.46000		875.00000 
 43692.65567		 305.27265			43387.38302		67.63800		324.00000 
 43692.65567		 724.87338			42967.78230		220.86200		875.00000 
 43692.65567		 305.27265			43387.38302		67.63800		324.00000 
 43692.65567		 724.87338			42967.78230		220.86200		875.00000 
 43692.65567		 305.27265			43387.38302		67.63800		324.00000 
 43692.65567		 724.87338			42967.78230		220.86200		875.00000 
 43692.65567		 305.27265			43387.38302		67.63800		324.00000 
 43692.65567		 724.87338			42967.78230		220.86200		875.00000 
 43692.65567		 305.27265			43387.38302		67.63800		324.00000 
 43692.65567		 724.87338			42967.78230		220.86200		875.00000 
 43692.65567		 305.27265			43387.38302		67.63800		324.00000 
 43692.65567		 724.87338			42967.78230		220.86200		875.00000 
 43692.65567		 305.27265			43387.38302		67.63800		324.00000 
 43692.65567		 724.87338			42967.78230		220.86200		875.00000 
 43692.65567		 305.27265			43387.38302		67.63800		324.00000 
 43692.65567		 724.87338			42967.78230		220.86200		875.00000 
 43692.65567		 305.27265			43387.38302		67.63800		324.00000 
 43692.65567		 724.87338			42967.78230		220.86200		875.00000 
 43692.65567		 305.27265			43387.38302		67.63800		324.00000 
 43692.65567		 724.87338			42967.78230		220.86200		875.00000 
 43692.65567		 305.27265			43387.38302		67.63800		324.00000 
 43692.65567		 724.87338			42967.78230		220.86200		875.00000 
 43692.65567		 305.27265			43387.38302		67.63800		324.00000 
 43692.65567		 724.87338			42967.78230		220.86200		875.00000 
 43692.65567		 305.27265			43387.38302		67.63800		324.00000 
 43692.65567		 724.87338			42967.78230		220.86200		875.00000 
 43692.65567		 305.27265			43387.38302		67.63800		324.00000 
 43692.65567		 724.87338			42967.78230		220.86200		875.00000 
 43692.65567		 305.27265			43387.38302		67.63800		324.00000 
 43692.65567		 724.87338			42967.78230		220.86200		875.00000 
 43692.65567		 305.27265			43387.38302		67.63800		324.00000 
 43692.65567		 724.87338			42967.78230		220.86200		875.00000 
 43692.65567		 305.27265			43387.38302		67.63800		324.00000 
 43692.65567		 724.87338			42967.78230		220.86200		875.00000 
 43692.65567		 305.27265			43387.38302		67.63800		324.00000 
 43692.65567		 724.87338			42967.78230		220.86200		875.00000 
 43692.65567		 305.27265			43387.38302		67.63800		324.00000 
 43692.65567		 724.87338			42967.78230		220.86200		875.00000 
 43692.65567		 305.27265			43387.38302		67.63800		324.00000 
 43692.65567		 724.87338			42967.78230		220.86200		875.00000 
 43692.65567		 305.27265			43387.38302		67.63800		324.00000 
 43692.65567		 724.87338			42967.78230		220.86200		875.00000 
 43692.65567		 305.27265			43387.38302		67.63800		324.00000 
 43692.65567		 724.87338			42967.78230		220.86200		875.00000 
 43692.65567		 305.27265			43387.38302		67.63800		324.00000 
 43692.65567		 724.87338			42967.78230		220.86200		875.00000 
 43692.65567		 305.27265			43387.38302		67.63800		324.00000 
 43692.65567		 724.87338			42967.78230		220.86200		875.00000 
 43692.65567		 305.27265			43387.38302		67.63800		324.00000 
 43692.65567		 724.87338			42967.78230		220.86200		875.00000 
 43692.65567		 305.27265			43387.38302		67.63800		324.00000 
 43692.65567		 724.87338			42967.78230		220.86200		875.00000 
 43692.65567		 305.27265			43387.38302		67.63800		324.00000 
 43692.65567		 724.87338			42967.78230		220.86200		875.00000 
 43692.65567		 305.27265			43387.38302		70.13800		324.00000 
 43692.65567		 724.87338			42967.78230		220.86200		875.00000 
 43692.65567		 305.27265			43387.38302		70.13800		324.00000 
 43692.65567		 724.87338			42967.78230		220.86200		875.00000 
 43692.65567		 305.27265			43387.38302		70.13800		324.00000 
 43692.65567		 724.87338			42967.78230		220.86200		875.00000 
 43692.65567		 305.27265			43387.38302		70.13800		324.00000 
 43692.65567		 724.87338			42967.78230		220.86200		875.00000 
 43692.65567		 305.27265			43387.38302		70.13800		324.00000 
 43692.65567		 724.87338			42967.78230		220.86200		875.00000 
 43692.65567		 305.27265			43387.38302		70.13800		324.00000 
 43692.65567		 724.87338			42967.78230		220.86200		875.00000 
 43692.65567		 305.27265			43387.38302		70.13800		324.00000 
 43692.65567		 724.87338			42967.78230		220.86200		875.00000 
 43692.65567		 305.27265			43387.38302		70.13800		324.00000 
 43692.65567		 724.87338			42967.78230		220.86200		875.00000 
 43692.65567		 305.27265			43387.38302		70.13800		324.00000 
 43692.65567		 724.87338			42967.78230		220.86200		875.00000 
 43692.65567		 305.27265			43387.38302		70.13800		324.00000 
 43692.65567		 724.87338			42967.78230		220.86200		875.00000 
 43692.65567		 305.27265			43387.38302		70.13800		324.00000 
 43692.65567		 724.87338			42967.78230		220.86200		875.00000 
 43692.65567		 305.27265			43387.38302		70.13800		324.00000 
 43692.65567		 724.87338			42967.78230		220.86200		875.00000 
 43692.65567		 305.27265			43387.38302		70.13800		324.00000 
 43692.65567		 724.87338			42967.78230		220.86200		875.00000 
 43692.65567		 305.27265			43387.38302		70.13800		324.00000 
 43692.65567		 724.87338			42967.78230		220.86200		875.00000 
 43692.65567		 305.27265			43387.38302		70.13800		324.00000 
 43692.65567		 724.87338			42967.78230		220.86200		875.00000 
 43692.65567		 305.27265			43387.38302		70.13800		324.00000 
 43692.65567		 724.87338			42967.78230		220.86200		875.00000 
 43692.65567		 305.27265			43387.38302		70.13800		324.00000 
 43692.65567		 724.87338			42967.78230		220.86200		875.00000 
 43692.65567		 305.27265			43387.38302		70.13800		324.00000 
 43692.65567		 724.87338			42967.78230		220.86200		875.00000 
 43692.65567		 305.27265			43387.38302		70.13800		324.00000 
 43692.65567		 724.87338			42967.78230		220.86200		875.00000 
 43692.65567		 305.27265			43387.38302		70.13800		324.00000 
 43692.65567		 724.87338			42967.78230		220.86200		875.00000 
 43692.65567		 305.27265			43387.38302		70.13800		324.00000 
 43692.65567		 724.87338			42967.78230		220.86200		875.00000 
 43692.65567		 305.27265			43387.38302		70.13800		324.00000 
 43692.65567		 724.87338			42967.78230		220.86200		875.00000 
 43692.65567		 305.27265			43387.38302		70.13800		324.00000 
 43692.65567		 724.87338			42967.78230		220.86200		875.00000 
 43692.65567		 305.27265			43387.38302		70.13800		324.00000 
 43692.65567		 724.87338			42967.78230		220.86200		875.00000 
 43692.65567		 305.27265			43387.38302		70.13800		324.00000 
 43692.65567		 724.87338			42967.78230		220.86200		875.00000 
 43692.65567		 305.27265			43387.38302		70.13800		324.00000 
 43692.65567		 724.87338			42967.78230		220.86200		875.00000 
 43692.65567		 305.27265			43387.38302		70.13800		324.00000 
 43692.65567		 724.87338			42967.78230		220.86200		875.00000 
 43692.65567		 305.27265			43387.38302		70.13800		324.00000 
 43692.65567		 724.87338			42967.78230		220.86200		875.00000 
 43692.65567		 305.27265			43387.38302		70.13800		324.00000 
 43692.65567		 724.87338			42967.78230		220.86200		875.00000 
 43692.65567		 305.27265			43387.38302		70.13800		324.00000 
 43692.65567		 724.87338			42967.78230		220.86200		875.00000 
 43692.65567		 305.27265			43387.38302		70.13800		324.00000 
 43692.65567		 724.87338			42967.78230		220.86200		875.00000 
 43692.65567		 305.27265			43387.38302		70.13800		324.00000 
 43692.65567		 724.87338			42967.78230		220.86200		875.00000 
 43692.65567		 305.27265			43387.38302		70.13800		324.00000 
 43692.65567		 724.87338			42967.78230		220.86200		875.00000 
 43692.65567		 305.27265			43387.38302		70.13800		324.00000 
 43692.65567		 724.87338			42967.78230		220.86200		875.00000 
 43692.65567		 305.27265			43387.38302		70.13800		324.00000 
 43692.65567		 724.87338			42967.78230		221.46000		875.00000 
 43692.65567		 305.27265			43387.38302		70.13800		324.00000 
 43692.65567		 724.87338			42967.78230		221.46000		875.00000 
 43692.65567		 305.27265			43387.38302		70.13800		324.00000 
 43692.65567		 724.87338			42967.78230		221.46000		875.00000 
 43692.65567		 305.27265			43387.38302		70.13800		324.00000 
 43692.65567		 724.87338			42967.78230		221.46000		875.00000 
 43692.65567		 305.27265			43387.38302		70.13800		324.00000 
 43692.65567		 724.87338			42967.78230		221.46000		875.00000 
 43692.65567		 305.27265			43387.38302		70.13800		324.00000 
 43692.65567		 724.87338			42967.78230		221.46000		875.00000 
 43692.65567		 305.27265			43387.38302		70.13800		324.00000 
 43692.65567		 724.87338			42967.78230		221.46000		875.00000 
 43692.65567		 305.27265			43387.38302		70.13800		324.00000 
 43692.65567		 724.87338			42967.78230		221.46000		875.00000 
 43692.65567		 305.27265			43387.38302		70.13800		324.00000 
 43692.65567		 724.87338			42967.78230		221.46000		875.00000 
 43692.65567		 305.27265			43387.38302		70.13800		324.00000 
 43692.65567		 724.87338			42967.78230		221.46000		875.00000 
 43692.65567		 305.27265			43387.38302		70.13800		324.00000 
 43692.65567		 724.87338			42967.78230		221.46000		875.00000 
 43692.65567		 305.27265			43387.38302		70.13800		324.00000 
 43692.65567		 724.87338			42967.78230		221.46000		875.00000 
 43692.65567		 305.27265			43387.38302		70.13800		324.00000 
 43692.65567		 724.87338			42967.78230		221.46000		875.00000 
 43692.65567		 305.27265			43387.38302		70.13800		324.00000 
 43692.65567		 724.87338			42967.78230		221.46000		875.00000 
 43692.65567		 305.27265			43387.38302		70.13800		324.00000 
 43692.65567		 724.87338			42967.78230		221.46000		875.00000 
 43692.65567		 305.27265			43387.38302		70.13800		324.00000 
 43692.65567		 724.87338			42967.78230		221.46000		875.00000 
 43692.65567		 305.27265			43387.38302		70.13800		324.00000 
 43692.65567		 724.87338			42967.78230		221.46000		875.00000 
 43692.65567		 305.27265			43387.38302		70.13800		324.00000 
 43692.65567		 724.87338			42967.78230		221.46000		875.00000 
 43692.65567		 305.27265			43387.38302		70.13800		324.00000 
 43692.65567		 724.87338			42967.78230		221.46000		875.00000 
 43692.65567		 305.27265			43387.38302		70.13800		324.00000 
 43692.65567		 724.87338			42967.78230		221.46000		875.00000 
 43692.65567		 305.27265			43387.38302		70.13800		324.00000 
 43692.65567		 724.87338			42967.78230		221.46000		875.00000 
 43692.65567		 305.27265			43387.38302		70.13800		324.00000 
 43692.65567		 724.87338			42967.78230		221.46000		875.00000 
 43692.65567		 305.27265			43387.38302		70.13800		324.00000 
 43692.65567		 724.87338			42967.78230		221.46000		875.00000 
 43692.65567		 305.27265			43387.38302		70.13800		324.00000 
 43692.65567		 724.87338			42967.78230		221.46000		875.00000 
 43692.65567		 305.27265			43387.38302		70.13800		324.00000 
 43692.65567		 724.87338			42967.78230		221.46000		875.00000 
 43692.65567		 305.27265			43387.38302		70.13800		324.00000 
 43692.65567		 724.87338			42967.78230		221.46000		875.00000 
 43692.65567		 305.27265			43387.38302		70.13800		324.00000 
 43692.65567		 724.87338			42967.78230		221.46000		875.00000 
 43692.65567		 305.27265			43387.38302		70.13800		324.00000 
 43692.65567		 724.87338			42967.78230		221.46000		875.00000 
 43692.65567		 305.27265			43387.38302		70.13800		324.00000 
 43692.65567		 724.87338			42967.78230		221.46000		875.00000 
 43692.65567		 305.27265			43387.38302		70.13800		324.00000 
 43692.65567		 724.87338			42967.78230		221.46000		875.00000 
 43692.65567		 305.27265			43387.38302		70.13800		324.00000 
 43692.65567		 724.87338			42967.78230		221.46000		875.00000 
 43692.65567		 305.27265			43387.38302		70.13800		324.00000 
 43692.65567		 724.87338			42967.78230		221.46000		875.00000 
 43692.65567		 305.27265			43387.38302		70.13800		324.00000 
 43692.65567		 724.87338			42967.78230		221.46000		875.00000 
 43692.65567		 305.27265			43387.38302		70.13800		324.00000 
 43692.65567		 724.87338			42967.78230		221.46000		875.00000 
 43692.65567		 305.27265			43387.38302		70.13800		324.00000 
 43692.65567		 724.87338			42967.78230		221.46000		875.00000 
 43692.65567		 305.27265			43387.38302		70.13800		324.00000 
 43692.65567		 724.87338			42967.78230		221.46000		875.00000 
 43692.65567		 305.27265			43387.38302		70.13800		324.00000 
 43692.65567		 724.87338			42967.78230		221.46000		875.00000 
 43692.65567		 305.27265			43387.38302		70.13800		324.00000 
 43692.65567		 724.87338			42967.78230		221.46000		875.00000 
 43692.65567		 305.27265			43387.38302		70.13800		324.00000 
 43692.65567		 724.87338			42967.78230		221.46000		875.00000 
 43692.65567		 305.27265			43387.38302		70.13800		324.00000 
 43692.65567		 724.87338			42967.78230		221.46000		875.00000 
 43692.65567		 305.27265			43387.38302		70.13800		324.00000 
 43692.65567		 724.87338			42967.78230		221.46000		875.00000 
 43692.65567		 305.27265			43387.38302		70.13800		324.00000 
 43692.65567		 724.87338			42967.78230		221.46000		875.00000 
 43692.65567		 305.27265			43387.38302		70.13800		324.00000 
 43692.65567		 724.87338			42967.78230		221.46000		875.00000 
 43692.65567		 305.27265			43387.38302		70.13800		324.00000 
 43692.65567		 724.87338			42967.78230		221.46000		875.00000 
 43692.65567		 305.27265			43387.38302		70.13800		324.00000 
 43692.65567		 724.87338			42967.78230		221.46000		875.00000 
 43692.65567		 305.27265			43387.38302		70.13800		324.00000 
 43692.65567		 724.87338			42967.78230		221.46000		875.00000 
 43692.65567		 305.27265			43387.38302		70.13800		324.00000 
 43692.65567		 724.87338			42967.78230		221.46000		875.00000 
 43692.65567		 305.27265			43387.38302		70.13800		324.00000 
 43692.65567		 724.87338			42967.78230		221.46000		875.00000 
 43692.65567		 305.27265			43387.38302		70.13800		324.00000 
 43692.65567		 724.87338			42967.78230		221.46000		875.00000 
 43692.65567		 305.27265			43387.38302		70.13800		324.00000 
 43692.65567		 724.87338			42967.78230		221.46000		875.00000 
 43692.65567		 305.27265			43387.38302		70.13800		324.00000 
 43692.65567		 724.87338			42967.78230		221.46000		875.00000 
 43692.65567		 305.27265			43387.38302		70.13800		324.00000 
 43692.65567		 724.87338			42967.78230		221.46000		875.00000 
 43692.65567		 305.27265			43387.38302		70.13800		324.00000 
 43692.65567		 724.87338			42967.78230		221.46000		875.00000 
 43692.65567		 305.27265			43387.38302		70.13800		324.00000 
 43692.65567		 724.87338			42967.78230		221.46000		875.00000 
 43692.65567		 305.27265			43387.38302		70.13800		324.00000 
 43692.65567		 724.87338			42967.78230		221.46000		875.00000 
 43692.65567		 305.27265			43387.38302		70.13800		324.00000 
 43692.65567		 724.87338			42967.78230		221.46000		875.00000 
 43692.65567		 305.27265			43387.38302		70.13800		324.00000 
 43692.65567		 724.87338			42967.78230		221.46000		875.00000 
 43692.65567		 305.27265			43387.38302		70.13800		324.00000 
 43692.65567		 724.87338			42967.78230		221.46000		875.00000 
 43692.65567		 305.27265			43387.38302		70.13800		324.00000 
 43692.65567		 724.87338			42967.78230		221.46000		875.00000 
 43692.65567		 305.27265			43387.38302		70.13800		324.00000 
 43692.65567		 724.87338			42967.78230		221.46000		875.00000 
 43692.65567		 305.27265			43387.38302		70.13800		324.00000 
 43692.65567		 724.87338			42967.78230		221.46000		875.00000 
 43692.65567		 305.27265			43387.38302		70.13800		324.00000 
 43692.65567		 724.87338			42967.78230		221.46000		875.00000 
 43692.65567		 305.27265			43387.38302		70.13800		324.00000 
 43692.65567		 724.87338			42967.78230		221.46000		875.00000 
 43692.65567		 305.27265			43387.38302		70.13800		324.00000 
 43692.65567		 724.87338			42967.78230		221.46000		875.00000 
 43692.65567		 305.27265			43387.38302		70.13800		324.00000 
 43692.65567		 724.87338			42967.78230		221.46000		875.00000 
 43692.65567		 305.27265			43387.38302		70.13800		324.00000 
 43692.65567		 724.87338			42967.78230		221.46000		875.00000 
 43692.65567		 305.27265			43387.38302		70.13800		324.00000 
 43692.65567		 724.87338			42967.78230		221.46000		875.00000 
 43692.65567		 305.27265			43387.38302		70.13800		324.00000 
 43692.65567		 724.87338			42967.78230		221.46000		875.00000 
 43692.65567		 305.27265			43387.38302		70.13800		324.00000 
 43692.65567		 724.87338			42967.78230		221.46000		875.00000 
 43692.65567		 305.27265			43387.38302		70.13800		324.00000 
 43692.65567		 724.87338			42967.78230		221.46000		875.00000 
 43692.65567		 305.27265			43387.38302		70.13800		324.00000 
 43692.65567		 724.87338			42967.78230		221.46000		875.00000 
 43692.65567		 305.27265			43387.38302		70.13800		324.00000 
 43692.65567		 724.87338			42967.78230		221.46000		875.00000 
 43692.65567		 305.27265			43387.38302		70.13800		324.00000 
 43692.65567		 724.87338			42967.78230		221.46000		875.00000 
 43692.65567		 305.27265			43387.38302		70.13800		324.00000 
 43692.65567		 724.87338			42967.78230		221.46000		875.00000 
 43692.65567		 305.27265			43387.38302		70.13800		324.00000 
 43692.65567		 724.87338			42967.78230		221.46000		875.00000 
 43692.65567		 305.27265			43387.38302		70.13800		324.00000 
 43692.65567		 724.87338			42967.78230		221.46000		875.00000 
 43692.65567		 305.27265			43387.38302		70.13800		324.00000 
 43692.65567		 724.87338			42967.78230		221.46000		875.00000 
 43692.65567		 305.27265			43387.38302		70.13800		324.00000 
 43692.65567		 724.87338			42967.78230		221.46000		875.00000 
 43692.65567		 305.27265			43387.38302		70.13800		324.00000 
 43692.65567		 724.87338			42967.78230		221.46000		875.00000 
 43692.65567		 305.27265			43387.38302		70.13800		324.00000 
 43692.65567		 724.87338			42967.78230		221.46000		875.00000 
 43692.65567		 305.27265			43387.38302		70.13800		324.00000 
 43692.65567		 724.87338			42967.78230		221.46000		875.00000 
 43692.65567		 305.27265			43387.38302		70.13800		324.00000 
 43692.65567		 724.87338			42967.78230		221.46000		875.00000 
 43692.65567		 305.27265			43387.38302		70.13800		324.00000 
 43692.65567		 724.87338			42967.78230		221.46000		875.00000 
 43692.65567		 305.27265			43387.38302		70.13800		324.00000 
 43692.65567		 724.87338			42967.78230		221.46000		875.00000 
 43692.65567		 305.27265			43387.38302		70.13800		324.00000 
 43692.65567		 724.87338			42967.78230		221.46000		875.00000 
 43692.65567		 305.27265			43387.38302		70.13800		324.00000 
 43692.65567		 724.87338			42967.78230		221.46000		875.00000 
 43692.65567		 305.27265			43387.38302		70.13800		324.00000 
 43692.65567		 724.87338			42967.78230		221.46000		875.00000 
 43692.65567		 305.27265			43387.38302		70.13800		324.00000 
 43692.65567		 724.87338			42967.78230		221.46000		875.00000 
 43692.65567		 305.27265			43387.38302		70.13800		324.00000 
 43692.65567		 724.87338			42967.78230		221.46000		875.00000 
 43692.65567		 305.27265			43387.38302		70.13800		324.00000 
 43692.65567		 724.87338			42967.78230		221.46000		875.00000 
 43692.65567		 305.27265			43387.38302		70.13800		324.00000 
 43692.65567		 724.87338			42967.78230		221.46000		875.00000 
 43692.65567		 305.27265			43387.38302		70.13800		324.00000 
 43692.65567		 724.87338			42967.78230		221.46000		875.00000 
 43692.65567		 305.27265			43387.38302		70.13800		324.00000 
 43692.65567		 724.87338			42967.78230		221.46000		875.00000 
 43692.65567		 305.27265			43387.38302		70.13800		324.00000 
 43692.65567		 724.87338			42967.78230		221.46000		875.00000 
 43692.65567		 305.27265			43387.38302		70.13800		324.00000 
 43692.65567		 724.87338			42967.78230		221.46000		875.00000 
 43692.65567		 305.27265			43387.38302		70.13800		324.00000 
 43692.65567		 724.87338			42967.78230		221.46000		875.00000 
 43692.65567		 305.27265			43387.38302		70.13800		324.00000 
 43692.65567		 724.87338			42967.78230		221.46000		875.00000 
 43692.65567		 305.27265			43387.38302		70.13800		324.00000 
 43692.65567		 724.87338			42967.78230		221.46000		875.00000 
 43692.65567		 305.27265			43387.38302		70.13800		324.00000 
 43692.65567		 724.87338			42967.78230		221.46000		875.00000 
 43692.65567		 305.27265			43387.38302		70.13800		324.00000 
 43692.65567		 724.87338			42967.78230		221.46000		875.00000 
 43692.65567		 305.27265			43387.38302		70.13800		324.00000 
 43692.65567		 724.87338			42967.78230		221.46000		875.00000 
 43692.65567		 305.27265			43387.38302		70.13800		324.00000 
 43692.65567		 724.87338			42967.78230		221.46000		875.00000 
 43692.65567		 305.27265			43387.38302		70.13800		324.00000 
 43692.65567		 724.87338			42967.78230		221.46000		875.00000 
 43692.65567		 305.27265			43387.38302		70.13800		324.00000 
 43692.65567		 724.87338			42967.78230		221.46000		875.00000 
 43692.65567		 305.27265			43387.38302		70.13800		324.00000 
 43692.65567		 724.87338			42967.78230		221.46000		875.00000 
 43692.65567		 305.27265			43387.38302		70.13800		324.00000 
 43692.65567		 724.87338			42967.78230		221.46000		875.00000 
 43692.65567		 305.27265			43387.38302		70.13800		324.00000 
 43692.65567		 724.87338			42967.78230		221.46000		875.00000 
 43692.65567		 305.27265			43387.38302		70.13800		324.00000 
 43692.65567		 724.87338			42967.78230		221.46000		875.00000 
 43692.65567		 305.27265			43387.38302		70.13800		324.00000 
 43692.65567		 724.87338			42967.78230		221.46000		875.00000 
 43692.65567		 305.27265			43387.38302		70.13800		324.00000 
 43692.65567		 724.87338			42967.78230		221.46000		875.00000 
 43692.65567		 305.27265			43387.38302		70.13800		324.00000 
 43692.65567		 724.87338			42967.78230		221.46000		875.00000 
 43692.65567		 305.27265			43387.38302		70.13800		324.00000 
 43692.65567		 724.87338			42967.78230		221.46000		875.00000 
 43692.65567		 305.27265			43387.38302		70.13800		324.00000 
 43692.65567		 724.87338			42967.78230		221.46000		875.00000 
 43692.65567		 305.27265			43387.38302		70.13800		324.00000 
 43692.65567		 724.87338			42967.78230		221.46000		875.00000 
 43692.65567		 305.27265			43387.38302		70.13800		324.00000 
 43692.65567		 724.87338			42967.78230		221.46000		875.00000 
 43692.65567		 305.27265			43387.38302		70.13800		324.00000 
 43692.65567		 724.87338			42967.78230		221.46000		875.00000 
 43692.65567		 305.27265			43387.38302		70.13800		324.00000 
 43692.65567		 724.87338			42967.78230		221.46000		875.00000 
 43692.65567		 305.27265			43387.38302		70.13800		324.00000 
 43692.65567		 724.87338			42967.78230		221.46000		875.00000 
 43692.65567		 305.27265			43387.38302		70.13800		324.00000 
 43692.65567		 724.87338			42967.78230		221.46000		875.00000 
 43692.65567		 305.27265			43387.38302		70.13800		324.00000 
 43692.65567		 724.87338			42967.78230		221.46000		875.00000 
 43692.65567		 305.27265			43387.38302		70.13800		324.00000 
 43692.65567		 724.87338			42967.78230		221.46000		875.00000 
 43692.65567		 305.27265			43387.38302		70.13800		324.00000 
 43692.65567		 724.87338			42967.78230		221.46000		875.00000 
 43692.65567		 305.27265			43387.38302		70.13800		324.00000 
 43692.65567		 724.87338			42967.78230		221.46000		875.00000 
 43692.65567		 305.27265			43387.38302		70.13800		324.00000 
 43692.65567		 724.87338			42967.78230		221.46000		875.00000 
 43692.65567		 305.27265			43387.38302		70.13800		324.00000 
 43692.65567		 724.87338			42967.78230		221.46000		875.00000 
 43692.65567		 305.27265			43387.38302		70.13800		324.00000 
 43692.65567		 724.87338			42967.78230		221.46000		875.00000 
 43692.65567		 305.27265			43387.38302		70.13800		324.00000 
 43692.65567		 724.87338			42967.78230		221.46000		875.00000 
 43692.65567		 305.27265			43387.38302		70.13800		324.00000 
 43692.65567		 724.87338			42967.78230		221.46000		875.00000 
 43692.65567		 305.27265			43387.38302		70.13800		324.00000 
 43692.65567		 724.87338			42967.78230		221.46000		875.00000 
 43692.65567		 305.27265			43387.38302		70.13800		324.00000 
 43692.65567		 724.87338			42967.78230		221.46000		875.00000 
 43692.65567		 305.27265			43387.38302		70.13800		324.00000 
 43692.65567		 724.87338			42967.78230		221.46000		875.00000 
 43692.65567		 305.27265			43387.38302		70.13800		324.00000 
 43692.65567		 724.87338			42967.78230		221.46000		875.00000 
 43692.65567		 305.27265			43387.38302		70.13800		324.00000 
 43692.65567		 724.87338			42967.78230		221.46000		875.00000 
 43692.65567		 305.27265			43387.38302		70.13800		324.00000 
 43692.65567		 724.87338			42967.78230		221.46000		875.00000 
 43692.65567		 305.27265			43387.38302		70.13800		324.00000 
 43692.65567		 724.87338			42967.78230		221.46000		875.00000 
 43692.65567		 305.27265			43387.38302		70.13800		324.00000 
 43692.65567		 724.87338			42967.78230		221.46000		875.00000 
 43692.65567		 305.27265			43387.38302		70.13800		324.00000 
 43692.65567		 724.87338			42967.78230		221.46000		875.00000 
 43692.65567		 305.27265			43387.38302		70.13800		324.00000 
 43692.65567		 724.87338			42967.78230		221.46000		875.00000 
 43692.65567		 305.27265			43387.38302		70.13800		324.00000 
 43692.65567		 724.87338			42967.78230		221.46000		875.00000 
 43692.65567		 305.27265			43387.38302		70.13800		324.00000 
 43692.65567		 724.87338			42967.78230		221.46000		875.00000 
 43692.65567		 305.27265			43387.38302		70.13800		324.00000 
 43692.65567		 724.87338			42967.78230		221.46000		875.00000 
 43692.65567		 305.27265			43387.38302		70.13800		324.00000 
 43692.65567		 724.87338			42967.78230		221.46000		875.00000 
 43692.65567		 305.27265			43387.38302		70.13800		324.00000 
 43692.65567		 724.87338			42967.78230		221.46000		875.00000 
 43692.65567		 305.27265			43387.38302		70.13800		324.00000 
 43692.65567		 724.87338			42967.78230		221.46000		875.00000 
 43692.65567		 305.27265			43387.38302		70.13800		324.00000 
 43692.65567		 724.87338			42967.78230		221.46000		875.00000 
 43692.65567		 305.27265			43387.38302		70.13800		324.00000 
 43692.65567		 724.87338			42967.78230		221.46000		875.00000 
 43692.65567		 305.27265			43387.38302		70.13800		324.00000 
 43692.65567		 724.87338			42967.78230		221.46000		875.00000 
 43692.65567		 305.27265			43387.38302		70.13800		324.00000 
 43692.65567		 724.87338			42967.78230		221.46000		875.00000 
 43692.65567		 305.27265			43387.38302		70.13800		324.00000 
 43692.65567		 724.87338			42967.78230		221.46000		875.00000 
 43692.65567		 305.27265			43387.38302		70.13800		324.00000 
 43692.65567		 724.87338			42967.78230		221.46000		875.00000 
 43692.65567		 305.27265			43387.38302		70.13800		324.00000 
 43692.65567		 724.87338			42967.78230		221.46000		875.00000 
 43692.65567		 305.27265			43387.38302		70.13800		324.00000 
 43692.65567		 724.87338			42967.78230		221.46000		875.00000 
 43692.65567		 305.27265			43387.38302		70.13800		324.00000 
 43692.65567		 724.87338			42967.78230		221.46000		875.00000 
 43692.65567		 305.27265			43387.38302		70.13800		324.00000 
 43692.65567		 724.87338			42967.78230		221.46000		875.00000 
 43692.65567		 305.27265			43387.38302		70.13800		324.00000 
 43692.65567		 724.87338			42967.78230		221.46000		875.00000 
 43692.65567		 305.27265			43387.38302		70.13800		324.00000 
 43692.65567		 724.87338			42967.78230		221.46000		875.00000 
 43692.65567		 305.27265			43387.38302		70.13800		324.00000 
 43692.65567		 724.87338			42967.78230		221.46000		875.00000 
 43692.65567		 305.27265			43387.38302		70.13800		324.00000 
 43692.65567		 724.87338			42967.78230		221.46000		875.00000 
 43692.65567		 305.27265			43387.38302		70.13800		324.00000 
 43692.65567		 724.87338			42967.78230		221.46000		875.00000 
 43692.65567		 305.27265			43387.38302		70.13800		324.00000 
 43692.65567		 724.87338			42967.78230		221.46000		875.00000 
 43692.65567		 305.27265			43387.38302		70.13800		324.00000 
 43692.65567		 724.87338			42967.78230		221.46000		875.00000 
 43692.65567		 305.27265			43387.38302		70.13800		324.00000 
 43692.65567		 724.87338			42967.78230		221.46000		875.00000 
 43692.65567		 305.27265			43387.38302		70.13800		324.00000 
 43692.65567		 724.87338			42967.78230		221.46000		875.00000 
 43692.65567		 305.27265			43387.38302		70.13800		324.00000 
 43692.65567		 662.33902			43030.31665		221.46000		875.00000 
 43692.65567		 305.27265			43387.38302		70.13800		324.00000 
 43692.65567		 599.80467			43092.85100		221.46000		875.00000 
 43692.65567		 305.27265			43387.38302		70.13800		324.00000 
 43692.65567		 537.27032			43155.38535		221.46000		875.00000 
 43692.65567		 305.27265			43387.38302		70.13800		324.00000 
 43692.65567		 537.27032			43155.38535		221.46000		875.00000 
 43692.65567		 305.27265			43387.38302		70.13800		324.00000 
 43692.65567		 537.27032			43155.38535		221.46000		875.00000 
 43692.65567		 305.27265			43387.38302		70.13800		324.00000 
 43692.65567		 537.27032			43155.38535		221.46000		875.00000 
 43692.65567		 305.27265			43387.38302		70.13800		324.00000 
 43692.65567		 537.27032			43155.38535		221.46000		875.00000 
 43692.65567		 305.27265			43387.38302		70.13800		324.00000 
 43692.65567		 537.27032			43155.38535		221.46000		875.00000 
 43692.65567		 305.27265			43387.38302		70.13800		324.00000 
 43692.65567		 537.27032			43155.38535		221.46000		875.00000 
 43692.65567		 305.27265			43387.38302		70.13800		324.00000 
 43692.65567		 537.27032			43155.38535		221.46000		875.00000 
 43692.65567		 305.27265			43387.38302		70.13800		324.00000 
 43692.65567		 537.27032			43155.38535		221.46000		875.00000 
 43692.65567		 305.27265			43387.38302		70.13800		324.00000 
 43692.65567		 537.27032			43155.38535		221.46000		875.00000 
 43692.65567		 305.27265			43387.38302		70.13800		324.00000 
 43692.65567		 537.27032			43155.38535		221.46000		875.00000 
 43692.65567		 305.27265			43387.38302		70.13800		324.00000 
 43692.65567		 537.27032			43155.38535		221.46000		875.00000 
 43692.65567		 305.27265			43387.38302		70.13800		324.00000 
 43692.65567		 537.27032			43155.38535		221.46000		875.00000 
 43692.65567		 305.27265			43387.38302		70.13800		324.00000 
 43692.65567		 537.27032			43155.38535		221.46000		875.00000 
 43692.65567		 305.27265			43387.38302		70.13800		324.00000 
 43692.65567		 537.27032			43155.38535		221.46000		875.00000 
 43692.65567		 305.27265			43387.38302		70.13800		324.00000 
 43692.65567		 537.27032			43155.38535		221.46000		875.00000 
 43692.65567		 305.27265			43387.38302		70.13800		324.00000 
 43692.65567		 537.27032			43155.38535		221.46000		875.00000 
 43692.65567		 305.27265			43387.38302		70.13800		324.00000 
 43692.65567		 537.27032			43155.38535		221.46000		875.00000 
 43692.65567		 305.27265			43387.38302		70.13800		324.00000 
 43692.65567		 537.27032			43155.38535		221.46000		875.00000 
 43692.65567		 305.27265			43387.38302		70.13800		324.00000 
 43692.65567		 537.27032			43155.38535		189.77200		875.00000 
 43692.65567		 305.27265			43387.38302		70.13800		324.00000 
 43692.65567		 537.27032			43155.38535		189.77200		875.00000 
 43692.65567		 305.27265			43387.38302		70.13800		324.00000 
 43692.65567		 525.81365			43166.84203		189.77200		875.00000 
 43692.65567		 305.27265			43387.38302		70.13800		324.00000 
 43692.65567		 525.81365			43166.84203		189.77200		875.00000 
 43692.65567		 261.35540			43431.30027		70.13800		324.00000 
 43692.65567		 261.35540			43431.30027		189.77200		875.00000 
 43692.65567		 261.35540			43431.30027		70.13800		324.00000 
