Memory Total (MiB) 	 Memory Used (MiB) 	    Memory Free (MiB) 	 Power Drawed (W) 	 Clocks (Mhz) 	 
 43692.65567		 261.35540			43431.30027		176.11200		875.00000 
 43692.65567		 261.35540			43431.30027		66.53800		324.00000 
 43692.65567		 261.35540			43431.30027		176.11200		875.00000 
 43692.65567		 261.35540			43431.30027		66.53800		324.00000 
 43692.65567		 261.35540			43431.30027		176.11200		875.00000 
 43692.65567		 261.35540			43431.30027		66.53800		324.00000 
 43692.65567		 261.35540			43431.30027		176.11200		875.00000 
 43692.65567		 261.35540			43431.30027		66.53800		324.00000 
 43692.65567		 261.35540			43431.30027		176.11200		875.00000 
 43692.65567		 261.35540			43431.30027		66.53800		324.00000 
 43692.65567		 261.35540			43431.30027		176.11200		875.00000 
 43692.65567		 261.35540			43431.30027		66.53800		324.00000 
 43692.65567		 261.35540			43431.30027		176.11200		875.00000 
 43692.65567		 261.35540			43431.30027		66.53800		324.00000 
 43692.65567		 261.35540			43431.30027		176.11200		875.00000 
 43692.65567		 261.35540			43431.30027		66.53800		324.00000 
 43692.65567		 261.35540			43431.30027		176.11200		875.00000 
 43692.65567		 261.35540			43431.30027		66.53800		324.00000 
 43692.65567		 261.35540			43431.30027		176.11200		875.00000 
 43692.65567		 261.35540			43431.30027		66.53800		324.00000 
 43692.65567		 261.35540			43431.30027		176.11200		875.00000 
 43692.65567		 261.35540			43431.30027		66.53800		324.00000 
 43692.65567		 261.35540			43431.30027		176.11200		875.00000 
 43692.65567		 261.35540			43431.30027		66.53800		324.00000 
 43692.65567		 261.35540			43431.30027		176.11200		875.00000 
 43692.65567		 261.35540			43431.30027		66.53800		324.00000 
 43692.65567		 261.35540			43431.30027		176.11200		875.00000 
 43692.65567		 261.35540			43431.30027		66.53800		324.00000 
 43692.65567		 261.35540			43431.30027		176.11200		875.00000 
 43692.65567		 261.35540			43431.30027		66.53800		324.00000 
 43692.65567		 261.35540			43431.30027		176.11200		875.00000 
 43692.65567		 261.35540			43431.30027		66.53800		324.00000 
 43692.65567		 261.35540			43431.30027		176.11200		875.00000 
 43692.65567		 261.35540			43431.30027		66.53800		324.00000 
 43692.65567		 261.35540			43431.30027		176.11200		875.00000 
 43692.65567		 261.35540			43431.30027		66.53800		324.00000 
 43692.65567		 265.17429			43427.48138		176.11200		875.00000 
 43692.65567		 261.35540			43431.30027		66.53800		324.00000 
 43692.65567		 265.17429			43427.48138		176.11200		875.00000 
 43692.65567		 261.35540			43431.30027		66.53800		324.00000 
 43692.65567		 272.81207			43419.84360		176.11200		875.00000 
 43692.65567		 261.35540			43431.30027		66.53800		324.00000 
 43692.65567		 272.81207			43419.84360		176.11200		875.00000 
 43692.65567		 261.35540			43431.30027		66.53800		324.00000 
 43692.65567		 272.81207			43419.84360		176.11200		875.00000 
 43692.65567		 265.17429			43427.48138		66.53800		324.00000 
 43692.65567		 272.81207			43419.84360		176.11200		875.00000 
 43692.65567		 265.17429			43427.48138		66.53800		324.00000 
 43692.65567		 272.81207			43419.84360		176.11200		875.00000 
 43692.65567		 265.17429			43427.48138		66.53800		324.00000 
 43692.65567		 272.81207			43419.84360		176.11200		875.00000 
 43692.65567		 272.81207			43419.84360		66.53800		324.00000 
 43692.65567		 272.81207			43419.84360		176.11200		875.00000 
 43692.65567		 272.81207			43419.84360		66.53800		324.00000 
 43692.65567		 305.27265			43387.38302		146.68600		875.00000 
 43692.65567		 305.27265			43387.38302		66.53800		324.00000 
 43692.65567		 305.27265			43387.38302		146.68600		875.00000 
 43692.65567		 305.27265			43387.38302		66.53800		324.00000 
 43692.65567		 305.27265			43387.38302		146.68600		875.00000 
 43692.65567		 305.27265			43387.38302		66.53800		324.00000 
 43692.65567		 305.27265			43387.38302		146.68600		875.00000 
 43692.65567		 305.27265			43387.38302		66.53800		324.00000 
 43692.65567		 305.27265			43387.38302		146.68600		875.00000 
 43692.65567		 305.27265			43387.38302		66.53800		324.00000 
 43692.65567		 309.09154			43383.56413		146.68600		875.00000 
 43692.65567		 305.27265			43387.38302		66.53800		324.00000 
 43692.65567		 310.52363			43382.13204		146.68600		875.00000 
 43692.65567		 305.27265			43387.38302		66.53800		324.00000 
 43692.65567		 311.00099			43381.65468		146.68600		875.00000 
 43692.65567		 305.27265			43387.38302		66.53800		324.00000 
 43692.65567		 311.00099			43381.65468		146.68600		875.00000 
 43692.65567		 305.27265			43387.38302		66.53800		324.00000 
 43692.65567		 311.00099			43381.65468		146.68600		875.00000 
 43692.65567		 305.27265			43387.38302		66.53800		324.00000 
 43692.65567		 311.00099			43381.65468		146.68600		875.00000 
 43692.65567		 305.27265			43387.38302		66.53800		324.00000 
 43692.65567		 311.00099			43381.65468		146.68600		875.00000 
 43692.65567		 305.27265			43387.38302		66.53800		324.00000 
 43692.65567		 311.00099			43381.65468		146.68600		875.00000 
 43692.65567		 305.27265			43387.38302		66.53800		324.00000 
 43692.65567		 311.00099			43381.65468		146.68600		875.00000 
 43692.65567		 305.27265			43387.38302		66.53800		324.00000 
 43692.65567		 311.00099			43381.65468		146.68600		875.00000 
 43692.65567		 305.27265			43387.38302		66.53800		324.00000 
 43692.65567		 311.00099			43381.65468		146.68600		875.00000 
 43692.65567		 305.27265			43387.38302		66.53800		324.00000 
 43692.65567		 311.00099			43381.65468		146.68600		875.00000 
 43692.65567		 305.27265			43387.38302		66.57000		324.00000 
 43692.65567		 311.00099			43381.65468		146.68600		875.00000 
 43692.65567		 305.27265			43387.38302		66.57000		324.00000 
 43692.65567		 311.00099			43381.65468		146.68600		875.00000 
 43692.65567		 305.27265			43387.38302		66.57000		324.00000 
 43692.65567		 311.00099			43381.65468		146.68600		875.00000 
 43692.65567		 305.27265			43387.38302		66.57000		324.00000 
 43692.65567		 311.00099			43381.65468		146.68600		875.00000 
 43692.65567		 305.27265			43387.38302		66.57000		324.00000 
 43692.65567		 311.00099			43381.65468		146.68600		875.00000 
 43692.65567		 305.27265			43387.38302		66.57000		324.00000 
 43692.65567		 311.00099			43381.65468		146.68600		875.00000 
 43692.65567		 305.27265			43387.38302		66.57000		324.00000 
 43692.65567		 311.00099			43381.65468		146.68600		875.00000 
 43692.65567		 305.27265			43387.38302		66.57000		324.00000 
 43692.65567		 311.00099			43381.65468		146.68600		875.00000 
 43692.65567		 305.27265			43387.38302		66.57000		324.00000 
 43692.65567		 311.00099			43381.65468		146.68600		875.00000 
 43692.65567		 305.27265			43387.38302		66.57000		324.00000 
 43692.65567		 311.00099			43381.65468		146.68600		875.00000 
 43692.65567		 305.27265			43387.38302		66.57000		324.00000 
 43692.65567		 311.00099			43381.65468		146.68600		875.00000 
 43692.65567		 305.27265			43387.38302		66.57000		324.00000 
 43692.65567		 311.00099			43381.65468		146.68600		875.00000 
 43692.65567		 305.27265			43387.38302		66.57000		324.00000 
 43692.65567		 311.00099			43381.65468		146.68600		875.00000 
 43692.65567		 305.27265			43387.38302		66.57000		324.00000 
 43692.65567		 311.00099			43381.65468		146.68600		875.00000 
 43692.65567		 305.27265			43387.38302		66.57000		324.00000 
 43692.65567		 311.00099			43381.65468		146.68600		875.00000 
 43692.65567		 305.27265			43387.38302		66.57000		324.00000 
 43692.65567		 311.00099			43381.65468		146.68600		875.00000 
 43692.65567		 305.27265			43387.38302		66.57000		324.00000 
 43692.65567		 311.00099			43381.65468		135.56800		875.00000 
 43692.65567		 305.27265			43387.38302		66.57000		324.00000 
 43692.65567		 311.00099			43381.65468		135.56800		875.00000 
 43692.65567		 305.27265			43387.38302		66.57000		324.00000 
 43692.65567		 311.00099			43381.65468		135.56800		875.00000 
 43692.65567		 305.27265			43387.38302		66.57000		324.00000 
 43692.65567		 311.00099			43381.65468		135.56800		875.00000 
 43692.65567		 305.27265			43387.38302		66.57000		324.00000 
 43692.65567		 311.00099			43381.65468		135.56800		875.00000 
 43692.65567		 305.27265			43387.38302		66.57000		324.00000 
 43692.65567		 311.00099			43381.65468		135.56800		875.00000 
 43692.65567		 305.27265			43387.38302		66.57000		324.00000 
 43692.65567		 311.00099			43381.65468		135.56800		875.00000 
 43692.65567		 305.27265			43387.38302		66.57000		324.00000 
 43692.65567		 311.00099			43381.65468		135.56800		875.00000 
 43692.65567		 305.27265			43387.38302		66.57000		324.00000 
 43692.65567		 311.00099			43381.65468		135.56800		875.00000 
 43692.65567		 305.27265			43387.38302		66.57000		324.00000 
 43692.65567		 311.00099			43381.65468		135.56800		875.00000 
 43692.65567		 305.27265			43387.38302		66.57000		324.00000 
 43692.65567		 311.00099			43381.65468		135.56800		875.00000 
 43692.65567		 305.27265			43387.38302		66.57000		324.00000 
 43692.65567		 311.00099			43381.65468		135.56800		875.00000 
 43692.65567		 305.27265			43387.38302		66.57000		324.00000 
 43692.65567		 311.00099			43381.65468		135.56800		875.00000 
 43692.65567		 305.27265			43387.38302		66.57000		324.00000 
 43692.65567		 311.00099			43381.65468		135.56800		875.00000 
 43692.65567		 305.27265			43387.38302		66.57000		324.00000 
 43692.65567		 311.00099			43381.65468		135.56800		875.00000 
 43692.65567		 305.27265			43387.38302		66.57000		324.00000 
 43692.65567		 311.00099			43381.65468		135.56800		875.00000 
 43692.65567		 305.27265			43387.38302		66.57000		324.00000 
 43692.65567		 311.00099			43381.65468		135.56800		875.00000 
 43692.65567		 305.27265			43387.38302		66.57000		324.00000 
 43692.65567		 311.00099			43381.65468		135.56800		875.00000 
 43692.65567		 305.27265			43387.38302		66.57000		324.00000 
 43692.65567		 311.00099			43381.65468		135.56800		875.00000 
 43692.65567		 305.27265			43387.38302		66.57000		324.00000 
 43692.65567		 311.00099			43381.65468		135.56800		875.00000 
 43692.65567		 305.27265			43387.38302		66.57000		324.00000 
 43692.65567		 311.00099			43381.65468		135.56800		875.00000 
 43692.65567		 305.27265			43387.38302		66.57000		324.00000 
 43692.65567		 311.00099			43381.65468		135.56800		875.00000 
 43692.65567		 305.27265			43387.38302		66.57000		324.00000 
 43692.65567		 311.00099			43381.65468		135.56800		875.00000 
 43692.65567		 305.27265			43387.38302		66.57000		324.00000 
 43692.65567		 314.81988			43377.83579		135.56800		875.00000 
 43692.65567		 305.27265			43387.38302		66.57000		324.00000 
 43692.65567		 314.81988			43377.83579		135.56800		875.00000 
 43692.65567		 305.27265			43387.38302		66.57000		324.00000 
 43692.65567		 314.81988			43377.83579		135.56800		875.00000 
 43692.65567		 305.27265			43387.38302		66.57000		324.00000 
 43692.65567		 318.63877			43374.01690		135.56800		875.00000 
 43692.65567		 305.27265			43387.38302		66.57000		324.00000 
 43692.65567		 322.45767			43370.19801		135.56800		875.00000 
 43692.65567		 305.27265			43387.38302		66.57000		324.00000 
 43692.65567		 326.27656			43366.37912		135.56800		875.00000 
 43692.65567		 305.27265			43387.38302		66.57000		324.00000 
 43692.65567		 326.27656			43366.37912		135.56800		875.00000 
 43692.65567		 305.27265			43387.38302		66.57000		324.00000 
 43692.65567		 326.27656			43366.37912		135.56800		875.00000 
 43692.65567		 305.27265			43387.38302		66.57000		324.00000 
 43692.65567		 326.27656			43366.37912		135.56800		875.00000 
 43692.65567		 305.27265			43387.38302		66.57000		324.00000 
 43692.65567		 537.27032			43155.38535		131.45600		875.00000 
 43692.65567		 305.27265			43387.38302		66.57000		324.00000 
 43692.65567		 567.82146			43124.83422		131.45600		875.00000 
 43692.65567		 305.27265			43387.38302		66.57000		324.00000 
 43692.65567		 583.09702			43109.55865		131.45600		875.00000 
 43692.65567		 305.27265			43387.38302		66.57000		324.00000 
 43692.65567		 583.09702			43109.55865		131.45600		875.00000 
 43692.65567		 305.27265			43387.38302		66.57000		324.00000 
 43692.65567		 583.09702			43109.55865		131.45600		875.00000 
 43692.65567		 305.27265			43387.38302		66.57000		324.00000 
 43692.65567		 583.09702			43109.55865		131.45600		875.00000 
 43692.65567		 305.27265			43387.38302		66.57000		324.00000 
 43692.65567		 583.09702			43109.55865		131.45600		875.00000 
 43692.65567		 305.27265			43387.38302		66.57000		324.00000 
 43692.65567		 583.09702			43109.55865		131.45600		875.00000 
 43692.65567		 305.27265			43387.38302		66.57000		324.00000 
 43692.65567		 583.09702			43109.55865		131.45600		875.00000 
 43692.65567		 305.27265			43387.38302		66.57000		324.00000 
 43692.65567		 583.09702			43109.55865		131.45600		875.00000 
 43692.65567		 305.27265			43387.38302		66.57000		324.00000 
 43692.65567		 583.09702			43109.55865		131.45600		875.00000 
 43692.65567		 305.27265			43387.38302		66.57000		324.00000 
 43692.65567		 583.09702			43109.55865		131.45600		875.00000 
 43692.65567		 305.27265			43387.38302		66.57000		324.00000 
 43692.65567		 583.09702			43109.55865		131.45600		875.00000 
 43692.65567		 305.27265			43387.38302		66.57000		324.00000 
 43692.65567		 583.09702			43109.55865		131.45600		875.00000 
 43692.65567		 305.27265			43387.38302		66.57000		324.00000 
 43692.65567		 583.09702			43109.55865		131.45600		875.00000 
 43692.65567		 305.27265			43387.38302		66.57000		324.00000 
 43692.65567		 583.09702			43109.55865		131.45600		875.00000 
 43692.65567		 305.27265			43387.38302		66.57000		324.00000 
 43692.65567		 583.09702			43109.55865		131.45600		875.00000 
 43692.65567		 305.27265			43387.38302		66.57000		324.00000 
 43692.65567		 583.09702			43109.55865		131.45600		875.00000 
 43692.65567		 305.27265			43387.38302		66.57000		324.00000 
 43692.65567		 583.09702			43109.55865		131.45600		875.00000 
 43692.65567		 305.27265			43387.38302		66.57000		324.00000 
 43692.65567		 583.09702			43109.55865		131.45600		875.00000 
 43692.65567		 305.27265			43387.38302		66.57000		324.00000 
 43692.65567		 583.09702			43109.55865		131.45600		875.00000 
 43692.65567		 305.27265			43387.38302		66.57000		324.00000 
 43692.65567		 583.09702			43109.55865		131.45600		875.00000 
 43692.65567		 305.27265			43387.38302		66.57000		324.00000 
 43692.65567		 583.09702			43109.55865		131.45600		875.00000 
 43692.65567		 305.27265			43387.38302		66.57000		324.00000 
 43692.65567		 583.09702			43109.55865		131.45600		875.00000 
 43692.65567		 305.27265			43387.38302		66.57000		324.00000 
 43692.65567		 583.09702			43109.55865		131.45600		875.00000 
 43692.65567		 305.27265			43387.38302		66.57000		324.00000 
 43692.65567		 583.09702			43109.55865		131.45600		875.00000 
 43692.65567		 305.27265			43387.38302		66.57000		324.00000 
 43692.65567		 583.09702			43109.55865		131.45600		875.00000 
 43692.65567		 305.27265			43387.38302		66.57000		324.00000 
 43692.65567		 583.09702			43109.55865		131.45600		875.00000 
 43692.65567		 305.27265			43387.38302		66.57000		324.00000 
 43692.65567		 583.09702			43109.55865		131.45600		875.00000 
 43692.65567		 305.27265			43387.38302		66.57000		324.00000 
 43692.65567		 583.09702			43109.55865		131.45600		875.00000 
 43692.65567		 305.27265			43387.38302		66.57000		324.00000 
 43692.65567		 583.09702			43109.55865		131.45600		875.00000 
 43692.65567		 305.27265			43387.38302		66.57000		324.00000 
 43692.65567		 583.09702			43109.55865		131.45600		875.00000 
 43692.65567		 305.27265			43387.38302		66.57000		324.00000 
 43692.65567		 583.09702			43109.55865		131.45600		875.00000 
 43692.65567		 305.27265			43387.38302		66.57000		324.00000 
 43692.65567		 583.09702			43109.55865		131.45600		875.00000 
 43692.65567		 305.27265			43387.38302		66.57000		324.00000 
 43692.65567		 583.09702			43109.55865		131.45600		875.00000 
 43692.65567		 305.27265			43387.38302		66.57000		324.00000 
 43692.65567		 583.09702			43109.55865		131.45600		875.00000 
 43692.65567		 305.27265			43387.38302		66.57000		324.00000 
 43692.65567		 583.09702			43109.55865		131.45600		875.00000 
 43692.65567		 305.27265			43387.38302		66.57000		324.00000 
 43692.65567		 583.09702			43109.55865		131.45600		875.00000 
 43692.65567		 305.27265			43387.38302		66.57000		324.00000 
 43692.65567		 583.09702			43109.55865		131.45600		875.00000 
 43692.65567		 305.27265			43387.38302		66.57000		324.00000 
 43692.65567		 583.09702			43109.55865		131.45600		875.00000 
 43692.65567		 305.27265			43387.38302		66.57000		324.00000 
 43692.65567		 583.09702			43109.55865		131.45600		875.00000 
 43692.65567		 305.27265			43387.38302		66.57000		324.00000 
 43692.65567		 583.09702			43109.55865		131.45600		875.00000 
 43692.65567		 305.27265			43387.38302		66.57000		324.00000 
 43692.65567		 583.09702			43109.55865		131.45600		875.00000 
 43692.65567		 305.27265			43387.38302		66.57000		324.00000 
 43692.65567		 583.09702			43109.55865		131.45600		875.00000 
 43692.65567		 305.27265			43387.38302		66.57000		324.00000 
 43692.65567		 583.09702			43109.55865		131.45600		875.00000 
 43692.65567		 305.27265			43387.38302		66.57000		324.00000 
 43692.65567		 583.09702			43109.55865		131.45600		875.00000 
 43692.65567		 305.27265			43387.38302		66.57000		324.00000 
 43692.65567		 583.09702			43109.55865		131.45600		875.00000 
 43692.65567		 305.27265			43387.38302		66.57000		324.00000 
 43692.65567		 583.09702			43109.55865		131.45600		875.00000 
 43692.65567		 305.27265			43387.38302		66.57000		324.00000 
 43692.65567		 583.09702			43109.55865		131.45600		875.00000 
 43692.65567		 305.27265			43387.38302		66.57000		324.00000 
 43692.65567		 583.09702			43109.55865		131.45600		875.00000 
 43692.65567		 305.27265			43387.38302		66.57000		324.00000 
 43692.65567		 583.09702			43109.55865		131.45600		875.00000 
 43692.65567		 305.27265			43387.38302		66.57000		324.00000 
 43692.65567		 583.09702			43109.55865		131.45600		875.00000 
 43692.65567		 305.27265			43387.38302		66.57000		324.00000 
 43692.65567		 583.09702			43109.55865		131.45600		875.00000 
 43692.65567		 305.27265			43387.38302		66.57000		324.00000 
 43692.65567		 583.09702			43109.55865		131.45600		875.00000 
 43692.65567		 305.27265			43387.38302		66.57000		324.00000 
 43692.65567		 583.09702			43109.55865		131.45600		875.00000 
 43692.65567		 305.27265			43387.38302		66.57000		324.00000 
 43692.65567		 583.09702			43109.55865		131.45600		875.00000 
 43692.65567		 305.27265			43387.38302		66.57000		324.00000 
 43692.65567		 583.09702			43109.55865		131.45600		875.00000 
 43692.65567		 305.27265			43387.38302		66.57000		324.00000 
 43692.65567		 583.09702			43109.55865		131.45600		875.00000 
 43692.65567		 305.27265			43387.38302		66.57000		324.00000 
 43692.65567		 583.09702			43109.55865		131.45600		875.00000 
 43692.65567		 305.27265			43387.38302		66.57000		324.00000 
 43692.65567		 583.09702			43109.55865		131.45600		875.00000 
 43692.65567		 305.27265			43387.38302		66.57000		324.00000 
 43692.65567		 583.09702			43109.55865		177.73600		875.00000 
 43692.65567		 305.27265			43387.38302		66.57000		324.00000 
 43692.65567		 583.09702			43109.55865		177.73600		875.00000 
 43692.65567		 305.27265			43387.38302		66.57000		324.00000 
 43692.65567		 583.09702			43109.55865		177.73600		875.00000 
 43692.65567		 305.27265			43387.38302		66.57000		324.00000 
 43692.65567		 583.09702			43109.55865		177.73600		875.00000 
 43692.65567		 305.27265			43387.38302		66.57000		324.00000 
 43692.65567		 583.09702			43109.55865		177.73600		875.00000 
 43692.65567		 305.27265			43387.38302		66.57000		324.00000 
 43692.65567		 583.09702			43109.55865		177.73600		875.00000 
 43692.65567		 305.27265			43387.38302		66.57000		324.00000 
 43692.65567		 583.09702			43109.55865		177.73600		875.00000 
 43692.65567		 305.27265			43387.38302		66.57000		324.00000 
 43692.65567		 583.09702			43109.55865		177.73600		875.00000 
 43692.65567		 305.27265			43387.38302		66.57000		324.00000 
 43692.65567		 583.09702			43109.55865		177.73600		875.00000 
 43692.65567		 305.27265			43387.38302		66.57000		324.00000 
 43692.65567		 583.09702			43109.55865		177.73600		875.00000 
 43692.65567		 305.27265			43387.38302		66.57000		324.00000 
 43692.65567		 583.09702			43109.55865		177.73600		875.00000 
 43692.65567		 305.27265			43387.38302		66.57000		324.00000 
 43692.65567		 583.09702			43109.55865		177.73600		875.00000 
 43692.65567		 305.27265			43387.38302		66.57000		324.00000 
 43692.65567		 583.09702			43109.55865		177.73600		875.00000 
 43692.65567		 305.27265			43387.38302		66.57000		324.00000 
 43692.65567		 583.09702			43109.55865		177.73600		875.00000 
 43692.65567		 305.27265			43387.38302		66.57000		324.00000 
 43692.65567		 583.09702			43109.55865		177.73600		875.00000 
 43692.65567		 305.27265			43387.38302		66.57000		324.00000 
 43692.65567		 583.09702			43109.55865		177.73600		875.00000 
 43692.65567		 305.27265			43387.38302		66.57000		324.00000 
 43692.65567		 583.09702			43109.55865		177.73600		875.00000 
 43692.65567		 305.27265			43387.38302		66.57000		324.00000 
 43692.65567		 583.09702			43109.55865		177.73600		875.00000 
 43692.65567		 305.27265			43387.38302		66.57000		324.00000 
 43692.65567		 583.09702			43109.55865		177.73600		875.00000 
 43692.65567		 305.27265			43387.38302		66.57000		324.00000 
 43692.65567		 583.09702			43109.55865		177.73600		875.00000 
 43692.65567		 305.27265			43387.38302		66.57000		324.00000 
 43692.65567		 583.09702			43109.55865		177.73600		875.00000 
 43692.65567		 305.27265			43387.38302		66.57000		324.00000 
 43692.65567		 583.09702			43109.55865		177.73600		875.00000 
 43692.65567		 305.27265			43387.38302		66.57000		324.00000 
 43692.65567		 583.09702			43109.55865		177.73600		875.00000 
 43692.65567		 305.27265			43387.38302		66.57000		324.00000 
 43692.65567		 583.09702			43109.55865		177.73600		875.00000 
 43692.65567		 305.27265			43387.38302		66.57000		324.00000 
 43692.65567		 583.09702			43109.55865		177.73600		875.00000 
 43692.65567		 305.27265			43387.38302		66.57000		324.00000 
 43692.65567		 583.09702			43109.55865		177.73600		875.00000 
 43692.65567		 305.27265			43387.38302		66.57000		324.00000 
 43692.65567		 583.09702			43109.55865		177.73600		875.00000 
 43692.65567		 305.27265			43387.38302		66.57000		324.00000 
 43692.65567		 583.09702			43109.55865		177.73600		875.00000 
 43692.65567		 305.27265			43387.38302		66.57000		324.00000 
 43692.65567		 583.09702			43109.55865		177.73600		875.00000 
 43692.65567		 305.27265			43387.38302		66.57000		324.00000 
 43692.65567		 583.09702			43109.55865		177.73600		875.00000 
 43692.65567		 305.27265			43387.38302		66.57000		324.00000 
 43692.65567		 583.09702			43109.55865		177.73600		875.00000 
 43692.65567		 305.27265			43387.38302		66.57000		324.00000 
 43692.65567		 583.09702			43109.55865		177.73600		875.00000 
 43692.65567		 305.27265			43387.38302		66.57000		324.00000 
 43692.65567		 583.09702			43109.55865		177.73600		875.00000 
 43692.65567		 305.27265			43387.38302		66.57000		324.00000 
 43692.65567		 583.09702			43109.55865		177.73600		875.00000 
 43692.65567		 305.27265			43387.38302		66.57000		324.00000 
 43692.65567		 583.09702			43109.55865		177.73600		875.00000 
 43692.65567		 305.27265			43387.38302		66.57000		324.00000 
 43692.65567		 583.09702			43109.55865		177.73600		875.00000 
 43692.65567		 305.27265			43387.38302		66.57000		324.00000 
 43692.65567		 583.09702			43109.55865		177.73600		875.00000 
 43692.65567		 305.27265			43387.38302		66.57000		324.00000 
 43692.65567		 583.09702			43109.55865		177.73600		875.00000 
 43692.65567		 305.27265			43387.38302		66.57000		324.00000 
 43692.65567		 583.09702			43109.55865		177.73600		875.00000 
 43692.65567		 305.27265			43387.38302		66.57000		324.00000 
 43692.65567		 583.09702			43109.55865		177.73600		875.00000 
 43692.65567		 305.27265			43387.38302		66.57000		324.00000 
 43692.65567		 583.09702			43109.55865		177.73600		875.00000 
 43692.65567		 305.27265			43387.38302		66.57000		324.00000 
 43692.65567		 583.09702			43109.55865		177.73600		875.00000 
 43692.65567		 305.27265			43387.38302		66.57000		324.00000 
 43692.65567		 583.09702			43109.55865		177.73600		875.00000 
 43692.65567		 305.27265			43387.38302		66.57000		324.00000 
 43692.65567		 583.09702			43109.55865		177.73600		875.00000 
 43692.65567		 305.27265			43387.38302		66.57000		324.00000 
 43692.65567		 583.09702			43109.55865		177.73600		875.00000 
 43692.65567		 305.27265			43387.38302		66.57000		324.00000 
 43692.65567		 583.09702			43109.55865		177.73600		875.00000 
 43692.65567		 305.27265			43387.38302		66.57000		324.00000 
 43692.65567		 583.09702			43109.55865		177.73600		875.00000 
 43692.65567		 305.27265			43387.38302		66.57000		324.00000 
 43692.65567		 583.09702			43109.55865		177.73600		875.00000 
 43692.65567		 305.27265			43387.38302		66.57000		324.00000 
 43692.65567		 583.09702			43109.55865		177.73600		875.00000 
 43692.65567		 305.27265			43387.38302		66.57000		324.00000 
 43692.65567		 583.09702			43109.55865		177.73600		875.00000 
 43692.65567		 305.27265			43387.38302		66.57000		324.00000 
 43692.65567		 583.09702			43109.55865		177.73600		875.00000 
 43692.65567		 305.27265			43387.38302		66.57000		324.00000 
 43692.65567		 583.09702			43109.55865		177.73600		875.00000 
 43692.65567		 305.27265			43387.38302		66.57000		324.00000 
 43692.65567		 583.09702			43109.55865		177.73600		875.00000 
 43692.65567		 305.27265			43387.38302		66.57000		324.00000 
 43692.65567		 583.09702			43109.55865		177.73600		875.00000 
 43692.65567		 305.27265			43387.38302		66.57000		324.00000 
 43692.65567		 583.09702			43109.55865		177.73600		875.00000 
 43692.65567		 305.27265			43387.38302		66.57000		324.00000 
 43692.65567		 583.09702			43109.55865		177.73600		875.00000 
 43692.65567		 305.27265			43387.38302		66.57000		324.00000 
 43692.65567		 583.09702			43109.55865		197.02800		875.00000 
 43692.65567		 305.27265			43387.38302		66.57000		324.00000 
 43692.65567		 583.09702			43109.55865		197.02800		875.00000 
 43692.65567		 305.27265			43387.38302		66.57000		324.00000 
 43692.65567		 583.09702			43109.55865		197.02800		875.00000 
 43692.65567		 305.27265			43387.38302		66.57000		324.00000 
 43692.65567		 583.09702			43109.55865		197.02800		875.00000 
 43692.65567		 305.27265			43387.38302		66.57000		324.00000 
 43692.65567		 583.09702			43109.55865		197.02800		875.00000 
 43692.65567		 305.27265			43387.38302		66.57000		324.00000 
 43692.65567		 583.09702			43109.55865		197.02800		875.00000 
 43692.65567		 305.27265			43387.38302		66.57000		324.00000 
 43692.65567		 583.09702			43109.55865		197.02800		875.00000 
 43692.65567		 305.27265			43387.38302		66.57000		324.00000 
 43692.65567		 583.09702			43109.55865		197.02800		875.00000 
 43692.65567		 305.27265			43387.38302		66.57000		324.00000 
 43692.65567		 583.09702			43109.55865		197.02800		875.00000 
 43692.65567		 305.27265			43387.38302		66.57000		324.00000 
 43692.65567		 583.09702			43109.55865		197.02800		875.00000 
 43692.65567		 305.27265			43387.38302		66.57000		324.00000 
 43692.65567		 583.09702			43109.55865		197.02800		875.00000 
 43692.65567		 305.27265			43387.38302		66.57000		324.00000 
 43692.65567		 583.09702			43109.55865		197.02800		875.00000 
 43692.65567		 305.27265			43387.38302		66.57000		324.00000 
 43692.65567		 583.09702			43109.55865		197.02800		875.00000 
 43692.65567		 305.27265			43387.38302		66.57000		324.00000 
 43692.65567		 583.09702			43109.55865		197.02800		875.00000 
 43692.65567		 305.27265			43387.38302		66.57000		324.00000 
 43692.65567		 583.09702			43109.55865		197.02800		875.00000 
 43692.65567		 305.27265			43387.38302		66.57000		324.00000 
 43692.65567		 583.09702			43109.55865		197.02800		875.00000 
 43692.65567		 305.27265			43387.38302		66.57000		324.00000 
 43692.65567		 583.09702			43109.55865		197.02800		875.00000 
 43692.65567		 305.27265			43387.38302		66.57000		324.00000 
 43692.65567		 583.09702			43109.55865		197.02800		875.00000 
 43692.65567		 305.27265			43387.38302		66.57000		324.00000 
 43692.65567		 583.09702			43109.55865		197.02800		875.00000 
 43692.65567		 305.27265			43387.38302		66.57000		324.00000 
 43692.65567		 583.09702			43109.55865		197.02800		875.00000 
 43692.65567		 305.27265			43387.38302		66.57000		324.00000 
 43692.65567		 583.09702			43109.55865		197.02800		875.00000 
 43692.65567		 305.27265			43387.38302		66.57000		324.00000 
 43692.65567		 583.09702			43109.55865		197.02800		875.00000 
 43692.65567		 305.27265			43387.38302		66.57000		324.00000 
 43692.65567		 583.09702			43109.55865		197.02800		875.00000 
 43692.65567		 305.27265			43387.38302		66.57000		324.00000 
 43692.65567		 583.09702			43109.55865		197.02800		875.00000 
 43692.65567		 305.27265			43387.38302		66.57000		324.00000 
 43692.65567		 583.09702			43109.55865		197.02800		875.00000 
 43692.65567		 305.27265			43387.38302		66.57000		324.00000 
 43692.65567		 583.09702			43109.55865		197.02800		875.00000 
 43692.65567		 305.27265			43387.38302		66.57000		324.00000 
 43692.65567		 583.09702			43109.55865		197.02800		875.00000 
 43692.65567		 305.27265			43387.38302		66.57000		324.00000 
 43692.65567		 583.09702			43109.55865		197.02800		875.00000 
 43692.65567		 305.27265			43387.38302		66.57000		324.00000 
 43692.65567		 583.09702			43109.55865		197.02800		875.00000 
 43692.65567		 305.27265			43387.38302		66.57000		324.00000 
 43692.65567		 583.09702			43109.55865		197.02800		875.00000 
 43692.65567		 305.27265			43387.38302		66.57000		324.00000 
 43692.65567		 583.09702			43109.55865		197.02800		875.00000 
 43692.65567		 305.27265			43387.38302		66.57000		324.00000 
 43692.65567		 583.09702			43109.55865		197.02800		875.00000 
 43692.65567		 305.27265			43387.38302		66.57000		324.00000 
 43692.65567		 583.09702			43109.55865		197.02800		875.00000 
 43692.65567		 305.27265			43387.38302		66.57000		324.00000 
 43692.65567		 583.09702			43109.55865		197.02800		875.00000 
 43692.65567		 305.27265			43387.38302		66.57000		324.00000 
 43692.65567		 583.09702			43109.55865		197.02800		875.00000 
 43692.65567		 305.27265			43387.38302		66.57000		324.00000 
 43692.65567		 583.09702			43109.55865		197.02800		875.00000 
 43692.65567		 305.27265			43387.38302		66.57000		324.00000 
 43692.65567		 583.09702			43109.55865		197.02800		875.00000 
 43692.65567		 305.27265			43387.38302		66.57000		324.00000 
 43692.65567		 583.09702			43109.55865		197.02800		875.00000 
 43692.65567		 305.27265			43387.38302		66.57000		324.00000 
 43692.65567		 583.09702			43109.55865		197.02800		875.00000 
 43692.65567		 305.27265			43387.38302		66.57000		324.00000 
 43692.65567		 583.09702			43109.55865		197.02800		875.00000 
 43692.65567		 305.27265			43387.38302		66.57000		324.00000 
 43692.65567		 583.09702			43109.55865		197.02800		875.00000 
 43692.65567		 305.27265			43387.38302		66.57000		324.00000 
 43692.65567		 583.09702			43109.55865		197.02800		875.00000 
 43692.65567		 305.27265			43387.38302		66.57000		324.00000 
 43692.65567		 583.09702			43109.55865		197.02800		875.00000 
 43692.65567		 305.27265			43387.38302		66.57000		324.00000 
 43692.65567		 583.09702			43109.55865		197.02800		875.00000 
 43692.65567		 305.27265			43387.38302		66.57000		324.00000 
 43692.65567		 583.09702			43109.55865		197.02800		875.00000 
 43692.65567		 305.27265			43387.38302		66.57000		324.00000 
 43692.65567		 583.09702			43109.55865		197.02800		875.00000 
 43692.65567		 305.27265			43387.38302		66.57000		324.00000 
 43692.65567		 583.09702			43109.55865		197.02800		875.00000 
 43692.65567		 305.27265			43387.38302		66.57000		324.00000 
 43692.65567		 583.09702			43109.55865		197.02800		875.00000 
 43692.65567		 305.27265			43387.38302		66.57000		324.00000 
 43692.65567		 583.09702			43109.55865		197.02800		875.00000 
 43692.65567		 305.27265			43387.38302		66.57000		324.00000 
 43692.65567		 583.09702			43109.55865		197.02800		875.00000 
 43692.65567		 305.27265			43387.38302		66.57000		324.00000 
 43692.65567		 583.09702			43109.55865		197.02800		875.00000 
 43692.65567		 305.27265			43387.38302		66.57000		324.00000 
 43692.65567		 583.09702			43109.55865		197.02800		875.00000 
 43692.65567		 305.27265			43387.38302		66.57000		324.00000 
 43692.65567		 583.09702			43109.55865		197.02800		875.00000 
 43692.65567		 305.27265			43387.38302		66.57000		324.00000 
 43692.65567		 583.09702			43109.55865		197.02800		875.00000 
 43692.65567		 305.27265			43387.38302		66.57000		324.00000 
 43692.65567		 583.09702			43109.55865		197.02800		875.00000 
 43692.65567		 305.27265			43387.38302		66.57000		324.00000 
 43692.65567		 583.09702			43109.55865		197.02800		875.00000 
 43692.65567		 305.27265			43387.38302		66.57000		324.00000 
 43692.65567		 583.09702			43109.55865		197.02800		875.00000 
 43692.65567		 305.27265			43387.38302		66.57000		324.00000 
 43692.65567		 583.09702			43109.55865		197.02800		875.00000 
 43692.65567		 305.27265			43387.38302		66.57000		324.00000 
 43692.65567		 583.09702			43109.55865		197.02800		875.00000 
 43692.65567		 305.27265			43387.38302		66.57000		324.00000 
 43692.65567		 583.09702			43109.55865		204.15000		875.00000 
 43692.65567		 305.27265			43387.38302		66.57000		324.00000 
 43692.65567		 537.27032			43155.38535		204.15000		875.00000 
 43692.65567		 305.27265			43387.38302		66.57000		324.00000 
 43692.65567		 537.27032			43155.38535		204.15000		875.00000 
 43692.65567		 305.27265			43387.38302		66.57000		324.00000 
 43692.65567		 537.27032			43155.38535		204.15000		875.00000 
 43692.65567		 305.27265			43387.38302		66.57000		324.00000 
 43692.65567		 537.27032			43155.38535		204.15000		875.00000 
 43692.65567		 305.27265			43387.38302		66.57000		324.00000 
 43692.65567		 537.27032			43155.38535		204.15000		875.00000 
 43692.65567		 305.27265			43387.38302		66.57000		324.00000 
 43692.65567		 537.27032			43155.38535		204.15000		875.00000 
 43692.65567		 305.27265			43387.38302		66.57000		324.00000 
 43692.65567		 537.27032			43155.38535		204.15000		875.00000 
 43692.65567		 305.27265			43387.38302		66.57000		324.00000 
 43692.65567		 537.27032			43155.38535		204.15000		875.00000 
 43692.65567		 305.27265			43387.38302		66.57000		324.00000 
 43692.65567		 537.27032			43155.38535		204.15000		875.00000 
 43692.65567		 305.27265			43387.38302		66.57000		324.00000 
 43692.65567		 537.27032			43155.38535		204.15000		875.00000 
 43692.65567		 305.27265			43387.38302		66.57000		324.00000 
 43692.65567		 537.27032			43155.38535		204.15000		875.00000 
 43692.65567		 305.27265			43387.38302		66.57000		324.00000 
 43692.65567		 537.27032			43155.38535		204.15000		875.00000 
 43692.65567		 305.27265			43387.38302		66.57000		324.00000 
 43692.65567		 537.27032			43155.38535		204.15000		875.00000 
 43692.65567		 305.27265			43387.38302		66.57000		324.00000 
 43692.65567		 537.27032			43155.38535		204.15000		875.00000 
 43692.65567		 305.27265			43387.38302		66.57000		324.00000 
 43692.65567		 537.27032			43155.38535		204.15000		875.00000 
 43692.65567		 305.27265			43387.38302		66.57000		324.00000 
 43692.65567		 537.27032			43155.38535		204.15000		875.00000 
 43692.65567		 305.27265			43387.38302		66.57000		324.00000 
 43692.65567		 537.27032			43155.38535		204.15000		875.00000 
 43692.65567		 305.27265			43387.38302		66.57000		324.00000 
 43692.65567		 537.27032			43155.38535		204.15000		875.00000 
 43692.65567		 305.27265			43387.38302		66.57000		324.00000 
 43692.65567		 537.27032			43155.38535		204.15000		875.00000 
 43692.65567		 305.27265			43387.38302		66.57000		324.00000 
 43692.65567		 529.63254			43163.02313		204.15000		875.00000 
 43692.65567		 305.27265			43387.38302		66.57000		324.00000 
 43692.65567		 525.81365			43166.84203		204.15000		875.00000 
 43692.65567		 305.27265			43387.38302		66.57000		324.00000 
 43692.65567		 525.81365			43166.84203		204.15000		875.00000 
 43692.65567		 261.35540			43431.30027		66.57000		324.00000 
