Memory Total (MiB) 	 Memory Used (MiB) 	    Memory Free (MiB) 	 Power Drawed (W) 	 Clocks (Mhz) 	 
 43692.65567		 261.35540			43431.30027		189.41000		875.00000 
 43692.65567		 261.35540			43431.30027		64.65000		324.00000 
 43692.65567		 261.35540			43431.30027		189.41000		875.00000 
 43692.65567		 261.35540			43431.30027		64.65000		324.00000 
 43692.65567		 261.35540			43431.30027		189.41000		875.00000 
 43692.65567		 261.35540			43431.30027		64.65000		324.00000 
 43692.65567		 261.35540			43431.30027		189.41000		875.00000 
 43692.65567		 261.35540			43431.30027		64.65000		324.00000 
 43692.65567		 261.35540			43431.30027		189.41000		875.00000 
 43692.65567		 261.35540			43431.30027		64.65000		324.00000 
 43692.65567		 261.35540			43431.30027		189.41000		875.00000 
 43692.65567		 261.35540			43431.30027		64.65000		324.00000 
 43692.65567		 261.35540			43431.30027		189.41000		875.00000 
 43692.65567		 261.35540			43431.30027		64.65000		324.00000 
 43692.65567		 261.35540			43431.30027		189.41000		875.00000 
 43692.65567		 261.35540			43431.30027		64.65000		324.00000 
 43692.65567		 261.35540			43431.30027		189.41000		875.00000 
 43692.65567		 261.35540			43431.30027		64.65000		324.00000 
 43692.65567		 261.35540			43431.30027		189.41000		875.00000 
 43692.65567		 261.35540			43431.30027		64.65000		324.00000 
 43692.65567		 261.35540			43431.30027		189.41000		875.00000 
 43692.65567		 261.35540			43431.30027		64.65000		324.00000 
 43692.65567		 261.35540			43431.30027		189.41000		875.00000 
 43692.65567		 261.35540			43431.30027		64.65000		324.00000 
 43692.65567		 261.35540			43431.30027		189.41000		875.00000 
 43692.65567		 261.35540			43431.30027		64.65000		324.00000 
 43692.65567		 261.35540			43431.30027		189.41000		875.00000 
 43692.65567		 261.35540			43431.30027		64.65000		324.00000 
 43692.65567		 261.35540			43431.30027		189.41000		875.00000 
 43692.65567		 261.35540			43431.30027		64.65000		324.00000 
 43692.65567		 261.35540			43431.30027		189.41000		875.00000 
 43692.65567		 261.35540			43431.30027		64.65000		324.00000 
 43692.65567		 261.35540			43431.30027		189.41000		875.00000 
 43692.65567		 261.35540			43431.30027		64.65000		324.00000 
 43692.65567		 261.35540			43431.30027		189.41000		875.00000 
 43692.65567		 261.35540			43431.30027		64.65000		324.00000 
 43692.65567		 265.17429			43427.48138		189.41000		875.00000 
 43692.65567		 261.35540			43431.30027		64.65000		324.00000 
 43692.65567		 265.17429			43427.48138		189.41000		875.00000 
 43692.65567		 261.35540			43431.30027		64.65000		324.00000 
 43692.65567		 272.81207			43419.84360		189.41000		875.00000 
 43692.65567		 261.35540			43431.30027		64.65000		324.00000 
 43692.65567		 272.81207			43419.84360		189.41000		875.00000 
 43692.65567		 261.35540			43431.30027		64.65000		324.00000 
 43692.65567		 272.81207			43419.84360		189.41000		875.00000 
 43692.65567		 265.17429			43427.48138		64.65000		324.00000 
 43692.65567		 272.81207			43419.84360		189.41000		875.00000 
 43692.65567		 265.17429			43427.48138		64.65000		324.00000 
 43692.65567		 272.81207			43419.84360		153.49000		875.00000 
 43692.65567		 265.17429			43427.48138		64.65000		324.00000 
 43692.65567		 272.81207			43419.84360		153.49000		875.00000 
 43692.65567		 272.81207			43419.84360		64.65000		324.00000 
 43692.65567		 272.81207			43419.84360		153.49000		875.00000 
 43692.65567		 272.81207			43419.84360		64.65000		324.00000 
 43692.65567		 272.81207			43419.84360		153.49000		875.00000 
 43692.65567		 272.81207			43419.84360		64.65000		324.00000 
 43692.65567		 305.27265			43387.38302		153.49000		875.00000 
 43692.65567		 305.27265			43387.38302		64.65000		324.00000 
 43692.65567		 305.27265			43387.38302		153.49000		875.00000 
 43692.65567		 305.27265			43387.38302		64.65000		324.00000 
 43692.65567		 305.27265			43387.38302		153.49000		875.00000 
 43692.65567		 305.27265			43387.38302		64.65000		324.00000 
 43692.65567		 305.27265			43387.38302		153.49000		875.00000 
 43692.65567		 305.27265			43387.38302		64.65000		324.00000 
 43692.65567		 305.27265			43387.38302		153.49000		875.00000 
 43692.65567		 305.27265			43387.38302		64.65000		324.00000 
 43692.65567		 309.09154			43383.56413		153.49000		875.00000 
 43692.65567		 305.27265			43387.38302		64.65000		324.00000 
 43692.65567		 310.52363			43382.13204		153.49000		875.00000 
 43692.65567		 305.27265			43387.38302		64.65000		324.00000 
 43692.65567		 311.00099			43381.65468		153.49000		875.00000 
 43692.65567		 305.27265			43387.38302		64.65000		324.00000 
 43692.65567		 311.00099			43381.65468		153.49000		875.00000 
 43692.65567		 305.27265			43387.38302		64.65000		324.00000 
 43692.65567		 311.00099			43381.65468		153.49000		875.00000 
 43692.65567		 305.27265			43387.38302		64.65000		324.00000 
 43692.65567		 311.00099			43381.65468		153.49000		875.00000 
 43692.65567		 305.27265			43387.38302		64.65000		324.00000 
 43692.65567		 311.00099			43381.65468		153.49000		875.00000 
 43692.65567		 305.27265			43387.38302		64.65000		324.00000 
 43692.65567		 311.00099			43381.65468		153.49000		875.00000 
 43692.65567		 305.27265			43387.38302		64.65000		324.00000 
 43692.65567		 311.00099			43381.65468		153.49000		875.00000 
 43692.65567		 305.27265			43387.38302		64.65000		324.00000 
 43692.65567		 311.00099			43381.65468		153.49000		875.00000 
 43692.65567		 305.27265			43387.38302		64.65000		324.00000 
 43692.65567		 311.00099			43381.65468		153.49000		875.00000 
 43692.65567		 305.27265			43387.38302		64.65000		324.00000 
 43692.65567		 311.00099			43381.65468		153.49000		875.00000 
 43692.65567		 305.27265			43387.38302		64.65000		324.00000 
 43692.65567		 311.00099			43381.65468		153.49000		875.00000 
 43692.65567		 305.27265			43387.38302		64.65000		324.00000 
 43692.65567		 311.00099			43381.65468		153.49000		875.00000 
 43692.65567		 305.27265			43387.38302		64.65000		324.00000 
 43692.65567		 311.00099			43381.65468		153.49000		875.00000 
 43692.65567		 305.27265			43387.38302		64.65000		324.00000 
 43692.65567		 311.00099			43381.65468		153.49000		875.00000 
 43692.65567		 305.27265			43387.38302		64.65000		324.00000 
 43692.65567		 311.00099			43381.65468		153.49000		875.00000 
 43692.65567		 305.27265			43387.38302		64.65000		324.00000 
 43692.65567		 311.00099			43381.65468		153.49000		875.00000 
 43692.65567		 305.27265			43387.38302		64.65000		324.00000 
 43692.65567		 311.00099			43381.65468		153.49000		875.00000 
 43692.65567		 305.27265			43387.38302		64.65000		324.00000 
 43692.65567		 311.00099			43381.65468		153.49000		875.00000 
 43692.65567		 305.27265			43387.38302		64.65000		324.00000 
 43692.65567		 311.00099			43381.65468		153.49000		875.00000 
 43692.65567		 305.27265			43387.38302		64.65000		324.00000 
 43692.65567		 311.00099			43381.65468		153.49000		875.00000 
 43692.65567		 305.27265			43387.38302		64.65000		324.00000 
 43692.65567		 311.00099			43381.65468		153.49000		875.00000 
 43692.65567		 305.27265			43387.38302		64.65000		324.00000 
 43692.65567		 311.00099			43381.65468		153.49000		875.00000 
 43692.65567		 305.27265			43387.38302		64.65000		324.00000 
 43692.65567		 311.00099			43381.65468		153.49000		875.00000 
 43692.65567		 305.27265			43387.38302		64.65000		324.00000 
 43692.65567		 311.00099			43381.65468		139.24800		875.00000 
 43692.65567		 305.27265			43387.38302		64.65000		324.00000 
 43692.65567		 311.00099			43381.65468		139.24800		875.00000 
 43692.65567		 305.27265			43387.38302		64.65000		324.00000 
 43692.65567		 311.00099			43381.65468		139.24800		875.00000 
 43692.65567		 305.27265			43387.38302		64.65000		324.00000 
 43692.65567		 311.00099			43381.65468		139.24800		875.00000 
 43692.65567		 305.27265			43387.38302		64.65000		324.00000 
 43692.65567		 311.00099			43381.65468		139.24800		875.00000 
 43692.65567		 305.27265			43387.38302		64.65000		324.00000 
 43692.65567		 311.00099			43381.65468		139.24800		875.00000 
 43692.65567		 305.27265			43387.38302		64.65000		324.00000 
 43692.65567		 311.00099			43381.65468		139.24800		875.00000 
 43692.65567		 305.27265			43387.38302		64.65000		324.00000 
 43692.65567		 311.00099			43381.65468		139.24800		875.00000 
 43692.65567		 305.27265			43387.38302		64.65000		324.00000 
 43692.65567		 311.00099			43381.65468		139.24800		875.00000 
 43692.65567		 305.27265			43387.38302		64.65000		324.00000 
 43692.65567		 311.00099			43381.65468		139.24800		875.00000 
 43692.65567		 305.27265			43387.38302		64.65000		324.00000 
 43692.65567		 311.00099			43381.65468		139.24800		875.00000 
 43692.65567		 305.27265			43387.38302		64.65000		324.00000 
 43692.65567		 311.00099			43381.65468		139.24800		875.00000 
 43692.65567		 305.27265			43387.38302		64.65000		324.00000 
 43692.65567		 311.00099			43381.65468		139.24800		875.00000 
 43692.65567		 305.27265			43387.38302		64.65000		324.00000 
 43692.65567		 311.00099			43381.65468		139.24800		875.00000 
 43692.65567		 305.27265			43387.38302		64.65000		324.00000 
 43692.65567		 311.00099			43381.65468		139.24800		875.00000 
 43692.65567		 305.27265			43387.38302		64.65000		324.00000 
 43692.65567		 311.00099			43381.65468		139.24800		875.00000 
 43692.65567		 305.27265			43387.38302		64.65000		324.00000 
 43692.65567		 311.00099			43381.65468		139.24800		875.00000 
 43692.65567		 305.27265			43387.38302		64.65000		324.00000 
 43692.65567		 311.00099			43381.65468		139.24800		875.00000 
 43692.65567		 305.27265			43387.38302		64.65000		324.00000 
 43692.65567		 311.00099			43381.65468		139.24800		875.00000 
 43692.65567		 305.27265			43387.38302		64.65000		324.00000 
 43692.65567		 311.00099			43381.65468		139.24800		875.00000 
 43692.65567		 305.27265			43387.38302		64.65000		324.00000 
 43692.65567		 311.00099			43381.65468		139.24800		875.00000 
 43692.65567		 305.27265			43387.38302		64.65000		324.00000 
 43692.65567		 311.00099			43381.65468		139.24800		875.00000 
 43692.65567		 305.27265			43387.38302		64.65000		324.00000 
 43692.65567		 311.00099			43381.65468		139.24800		875.00000 
 43692.65567		 305.27265			43387.38302		64.65000		324.00000 
 43692.65567		 311.00099			43381.65468		139.24800		875.00000 
 43692.65567		 305.27265			43387.38302		64.65000		324.00000 
 43692.65567		 311.00099			43381.65468		139.24800		875.00000 
 43692.65567		 305.27265			43387.38302		64.65000		324.00000 
 43692.65567		 311.00099			43381.65468		139.24800		875.00000 
 43692.65567		 305.27265			43387.38302		64.65000		324.00000 
 43692.65567		 311.00099			43381.65468		139.24800		875.00000 
 43692.65567		 305.27265			43387.38302		64.65000		324.00000 
 43692.65567		 314.81988			43377.83579		139.24800		875.00000 
 43692.65567		 305.27265			43387.38302		64.65000		324.00000 
 43692.65567		 314.81988			43377.83579		139.24800		875.00000 
 43692.65567		 305.27265			43387.38302		64.65000		324.00000 
 43692.65567		 314.81988			43377.83579		139.24800		875.00000 
 43692.65567		 305.27265			43387.38302		64.65000		324.00000 
 43692.65567		 322.45767			43370.19801		139.24800		875.00000 
 43692.65567		 305.27265			43387.38302		64.65000		324.00000 
 43692.65567		 326.27656			43366.37912		139.24800		875.00000 
 43692.65567		 305.27265			43387.38302		64.65000		324.00000 
 43692.65567		 326.27656			43366.37912		135.12400		875.00000 
 43692.65567		 305.27265			43387.38302		64.65000		324.00000 
 43692.65567		 537.27032			43155.38535		135.12400		875.00000 
 43692.65567		 305.27265			43387.38302		64.65000		324.00000 
 43692.65567		 610.78399			43081.87169		135.12400		875.00000 
 43692.65567		 305.27265			43387.38302		64.65000		324.00000 
 43692.65567		 647.54082			43045.11485		135.12400		875.00000 
 43692.65567		 305.27265			43387.38302		64.65000		324.00000 
 43692.65567		 647.54082			43045.11485		135.12400		875.00000 
 43692.65567		 305.27265			43387.38302		64.65000		324.00000 
 43692.65567		 647.54082			43045.11485		135.12400		875.00000 
 43692.65567		 305.27265			43387.38302		64.65000		324.00000 
 43692.65567		 647.54082			43045.11485		135.12400		875.00000 
 43692.65567		 305.27265			43387.38302		64.65000		324.00000 
 43692.65567		 647.54082			43045.11485		135.12400		875.00000 
 43692.65567		 305.27265			43387.38302		64.65000		324.00000 
 43692.65567		 647.54082			43045.11485		135.12400		875.00000 
 43692.65567		 305.27265			43387.38302		64.65000		324.00000 
 43692.65567		 647.54082			43045.11485		135.12400		875.00000 
 43692.65567		 305.27265			43387.38302		64.65000		324.00000 
 43692.65567		 647.54082			43045.11485		135.12400		875.00000 
 43692.65567		 305.27265			43387.38302		64.65000		324.00000 
 43692.65567		 647.54082			43045.11485		135.12400		875.00000 
 43692.65567		 305.27265			43387.38302		64.65000		324.00000 
 43692.65567		 647.54082			43045.11485		135.12400		875.00000 
 43692.65567		 305.27265			43387.38302		64.65000		324.00000 
 43692.65567		 647.54082			43045.11485		135.12400		875.00000 
 43692.65567		 305.27265			43387.38302		65.60400		324.00000 
 43692.65567		 647.54082			43045.11485		135.12400		875.00000 
 43692.65567		 305.27265			43387.38302		65.60400		324.00000 
 43692.65567		 647.54082			43045.11485		135.12400		875.00000 
 43692.65567		 305.27265			43387.38302		65.60400		324.00000 
 43692.65567		 647.54082			43045.11485		135.12400		875.00000 
 43692.65567		 305.27265			43387.38302		65.60400		324.00000 
 43692.65567		 647.54082			43045.11485		135.12400		875.00000 
 43692.65567		 305.27265			43387.38302		65.60400		324.00000 
 43692.65567		 647.54082			43045.11485		135.12400		875.00000 
 43692.65567		 305.27265			43387.38302		65.60400		324.00000 
 43692.65567		 647.54082			43045.11485		135.12400		875.00000 
 43692.65567		 305.27265			43387.38302		65.60400		324.00000 
 43692.65567		 647.54082			43045.11485		135.12400		875.00000 
 43692.65567		 305.27265			43387.38302		65.60400		324.00000 
 43692.65567		 647.54082			43045.11485		135.12400		875.00000 
 43692.65567		 305.27265			43387.38302		65.60400		324.00000 
 43692.65567		 647.54082			43045.11485		135.12400		875.00000 
 43692.65567		 305.27265			43387.38302		65.60400		324.00000 
 43692.65567		 647.54082			43045.11485		135.12400		875.00000 
 43692.65567		 305.27265			43387.38302		65.60400		324.00000 
 43692.65567		 647.54082			43045.11485		135.12400		875.00000 
 43692.65567		 305.27265			43387.38302		65.60400		324.00000 
 43692.65567		 647.54082			43045.11485		135.12400		875.00000 
 43692.65567		 305.27265			43387.38302		65.60400		324.00000 
 43692.65567		 647.54082			43045.11485		135.12400		875.00000 
 43692.65567		 305.27265			43387.38302		65.60400		324.00000 
 43692.65567		 647.54082			43045.11485		135.12400		875.00000 
 43692.65567		 305.27265			43387.38302		65.60400		324.00000 
 43692.65567		 647.54082			43045.11485		135.12400		875.00000 
 43692.65567		 305.27265			43387.38302		65.60400		324.00000 
 43692.65567		 647.54082			43045.11485		135.12400		875.00000 
 43692.65567		 305.27265			43387.38302		65.60400		324.00000 
 43692.65567		 647.54082			43045.11485		135.12400		875.00000 
 43692.65567		 305.27265			43387.38302		65.60400		324.00000 
 43692.65567		 647.54082			43045.11485		135.12400		875.00000 
 43692.65567		 305.27265			43387.38302		65.60400		324.00000 
 43692.65567		 647.54082			43045.11485		135.12400		875.00000 
 43692.65567		 305.27265			43387.38302		65.60400		324.00000 
 43692.65567		 647.54082			43045.11485		135.12400		875.00000 
 43692.65567		 305.27265			43387.38302		65.60400		324.00000 
 43692.65567		 647.54082			43045.11485		135.12400		875.00000 
 43692.65567		 305.27265			43387.38302		65.60400		324.00000 
 43692.65567		 647.54082			43045.11485		135.12400		875.00000 
 43692.65567		 305.27265			43387.38302		65.60400		324.00000 
 43692.65567		 647.54082			43045.11485		135.12400		875.00000 
 43692.65567		 305.27265			43387.38302		65.60400		324.00000 
 43692.65567		 647.54082			43045.11485		135.12400		875.00000 
 43692.65567		 305.27265			43387.38302		65.60400		324.00000 
 43692.65567		 647.54082			43045.11485		135.12400		875.00000 
 43692.65567		 305.27265			43387.38302		65.60400		324.00000 
 43692.65567		 647.54082			43045.11485		135.12400		875.00000 
 43692.65567		 305.27265			43387.38302		65.60400		324.00000 
 43692.65567		 647.54082			43045.11485		135.12400		875.00000 
 43692.65567		 305.27265			43387.38302		65.60400		324.00000 
 43692.65567		 647.54082			43045.11485		135.12400		875.00000 
 43692.65567		 305.27265			43387.38302		65.60400		324.00000 
 43692.65567		 647.54082			43045.11485		135.12400		875.00000 
 43692.65567		 305.27265			43387.38302		65.60400		324.00000 
 43692.65567		 647.54082			43045.11485		135.12400		875.00000 
 43692.65567		 305.27265			43387.38302		65.60400		324.00000 
 43692.65567		 647.54082			43045.11485		135.12400		875.00000 
 43692.65567		 305.27265			43387.38302		65.60400		324.00000 
 43692.65567		 647.54082			43045.11485		135.12400		875.00000 
 43692.65567		 305.27265			43387.38302		65.60400		324.00000 
 43692.65567		 647.54082			43045.11485		135.12400		875.00000 
 43692.65567		 305.27265			43387.38302		65.60400		324.00000 
 43692.65567		 647.54082			43045.11485		135.12400		875.00000 
 43692.65567		 305.27265			43387.38302		65.60400		324.00000 
 43692.65567		 647.54082			43045.11485		135.12400		875.00000 
 43692.65567		 305.27265			43387.38302		65.60400		324.00000 
 43692.65567		 647.54082			43045.11485		135.12400		875.00000 
 43692.65567		 305.27265			43387.38302		65.60400		324.00000 
 43692.65567		 647.54082			43045.11485		135.12400		875.00000 
 43692.65567		 305.27265			43387.38302		65.60400		324.00000 
 43692.65567		 647.54082			43045.11485		135.12400		875.00000 
 43692.65567		 305.27265			43387.38302		65.60400		324.00000 
 43692.65567		 647.54082			43045.11485		135.12400		875.00000 
 43692.65567		 305.27265			43387.38302		65.60400		324.00000 
 43692.65567		 647.54082			43045.11485		135.12400		875.00000 
 43692.65567		 305.27265			43387.38302		65.60400		324.00000 
 43692.65567		 647.54082			43045.11485		135.12400		875.00000 
 43692.65567		 305.27265			43387.38302		65.60400		324.00000 
 43692.65567		 647.54082			43045.11485		135.12400		875.00000 
 43692.65567		 305.27265			43387.38302		65.60400		324.00000 
 43692.65567		 647.54082			43045.11485		135.12400		875.00000 
 43692.65567		 305.27265			43387.38302		65.60400		324.00000 
 43692.65567		 647.54082			43045.11485		135.12400		875.00000 
 43692.65567		 305.27265			43387.38302		65.60400		324.00000 
 43692.65567		 647.54082			43045.11485		135.12400		875.00000 
 43692.65567		 305.27265			43387.38302		65.60400		324.00000 
 43692.65567		 647.54082			43045.11485		135.12400		875.00000 
 43692.65567		 305.27265			43387.38302		65.60400		324.00000 
 43692.65567		 647.54082			43045.11485		185.83000		875.00000 
 43692.65567		 305.27265			43387.38302		65.60400		324.00000 
 43692.65567		 647.54082			43045.11485		185.83000		875.00000 
 43692.65567		 305.27265			43387.38302		65.60400		324.00000 
 43692.65567		 647.54082			43045.11485		185.83000		875.00000 
 43692.65567		 305.27265			43387.38302		65.60400		324.00000 
 43692.65567		 647.54082			43045.11485		185.83000		875.00000 
 43692.65567		 305.27265			43387.38302		65.60400		324.00000 
 43692.65567		 647.54082			43045.11485		185.83000		875.00000 
 43692.65567		 305.27265			43387.38302		65.60400		324.00000 
 43692.65567		 647.54082			43045.11485		185.83000		875.00000 
 43692.65567		 305.27265			43387.38302		65.60400		324.00000 
 43692.65567		 647.54082			43045.11485		185.83000		875.00000 
 43692.65567		 305.27265			43387.38302		65.60400		324.00000 
 43692.65567		 647.54082			43045.11485		185.83000		875.00000 
 43692.65567		 305.27265			43387.38302		65.60400		324.00000 
 43692.65567		 647.54082			43045.11485		185.83000		875.00000 
 43692.65567		 305.27265			43387.38302		65.60400		324.00000 
 43692.65567		 647.54082			43045.11485		185.83000		875.00000 
 43692.65567		 305.27265			43387.38302		65.60400		324.00000 
 43692.65567		 647.54082			43045.11485		185.83000		875.00000 
 43692.65567		 305.27265			43387.38302		65.60400		324.00000 
 43692.65567		 647.54082			43045.11485		185.83000		875.00000 
 43692.65567		 305.27265			43387.38302		65.60400		324.00000 
 43692.65567		 647.54082			43045.11485		185.83000		875.00000 
 43692.65567		 305.27265			43387.38302		65.60400		324.00000 
 43692.65567		 647.54082			43045.11485		185.83000		875.00000 
 43692.65567		 305.27265			43387.38302		65.60400		324.00000 
 43692.65567		 647.54082			43045.11485		185.83000		875.00000 
 43692.65567		 305.27265			43387.38302		65.60400		324.00000 
 43692.65567		 647.54082			43045.11485		185.83000		875.00000 
 43692.65567		 305.27265			43387.38302		65.60400		324.00000 
 43692.65567		 647.54082			43045.11485		185.83000		875.00000 
 43692.65567		 305.27265			43387.38302		65.60400		324.00000 
 43692.65567		 647.54082			43045.11485		185.83000		875.00000 
 43692.65567		 305.27265			43387.38302		65.60400		324.00000 
 43692.65567		 647.54082			43045.11485		185.83000		875.00000 
 43692.65567		 305.27265			43387.38302		65.60400		324.00000 
 43692.65567		 647.54082			43045.11485		185.83000		875.00000 
 43692.65567		 305.27265			43387.38302		65.60400		324.00000 
 43692.65567		 647.54082			43045.11485		185.83000		875.00000 
 43692.65567		 305.27265			43387.38302		65.60400		324.00000 
 43692.65567		 647.54082			43045.11485		185.83000		875.00000 
 43692.65567		 305.27265			43387.38302		65.60400		324.00000 
 43692.65567		 647.54082			43045.11485		185.83000		875.00000 
 43692.65567		 305.27265			43387.38302		65.60400		324.00000 
 43692.65567		 647.54082			43045.11485		185.83000		875.00000 
 43692.65567		 305.27265			43387.38302		65.60400		324.00000 
 43692.65567		 647.54082			43045.11485		185.83000		875.00000 
 43692.65567		 305.27265			43387.38302		65.60400		324.00000 
 43692.65567		 647.54082			43045.11485		185.83000		875.00000 
 43692.65567		 305.27265			43387.38302		65.60400		324.00000 
 43692.65567		 647.54082			43045.11485		185.83000		875.00000 
 43692.65567		 305.27265			43387.38302		65.60400		324.00000 
 43692.65567		 647.54082			43045.11485		185.83000		875.00000 
 43692.65567		 305.27265			43387.38302		65.60400		324.00000 
 43692.65567		 647.54082			43045.11485		185.83000		875.00000 
 43692.65567		 305.27265			43387.38302		65.60400		324.00000 
 43692.65567		 647.54082			43045.11485		185.83000		875.00000 
 43692.65567		 305.27265			43387.38302		65.60400		324.00000 
 43692.65567		 647.54082			43045.11485		185.83000		875.00000 
 43692.65567		 305.27265			43387.38302		65.60400		324.00000 
 43692.65567		 647.54082			43045.11485		185.83000		875.00000 
 43692.65567		 305.27265			43387.38302		65.60400		324.00000 
 43692.65567		 647.54082			43045.11485		185.83000		875.00000 
 43692.65567		 305.27265			43387.38302		65.60400		324.00000 
 43692.65567		 647.54082			43045.11485		185.83000		875.00000 
 43692.65567		 305.27265			43387.38302		65.60400		324.00000 
 43692.65567		 647.54082			43045.11485		185.83000		875.00000 
 43692.65567		 305.27265			43387.38302		65.60400		324.00000 
 43692.65567		 647.54082			43045.11485		185.83000		875.00000 
 43692.65567		 305.27265			43387.38302		65.60400		324.00000 
 43692.65567		 647.54082			43045.11485		185.83000		875.00000 
 43692.65567		 305.27265			43387.38302		65.60400		324.00000 
 43692.65567		 647.54082			43045.11485		185.83000		875.00000 
 43692.65567		 305.27265			43387.38302		65.60400		324.00000 
 43692.65567		 647.54082			43045.11485		185.83000		875.00000 
 43692.65567		 305.27265			43387.38302		65.60400		324.00000 
 43692.65567		 647.54082			43045.11485		185.83000		875.00000 
 43692.65567		 305.27265			43387.38302		65.60400		324.00000 
 43692.65567		 647.54082			43045.11485		185.83000		875.00000 
 43692.65567		 305.27265			43387.38302		65.60400		324.00000 
 43692.65567		 647.54082			43045.11485		185.83000		875.00000 
 43692.65567		 305.27265			43387.38302		65.60400		324.00000 
 43692.65567		 647.54082			43045.11485		185.83000		875.00000 
 43692.65567		 305.27265			43387.38302		65.60400		324.00000 
 43692.65567		 647.54082			43045.11485		185.83000		875.00000 
 43692.65567		 305.27265			43387.38302		65.60400		324.00000 
 43692.65567		 647.54082			43045.11485		185.83000		875.00000 
 43692.65567		 305.27265			43387.38302		65.60400		324.00000 
 43692.65567		 647.54082			43045.11485		185.83000		875.00000 
 43692.65567		 305.27265			43387.38302		65.60400		324.00000 
 43692.65567		 647.54082			43045.11485		185.83000		875.00000 
 43692.65567		 305.27265			43387.38302		65.60400		324.00000 
 43692.65567		 647.54082			43045.11485		185.83000		875.00000 
 43692.65567		 305.27265			43387.38302		65.60400		324.00000 
 43692.65567		 647.54082			43045.11485		185.83000		875.00000 
 43692.65567		 305.27265			43387.38302		65.60400		324.00000 
 43692.65567		 647.54082			43045.11485		185.83000		875.00000 
 43692.65567		 305.27265			43387.38302		65.60400		324.00000 
 43692.65567		 647.54082			43045.11485		185.83000		875.00000 
 43692.65567		 305.27265			43387.38302		65.60400		324.00000 
 43692.65567		 647.54082			43045.11485		185.83000		875.00000 
 43692.65567		 305.27265			43387.38302		65.60400		324.00000 
 43692.65567		 647.54082			43045.11485		185.83000		875.00000 
 43692.65567		 305.27265			43387.38302		65.60400		324.00000 
 43692.65567		 647.54082			43045.11485		185.83000		875.00000 
 43692.65567		 305.27265			43387.38302		65.60400		324.00000 
 43692.65567		 647.54082			43045.11485		185.83000		875.00000 
 43692.65567		 305.27265			43387.38302		65.60400		324.00000 
 43692.65567		 647.54082			43045.11485		185.83000		875.00000 
 43692.65567		 305.27265			43387.38302		65.60400		324.00000 
 43692.65567		 647.54082			43045.11485		185.83000		875.00000 
 43692.65567		 305.27265			43387.38302		65.60400		324.00000 
 43692.65567		 647.54082			43045.11485		185.83000		875.00000 
 43692.65567		 305.27265			43387.38302		65.60400		324.00000 
 43692.65567		 647.54082			43045.11485		185.83000		875.00000 
 43692.65567		 305.27265			43387.38302		65.60400		324.00000 
 43692.65567		 647.54082			43045.11485		185.83000		875.00000 
 43692.65567		 305.27265			43387.38302		65.60400		324.00000 
 43692.65567		 647.54082			43045.11485		185.83000		875.00000 
 43692.65567		 305.27265			43387.38302		65.60400		324.00000 
 43692.65567		 647.54082			43045.11485		185.83000		875.00000 
 43692.65567		 305.27265			43387.38302		65.60400		324.00000 
 43692.65567		 647.54082			43045.11485		185.83000		875.00000 
 43692.65567		 305.27265			43387.38302		65.60400		324.00000 
 43692.65567		 647.54082			43045.11485		185.83000		875.00000 
 43692.65567		 305.27265			43387.38302		65.60400		324.00000 
 43692.65567		 647.54082			43045.11485		185.83000		875.00000 
 43692.65567		 305.27265			43387.38302		65.60400		324.00000 
 43692.65567		 647.54082			43045.11485		208.41200		875.00000 
 43692.65567		 305.27265			43387.38302		65.60400		324.00000 
 43692.65567		 647.54082			43045.11485		208.41200		875.00000 
 43692.65567		 305.27265			43387.38302		65.60400		324.00000 
 43692.65567		 647.54082			43045.11485		208.41200		875.00000 
 43692.65567		 305.27265			43387.38302		65.60400		324.00000 
 43692.65567		 647.54082			43045.11485		208.41200		875.00000 
 43692.65567		 305.27265			43387.38302		65.60400		324.00000 
 43692.65567		 647.54082			43045.11485		208.41200		875.00000 
 43692.65567		 305.27265			43387.38302		65.60400		324.00000 
 43692.65567		 647.54082			43045.11485		208.41200		875.00000 
 43692.65567		 305.27265			43387.38302		65.60400		324.00000 
 43692.65567		 647.54082			43045.11485		208.41200		875.00000 
 43692.65567		 305.27265			43387.38302		65.60400		324.00000 
 43692.65567		 647.54082			43045.11485		208.41200		875.00000 
 43692.65567		 305.27265			43387.38302		65.60400		324.00000 
 43692.65567		 647.54082			43045.11485		208.41200		875.00000 
 43692.65567		 305.27265			43387.38302		65.60400		324.00000 
 43692.65567		 647.54082			43045.11485		208.41200		875.00000 
 43692.65567		 305.27265			43387.38302		65.60400		324.00000 
 43692.65567		 647.54082			43045.11485		208.41200		875.00000 
 43692.65567		 305.27265			43387.38302		65.60400		324.00000 
 43692.65567		 647.54082			43045.11485		208.41200		875.00000 
 43692.65567		 305.27265			43387.38302		65.60400		324.00000 
 43692.65567		 647.54082			43045.11485		208.41200		875.00000 
 43692.65567		 305.27265			43387.38302		65.60400		324.00000 
 43692.65567		 647.54082			43045.11485		208.41200		875.00000 
 43692.65567		 305.27265			43387.38302		65.60400		324.00000 
 43692.65567		 647.54082			43045.11485		208.41200		875.00000 
 43692.65567		 305.27265			43387.38302		65.60400		324.00000 
 43692.65567		 647.54082			43045.11485		208.41200		875.00000 
 43692.65567		 305.27265			43387.38302		65.60400		324.00000 
 43692.65567		 647.54082			43045.11485		208.41200		875.00000 
 43692.65567		 305.27265			43387.38302		65.60400		324.00000 
 43692.65567		 647.54082			43045.11485		208.41200		875.00000 
 43692.65567		 305.27265			43387.38302		65.60400		324.00000 
 43692.65567		 647.54082			43045.11485		208.41200		875.00000 
 43692.65567		 305.27265			43387.38302		65.60400		324.00000 
 43692.65567		 647.54082			43045.11485		208.41200		875.00000 
 43692.65567		 305.27265			43387.38302		65.60400		324.00000 
 43692.65567		 647.54082			43045.11485		208.41200		875.00000 
 43692.65567		 305.27265			43387.38302		65.60400		324.00000 
 43692.65567		 647.54082			43045.11485		208.41200		875.00000 
 43692.65567		 305.27265			43387.38302		65.60400		324.00000 
 43692.65567		 647.54082			43045.11485		208.41200		875.00000 
 43692.65567		 305.27265			43387.38302		65.60400		324.00000 
 43692.65567		 647.54082			43045.11485		208.41200		875.00000 
 43692.65567		 305.27265			43387.38302		65.60400		324.00000 
 43692.65567		 647.54082			43045.11485		208.41200		875.00000 
 43692.65567		 305.27265			43387.38302		65.60400		324.00000 
 43692.65567		 647.54082			43045.11485		208.41200		875.00000 
 43692.65567		 305.27265			43387.38302		65.60400		324.00000 
 43692.65567		 647.54082			43045.11485		208.41200		875.00000 
 43692.65567		 305.27265			43387.38302		65.60400		324.00000 
 43692.65567		 647.54082			43045.11485		208.41200		875.00000 
 43692.65567		 305.27265			43387.38302		65.60400		324.00000 
 43692.65567		 647.54082			43045.11485		208.41200		875.00000 
 43692.65567		 305.27265			43387.38302		65.60400		324.00000 
 43692.65567		 647.54082			43045.11485		208.41200		875.00000 
 43692.65567		 305.27265			43387.38302		65.60400		324.00000 
 43692.65567		 647.54082			43045.11485		208.41200		875.00000 
 43692.65567		 305.27265			43387.38302		65.60400		324.00000 
 43692.65567		 647.54082			43045.11485		208.41200		875.00000 
 43692.65567		 305.27265			43387.38302		65.60400		324.00000 
 43692.65567		 647.54082			43045.11485		208.41200		875.00000 
 43692.65567		 305.27265			43387.38302		65.60400		324.00000 
 43692.65567		 647.54082			43045.11485		208.41200		875.00000 
 43692.65567		 305.27265			43387.38302		65.60400		324.00000 
 43692.65567		 647.54082			43045.11485		208.41200		875.00000 
 43692.65567		 305.27265			43387.38302		65.60400		324.00000 
 43692.65567		 647.54082			43045.11485		208.41200		875.00000 
 43692.65567		 305.27265			43387.38302		65.60400		324.00000 
 43692.65567		 647.54082			43045.11485		208.41200		875.00000 
 43692.65567		 305.27265			43387.38302		65.60400		324.00000 
 43692.65567		 647.54082			43045.11485		208.41200		875.00000 
 43692.65567		 305.27265			43387.38302		65.60400		324.00000 
 43692.65567		 647.54082			43045.11485		208.41200		875.00000 
 43692.65567		 305.27265			43387.38302		65.60400		324.00000 
 43692.65567		 647.54082			43045.11485		208.41200		875.00000 
 43692.65567		 305.27265			43387.38302		65.60400		324.00000 
 43692.65567		 647.54082			43045.11485		208.41200		875.00000 
 43692.65567		 305.27265			43387.38302		65.60400		324.00000 
 43692.65567		 647.54082			43045.11485		208.41200		875.00000 
 43692.65567		 305.27265			43387.38302		65.60400		324.00000 
 43692.65567		 647.54082			43045.11485		208.41200		875.00000 
 43692.65567		 305.27265			43387.38302		65.60400		324.00000 
 43692.65567		 647.54082			43045.11485		208.41200		875.00000 
 43692.65567		 305.27265			43387.38302		65.60400		324.00000 
 43692.65567		 647.54082			43045.11485		208.41200		875.00000 
 43692.65567		 305.27265			43387.38302		65.60400		324.00000 
 43692.65567		 647.54082			43045.11485		208.41200		875.00000 
 43692.65567		 305.27265			43387.38302		65.60400		324.00000 
 43692.65567		 647.54082			43045.11485		208.41200		875.00000 
 43692.65567		 305.27265			43387.38302		65.60400		324.00000 
 43692.65567		 647.54082			43045.11485		208.41200		875.00000 
 43692.65567		 305.27265			43387.38302		65.60400		324.00000 
 43692.65567		 647.54082			43045.11485		208.41200		875.00000 
 43692.65567		 305.27265			43387.38302		65.60400		324.00000 
 43692.65567		 647.54082			43045.11485		208.41200		875.00000 
 43692.65567		 305.27265			43387.38302		65.60400		324.00000 
 43692.65567		 647.54082			43045.11485		208.41200		875.00000 
 43692.65567		 305.27265			43387.38302		65.60400		324.00000 
 43692.65567		 647.54082			43045.11485		208.41200		875.00000 
 43692.65567		 305.27265			43387.38302		65.60400		324.00000 
 43692.65567		 647.54082			43045.11485		208.41200		875.00000 
 43692.65567		 305.27265			43387.38302		65.60400		324.00000 
 43692.65567		 647.54082			43045.11485		208.41200		875.00000 
 43692.65567		 305.27265			43387.38302		65.60400		324.00000 
 43692.65567		 647.54082			43045.11485		208.41200		875.00000 
 43692.65567		 305.27265			43387.38302		65.60400		324.00000 
 43692.65567		 647.54082			43045.11485		208.41200		875.00000 
 43692.65567		 305.27265			43387.38302		65.60400		324.00000 
 43692.65567		 647.54082			43045.11485		208.41200		875.00000 
 43692.65567		 305.27265			43387.38302		65.60400		324.00000 
 43692.65567		 647.54082			43045.11485		208.41200		875.00000 
 43692.65567		 305.27265			43387.38302		65.60400		324.00000 
 43692.65567		 647.54082			43045.11485		208.41200		875.00000 
 43692.65567		 305.27265			43387.38302		65.60400		324.00000 
 43692.65567		 647.54082			43045.11485		208.41200		875.00000 
 43692.65567		 305.27265			43387.38302		65.60400		324.00000 
 43692.65567		 647.54082			43045.11485		208.41200		875.00000 
 43692.65567		 305.27265			43387.38302		65.60400		324.00000 
 43692.65567		 647.54082			43045.11485		208.41200		875.00000 
 43692.65567		 305.27265			43387.38302		65.60400		324.00000 
 43692.65567		 647.54082			43045.11485		208.41200		875.00000 
 43692.65567		 305.27265			43387.38302		65.60400		324.00000 
 43692.65567		 647.54082			43045.11485		208.41200		875.00000 
 43692.65567		 305.27265			43387.38302		65.60400		324.00000 
 43692.65567		 647.54082			43045.11485		216.79000		875.00000 
 43692.65567		 305.27265			43387.38302		65.60400		324.00000 
 43692.65567		 647.54082			43045.11485		216.79000		875.00000 
 43692.65567		 305.27265			43387.38302		65.60400		324.00000 
 43692.65567		 647.54082			43045.11485		216.79000		875.00000 
 43692.65567		 305.27265			43387.38302		65.60400		324.00000 
 43692.65567		 647.54082			43045.11485		216.79000		875.00000 
 43692.65567		 305.27265			43387.38302		65.60400		324.00000 
 43692.65567		 647.54082			43045.11485		216.79000		875.00000 
 43692.65567		 305.27265			43387.38302		65.60400		324.00000 
 43692.65567		 647.54082			43045.11485		216.79000		875.00000 
 43692.65567		 305.27265			43387.38302		65.60400		324.00000 
 43692.65567		 647.54082			43045.11485		216.79000		875.00000 
 43692.65567		 305.27265			43387.38302		65.60400		324.00000 
 43692.65567		 647.54082			43045.11485		216.79000		875.00000 
 43692.65567		 305.27265			43387.38302		65.60400		324.00000 
 43692.65567		 647.54082			43045.11485		216.79000		875.00000 
 43692.65567		 305.27265			43387.38302		65.60400		324.00000 
 43692.65567		 647.54082			43045.11485		216.79000		875.00000 
 43692.65567		 305.27265			43387.38302		65.60400		324.00000 
 43692.65567		 647.54082			43045.11485		216.79000		875.00000 
 43692.65567		 305.27265			43387.38302		65.60400		324.00000 
 43692.65567		 647.54082			43045.11485		216.79000		875.00000 
 43692.65567		 305.27265			43387.38302		65.60400		324.00000 
 43692.65567		 647.54082			43045.11485		216.79000		875.00000 
 43692.65567		 305.27265			43387.38302		65.60400		324.00000 
 43692.65567		 647.54082			43045.11485		216.79000		875.00000 
 43692.65567		 305.27265			43387.38302		65.60400		324.00000 
 43692.65567		 647.54082			43045.11485		216.79000		875.00000 
 43692.65567		 305.27265			43387.38302		65.60400		324.00000 
 43692.65567		 647.54082			43045.11485		216.79000		875.00000 
 43692.65567		 305.27265			43387.38302		65.60400		324.00000 
 43692.65567		 647.54082			43045.11485		216.79000		875.00000 
 43692.65567		 305.27265			43387.38302		65.60400		324.00000 
 43692.65567		 647.54082			43045.11485		216.79000		875.00000 
 43692.65567		 305.27265			43387.38302		65.60400		324.00000 
 43692.65567		 647.54082			43045.11485		216.79000		875.00000 
 43692.65567		 305.27265			43387.38302		65.60400		324.00000 
 43692.65567		 647.54082			43045.11485		216.79000		875.00000 
 43692.65567		 305.27265			43387.38302		65.60400		324.00000 
 43692.65567		 647.54082			43045.11485		216.79000		875.00000 
 43692.65567		 305.27265			43387.38302		65.60400		324.00000 
 43692.65567		 647.54082			43045.11485		216.79000		875.00000 
 43692.65567		 305.27265			43387.38302		65.60400		324.00000 
 43692.65567		 647.54082			43045.11485		216.79000		875.00000 
 43692.65567		 305.27265			43387.38302		65.60400		324.00000 
 43692.65567		 647.54082			43045.11485		216.79000		875.00000 
 43692.65567		 305.27265			43387.38302		65.60400		324.00000 
 43692.65567		 647.54082			43045.11485		216.79000		875.00000 
 43692.65567		 305.27265			43387.38302		65.60400		324.00000 
 43692.65567		 647.54082			43045.11485		216.79000		875.00000 
 43692.65567		 305.27265			43387.38302		65.60400		324.00000 
 43692.65567		 647.54082			43045.11485		216.79000		875.00000 
 43692.65567		 305.27265			43387.38302		65.60400		324.00000 
 43692.65567		 647.54082			43045.11485		216.79000		875.00000 
 43692.65567		 305.27265			43387.38302		65.60400		324.00000 
 43692.65567		 647.54082			43045.11485		216.79000		875.00000 
 43692.65567		 305.27265			43387.38302		65.60400		324.00000 
 43692.65567		 647.54082			43045.11485		216.79000		875.00000 
 43692.65567		 305.27265			43387.38302		65.60400		324.00000 
 43692.65567		 647.54082			43045.11485		216.79000		875.00000 
 43692.65567		 305.27265			43387.38302		65.60400		324.00000 
 43692.65567		 647.54082			43045.11485		216.79000		875.00000 
 43692.65567		 305.27265			43387.38302		65.60400		324.00000 
 43692.65567		 647.54082			43045.11485		216.79000		875.00000 
 43692.65567		 305.27265			43387.38302		65.60400		324.00000 
 43692.65567		 647.54082			43045.11485		216.79000		875.00000 
 43692.65567		 305.27265			43387.38302		65.60400		324.00000 
 43692.65567		 647.54082			43045.11485		216.79000		875.00000 
 43692.65567		 305.27265			43387.38302		65.60400		324.00000 
 43692.65567		 647.54082			43045.11485		216.79000		875.00000 
 43692.65567		 305.27265			43387.38302		65.60400		324.00000 
 43692.65567		 647.54082			43045.11485		216.79000		875.00000 
 43692.65567		 305.27265			43387.38302		65.60400		324.00000 
 43692.65567		 647.54082			43045.11485		216.79000		875.00000 
 43692.65567		 305.27265			43387.38302		65.60400		324.00000 
 43692.65567		 647.54082			43045.11485		216.79000		875.00000 
 43692.65567		 305.27265			43387.38302		65.60400		324.00000 
 43692.65567		 647.54082			43045.11485		216.79000		875.00000 
 43692.65567		 305.27265			43387.38302		65.60400		324.00000 
 43692.65567		 647.54082			43045.11485		216.79000		875.00000 
 43692.65567		 305.27265			43387.38302		65.60400		324.00000 
 43692.65567		 647.54082			43045.11485		216.79000		875.00000 
 43692.65567		 305.27265			43387.38302		65.60400		324.00000 
 43692.65567		 647.54082			43045.11485		216.79000		875.00000 
 43692.65567		 305.27265			43387.38302		65.60400		324.00000 
 43692.65567		 647.54082			43045.11485		216.79000		875.00000 
 43692.65567		 305.27265			43387.38302		65.60400		324.00000 
 43692.65567		 647.54082			43045.11485		216.79000		875.00000 
 43692.65567		 305.27265			43387.38302		65.60400		324.00000 
 43692.65567		 647.54082			43045.11485		216.79000		875.00000 
 43692.65567		 305.27265			43387.38302		65.60400		324.00000 
 43692.65567		 647.54082			43045.11485		216.79000		875.00000 
 43692.65567		 305.27265			43387.38302		65.60400		324.00000 
 43692.65567		 647.54082			43045.11485		216.79000		875.00000 
 43692.65567		 305.27265			43387.38302		65.60400		324.00000 
 43692.65567		 647.54082			43045.11485		216.79000		875.00000 
 43692.65567		 305.27265			43387.38302		65.60400		324.00000 
 43692.65567		 647.54082			43045.11485		216.79000		875.00000 
 43692.65567		 305.27265			43387.38302		65.60400		324.00000 
 43692.65567		 647.54082			43045.11485		216.79000		875.00000 
 43692.65567		 305.27265			43387.38302		65.60400		324.00000 
 43692.65567		 647.54082			43045.11485		216.79000		875.00000 
 43692.65567		 305.27265			43387.38302		65.60400		324.00000 
 43692.65567		 647.54082			43045.11485		216.79000		875.00000 
 43692.65567		 305.27265			43387.38302		65.60400		324.00000 
 43692.65567		 647.54082			43045.11485		216.79000		875.00000 
 43692.65567		 305.27265			43387.38302		65.60400		324.00000 
 43692.65567		 647.54082			43045.11485		216.79000		875.00000 
 43692.65567		 305.27265			43387.38302		65.60400		324.00000 
 43692.65567		 647.54082			43045.11485		216.79000		875.00000 
 43692.65567		 305.27265			43387.38302		65.60400		324.00000 
 43692.65567		 647.54082			43045.11485		216.79000		875.00000 
 43692.65567		 305.27265			43387.38302		65.60400		324.00000 
 43692.65567		 647.54082			43045.11485		216.79000		875.00000 
 43692.65567		 305.27265			43387.38302		65.60400		324.00000 
 43692.65567		 647.54082			43045.11485		216.79000		875.00000 
 43692.65567		 305.27265			43387.38302		65.60400		324.00000 
 43692.65567		 647.54082			43045.11485		216.79000		875.00000 
 43692.65567		 305.27265			43387.38302		65.60400		324.00000 
 43692.65567		 647.54082			43045.11485		216.79000		875.00000 
 43692.65567		 305.27265			43387.38302		65.60400		324.00000 
 43692.65567		 647.54082			43045.11485		216.79000		875.00000 
 43692.65567		 305.27265			43387.38302		65.60400		324.00000 
 43692.65567		 647.54082			43045.11485		216.79000		875.00000 
 43692.65567		 305.27265			43387.38302		65.60400		324.00000 
 43692.65567		 647.54082			43045.11485		216.79000		875.00000 
 43692.65567		 305.27265			43387.38302		65.60400		324.00000 
 43692.65567		 647.54082			43045.11485		216.79000		875.00000 
 43692.65567		 305.27265			43387.38302		65.60400		324.00000 
 43692.65567		 647.54082			43045.11485		219.71600		875.00000 
 43692.65567		 305.27265			43387.38302		65.60400		324.00000 
 43692.65567		 647.54082			43045.11485		219.71600		875.00000 
 43692.65567		 305.27265			43387.38302		65.60400		324.00000 
 43692.65567		 647.54082			43045.11485		219.71600		875.00000 
 43692.65567		 305.27265			43387.38302		65.60400		324.00000 
 43692.65567		 647.54082			43045.11485		219.71600		875.00000 
 43692.65567		 305.27265			43387.38302		65.60400		324.00000 
 43692.65567		 647.54082			43045.11485		219.71600		875.00000 
 43692.65567		 305.27265			43387.38302		65.60400		324.00000 
 43692.65567		 647.54082			43045.11485		219.71600		875.00000 
 43692.65567		 305.27265			43387.38302		65.60400		324.00000 
 43692.65567		 647.54082			43045.11485		219.71600		875.00000 
 43692.65567		 305.27265			43387.38302		65.60400		324.00000 
 43692.65567		 647.54082			43045.11485		219.71600		875.00000 
 43692.65567		 305.27265			43387.38302		65.60400		324.00000 
 43692.65567		 647.54082			43045.11485		219.71600		875.00000 
 43692.65567		 305.27265			43387.38302		65.60400		324.00000 
 43692.65567		 647.54082			43045.11485		219.71600		875.00000 
 43692.65567		 305.27265			43387.38302		65.60400		324.00000 
 43692.65567		 647.54082			43045.11485		219.71600		875.00000 
 43692.65567		 305.27265			43387.38302		65.60400		324.00000 
 43692.65567		 647.54082			43045.11485		219.71600		875.00000 
 43692.65567		 305.27265			43387.38302		65.60400		324.00000 
 43692.65567		 647.54082			43045.11485		219.71600		875.00000 
 43692.65567		 305.27265			43387.38302		65.60400		324.00000 
 43692.65567		 647.54082			43045.11485		219.71600		875.00000 
 43692.65567		 305.27265			43387.38302		65.60400		324.00000 
 43692.65567		 647.54082			43045.11485		219.71600		875.00000 
 43692.65567		 305.27265			43387.38302		65.60400		324.00000 
 43692.65567		 647.54082			43045.11485		219.71600		875.00000 
 43692.65567		 305.27265			43387.38302		65.60400		324.00000 
 43692.65567		 647.54082			43045.11485		219.71600		875.00000 
 43692.65567		 305.27265			43387.38302		65.60400		324.00000 
 43692.65567		 647.54082			43045.11485		219.71600		875.00000 
 43692.65567		 305.27265			43387.38302		65.60400		324.00000 
 43692.65567		 647.54082			43045.11485		219.71600		875.00000 
 43692.65567		 305.27265			43387.38302		65.60400		324.00000 
 43692.65567		 647.54082			43045.11485		219.71600		875.00000 
 43692.65567		 305.27265			43387.38302		65.60400		324.00000 
 43692.65567		 647.54082			43045.11485		219.71600		875.00000 
 43692.65567		 305.27265			43387.38302		65.60400		324.00000 
 43692.65567		 647.54082			43045.11485		219.71600		875.00000 
 43692.65567		 305.27265			43387.38302		65.60400		324.00000 
 43692.65567		 647.54082			43045.11485		219.71600		875.00000 
 43692.65567		 305.27265			43387.38302		65.60400		324.00000 
 43692.65567		 647.54082			43045.11485		219.71600		875.00000 
 43692.65567		 305.27265			43387.38302		65.60400		324.00000 
 43692.65567		 647.54082			43045.11485		219.71600		875.00000 
 43692.65567		 305.27265			43387.38302		65.60400		324.00000 
 43692.65567		 647.54082			43045.11485		219.71600		875.00000 
 43692.65567		 305.27265			43387.38302		65.60400		324.00000 
 43692.65567		 647.54082			43045.11485		219.71600		875.00000 
 43692.65567		 305.27265			43387.38302		65.60400		324.00000 
 43692.65567		 647.54082			43045.11485		219.71600		875.00000 
 43692.65567		 305.27265			43387.38302		65.60400		324.00000 
 43692.65567		 647.54082			43045.11485		219.71600		875.00000 
 43692.65567		 305.27265			43387.38302		65.60400		324.00000 
 43692.65567		 647.54082			43045.11485		219.71600		875.00000 
 43692.65567		 305.27265			43387.38302		65.60400		324.00000 
 43692.65567		 647.54082			43045.11485		219.71600		875.00000 
 43692.65567		 305.27265			43387.38302		65.60400		324.00000 
 43692.65567		 647.54082			43045.11485		219.71600		875.00000 
 43692.65567		 305.27265			43387.38302		65.60400		324.00000 
 43692.65567		 647.54082			43045.11485		219.71600		875.00000 
 43692.65567		 305.27265			43387.38302		65.60400		324.00000 
 43692.65567		 647.54082			43045.11485		219.71600		875.00000 
 43692.65567		 305.27265			43387.38302		65.60400		324.00000 
 43692.65567		 647.54082			43045.11485		219.71600		875.00000 
 43692.65567		 305.27265			43387.38302		65.60400		324.00000 
 43692.65567		 647.54082			43045.11485		219.71600		875.00000 
 43692.65567		 305.27265			43387.38302		65.60400		324.00000 
 43692.65567		 647.54082			43045.11485		219.71600		875.00000 
 43692.65567		 305.27265			43387.38302		65.60400		324.00000 
 43692.65567		 647.54082			43045.11485		219.71600		875.00000 
 43692.65567		 305.27265			43387.38302		65.60400		324.00000 
 43692.65567		 647.54082			43045.11485		219.71600		875.00000 
 43692.65567		 305.27265			43387.38302		65.60400		324.00000 
 43692.65567		 647.54082			43045.11485		219.71600		875.00000 
 43692.65567		 305.27265			43387.38302		65.60400		324.00000 
 43692.65567		 647.54082			43045.11485		219.71600		875.00000 
 43692.65567		 305.27265			43387.38302		65.60400		324.00000 
 43692.65567		 647.54082			43045.11485		219.71600		875.00000 
 43692.65567		 305.27265			43387.38302		65.60400		324.00000 
 43692.65567		 647.54082			43045.11485		219.71600		875.00000 
 43692.65567		 305.27265			43387.38302		65.60400		324.00000 
 43692.65567		 647.54082			43045.11485		219.71600		875.00000 
 43692.65567		 305.27265			43387.38302		65.60400		324.00000 
 43692.65567		 647.54082			43045.11485		219.71600		875.00000 
 43692.65567		 305.27265			43387.38302		65.60400		324.00000 
 43692.65567		 647.54082			43045.11485		219.71600		875.00000 
 43692.65567		 305.27265			43387.38302		65.60400		324.00000 
 43692.65567		 647.54082			43045.11485		219.71600		875.00000 
 43692.65567		 305.27265			43387.38302		65.60400		324.00000 
 43692.65567		 647.54082			43045.11485		219.71600		875.00000 
 43692.65567		 305.27265			43387.38302		65.60400		324.00000 
 43692.65567		 647.54082			43045.11485		219.71600		875.00000 
 43692.65567		 305.27265			43387.38302		65.60400		324.00000 
 43692.65567		 647.54082			43045.11485		219.71600		875.00000 
 43692.65567		 305.27265			43387.38302		65.60400		324.00000 
 43692.65567		 647.54082			43045.11485		219.71600		875.00000 
 43692.65567		 305.27265			43387.38302		65.60400		324.00000 
 43692.65567		 647.54082			43045.11485		219.71600		875.00000 
 43692.65567		 305.27265			43387.38302		65.60400		324.00000 
 43692.65567		 647.54082			43045.11485		219.71600		875.00000 
 43692.65567		 305.27265			43387.38302		65.60400		324.00000 
 43692.65567		 647.54082			43045.11485		219.71600		875.00000 
 43692.65567		 305.27265			43387.38302		65.60400		324.00000 
 43692.65567		 647.54082			43045.11485		219.71600		875.00000 
 43692.65567		 305.27265			43387.38302		65.60400		324.00000 
 43692.65567		 647.54082			43045.11485		219.71600		875.00000 
 43692.65567		 305.27265			43387.38302		65.60400		324.00000 
 43692.65567		 647.54082			43045.11485		219.71600		875.00000 
 43692.65567		 305.27265			43387.38302		65.60400		324.00000 
 43692.65567		 647.54082			43045.11485		219.71600		875.00000 
 43692.65567		 305.27265			43387.38302		65.60400		324.00000 
 43692.65567		 647.54082			43045.11485		219.71600		875.00000 
 43692.65567		 305.27265			43387.38302		65.60400		324.00000 
 43692.65567		 647.54082			43045.11485		219.71600		875.00000 
 43692.65567		 305.27265			43387.38302		65.60400		324.00000 
 43692.65567		 647.54082			43045.11485		219.71600		875.00000 
 43692.65567		 305.27265			43387.38302		65.60400		324.00000 
 43692.65567		 647.54082			43045.11485		219.71600		875.00000 
 43692.65567		 305.27265			43387.38302		65.60400		324.00000 
 43692.65567		 647.54082			43045.11485		219.71600		875.00000 
 43692.65567		 305.27265			43387.38302		65.60400		324.00000 
 43692.65567		 647.54082			43045.11485		219.71600		875.00000 
 43692.65567		 305.27265			43387.38302		65.60400		324.00000 
 43692.65567		 647.54082			43045.11485		220.50000		875.00000 
 43692.65567		 305.27265			43387.38302		65.60400		324.00000 
 43692.65567		 647.54082			43045.11485		220.50000		875.00000 
 43692.65567		 305.27265			43387.38302		65.60400		324.00000 
 43692.65567		 647.54082			43045.11485		220.50000		875.00000 
 43692.65567		 305.27265			43387.38302		65.60400		324.00000 
 43692.65567		 647.54082			43045.11485		220.50000		875.00000 
 43692.65567		 305.27265			43387.38302		65.60400		324.00000 
 43692.65567		 647.54082			43045.11485		220.50000		875.00000 
 43692.65567		 305.27265			43387.38302		65.60400		324.00000 
 43692.65567		 647.54082			43045.11485		220.50000		875.00000 
 43692.65567		 305.27265			43387.38302		65.60400		324.00000 
 43692.65567		 647.54082			43045.11485		220.50000		875.00000 
 43692.65567		 305.27265			43387.38302		65.60400		324.00000 
 43692.65567		 647.54082			43045.11485		220.50000		875.00000 
 43692.65567		 305.27265			43387.38302		65.60400		324.00000 
 43692.65567		 647.54082			43045.11485		220.50000		875.00000 
 43692.65567		 305.27265			43387.38302		65.60400		324.00000 
 43692.65567		 647.54082			43045.11485		220.50000		875.00000 
 43692.65567		 305.27265			43387.38302		65.60400		324.00000 
 43692.65567		 647.54082			43045.11485		220.50000		875.00000 
 43692.65567		 305.27265			43387.38302		65.60400		324.00000 
 43692.65567		 647.54082			43045.11485		220.50000		875.00000 
 43692.65567		 305.27265			43387.38302		65.60400		324.00000 
 43692.65567		 647.54082			43045.11485		220.50000		875.00000 
 43692.65567		 305.27265			43387.38302		65.60400		324.00000 
 43692.65567		 647.54082			43045.11485		220.50000		875.00000 
 43692.65567		 305.27265			43387.38302		65.60400		324.00000 
 43692.65567		 647.54082			43045.11485		220.50000		875.00000 
 43692.65567		 305.27265			43387.38302		65.60400		324.00000 
 43692.65567		 647.54082			43045.11485		220.50000		875.00000 
 43692.65567		 305.27265			43387.38302		65.60400		324.00000 
 43692.65567		 647.54082			43045.11485		220.50000		875.00000 
 43692.65567		 305.27265			43387.38302		65.60400		324.00000 
 43692.65567		 647.54082			43045.11485		220.50000		875.00000 
 43692.65567		 305.27265			43387.38302		65.60400		324.00000 
 43692.65567		 647.54082			43045.11485		220.50000		875.00000 
 43692.65567		 305.27265			43387.38302		65.60400		324.00000 
 43692.65567		 647.54082			43045.11485		220.50000		875.00000 
 43692.65567		 305.27265			43387.38302		65.60400		324.00000 
 43692.65567		 647.54082			43045.11485		220.50000		875.00000 
 43692.65567		 305.27265			43387.38302		65.60400		324.00000 
 43692.65567		 647.54082			43045.11485		220.50000		875.00000 
 43692.65567		 305.27265			43387.38302		65.60400		324.00000 
 43692.65567		 647.54082			43045.11485		220.50000		875.00000 
 43692.65567		 305.27265			43387.38302		65.60400		324.00000 
 43692.65567		 647.54082			43045.11485		220.50000		875.00000 
 43692.65567		 305.27265			43387.38302		65.60400		324.00000 
 43692.65567		 647.54082			43045.11485		220.50000		875.00000 
 43692.65567		 305.27265			43387.38302		65.60400		324.00000 
 43692.65567		 647.54082			43045.11485		220.50000		875.00000 
 43692.65567		 305.27265			43387.38302		65.60400		324.00000 
 43692.65567		 647.54082			43045.11485		220.50000		875.00000 
 43692.65567		 305.27265			43387.38302		65.60400		324.00000 
 43692.65567		 647.54082			43045.11485		220.50000		875.00000 
 43692.65567		 305.27265			43387.38302		65.60400		324.00000 
 43692.65567		 647.54082			43045.11485		220.50000		875.00000 
 43692.65567		 305.27265			43387.38302		65.60400		324.00000 
 43692.65567		 647.54082			43045.11485		220.50000		875.00000 
 43692.65567		 305.27265			43387.38302		65.60400		324.00000 
 43692.65567		 647.54082			43045.11485		220.50000		875.00000 
 43692.65567		 305.27265			43387.38302		65.60400		324.00000 
 43692.65567		 647.54082			43045.11485		220.50000		875.00000 
 43692.65567		 305.27265			43387.38302		65.60400		324.00000 
 43692.65567		 647.54082			43045.11485		220.50000		875.00000 
 43692.65567		 305.27265			43387.38302		65.60400		324.00000 
 43692.65567		 647.54082			43045.11485		220.50000		875.00000 
 43692.65567		 305.27265			43387.38302		65.60400		324.00000 
 43692.65567		 647.54082			43045.11485		220.50000		875.00000 
 43692.65567		 305.27265			43387.38302		65.60400		324.00000 
 43692.65567		 647.54082			43045.11485		220.50000		875.00000 
 43692.65567		 305.27265			43387.38302		65.60400		324.00000 
 43692.65567		 647.54082			43045.11485		220.50000		875.00000 
 43692.65567		 305.27265			43387.38302		65.60400		324.00000 
 43692.65567		 647.54082			43045.11485		220.50000		875.00000 
 43692.65567		 305.27265			43387.38302		65.60400		324.00000 
 43692.65567		 647.54082			43045.11485		220.50000		875.00000 
 43692.65567		 305.27265			43387.38302		65.60400		324.00000 
 43692.65567		 647.54082			43045.11485		220.50000		875.00000 
 43692.65567		 305.27265			43387.38302		65.60400		324.00000 
 43692.65567		 647.54082			43045.11485		220.50000		875.00000 
 43692.65567		 305.27265			43387.38302		65.60400		324.00000 
 43692.65567		 647.54082			43045.11485		220.50000		875.00000 
 43692.65567		 305.27265			43387.38302		65.60400		324.00000 
 43692.65567		 647.54082			43045.11485		220.50000		875.00000 
 43692.65567		 305.27265			43387.38302		65.60400		324.00000 
 43692.65567		 647.54082			43045.11485		220.50000		875.00000 
 43692.65567		 305.27265			43387.38302		65.60400		324.00000 
 43692.65567		 647.54082			43045.11485		220.50000		875.00000 
 43692.65567		 305.27265			43387.38302		65.60400		324.00000 
 43692.65567		 647.54082			43045.11485		220.50000		875.00000 
 43692.65567		 305.27265			43387.38302		65.60400		324.00000 
 43692.65567		 647.54082			43045.11485		220.50000		875.00000 
 43692.65567		 305.27265			43387.38302		65.60400		324.00000 
 43692.65567		 647.54082			43045.11485		220.50000		875.00000 
 43692.65567		 305.27265			43387.38302		65.60400		324.00000 
 43692.65567		 647.54082			43045.11485		220.50000		875.00000 
 43692.65567		 305.27265			43387.38302		65.60400		324.00000 
 43692.65567		 647.54082			43045.11485		220.50000		875.00000 
 43692.65567		 305.27265			43387.38302		65.60400		324.00000 
 43692.65567		 647.54082			43045.11485		220.50000		875.00000 
 43692.65567		 305.27265			43387.38302		65.60400		324.00000 
 43692.65567		 647.54082			43045.11485		220.50000		875.00000 
 43692.65567		 305.27265			43387.38302		65.60400		324.00000 
 43692.65567		 647.54082			43045.11485		220.50000		875.00000 
 43692.65567		 305.27265			43387.38302		65.60400		324.00000 
 43692.65567		 647.54082			43045.11485		220.50000		875.00000 
 43692.65567		 305.27265			43387.38302		65.60400		324.00000 
 43692.65567		 647.54082			43045.11485		220.50000		875.00000 
 43692.65567		 305.27265			43387.38302		65.60400		324.00000 
 43692.65567		 647.54082			43045.11485		220.50000		875.00000 
 43692.65567		 305.27265			43387.38302		65.60400		324.00000 
 43692.65567		 647.54082			43045.11485		220.50000		875.00000 
 43692.65567		 305.27265			43387.38302		65.60400		324.00000 
 43692.65567		 647.54082			43045.11485		220.50000		875.00000 
 43692.65567		 305.27265			43387.38302		65.60400		324.00000 
 43692.65567		 647.54082			43045.11485		220.50000		875.00000 
 43692.65567		 305.27265			43387.38302		65.60400		324.00000 
 43692.65567		 647.54082			43045.11485		220.50000		875.00000 
 43692.65567		 305.27265			43387.38302		65.60400		324.00000 
 43692.65567		 647.54082			43045.11485		220.50000		875.00000 
 43692.65567		 305.27265			43387.38302		65.60400		324.00000 
 43692.65567		 647.54082			43045.11485		220.50000		875.00000 
 43692.65567		 305.27265			43387.38302		65.60400		324.00000 
 43692.65567		 647.54082			43045.11485		220.50000		875.00000 
 43692.65567		 305.27265			43387.38302		65.60400		324.00000 
 43692.65567		 647.54082			43045.11485		219.90200		875.00000 
 43692.65567		 305.27265			43387.38302		65.60400		324.00000 
 43692.65567		 647.54082			43045.11485		219.90200		875.00000 
 43692.65567		 305.27265			43387.38302		65.60400		324.00000 
 43692.65567		 647.54082			43045.11485		219.90200		875.00000 
 43692.65567		 305.27265			43387.38302		65.60400		324.00000 
 43692.65567		 647.54082			43045.11485		219.90200		875.00000 
 43692.65567		 305.27265			43387.38302		65.60400		324.00000 
 43692.65567		 647.54082			43045.11485		219.90200		875.00000 
 43692.65567		 305.27265			43387.38302		65.60400		324.00000 
 43692.65567		 647.54082			43045.11485		219.90200		875.00000 
 43692.65567		 305.27265			43387.38302		65.60400		324.00000 
 43692.65567		 647.54082			43045.11485		219.90200		875.00000 
 43692.65567		 305.27265			43387.38302		65.60400		324.00000 
 43692.65567		 647.54082			43045.11485		219.90200		875.00000 
 43692.65567		 305.27265			43387.38302		65.60400		324.00000 
 43692.65567		 647.54082			43045.11485		219.90200		875.00000 
 43692.65567		 305.27265			43387.38302		65.60400		324.00000 
 43692.65567		 647.54082			43045.11485		219.90200		875.00000 
 43692.65567		 305.27265			43387.38302		65.60400		324.00000 
 43692.65567		 647.54082			43045.11485		219.90200		875.00000 
 43692.65567		 305.27265			43387.38302		65.60400		324.00000 
 43692.65567		 647.54082			43045.11485		219.90200		875.00000 
 43692.65567		 305.27265			43387.38302		65.60400		324.00000 
 43692.65567		 647.54082			43045.11485		219.90200		875.00000 
 43692.65567		 305.27265			43387.38302		65.60400		324.00000 
 43692.65567		 647.54082			43045.11485		219.90200		875.00000 
 43692.65567		 305.27265			43387.38302		65.60400		324.00000 
 43692.65567		 647.54082			43045.11485		219.90200		875.00000 
 43692.65567		 305.27265			43387.38302		65.60400		324.00000 
 43692.65567		 647.54082			43045.11485		219.90200		875.00000 
 43692.65567		 305.27265			43387.38302		65.60400		324.00000 
 43692.65567		 647.54082			43045.11485		219.90200		875.00000 
 43692.65567		 305.27265			43387.38302		65.60400		324.00000 
 43692.65567		 647.54082			43045.11485		219.90200		875.00000 
 43692.65567		 305.27265			43387.38302		65.60400		324.00000 
 43692.65567		 647.54082			43045.11485		219.90200		875.00000 
 43692.65567		 305.27265			43387.38302		65.60400		324.00000 
 43692.65567		 647.54082			43045.11485		219.90200		875.00000 
 43692.65567		 305.27265			43387.38302		65.60400		324.00000 
 43692.65567		 647.54082			43045.11485		219.90200		875.00000 
 43692.65567		 305.27265			43387.38302		65.60400		324.00000 
 43692.65567		 647.54082			43045.11485		219.90200		875.00000 
 43692.65567		 305.27265			43387.38302		65.60400		324.00000 
 43692.65567		 647.54082			43045.11485		219.90200		875.00000 
 43692.65567		 305.27265			43387.38302		65.60400		324.00000 
 43692.65567		 647.54082			43045.11485		219.90200		875.00000 
 43692.65567		 305.27265			43387.38302		65.60400		324.00000 
 43692.65567		 647.54082			43045.11485		219.90200		875.00000 
 43692.65567		 305.27265			43387.38302		65.60400		324.00000 
 43692.65567		 647.54082			43045.11485		219.90200		875.00000 
 43692.65567		 305.27265			43387.38302		65.60400		324.00000 
 43692.65567		 647.54082			43045.11485		219.90200		875.00000 
 43692.65567		 305.27265			43387.38302		65.60400		324.00000 
 43692.65567		 647.54082			43045.11485		219.90200		875.00000 
 43692.65567		 305.27265			43387.38302		65.60400		324.00000 
 43692.65567		 647.54082			43045.11485		219.90200		875.00000 
 43692.65567		 305.27265			43387.38302		65.60400		324.00000 
 43692.65567		 647.54082			43045.11485		219.90200		875.00000 
 43692.65567		 305.27265			43387.38302		65.60400		324.00000 
 43692.65567		 574.02715			43118.62852		219.90200		875.00000 
 43692.65567		 305.27265			43387.38302		65.60400		324.00000 
 43692.65567		 537.27032			43155.38535		219.90200		875.00000 
 43692.65567		 305.27265			43387.38302		65.60400		324.00000 
 43692.65567		 537.27032			43155.38535		219.90200		875.00000 
 43692.65567		 305.27265			43387.38302		65.60400		324.00000 
 43692.65567		 537.27032			43155.38535		219.90200		875.00000 
 43692.65567		 305.27265			43387.38302		65.60400		324.00000 
 43692.65567		 537.27032			43155.38535		219.90200		875.00000 
 43692.65567		 305.27265			43387.38302		65.60400		324.00000 
 43692.65567		 537.27032			43155.38535		219.90200		875.00000 
 43692.65567		 305.27265			43387.38302		65.60400		324.00000 
 43692.65567		 537.27032			43155.38535		219.90200		875.00000 
 43692.65567		 305.27265			43387.38302		65.60400		324.00000 
 43692.65567		 537.27032			43155.38535		219.90200		875.00000 
 43692.65567		 305.27265			43387.38302		65.60400		324.00000 
 43692.65567		 537.27032			43155.38535		219.90200		875.00000 
 43692.65567		 305.27265			43387.38302		65.60400		324.00000 
 43692.65567		 537.27032			43155.38535		219.90200		875.00000 
 43692.65567		 305.27265			43387.38302		65.60400		324.00000 
 43692.65567		 537.27032			43155.38535		219.90200		875.00000 
 43692.65567		 305.27265			43387.38302		65.60400		324.00000 
 43692.65567		 537.27032			43155.38535		219.90200		875.00000 
 43692.65567		 305.27265			43387.38302		65.60400		324.00000 
 43692.65567		 537.27032			43155.38535		219.90200		875.00000 
 43692.65567		 305.27265			43387.38302		65.60400		324.00000 
 43692.65567		 537.27032			43155.38535		219.90200		875.00000 
 43692.65567		 305.27265			43387.38302		65.60400		324.00000 
 43692.65567		 537.27032			43155.38535		219.90200		875.00000 
 43692.65567		 305.27265			43387.38302		65.60400		324.00000 
 43692.65567		 537.27032			43155.38535		219.90200		875.00000 
 43692.65567		 305.27265			43387.38302		65.60400		324.00000 
 43692.65567		 537.27032			43155.38535		219.90200		875.00000 
 43692.65567		 305.27265			43387.38302		65.60400		324.00000 
 43692.65567		 537.27032			43155.38535		219.90200		875.00000 
 43692.65567		 305.27265			43387.38302		65.60400		324.00000 
 43692.65567		 537.27032			43155.38535		219.90200		875.00000 
 43692.65567		 305.27265			43387.38302		65.60400		324.00000 
 43692.65567		 537.27032			43155.38535		219.90200		875.00000 
 43692.65567		 305.27265			43387.38302		65.60400		324.00000 
 43692.65567		 537.27032			43155.38535		219.90200		875.00000 
 43692.65567		 305.27265			43387.38302		65.60400		324.00000 
 43692.65567		 525.81365			43166.84203		219.90200		875.00000 
 43692.65567		 305.27265			43387.38302		65.60400		324.00000 
 43692.65567		 525.81365			43166.84203		184.23800		875.00000 
 43692.65567		 261.35540			43431.30027		65.60400		324.00000 
 43692.65567		 261.35540			43431.30027		184.23800		875.00000 
 43692.65567		 261.35540			43431.30027		65.60400		324.00000 
