Memory Total (MiB) 	 Memory Used (MiB) 	    Memory Free (MiB) 	 Power Drawed (W) 	 Clocks (Mhz) 	 
 43692.65567		 261.35540			43431.30027		221.10000		875.00000 
 43692.65567		 261.35540			43431.30027		67.62400		324.00000 
 43692.65567		 261.35540			43431.30027		221.10000		875.00000 
 43692.65567		 261.35540			43431.30027		67.62400		324.00000 
 43692.65567		 261.35540			43431.30027		221.10000		875.00000 
 43692.65567		 261.35540			43431.30027		67.62400		324.00000 
 43692.65567		 261.35540			43431.30027		221.10000		875.00000 
 43692.65567		 261.35540			43431.30027		67.62400		324.00000 
 43692.65567		 261.35540			43431.30027		221.10000		875.00000 
 43692.65567		 261.35540			43431.30027		67.62400		324.00000 
 43692.65567		 261.35540			43431.30027		221.10000		875.00000 
 43692.65567		 261.35540			43431.30027		67.62400		324.00000 
 43692.65567		 261.35540			43431.30027		221.10000		875.00000 
 43692.65567		 261.35540			43431.30027		67.62400		324.00000 
 43692.65567		 261.35540			43431.30027		165.78400		875.00000 
 43692.65567		 261.35540			43431.30027		67.62400		324.00000 
 43692.65567		 261.35540			43431.30027		165.78400		875.00000 
 43692.65567		 261.35540			43431.30027		67.62400		324.00000 
 43692.65567		 261.35540			43431.30027		165.78400		875.00000 
 43692.65567		 261.35540			43431.30027		67.62400		324.00000 
 43692.65567		 261.35540			43431.30027		165.78400		875.00000 
 43692.65567		 261.35540			43431.30027		67.62400		324.00000 
 43692.65567		 261.35540			43431.30027		165.78400		875.00000 
 43692.65567		 261.35540			43431.30027		67.62400		324.00000 
 43692.65567		 261.35540			43431.30027		165.78400		875.00000 
 43692.65567		 261.35540			43431.30027		67.62400		324.00000 
 43692.65567		 261.35540			43431.30027		165.78400		875.00000 
 43692.65567		 261.35540			43431.30027		67.62400		324.00000 
 43692.65567		 261.35540			43431.30027		165.78400		875.00000 
 43692.65567		 261.35540			43431.30027		67.62400		324.00000 
 43692.65567		 261.35540			43431.30027		165.78400		875.00000 
 43692.65567		 261.35540			43431.30027		67.62400		324.00000 
 43692.65567		 261.35540			43431.30027		165.78400		875.00000 
 43692.65567		 261.35540			43431.30027		67.62400		324.00000 
 43692.65567		 261.35540			43431.30027		165.78400		875.00000 
 43692.65567		 261.35540			43431.30027		67.62400		324.00000 
 43692.65567		 265.17429			43427.48138		165.78400		875.00000 
 43692.65567		 261.35540			43431.30027		67.62400		324.00000 
 43692.65567		 265.17429			43427.48138		165.78400		875.00000 
 43692.65567		 261.35540			43431.30027		67.62400		324.00000 
 43692.65567		 272.81207			43419.84360		165.78400		875.00000 
 43692.65567		 261.35540			43431.30027		67.62400		324.00000 
 43692.65567		 272.81207			43419.84360		165.78400		875.00000 
 43692.65567		 261.35540			43431.30027		67.62400		324.00000 
 43692.65567		 272.81207			43419.84360		165.78400		875.00000 
 43692.65567		 265.17429			43427.48138		67.62400		324.00000 
 43692.65567		 272.81207			43419.84360		165.78400		875.00000 
 43692.65567		 265.17429			43427.48138		67.62400		324.00000 
 43692.65567		 272.81207			43419.84360		165.78400		875.00000 
 43692.65567		 272.81207			43419.84360		67.62400		324.00000 
 43692.65567		 272.81207			43419.84360		165.78400		875.00000 
 43692.65567		 272.81207			43419.84360		67.62400		324.00000 
 43692.65567		 272.81207			43419.84360		165.78400		875.00000 
 43692.65567		 272.81207			43419.84360		67.62400		324.00000 
 43692.65567		 272.81207			43419.84360		165.78400		875.00000 
 43692.65567		 305.27265			43387.38302		67.62400		324.00000 
 43692.65567		 305.27265			43387.38302		165.78400		875.00000 
 43692.65567		 305.27265			43387.38302		67.62400		324.00000 
 43692.65567		 305.27265			43387.38302		165.78400		875.00000 
 43692.65567		 305.27265			43387.38302		67.62400		324.00000 
 43692.65567		 305.27265			43387.38302		165.78400		875.00000 
 43692.65567		 305.27265			43387.38302		67.62400		324.00000 
 43692.65567		 305.27265			43387.38302		165.78400		875.00000 
 43692.65567		 305.27265			43387.38302		67.62400		324.00000 
 43692.65567		 305.27265			43387.38302		165.78400		875.00000 
 43692.65567		 305.27265			43387.38302		67.62400		324.00000 
 43692.65567		 310.04627			43382.60941		165.78400		875.00000 
 43692.65567		 305.27265			43387.38302		67.62400		324.00000 
 43692.65567		 311.00099			43381.65468		165.78400		875.00000 
 43692.65567		 305.27265			43387.38302		67.62400		324.00000 
 43692.65567		 311.00099			43381.65468		165.78400		875.00000 
 43692.65567		 305.27265			43387.38302		67.62400		324.00000 
 43692.65567		 311.00099			43381.65468		165.78400		875.00000 
 43692.65567		 305.27265			43387.38302		67.62400		324.00000 
 43692.65567		 311.00099			43381.65468		165.78400		875.00000 
 43692.65567		 305.27265			43387.38302		67.62400		324.00000 
 43692.65567		 311.00099			43381.65468		165.78400		875.00000 
 43692.65567		 305.27265			43387.38302		67.62400		324.00000 
 43692.65567		 311.00099			43381.65468		165.78400		875.00000 
 43692.65567		 305.27265			43387.38302		67.62400		324.00000 
 43692.65567		 311.00099			43381.65468		144.14400		875.00000 
 43692.65567		 305.27265			43387.38302		67.62400		324.00000 
 43692.65567		 311.00099			43381.65468		144.14400		875.00000 
 43692.65567		 305.27265			43387.38302		67.62400		324.00000 
 43692.65567		 311.00099			43381.65468		144.14400		875.00000 
 43692.65567		 305.27265			43387.38302		67.62400		324.00000 
 43692.65567		 311.00099			43381.65468		144.14400		875.00000 
 43692.65567		 305.27265			43387.38302		67.62400		324.00000 
 43692.65567		 311.00099			43381.65468		144.14400		875.00000 
 43692.65567		 305.27265			43387.38302		67.62400		324.00000 
 43692.65567		 311.00099			43381.65468		144.14400		875.00000 
 43692.65567		 305.27265			43387.38302		67.62400		324.00000 
 43692.65567		 311.00099			43381.65468		144.14400		875.00000 
 43692.65567		 305.27265			43387.38302		67.62400		324.00000 
 43692.65567		 311.00099			43381.65468		144.14400		875.00000 
 43692.65567		 305.27265			43387.38302		67.62400		324.00000 
 43692.65567		 311.00099			43381.65468		144.14400		875.00000 
 43692.65567		 305.27265			43387.38302		67.62400		324.00000 
 43692.65567		 311.00099			43381.65468		144.14400		875.00000 
 43692.65567		 305.27265			43387.38302		67.62400		324.00000 
 43692.65567		 311.00099			43381.65468		144.14400		875.00000 
 43692.65567		 305.27265			43387.38302		67.62400		324.00000 
 43692.65567		 311.00099			43381.65468		144.14400		875.00000 
 43692.65567		 305.27265			43387.38302		67.62400		324.00000 
 43692.65567		 311.00099			43381.65468		144.14400		875.00000 
 43692.65567		 305.27265			43387.38302		67.62400		324.00000 
 43692.65567		 311.00099			43381.65468		144.14400		875.00000 
 43692.65567		 305.27265			43387.38302		67.62400		324.00000 
 43692.65567		 311.00099			43381.65468		144.14400		875.00000 
 43692.65567		 305.27265			43387.38302		67.62400		324.00000 
 43692.65567		 311.00099			43381.65468		144.14400		875.00000 
 43692.65567		 305.27265			43387.38302		67.62400		324.00000 
 43692.65567		 311.00099			43381.65468		144.14400		875.00000 
 43692.65567		 305.27265			43387.38302		67.62400		324.00000 
 43692.65567		 311.00099			43381.65468		144.14400		875.00000 
 43692.65567		 305.27265			43387.38302		67.62400		324.00000 
 43692.65567		 311.00099			43381.65468		144.14400		875.00000 
 43692.65567		 305.27265			43387.38302		67.62400		324.00000 
 43692.65567		 311.00099			43381.65468		144.14400		875.00000 
 43692.65567		 305.27265			43387.38302		67.62400		324.00000 
 43692.65567		 311.00099			43381.65468		144.14400		875.00000 
 43692.65567		 305.27265			43387.38302		67.62400		324.00000 
 43692.65567		 311.00099			43381.65468		144.14400		875.00000 
 43692.65567		 305.27265			43387.38302		67.62400		324.00000 
 43692.65567		 311.00099			43381.65468		144.14400		875.00000 
 43692.65567		 305.27265			43387.38302		67.62400		324.00000 
 43692.65567		 311.00099			43381.65468		144.14400		875.00000 
 43692.65567		 305.27265			43387.38302		67.62400		324.00000 
 43692.65567		 311.00099			43381.65468		144.14400		875.00000 
 43692.65567		 305.27265			43387.38302		67.62400		324.00000 
 43692.65567		 311.00099			43381.65468		144.14400		875.00000 
 43692.65567		 305.27265			43387.38302		67.62400		324.00000 
 43692.65567		 311.00099			43381.65468		144.14400		875.00000 
 43692.65567		 305.27265			43387.38302		67.62400		324.00000 
 43692.65567		 311.00099			43381.65468		144.14400		875.00000 
 43692.65567		 305.27265			43387.38302		67.62400		324.00000 
 43692.65567		 311.00099			43381.65468		144.14400		875.00000 
 43692.65567		 305.27265			43387.38302		67.62400		324.00000 
 43692.65567		 311.00099			43381.65468		135.94000		875.00000 
 43692.65567		 305.27265			43387.38302		67.62400		324.00000 
 43692.65567		 311.00099			43381.65468		135.94000		875.00000 
 43692.65567		 305.27265			43387.38302		67.62400		324.00000 
 43692.65567		 311.00099			43381.65468		135.94000		875.00000 
 43692.65567		 305.27265			43387.38302		67.62400		324.00000 
 43692.65567		 311.00099			43381.65468		135.94000		875.00000 
 43692.65567		 305.27265			43387.38302		67.62400		324.00000 
 43692.65567		 311.00099			43381.65468		135.94000		875.00000 
 43692.65567		 305.27265			43387.38302		67.62400		324.00000 
 43692.65567		 311.00099			43381.65468		135.94000		875.00000 
 43692.65567		 305.27265			43387.38302		67.62400		324.00000 
 43692.65567		 311.00099			43381.65468		135.94000		875.00000 
 43692.65567		 305.27265			43387.38302		67.62400		324.00000 
 43692.65567		 311.00099			43381.65468		135.94000		875.00000 
 43692.65567		 305.27265			43387.38302		67.62400		324.00000 
 43692.65567		 311.00099			43381.65468		135.94000		875.00000 
 43692.65567		 305.27265			43387.38302		67.62400		324.00000 
 43692.65567		 311.00099			43381.65468		135.94000		875.00000 
 43692.65567		 305.27265			43387.38302		67.62400		324.00000 
 43692.65567		 311.00099			43381.65468		135.94000		875.00000 
 43692.65567		 305.27265			43387.38302		67.62400		324.00000 
 43692.65567		 311.00099			43381.65468		135.94000		875.00000 
 43692.65567		 305.27265			43387.38302		64.65000		324.00000 
 43692.65567		 311.00099			43381.65468		135.94000		875.00000 
 43692.65567		 305.27265			43387.38302		64.65000		324.00000 
 43692.65567		 311.00099			43381.65468		135.94000		875.00000 
 43692.65567		 305.27265			43387.38302		64.65000		324.00000 
 43692.65567		 311.00099			43381.65468		135.94000		875.00000 
 43692.65567		 305.27265			43387.38302		64.65000		324.00000 
 43692.65567		 311.00099			43381.65468		135.94000		875.00000 
 43692.65567		 305.27265			43387.38302		64.65000		324.00000 
 43692.65567		 314.81988			43377.83579		135.94000		875.00000 
 43692.65567		 305.27265			43387.38302		64.65000		324.00000 
 43692.65567		 314.81988			43377.83579		135.94000		875.00000 
 43692.65567		 305.27265			43387.38302		64.65000		324.00000 
 43692.65567		 314.81988			43377.83579		135.94000		875.00000 
 43692.65567		 305.27265			43387.38302		64.65000		324.00000 
 43692.65567		 318.63877			43374.01690		135.94000		875.00000 
 43692.65567		 305.27265			43387.38302		64.65000		324.00000 
 43692.65567		 322.45767			43370.19801		135.94000		875.00000 
 43692.65567		 305.27265			43387.38302		64.65000		324.00000 
 43692.65567		 326.27656			43366.37912		135.94000		875.00000 
 43692.65567		 305.27265			43387.38302		64.65000		324.00000 
 43692.65567		 326.27656			43366.37912		135.94000		875.00000 
 43692.65567		 305.27265			43387.38302		64.65000		324.00000 
 43692.65567		 326.27656			43366.37912		135.94000		875.00000 
 43692.65567		 305.27265			43387.38302		64.65000		324.00000 
 43692.65567		 537.27032			43155.38535		135.94000		875.00000 
 43692.65567		 305.27265			43387.38302		64.65000		324.00000 
 43692.65567		 583.09702			43109.55865		135.94000		875.00000 
 43692.65567		 305.27265			43387.38302		64.65000		324.00000 
 43692.65567		 674.75042			43017.90525		135.94000		875.00000 
 43692.65567		 305.27265			43387.38302		64.65000		324.00000 
 43692.65567		 674.75042			43017.90525		135.94000		875.00000 
 43692.65567		 305.27265			43387.38302		64.65000		324.00000 
 43692.65567		 674.75042			43017.90525		135.94000		875.00000 
 43692.65567		 305.27265			43387.38302		64.65000		324.00000 
 43692.65567		 674.75042			43017.90525		135.94000		875.00000 
 43692.65567		 305.27265			43387.38302		64.65000		324.00000 
 43692.65567		 674.75042			43017.90525		135.94000		875.00000 
 43692.65567		 305.27265			43387.38302		64.65000		324.00000 
 43692.65567		 674.75042			43017.90525		135.94000		875.00000 
 43692.65567		 305.27265			43387.38302		64.65000		324.00000 
 43692.65567		 674.75042			43017.90525		135.94000		875.00000 
 43692.65567		 305.27265			43387.38302		64.65000		324.00000 
 43692.65567		 674.75042			43017.90525		135.94000		875.00000 
 43692.65567		 305.27265			43387.38302		64.65000		324.00000 
 43692.65567		 674.75042			43017.90525		135.94000		875.00000 
 43692.65567		 305.27265			43387.38302		64.65000		324.00000 
 43692.65567		 674.75042			43017.90525		135.94000		875.00000 
 43692.65567		 305.27265			43387.38302		64.65000		324.00000 
 43692.65567		 674.75042			43017.90525		135.94000		875.00000 
 43692.65567		 305.27265			43387.38302		64.65000		324.00000 
 43692.65567		 674.75042			43017.90525		135.94000		875.00000 
 43692.65567		 305.27265			43387.38302		64.65000		324.00000 
 43692.65567		 674.75042			43017.90525		135.94000		875.00000 
 43692.65567		 305.27265			43387.38302		64.65000		324.00000 
 43692.65567		 674.75042			43017.90525		135.94000		875.00000 
 43692.65567		 305.27265			43387.38302		64.65000		324.00000 
 43692.65567		 674.75042			43017.90525		135.94000		875.00000 
 43692.65567		 305.27265			43387.38302		64.65000		324.00000 
 43692.65567		 674.75042			43017.90525		152.08000		875.00000 
 43692.65567		 305.27265			43387.38302		64.65000		324.00000 
 43692.65567		 674.75042			43017.90525		152.08000		875.00000 
 43692.65567		 305.27265			43387.38302		64.65000		324.00000 
 43692.65567		 674.75042			43017.90525		152.08000		875.00000 
 43692.65567		 305.27265			43387.38302		64.65000		324.00000 
 43692.65567		 674.75042			43017.90525		152.08000		875.00000 
 43692.65567		 305.27265			43387.38302		64.65000		324.00000 
 43692.65567		 674.75042			43017.90525		152.08000		875.00000 
 43692.65567		 305.27265			43387.38302		64.65000		324.00000 
 43692.65567		 674.75042			43017.90525		152.08000		875.00000 
 43692.65567		 305.27265			43387.38302		64.65000		324.00000 
 43692.65567		 674.75042			43017.90525		152.08000		875.00000 
 43692.65567		 305.27265			43387.38302		64.65000		324.00000 
 43692.65567		 674.75042			43017.90525		152.08000		875.00000 
 43692.65567		 305.27265			43387.38302		64.65000		324.00000 
 43692.65567		 674.75042			43017.90525		152.08000		875.00000 
 43692.65567		 305.27265			43387.38302		64.65000		324.00000 
 43692.65567		 674.75042			43017.90525		152.08000		875.00000 
 43692.65567		 305.27265			43387.38302		64.65000		324.00000 
 43692.65567		 674.75042			43017.90525		152.08000		875.00000 
 43692.65567		 305.27265			43387.38302		64.65000		324.00000 
 43692.65567		 674.75042			43017.90525		152.08000		875.00000 
 43692.65567		 305.27265			43387.38302		64.65000		324.00000 
 43692.65567		 674.75042			43017.90525		152.08000		875.00000 
 43692.65567		 305.27265			43387.38302		64.65000		324.00000 
 43692.65567		 674.75042			43017.90525		152.08000		875.00000 
 43692.65567		 305.27265			43387.38302		64.65000		324.00000 
 43692.65567		 674.75042			43017.90525		152.08000		875.00000 
 43692.65567		 305.27265			43387.38302		64.65000		324.00000 
 43692.65567		 674.75042			43017.90525		152.08000		875.00000 
 43692.65567		 305.27265			43387.38302		64.65000		324.00000 
 43692.65567		 674.75042			43017.90525		152.08000		875.00000 
 43692.65567		 305.27265			43387.38302		64.65000		324.00000 
 43692.65567		 674.75042			43017.90525		152.08000		875.00000 
 43692.65567		 305.27265			43387.38302		64.65000		324.00000 
 43692.65567		 674.75042			43017.90525		152.08000		875.00000 
 43692.65567		 305.27265			43387.38302		64.65000		324.00000 
 43692.65567		 674.75042			43017.90525		152.08000		875.00000 
 43692.65567		 305.27265			43387.38302		64.65000		324.00000 
 43692.65567		 674.75042			43017.90525		152.08000		875.00000 
 43692.65567		 305.27265			43387.38302		64.65000		324.00000 
 43692.65567		 674.75042			43017.90525		152.08000		875.00000 
 43692.65567		 305.27265			43387.38302		64.65000		324.00000 
 43692.65567		 674.75042			43017.90525		152.08000		875.00000 
 43692.65567		 305.27265			43387.38302		64.65000		324.00000 
 43692.65567		 674.75042			43017.90525		152.08000		875.00000 
 43692.65567		 305.27265			43387.38302		64.65000		324.00000 
 43692.65567		 674.75042			43017.90525		152.08000		875.00000 
 43692.65567		 305.27265			43387.38302		64.65000		324.00000 
 43692.65567		 674.75042			43017.90525		152.08000		875.00000 
 43692.65567		 305.27265			43387.38302		64.65000		324.00000 
 43692.65567		 674.75042			43017.90525		152.08000		875.00000 
 43692.65567		 305.27265			43387.38302		64.65000		324.00000 
 43692.65567		 674.75042			43017.90525		152.08000		875.00000 
 43692.65567		 305.27265			43387.38302		64.65000		324.00000 
 43692.65567		 674.75042			43017.90525		152.08000		875.00000 
 43692.65567		 305.27265			43387.38302		64.65000		324.00000 
 43692.65567		 674.75042			43017.90525		152.08000		875.00000 
 43692.65567		 305.27265			43387.38302		64.65000		324.00000 
 43692.65567		 674.75042			43017.90525		152.08000		875.00000 
 43692.65567		 305.27265			43387.38302		64.65000		324.00000 
 43692.65567		 674.75042			43017.90525		152.08000		875.00000 
 43692.65567		 305.27265			43387.38302		64.65000		324.00000 
 43692.65567		 674.75042			43017.90525		152.08000		875.00000 
 43692.65567		 305.27265			43387.38302		64.65000		324.00000 
 43692.65567		 674.75042			43017.90525		152.08000		875.00000 
 43692.65567		 305.27265			43387.38302		64.65000		324.00000 
 43692.65567		 674.75042			43017.90525		152.08000		875.00000 
 43692.65567		 305.27265			43387.38302		64.65000		324.00000 
 43692.65567		 674.75042			43017.90525		152.08000		875.00000 
 43692.65567		 305.27265			43387.38302		64.65000		324.00000 
 43692.65567		 674.75042			43017.90525		152.08000		875.00000 
 43692.65567		 305.27265			43387.38302		64.65000		324.00000 
 43692.65567		 674.75042			43017.90525		152.08000		875.00000 
 43692.65567		 305.27265			43387.38302		64.65000		324.00000 
 43692.65567		 674.75042			43017.90525		152.08000		875.00000 
 43692.65567		 305.27265			43387.38302		64.65000		324.00000 
 43692.65567		 674.75042			43017.90525		152.08000		875.00000 
 43692.65567		 305.27265			43387.38302		64.65000		324.00000 
 43692.65567		 674.75042			43017.90525		152.08000		875.00000 
 43692.65567		 305.27265			43387.38302		64.65000		324.00000 
 43692.65567		 674.75042			43017.90525		152.08000		875.00000 
 43692.65567		 305.27265			43387.38302		64.65000		324.00000 
 43692.65567		 674.75042			43017.90525		152.08000		875.00000 
 43692.65567		 305.27265			43387.38302		64.65000		324.00000 
 43692.65567		 674.75042			43017.90525		152.08000		875.00000 
 43692.65567		 305.27265			43387.38302		64.65000		324.00000 
 43692.65567		 674.75042			43017.90525		152.08000		875.00000 
 43692.65567		 305.27265			43387.38302		64.65000		324.00000 
 43692.65567		 674.75042			43017.90525		152.08000		875.00000 
 43692.65567		 305.27265			43387.38302		64.65000		324.00000 
 43692.65567		 674.75042			43017.90525		152.08000		875.00000 
 43692.65567		 305.27265			43387.38302		64.65000		324.00000 
 43692.65567		 674.75042			43017.90525		152.08000		875.00000 
 43692.65567		 305.27265			43387.38302		64.65000		324.00000 
 43692.65567		 674.75042			43017.90525		152.08000		875.00000 
 43692.65567		 305.27265			43387.38302		64.65000		324.00000 
 43692.65567		 674.75042			43017.90525		152.08000		875.00000 
 43692.65567		 305.27265			43387.38302		64.65000		324.00000 
 43692.65567		 674.75042			43017.90525		152.08000		875.00000 
 43692.65567		 305.27265			43387.38302		64.65000		324.00000 
 43692.65567		 674.75042			43017.90525		152.08000		875.00000 
 43692.65567		 305.27265			43387.38302		64.65000		324.00000 
 43692.65567		 674.75042			43017.90525		152.08000		875.00000 
 43692.65567		 305.27265			43387.38302		64.65000		324.00000 
 43692.65567		 674.75042			43017.90525		152.08000		875.00000 
 43692.65567		 305.27265			43387.38302		64.65000		324.00000 
 43692.65567		 674.75042			43017.90525		152.08000		875.00000 
 43692.65567		 305.27265			43387.38302		64.65000		324.00000 
 43692.65567		 674.75042			43017.90525		152.08000		875.00000 
 43692.65567		 305.27265			43387.38302		64.65000		324.00000 
 43692.65567		 674.75042			43017.90525		152.08000		875.00000 
 43692.65567		 305.27265			43387.38302		64.65000		324.00000 
 43692.65567		 674.75042			43017.90525		152.08000		875.00000 
 43692.65567		 305.27265			43387.38302		64.65000		324.00000 
 43692.65567		 674.75042			43017.90525		152.08000		875.00000 
 43692.65567		 305.27265			43387.38302		64.65000		324.00000 
 43692.65567		 674.75042			43017.90525		152.08000		875.00000 
 43692.65567		 305.27265			43387.38302		64.65000		324.00000 
 43692.65567		 674.75042			43017.90525		152.08000		875.00000 
 43692.65567		 305.27265			43387.38302		64.65000		324.00000 
 43692.65567		 674.75042			43017.90525		152.08000		875.00000 
 43692.65567		 305.27265			43387.38302		64.65000		324.00000 
 43692.65567		 674.75042			43017.90525		152.08000		875.00000 
 43692.65567		 305.27265			43387.38302		64.65000		324.00000 
 43692.65567		 674.75042			43017.90525		152.08000		875.00000 
 43692.65567		 305.27265			43387.38302		64.65000		324.00000 
 43692.65567		 674.75042			43017.90525		194.02200		875.00000 
 43692.65567		 305.27265			43387.38302		64.65000		324.00000 
 43692.65567		 674.75042			43017.90525		194.02200		875.00000 
 43692.65567		 305.27265			43387.38302		64.65000		324.00000 
 43692.65567		 674.75042			43017.90525		194.02200		875.00000 
 43692.65567		 305.27265			43387.38302		64.65000		324.00000 
 43692.65567		 674.75042			43017.90525		194.02200		875.00000 
 43692.65567		 305.27265			43387.38302		64.65000		324.00000 
 43692.65567		 674.75042			43017.90525		194.02200		875.00000 
 43692.65567		 305.27265			43387.38302		64.65000		324.00000 
 43692.65567		 674.75042			43017.90525		194.02200		875.00000 
 43692.65567		 305.27265			43387.38302		64.65000		324.00000 
 43692.65567		 674.75042			43017.90525		194.02200		875.00000 
 43692.65567		 305.27265			43387.38302		64.65000		324.00000 
 43692.65567		 674.75042			43017.90525		194.02200		875.00000 
 43692.65567		 305.27265			43387.38302		64.65000		324.00000 
 43692.65567		 674.75042			43017.90525		194.02200		875.00000 
 43692.65567		 305.27265			43387.38302		64.65000		324.00000 
 43692.65567		 674.75042			43017.90525		194.02200		875.00000 
 43692.65567		 305.27265			43387.38302		64.65000		324.00000 
 43692.65567		 674.75042			43017.90525		194.02200		875.00000 
 43692.65567		 305.27265			43387.38302		64.65000		324.00000 
 43692.65567		 674.75042			43017.90525		194.02200		875.00000 
 43692.65567		 305.27265			43387.38302		64.65000		324.00000 
 43692.65567		 674.75042			43017.90525		194.02200		875.00000 
 43692.65567		 305.27265			43387.38302		64.65000		324.00000 
 43692.65567		 674.75042			43017.90525		194.02200		875.00000 
 43692.65567		 305.27265			43387.38302		64.65000		324.00000 
 43692.65567		 674.75042			43017.90525		194.02200		875.00000 
 43692.65567		 305.27265			43387.38302		64.65000		324.00000 
 43692.65567		 674.75042			43017.90525		194.02200		875.00000 
 43692.65567		 305.27265			43387.38302		64.65000		324.00000 
 43692.65567		 674.75042			43017.90525		194.02200		875.00000 
 43692.65567		 305.27265			43387.38302		64.65000		324.00000 
 43692.65567		 674.75042			43017.90525		194.02200		875.00000 
 43692.65567		 305.27265			43387.38302		64.65000		324.00000 
 43692.65567		 674.75042			43017.90525		194.02200		875.00000 
 43692.65567		 305.27265			43387.38302		64.65000		324.00000 
 43692.65567		 674.75042			43017.90525		194.02200		875.00000 
 43692.65567		 305.27265			43387.38302		64.65000		324.00000 
 43692.65567		 674.75042			43017.90525		194.02200		875.00000 
 43692.65567		 305.27265			43387.38302		64.65000		324.00000 
 43692.65567		 674.75042			43017.90525		194.02200		875.00000 
 43692.65567		 305.27265			43387.38302		64.65000		324.00000 
 43692.65567		 674.75042			43017.90525		194.02200		875.00000 
 43692.65567		 305.27265			43387.38302		64.65000		324.00000 
 43692.65567		 674.75042			43017.90525		194.02200		875.00000 
 43692.65567		 305.27265			43387.38302		64.65000		324.00000 
 43692.65567		 674.75042			43017.90525		194.02200		875.00000 
 43692.65567		 305.27265			43387.38302		64.65000		324.00000 
 43692.65567		 674.75042			43017.90525		194.02200		875.00000 
 43692.65567		 305.27265			43387.38302		64.65000		324.00000 
 43692.65567		 674.75042			43017.90525		194.02200		875.00000 
 43692.65567		 305.27265			43387.38302		64.65000		324.00000 
 43692.65567		 674.75042			43017.90525		194.02200		875.00000 
 43692.65567		 305.27265			43387.38302		64.65000		324.00000 
 43692.65567		 674.75042			43017.90525		194.02200		875.00000 
 43692.65567		 305.27265			43387.38302		64.65000		324.00000 
 43692.65567		 674.75042			43017.90525		194.02200		875.00000 
 43692.65567		 305.27265			43387.38302		64.65000		324.00000 
 43692.65567		 674.75042			43017.90525		194.02200		875.00000 
 43692.65567		 305.27265			43387.38302		64.65000		324.00000 
 43692.65567		 674.75042			43017.90525		194.02200		875.00000 
 43692.65567		 305.27265			43387.38302		64.65000		324.00000 
 43692.65567		 674.75042			43017.90525		194.02200		875.00000 
 43692.65567		 305.27265			43387.38302		64.65000		324.00000 
 43692.65567		 674.75042			43017.90525		194.02200		875.00000 
 43692.65567		 305.27265			43387.38302		64.65000		324.00000 
 43692.65567		 674.75042			43017.90525		194.02200		875.00000 
 43692.65567		 305.27265			43387.38302		64.65000		324.00000 
 43692.65567		 674.75042			43017.90525		194.02200		875.00000 
 43692.65567		 305.27265			43387.38302		64.65000		324.00000 
 43692.65567		 674.75042			43017.90525		194.02200		875.00000 
 43692.65567		 305.27265			43387.38302		64.65000		324.00000 
 43692.65567		 674.75042			43017.90525		194.02200		875.00000 
 43692.65567		 305.27265			43387.38302		64.65000		324.00000 
 43692.65567		 674.75042			43017.90525		194.02200		875.00000 
 43692.65567		 305.27265			43387.38302		64.65000		324.00000 
 43692.65567		 674.75042			43017.90525		194.02200		875.00000 
 43692.65567		 305.27265			43387.38302		64.65000		324.00000 
 43692.65567		 674.75042			43017.90525		194.02200		875.00000 
 43692.65567		 305.27265			43387.38302		64.65000		324.00000 
 43692.65567		 674.75042			43017.90525		194.02200		875.00000 
 43692.65567		 305.27265			43387.38302		64.65000		324.00000 
 43692.65567		 674.75042			43017.90525		194.02200		875.00000 
 43692.65567		 305.27265			43387.38302		64.65000		324.00000 
 43692.65567		 674.75042			43017.90525		194.02200		875.00000 
 43692.65567		 305.27265			43387.38302		64.65000		324.00000 
 43692.65567		 674.75042			43017.90525		194.02200		875.00000 
 43692.65567		 305.27265			43387.38302		64.65000		324.00000 
 43692.65567		 674.75042			43017.90525		194.02200		875.00000 
 43692.65567		 305.27265			43387.38302		64.65000		324.00000 
 43692.65567		 674.75042			43017.90525		194.02200		875.00000 
 43692.65567		 305.27265			43387.38302		64.65000		324.00000 
 43692.65567		 674.75042			43017.90525		194.02200		875.00000 
 43692.65567		 305.27265			43387.38302		64.65000		324.00000 
 43692.65567		 674.75042			43017.90525		194.02200		875.00000 
 43692.65567		 305.27265			43387.38302		64.65000		324.00000 
 43692.65567		 674.75042			43017.90525		194.02200		875.00000 
 43692.65567		 305.27265			43387.38302		64.65000		324.00000 
 43692.65567		 674.75042			43017.90525		194.02200		875.00000 
 43692.65567		 305.27265			43387.38302		64.65000		324.00000 
 43692.65567		 674.75042			43017.90525		194.02200		875.00000 
 43692.65567		 305.27265			43387.38302		64.65000		324.00000 
 43692.65567		 674.75042			43017.90525		194.02200		875.00000 
 43692.65567		 305.27265			43387.38302		64.65000		324.00000 
 43692.65567		 674.75042			43017.90525		194.02200		875.00000 
 43692.65567		 305.27265			43387.38302		64.65000		324.00000 
 43692.65567		 674.75042			43017.90525		194.02200		875.00000 
 43692.65567		 305.27265			43387.38302		64.65000		324.00000 
 43692.65567		 674.75042			43017.90525		194.02200		875.00000 
 43692.65567		 305.27265			43387.38302		64.65000		324.00000 
 43692.65567		 674.75042			43017.90525		194.02200		875.00000 
 43692.65567		 305.27265			43387.38302		64.65000		324.00000 
 43692.65567		 674.75042			43017.90525		194.02200		875.00000 
 43692.65567		 305.27265			43387.38302		64.65000		324.00000 
 43692.65567		 674.75042			43017.90525		194.02200		875.00000 
 43692.65567		 305.27265			43387.38302		64.65000		324.00000 
 43692.65567		 674.75042			43017.90525		194.02200		875.00000 
 43692.65567		 305.27265			43387.38302		64.65000		324.00000 
 43692.65567		 674.75042			43017.90525		194.02200		875.00000 
 43692.65567		 305.27265			43387.38302		64.65000		324.00000 
 43692.65567		 674.75042			43017.90525		194.02200		875.00000 
 43692.65567		 305.27265			43387.38302		64.65000		324.00000 
 43692.65567		 674.75042			43017.90525		194.02200		875.00000 
 43692.65567		 305.27265			43387.38302		64.65000		324.00000 
 43692.65567		 674.75042			43017.90525		194.02200		875.00000 
 43692.65567		 305.27265			43387.38302		64.65000		324.00000 
 43692.65567		 674.75042			43017.90525		210.96600		875.00000 
 43692.65567		 305.27265			43387.38302		64.65000		324.00000 
 43692.65567		 674.75042			43017.90525		210.96600		875.00000 
 43692.65567		 305.27265			43387.38302		64.65000		324.00000 
 43692.65567		 674.75042			43017.90525		210.96600		875.00000 
 43692.65567		 305.27265			43387.38302		64.65000		324.00000 
 43692.65567		 674.75042			43017.90525		210.96600		875.00000 
 43692.65567		 305.27265			43387.38302		64.65000		324.00000 
 43692.65567		 674.75042			43017.90525		210.96600		875.00000 
 43692.65567		 305.27265			43387.38302		64.65000		324.00000 
 43692.65567		 674.75042			43017.90525		210.96600		875.00000 
 43692.65567		 305.27265			43387.38302		64.65000		324.00000 
 43692.65567		 674.75042			43017.90525		210.96600		875.00000 
 43692.65567		 305.27265			43387.38302		64.65000		324.00000 
 43692.65567		 674.75042			43017.90525		210.96600		875.00000 
 43692.65567		 305.27265			43387.38302		64.65000		324.00000 
 43692.65567		 674.75042			43017.90525		210.96600		875.00000 
 43692.65567		 305.27265			43387.38302		64.65000		324.00000 
 43692.65567		 674.75042			43017.90525		210.96600		875.00000 
 43692.65567		 305.27265			43387.38302		64.65000		324.00000 
 43692.65567		 674.75042			43017.90525		210.96600		875.00000 
 43692.65567		 305.27265			43387.38302		64.65000		324.00000 
 43692.65567		 674.75042			43017.90525		210.96600		875.00000 
 43692.65567		 305.27265			43387.38302		64.65000		324.00000 
 43692.65567		 674.75042			43017.90525		210.96600		875.00000 
 43692.65567		 305.27265			43387.38302		64.65000		324.00000 
 43692.65567		 674.75042			43017.90525		210.96600		875.00000 
 43692.65567		 305.27265			43387.38302		64.65000		324.00000 
 43692.65567		 674.75042			43017.90525		210.96600		875.00000 
 43692.65567		 305.27265			43387.38302		64.65000		324.00000 
 43692.65567		 674.75042			43017.90525		210.96600		875.00000 
 43692.65567		 305.27265			43387.38302		64.65000		324.00000 
 43692.65567		 674.75042			43017.90525		210.96600		875.00000 
 43692.65567		 305.27265			43387.38302		64.65000		324.00000 
 43692.65567		 674.75042			43017.90525		210.96600		875.00000 
 43692.65567		 305.27265			43387.38302		64.65000		324.00000 
 43692.65567		 674.75042			43017.90525		210.96600		875.00000 
 43692.65567		 305.27265			43387.38302		64.65000		324.00000 
 43692.65567		 674.75042			43017.90525		210.96600		875.00000 
 43692.65567		 305.27265			43387.38302		64.65000		324.00000 
 43692.65567		 674.75042			43017.90525		210.96600		875.00000 
 43692.65567		 305.27265			43387.38302		64.65000		324.00000 
 43692.65567		 674.75042			43017.90525		210.96600		875.00000 
 43692.65567		 305.27265			43387.38302		64.65000		324.00000 
 43692.65567		 674.75042			43017.90525		210.96600		875.00000 
 43692.65567		 305.27265			43387.38302		64.65000		324.00000 
 43692.65567		 674.75042			43017.90525		210.96600		875.00000 
 43692.65567		 305.27265			43387.38302		64.65000		324.00000 
 43692.65567		 674.75042			43017.90525		210.96600		875.00000 
 43692.65567		 305.27265			43387.38302		64.65000		324.00000 
 43692.65567		 674.75042			43017.90525		210.96600		875.00000 
 43692.65567		 305.27265			43387.38302		64.65000		324.00000 
 43692.65567		 674.75042			43017.90525		210.96600		875.00000 
 43692.65567		 305.27265			43387.38302		64.65000		324.00000 
 43692.65567		 674.75042			43017.90525		210.96600		875.00000 
 43692.65567		 305.27265			43387.38302		64.65000		324.00000 
 43692.65567		 674.75042			43017.90525		210.96600		875.00000 
 43692.65567		 305.27265			43387.38302		64.65000		324.00000 
 43692.65567		 674.75042			43017.90525		210.96600		875.00000 
 43692.65567		 305.27265			43387.38302		64.65000		324.00000 
 43692.65567		 674.75042			43017.90525		210.96600		875.00000 
 43692.65567		 305.27265			43387.38302		64.65000		324.00000 
 43692.65567		 674.75042			43017.90525		210.96600		875.00000 
 43692.65567		 305.27265			43387.38302		64.65000		324.00000 
 43692.65567		 674.75042			43017.90525		210.96600		875.00000 
 43692.65567		 305.27265			43387.38302		64.65000		324.00000 
 43692.65567		 674.75042			43017.90525		210.96600		875.00000 
 43692.65567		 305.27265			43387.38302		64.65000		324.00000 
 43692.65567		 674.75042			43017.90525		210.96600		875.00000 
 43692.65567		 305.27265			43387.38302		64.65000		324.00000 
 43692.65567		 674.75042			43017.90525		210.96600		875.00000 
 43692.65567		 305.27265			43387.38302		64.65000		324.00000 
 43692.65567		 674.75042			43017.90525		210.96600		875.00000 
 43692.65567		 305.27265			43387.38302		64.65000		324.00000 
 43692.65567		 674.75042			43017.90525		210.96600		875.00000 
 43692.65567		 305.27265			43387.38302		64.65000		324.00000 
 43692.65567		 674.75042			43017.90525		210.96600		875.00000 
 43692.65567		 305.27265			43387.38302		64.65000		324.00000 
 43692.65567		 674.75042			43017.90525		210.96600		875.00000 
 43692.65567		 305.27265			43387.38302		64.65000		324.00000 
 43692.65567		 674.75042			43017.90525		210.96600		875.00000 
 43692.65567		 305.27265			43387.38302		64.65000		324.00000 
 43692.65567		 674.75042			43017.90525		210.96600		875.00000 
 43692.65567		 305.27265			43387.38302		64.65000		324.00000 
 43692.65567		 674.75042			43017.90525		210.96600		875.00000 
 43692.65567		 305.27265			43387.38302		64.65000		324.00000 
 43692.65567		 674.75042			43017.90525		210.96600		875.00000 
 43692.65567		 305.27265			43387.38302		64.65000		324.00000 
 43692.65567		 674.75042			43017.90525		210.96600		875.00000 
 43692.65567		 305.27265			43387.38302		64.65000		324.00000 
 43692.65567		 674.75042			43017.90525		210.96600		875.00000 
 43692.65567		 305.27265			43387.38302		64.65000		324.00000 
 43692.65567		 674.75042			43017.90525		210.96600		875.00000 
 43692.65567		 305.27265			43387.38302		64.65000		324.00000 
 43692.65567		 674.75042			43017.90525		210.96600		875.00000 
 43692.65567		 305.27265			43387.38302		64.65000		324.00000 
 43692.65567		 674.75042			43017.90525		210.96600		875.00000 
 43692.65567		 305.27265			43387.38302		64.65000		324.00000 
 43692.65567		 674.75042			43017.90525		210.96600		875.00000 
 43692.65567		 305.27265			43387.38302		64.65000		324.00000 
 43692.65567		 674.75042			43017.90525		210.96600		875.00000 
 43692.65567		 305.27265			43387.38302		64.65000		324.00000 
 43692.65567		 674.75042			43017.90525		210.96600		875.00000 
 43692.65567		 305.27265			43387.38302		64.65000		324.00000 
 43692.65567		 674.75042			43017.90525		210.96600		875.00000 
 43692.65567		 305.27265			43387.38302		64.65000		324.00000 
 43692.65567		 674.75042			43017.90525		210.96600		875.00000 
 43692.65567		 305.27265			43387.38302		64.65000		324.00000 
 43692.65567		 674.75042			43017.90525		210.96600		875.00000 
 43692.65567		 305.27265			43387.38302		64.65000		324.00000 
 43692.65567		 674.75042			43017.90525		210.96600		875.00000 
 43692.65567		 305.27265			43387.38302		64.65000		324.00000 
 43692.65567		 674.75042			43017.90525		210.96600		875.00000 
 43692.65567		 305.27265			43387.38302		64.65000		324.00000 
 43692.65567		 674.75042			43017.90525		210.96600		875.00000 
 43692.65567		 305.27265			43387.38302		64.65000		324.00000 
 43692.65567		 674.75042			43017.90525		210.96600		875.00000 
 43692.65567		 305.27265			43387.38302		64.65000		324.00000 
 43692.65567		 674.75042			43017.90525		210.96600		875.00000 
 43692.65567		 305.27265			43387.38302		64.65000		324.00000 
 43692.65567		 674.75042			43017.90525		210.96600		875.00000 
 43692.65567		 305.27265			43387.38302		64.65000		324.00000 
 43692.65567		 674.75042			43017.90525		210.96600		875.00000 
 43692.65567		 305.27265			43387.38302		64.65000		324.00000 
 43692.65567		 674.75042			43017.90525		210.96600		875.00000 
 43692.65567		 305.27265			43387.38302		64.65000		324.00000 
 43692.65567		 674.75042			43017.90525		210.96600		875.00000 
 43692.65567		 305.27265			43387.38302		64.65000		324.00000 
 43692.65567		 674.75042			43017.90525		217.75400		875.00000 
 43692.65567		 305.27265			43387.38302		64.65000		324.00000 
 43692.65567		 674.75042			43017.90525		217.75400		875.00000 
 43692.65567		 305.27265			43387.38302		64.65000		324.00000 
 43692.65567		 674.75042			43017.90525		217.75400		875.00000 
 43692.65567		 305.27265			43387.38302		64.65000		324.00000 
 43692.65567		 674.75042			43017.90525		217.75400		875.00000 
 43692.65567		 305.27265			43387.38302		64.65000		324.00000 
 43692.65567		 674.75042			43017.90525		217.75400		875.00000 
 43692.65567		 305.27265			43387.38302		64.65000		324.00000 
 43692.65567		 674.75042			43017.90525		217.75400		875.00000 
 43692.65567		 305.27265			43387.38302		64.65000		324.00000 
 43692.65567		 674.75042			43017.90525		217.75400		875.00000 
 43692.65567		 305.27265			43387.38302		64.65000		324.00000 
 43692.65567		 674.75042			43017.90525		217.75400		875.00000 
 43692.65567		 305.27265			43387.38302		64.65000		324.00000 
 43692.65567		 674.75042			43017.90525		217.75400		875.00000 
 43692.65567		 305.27265			43387.38302		64.65000		324.00000 
 43692.65567		 674.75042			43017.90525		217.75400		875.00000 
 43692.65567		 305.27265			43387.38302		64.65000		324.00000 
 43692.65567		 674.75042			43017.90525		217.75400		875.00000 
 43692.65567		 305.27265			43387.38302		64.65000		324.00000 
 43692.65567		 674.75042			43017.90525		217.75400		875.00000 
 43692.65567		 305.27265			43387.38302		64.65000		324.00000 
 43692.65567		 674.75042			43017.90525		217.75400		875.00000 
 43692.65567		 305.27265			43387.38302		64.65000		324.00000 
 43692.65567		 674.75042			43017.90525		217.75400		875.00000 
 43692.65567		 305.27265			43387.38302		64.65000		324.00000 
 43692.65567		 674.75042			43017.90525		217.75400		875.00000 
 43692.65567		 305.27265			43387.38302		64.65000		324.00000 
 43692.65567		 674.75042			43017.90525		217.75400		875.00000 
 43692.65567		 305.27265			43387.38302		64.65000		324.00000 
 43692.65567		 674.75042			43017.90525		217.75400		875.00000 
 43692.65567		 305.27265			43387.38302		64.65000		324.00000 
 43692.65567		 674.75042			43017.90525		217.75400		875.00000 
 43692.65567		 305.27265			43387.38302		64.65000		324.00000 
 43692.65567		 674.75042			43017.90525		217.75400		875.00000 
 43692.65567		 305.27265			43387.38302		64.65000		324.00000 
 43692.65567		 674.75042			43017.90525		217.75400		875.00000 
 43692.65567		 305.27265			43387.38302		64.65000		324.00000 
 43692.65567		 674.75042			43017.90525		217.75400		875.00000 
 43692.65567		 305.27265			43387.38302		64.65000		324.00000 
 43692.65567		 674.75042			43017.90525		217.75400		875.00000 
 43692.65567		 305.27265			43387.38302		64.65000		324.00000 
 43692.65567		 674.75042			43017.90525		217.75400		875.00000 
 43692.65567		 305.27265			43387.38302		64.65000		324.00000 
 43692.65567		 674.75042			43017.90525		217.75400		875.00000 
 43692.65567		 305.27265			43387.38302		64.65000		324.00000 
 43692.65567		 674.75042			43017.90525		217.75400		875.00000 
 43692.65567		 305.27265			43387.38302		64.65000		324.00000 
 43692.65567		 674.75042			43017.90525		217.75400		875.00000 
 43692.65567		 305.27265			43387.38302		64.65000		324.00000 
 43692.65567		 674.75042			43017.90525		217.75400		875.00000 
 43692.65567		 305.27265			43387.38302		64.65000		324.00000 
 43692.65567		 674.75042			43017.90525		217.75400		875.00000 
 43692.65567		 305.27265			43387.38302		64.65000		324.00000 
 43692.65567		 674.75042			43017.90525		217.75400		875.00000 
 43692.65567		 305.27265			43387.38302		64.65000		324.00000 
 43692.65567		 674.75042			43017.90525		217.75400		875.00000 
 43692.65567		 305.27265			43387.38302		64.65000		324.00000 
 43692.65567		 674.75042			43017.90525		217.75400		875.00000 
 43692.65567		 305.27265			43387.38302		64.65000		324.00000 
 43692.65567		 674.75042			43017.90525		217.75400		875.00000 
 43692.65567		 305.27265			43387.38302		64.65000		324.00000 
 43692.65567		 674.75042			43017.90525		217.75400		875.00000 
 43692.65567		 305.27265			43387.38302		64.65000		324.00000 
 43692.65567		 674.75042			43017.90525		217.75400		875.00000 
 43692.65567		 305.27265			43387.38302		64.65000		324.00000 
 43692.65567		 674.75042			43017.90525		217.75400		875.00000 
 43692.65567		 305.27265			43387.38302		64.65000		324.00000 
 43692.65567		 674.75042			43017.90525		217.75400		875.00000 
 43692.65567		 305.27265			43387.38302		64.65000		324.00000 
 43692.65567		 674.75042			43017.90525		217.75400		875.00000 
 43692.65567		 305.27265			43387.38302		64.65000		324.00000 
 43692.65567		 674.75042			43017.90525		217.75400		875.00000 
 43692.65567		 305.27265			43387.38302		64.65000		324.00000 
 43692.65567		 674.75042			43017.90525		217.75400		875.00000 
 43692.65567		 305.27265			43387.38302		64.65000		324.00000 
 43692.65567		 674.75042			43017.90525		217.75400		875.00000 
 43692.65567		 305.27265			43387.38302		64.65000		324.00000 
 43692.65567		 674.75042			43017.90525		217.75400		875.00000 
 43692.65567		 305.27265			43387.38302		64.65000		324.00000 
 43692.65567		 674.75042			43017.90525		217.75400		875.00000 
 43692.65567		 305.27265			43387.38302		64.65000		324.00000 
 43692.65567		 674.75042			43017.90525		217.75400		875.00000 
 43692.65567		 305.27265			43387.38302		64.65000		324.00000 
 43692.65567		 674.75042			43017.90525		217.75400		875.00000 
 43692.65567		 305.27265			43387.38302		64.65000		324.00000 
 43692.65567		 674.75042			43017.90525		217.75400		875.00000 
 43692.65567		 305.27265			43387.38302		64.65000		324.00000 
 43692.65567		 674.75042			43017.90525		217.75400		875.00000 
 43692.65567		 305.27265			43387.38302		64.65000		324.00000 
 43692.65567		 674.75042			43017.90525		217.75400		875.00000 
 43692.65567		 305.27265			43387.38302		64.65000		324.00000 
 43692.65567		 674.75042			43017.90525		217.75400		875.00000 
 43692.65567		 305.27265			43387.38302		64.65000		324.00000 
 43692.65567		 674.75042			43017.90525		217.75400		875.00000 
 43692.65567		 305.27265			43387.38302		64.65000		324.00000 
 43692.65567		 674.75042			43017.90525		217.75400		875.00000 
 43692.65567		 305.27265			43387.38302		64.65000		324.00000 
 43692.65567		 674.75042			43017.90525		217.75400		875.00000 
 43692.65567		 305.27265			43387.38302		64.65000		324.00000 
 43692.65567		 674.75042			43017.90525		217.75400		875.00000 
 43692.65567		 305.27265			43387.38302		64.65000		324.00000 
 43692.65567		 674.75042			43017.90525		217.75400		875.00000 
 43692.65567		 305.27265			43387.38302		64.65000		324.00000 
 43692.65567		 674.75042			43017.90525		217.75400		875.00000 
 43692.65567		 305.27265			43387.38302		64.65000		324.00000 
 43692.65567		 674.75042			43017.90525		217.75400		875.00000 
 43692.65567		 305.27265			43387.38302		64.65000		324.00000 
 43692.65567		 674.75042			43017.90525		217.75400		875.00000 
 43692.65567		 305.27265			43387.38302		64.65000		324.00000 
 43692.65567		 674.75042			43017.90525		217.75400		875.00000 
 43692.65567		 305.27265			43387.38302		64.65000		324.00000 
 43692.65567		 674.75042			43017.90525		217.75400		875.00000 
 43692.65567		 305.27265			43387.38302		64.65000		324.00000 
 43692.65567		 674.75042			43017.90525		217.75400		875.00000 
 43692.65567		 305.27265			43387.38302		64.65000		324.00000 
 43692.65567		 674.75042			43017.90525		217.75400		875.00000 
 43692.65567		 305.27265			43387.38302		64.65000		324.00000 
 43692.65567		 674.75042			43017.90525		217.75400		875.00000 
 43692.65567		 305.27265			43387.38302		64.65000		324.00000 
 43692.65567		 674.75042			43017.90525		217.75400		875.00000 
 43692.65567		 305.27265			43387.38302		64.65000		324.00000 
 43692.65567		 674.75042			43017.90525		217.75400		875.00000 
 43692.65567		 305.27265			43387.38302		64.65000		324.00000 
 43692.65567		 674.75042			43017.90525		217.75400		875.00000 
 43692.65567		 305.27265			43387.38302		64.65000		324.00000 
 43692.65567		 674.75042			43017.90525		217.75400		875.00000 
 43692.65567		 305.27265			43387.38302		64.65000		324.00000 
 43692.65567		 674.75042			43017.90525		219.12400		875.00000 
 43692.65567		 305.27265			43387.38302		64.65000		324.00000 
 43692.65567		 674.75042			43017.90525		219.12400		875.00000 
 43692.65567		 305.27265			43387.38302		64.65000		324.00000 
 43692.65567		 674.75042			43017.90525		219.12400		875.00000 
 43692.65567		 305.27265			43387.38302		64.65000		324.00000 
 43692.65567		 674.75042			43017.90525		219.12400		875.00000 
 43692.65567		 305.27265			43387.38302		64.65000		324.00000 
 43692.65567		 674.75042			43017.90525		219.12400		875.00000 
 43692.65567		 305.27265			43387.38302		64.65000		324.00000 
 43692.65567		 674.75042			43017.90525		219.12400		875.00000 
 43692.65567		 305.27265			43387.38302		64.65000		324.00000 
 43692.65567		 674.75042			43017.90525		219.12400		875.00000 
 43692.65567		 305.27265			43387.38302		64.65000		324.00000 
 43692.65567		 674.75042			43017.90525		219.12400		875.00000 
 43692.65567		 305.27265			43387.38302		64.65000		324.00000 
 43692.65567		 674.75042			43017.90525		219.12400		875.00000 
 43692.65567		 305.27265			43387.38302		64.65000		324.00000 
 43692.65567		 674.75042			43017.90525		219.12400		875.00000 
 43692.65567		 305.27265			43387.38302		64.65000		324.00000 
 43692.65567		 674.75042			43017.90525		219.12400		875.00000 
 43692.65567		 305.27265			43387.38302		64.65000		324.00000 
 43692.65567		 674.75042			43017.90525		219.12400		875.00000 
 43692.65567		 305.27265			43387.38302		64.65000		324.00000 
 43692.65567		 674.75042			43017.90525		219.12400		875.00000 
 43692.65567		 305.27265			43387.38302		64.65000		324.00000 
 43692.65567		 674.75042			43017.90525		219.12400		875.00000 
 43692.65567		 305.27265			43387.38302		64.65000		324.00000 
 43692.65567		 674.75042			43017.90525		219.12400		875.00000 
 43692.65567		 305.27265			43387.38302		64.65000		324.00000 
 43692.65567		 674.75042			43017.90525		219.12400		875.00000 
 43692.65567		 305.27265			43387.38302		64.65000		324.00000 
 43692.65567		 674.75042			43017.90525		219.12400		875.00000 
 43692.65567		 305.27265			43387.38302		64.65000		324.00000 
 43692.65567		 674.75042			43017.90525		219.12400		875.00000 
 43692.65567		 305.27265			43387.38302		64.65000		324.00000 
 43692.65567		 674.75042			43017.90525		219.12400		875.00000 
 43692.65567		 305.27265			43387.38302		64.65000		324.00000 
 43692.65567		 674.75042			43017.90525		219.12400		875.00000 
 43692.65567		 305.27265			43387.38302		64.65000		324.00000 
 43692.65567		 674.75042			43017.90525		219.12400		875.00000 
 43692.65567		 305.27265			43387.38302		64.65000		324.00000 
 43692.65567		 674.75042			43017.90525		219.12400		875.00000 
 43692.65567		 305.27265			43387.38302		64.65000		324.00000 
 43692.65567		 674.75042			43017.90525		219.12400		875.00000 
 43692.65567		 305.27265			43387.38302		64.65000		324.00000 
 43692.65567		 674.75042			43017.90525		219.12400		875.00000 
 43692.65567		 305.27265			43387.38302		64.65000		324.00000 
 43692.65567		 674.75042			43017.90525		219.12400		875.00000 
 43692.65567		 305.27265			43387.38302		64.65000		324.00000 
 43692.65567		 674.75042			43017.90525		219.12400		875.00000 
 43692.65567		 305.27265			43387.38302		64.65000		324.00000 
 43692.65567		 674.75042			43017.90525		219.12400		875.00000 
 43692.65567		 305.27265			43387.38302		64.65000		324.00000 
 43692.65567		 674.75042			43017.90525		219.12400		875.00000 
 43692.65567		 305.27265			43387.38302		64.65000		324.00000 
 43692.65567		 674.75042			43017.90525		219.12400		875.00000 
 43692.65567		 305.27265			43387.38302		64.65000		324.00000 
 43692.65567		 674.75042			43017.90525		219.12400		875.00000 
 43692.65567		 305.27265			43387.38302		64.65000		324.00000 
 43692.65567		 674.75042			43017.90525		219.12400		875.00000 
 43692.65567		 305.27265			43387.38302		64.65000		324.00000 
 43692.65567		 674.75042			43017.90525		219.12400		875.00000 
 43692.65567		 305.27265			43387.38302		64.65000		324.00000 
 43692.65567		 674.75042			43017.90525		219.12400		875.00000 
 43692.65567		 305.27265			43387.38302		64.65000		324.00000 
 43692.65567		 674.75042			43017.90525		219.12400		875.00000 
 43692.65567		 305.27265			43387.38302		64.65000		324.00000 
 43692.65567		 674.75042			43017.90525		219.12400		875.00000 
 43692.65567		 305.27265			43387.38302		64.65000		324.00000 
 43692.65567		 674.75042			43017.90525		219.12400		875.00000 
 43692.65567		 305.27265			43387.38302		64.65000		324.00000 
 43692.65567		 674.75042			43017.90525		219.12400		875.00000 
 43692.65567		 305.27265			43387.38302		64.65000		324.00000 
 43692.65567		 674.75042			43017.90525		219.12400		875.00000 
 43692.65567		 305.27265			43387.38302		64.65000		324.00000 
 43692.65567		 674.75042			43017.90525		219.12400		875.00000 
 43692.65567		 305.27265			43387.38302		64.65000		324.00000 
 43692.65567		 674.75042			43017.90525		219.12400		875.00000 
 43692.65567		 305.27265			43387.38302		64.65000		324.00000 
 43692.65567		 674.75042			43017.90525		219.12400		875.00000 
 43692.65567		 305.27265			43387.38302		64.65000		324.00000 
 43692.65567		 674.75042			43017.90525		219.12400		875.00000 
 43692.65567		 305.27265			43387.38302		64.65000		324.00000 
 43692.65567		 674.75042			43017.90525		219.12400		875.00000 
 43692.65567		 305.27265			43387.38302		64.65000		324.00000 
 43692.65567		 674.75042			43017.90525		219.12400		875.00000 
 43692.65567		 305.27265			43387.38302		64.65000		324.00000 
 43692.65567		 674.75042			43017.90525		219.12400		875.00000 
 43692.65567		 305.27265			43387.38302		64.65000		324.00000 
 43692.65567		 674.75042			43017.90525		219.12400		875.00000 
 43692.65567		 305.27265			43387.38302		64.65000		324.00000 
 43692.65567		 674.75042			43017.90525		219.12400		875.00000 
 43692.65567		 305.27265			43387.38302		64.65000		324.00000 
 43692.65567		 674.75042			43017.90525		219.12400		875.00000 
 43692.65567		 305.27265			43387.38302		64.65000		324.00000 
 43692.65567		 674.75042			43017.90525		219.12400		875.00000 
 43692.65567		 305.27265			43387.38302		64.65000		324.00000 
 43692.65567		 674.75042			43017.90525		219.12400		875.00000 
 43692.65567		 305.27265			43387.38302		64.65000		324.00000 
 43692.65567		 674.75042			43017.90525		219.12400		875.00000 
 43692.65567		 305.27265			43387.38302		64.65000		324.00000 
 43692.65567		 674.75042			43017.90525		219.12400		875.00000 
 43692.65567		 305.27265			43387.38302		64.65000		324.00000 
 43692.65567		 674.75042			43017.90525		219.12400		875.00000 
 43692.65567		 305.27265			43387.38302		64.65000		324.00000 
 43692.65567		 674.75042			43017.90525		219.12400		875.00000 
 43692.65567		 305.27265			43387.38302		64.65000		324.00000 
 43692.65567		 674.75042			43017.90525		219.12400		875.00000 
 43692.65567		 305.27265			43387.38302		64.65000		324.00000 
 43692.65567		 674.75042			43017.90525		219.12400		875.00000 
 43692.65567		 305.27265			43387.38302		64.65000		324.00000 
 43692.65567		 674.75042			43017.90525		219.12400		875.00000 
 43692.65567		 305.27265			43387.38302		64.65000		324.00000 
 43692.65567		 674.75042			43017.90525		219.12400		875.00000 
 43692.65567		 305.27265			43387.38302		64.65000		324.00000 
 43692.65567		 674.75042			43017.90525		219.12400		875.00000 
 43692.65567		 305.27265			43387.38302		64.65000		324.00000 
 43692.65567		 674.75042			43017.90525		219.12400		875.00000 
 43692.65567		 305.27265			43387.38302		64.65000		324.00000 
 43692.65567		 674.75042			43017.90525		219.12400		875.00000 
 43692.65567		 305.27265			43387.38302		64.65000		324.00000 
 43692.65567		 674.75042			43017.90525		219.12400		875.00000 
 43692.65567		 305.27265			43387.38302		64.65000		324.00000 
 43692.65567		 674.75042			43017.90525		219.12400		875.00000 
 43692.65567		 305.27265			43387.38302		64.65000		324.00000 
 43692.65567		 674.75042			43017.90525		219.12400		875.00000 
 43692.65567		 305.27265			43387.38302		64.65000		324.00000 
 43692.65567		 674.75042			43017.90525		218.70200		875.00000 
 43692.65567		 305.27265			43387.38302		64.65000		324.00000 
 43692.65567		 674.75042			43017.90525		218.70200		875.00000 
 43692.65567		 305.27265			43387.38302		64.65000		324.00000 
 43692.65567		 674.75042			43017.90525		218.70200		875.00000 
 43692.65567		 305.27265			43387.38302		64.65000		324.00000 
 43692.65567		 674.75042			43017.90525		218.70200		875.00000 
 43692.65567		 305.27265			43387.38302		64.65000		324.00000 
 43692.65567		 674.75042			43017.90525		218.70200		875.00000 
 43692.65567		 305.27265			43387.38302		64.65000		324.00000 
 43692.65567		 674.75042			43017.90525		218.70200		875.00000 
 43692.65567		 305.27265			43387.38302		64.65000		324.00000 
 43692.65567		 674.75042			43017.90525		218.70200		875.00000 
 43692.65567		 305.27265			43387.38302		64.65000		324.00000 
 43692.65567		 674.75042			43017.90525		218.70200		875.00000 
 43692.65567		 305.27265			43387.38302		64.65000		324.00000 
 43692.65567		 674.75042			43017.90525		218.70200		875.00000 
 43692.65567		 305.27265			43387.38302		64.65000		324.00000 
 43692.65567		 674.75042			43017.90525		218.70200		875.00000 
 43692.65567		 305.27265			43387.38302		64.65000		324.00000 
 43692.65567		 674.75042			43017.90525		218.70200		875.00000 
 43692.65567		 305.27265			43387.38302		64.65000		324.00000 
 43692.65567		 674.75042			43017.90525		218.70200		875.00000 
 43692.65567		 305.27265			43387.38302		64.65000		324.00000 
 43692.65567		 674.75042			43017.90525		218.70200		875.00000 
 43692.65567		 305.27265			43387.38302		64.65000		324.00000 
 43692.65567		 674.75042			43017.90525		218.70200		875.00000 
 43692.65567		 305.27265			43387.38302		64.65000		324.00000 
 43692.65567		 674.75042			43017.90525		218.70200		875.00000 
 43692.65567		 305.27265			43387.38302		64.65000		324.00000 
 43692.65567		 674.75042			43017.90525		218.70200		875.00000 
 43692.65567		 305.27265			43387.38302		64.65000		324.00000 
 43692.65567		 674.75042			43017.90525		218.70200		875.00000 
 43692.65567		 305.27265			43387.38302		64.65000		324.00000 
 43692.65567		 674.75042			43017.90525		218.70200		875.00000 
 43692.65567		 305.27265			43387.38302		64.65000		324.00000 
 43692.65567		 674.75042			43017.90525		218.70200		875.00000 
 43692.65567		 305.27265			43387.38302		64.65000		324.00000 
 43692.65567		 674.75042			43017.90525		218.70200		875.00000 
 43692.65567		 305.27265			43387.38302		64.65000		324.00000 
 43692.65567		 674.75042			43017.90525		218.70200		875.00000 
 43692.65567		 305.27265			43387.38302		64.65000		324.00000 
 43692.65567		 674.75042			43017.90525		218.70200		875.00000 
 43692.65567		 305.27265			43387.38302		64.65000		324.00000 
 43692.65567		 674.75042			43017.90525		218.70200		875.00000 
 43692.65567		 305.27265			43387.38302		64.65000		324.00000 
 43692.65567		 674.75042			43017.90525		218.70200		875.00000 
 43692.65567		 305.27265			43387.38302		64.65000		324.00000 
 43692.65567		 674.75042			43017.90525		218.70200		875.00000 
 43692.65567		 305.27265			43387.38302		64.65000		324.00000 
 43692.65567		 674.75042			43017.90525		218.70200		875.00000 
 43692.65567		 305.27265			43387.38302		64.65000		324.00000 
 43692.65567		 674.75042			43017.90525		218.70200		875.00000 
 43692.65567		 305.27265			43387.38302		64.65000		324.00000 
 43692.65567		 674.75042			43017.90525		218.70200		875.00000 
 43692.65567		 305.27265			43387.38302		64.65000		324.00000 
 43692.65567		 674.75042			43017.90525		218.70200		875.00000 
 43692.65567		 305.27265			43387.38302		64.65000		324.00000 
 43692.65567		 674.75042			43017.90525		218.70200		875.00000 
 43692.65567		 305.27265			43387.38302		64.65000		324.00000 
 43692.65567		 674.75042			43017.90525		218.70200		875.00000 
 43692.65567		 305.27265			43387.38302		64.65000		324.00000 
 43692.65567		 674.75042			43017.90525		218.70200		875.00000 
 43692.65567		 305.27265			43387.38302		64.65000		324.00000 
 43692.65567		 674.75042			43017.90525		218.70200		875.00000 
 43692.65567		 305.27265			43387.38302		64.65000		324.00000 
 43692.65567		 674.75042			43017.90525		218.70200		875.00000 
 43692.65567		 305.27265			43387.38302		64.65000		324.00000 
 43692.65567		 674.75042			43017.90525		218.70200		875.00000 
 43692.65567		 305.27265			43387.38302		64.65000		324.00000 
 43692.65567		 674.75042			43017.90525		218.70200		875.00000 
 43692.65567		 305.27265			43387.38302		64.65000		324.00000 
 43692.65567		 674.75042			43017.90525		218.70200		875.00000 
 43692.65567		 305.27265			43387.38302		64.65000		324.00000 
 43692.65567		 674.75042			43017.90525		218.70200		875.00000 
 43692.65567		 305.27265			43387.38302		64.65000		324.00000 
 43692.65567		 674.75042			43017.90525		218.70200		875.00000 
 43692.65567		 305.27265			43387.38302		64.65000		324.00000 
 43692.65567		 674.75042			43017.90525		218.70200		875.00000 
 43692.65567		 305.27265			43387.38302		64.65000		324.00000 
 43692.65567		 674.75042			43017.90525		218.70200		875.00000 
 43692.65567		 305.27265			43387.38302		64.65000		324.00000 
 43692.65567		 674.75042			43017.90525		218.70200		875.00000 
 43692.65567		 305.27265			43387.38302		64.65000		324.00000 
 43692.65567		 674.75042			43017.90525		218.70200		875.00000 
 43692.65567		 305.27265			43387.38302		64.65000		324.00000 
 43692.65567		 674.75042			43017.90525		218.70200		875.00000 
 43692.65567		 305.27265			43387.38302		64.65000		324.00000 
 43692.65567		 674.75042			43017.90525		218.70200		875.00000 
 43692.65567		 305.27265			43387.38302		64.65000		324.00000 
 43692.65567		 674.75042			43017.90525		218.70200		875.00000 
 43692.65567		 305.27265			43387.38302		64.65000		324.00000 
 43692.65567		 674.75042			43017.90525		218.70200		875.00000 
 43692.65567		 305.27265			43387.38302		64.65000		324.00000 
 43692.65567		 674.75042			43017.90525		218.70200		875.00000 
 43692.65567		 305.27265			43387.38302		64.65000		324.00000 
 43692.65567		 674.75042			43017.90525		218.70200		875.00000 
 43692.65567		 305.27265			43387.38302		64.65000		324.00000 
 43692.65567		 674.75042			43017.90525		218.70200		875.00000 
 43692.65567		 305.27265			43387.38302		64.65000		324.00000 
 43692.65567		 674.75042			43017.90525		218.70200		875.00000 
 43692.65567		 305.27265			43387.38302		64.65000		324.00000 
 43692.65567		 674.75042			43017.90525		218.70200		875.00000 
 43692.65567		 305.27265			43387.38302		64.65000		324.00000 
 43692.65567		 674.75042			43017.90525		218.70200		875.00000 
 43692.65567		 305.27265			43387.38302		64.65000		324.00000 
 43692.65567		 674.75042			43017.90525		218.70200		875.00000 
 43692.65567		 305.27265			43387.38302		64.65000		324.00000 
 43692.65567		 674.75042			43017.90525		218.70200		875.00000 
 43692.65567		 305.27265			43387.38302		64.65000		324.00000 
 43692.65567		 674.75042			43017.90525		218.70200		875.00000 
 43692.65567		 305.27265			43387.38302		64.65000		324.00000 
 43692.65567		 674.75042			43017.90525		218.70200		875.00000 
 43692.65567		 305.27265			43387.38302		64.65000		324.00000 
 43692.65567		 674.75042			43017.90525		218.70200		875.00000 
 43692.65567		 305.27265			43387.38302		64.65000		324.00000 
 43692.65567		 674.75042			43017.90525		218.70200		875.00000 
 43692.65567		 305.27265			43387.38302		64.65000		324.00000 
 43692.65567		 674.75042			43017.90525		218.70200		875.00000 
 43692.65567		 305.27265			43387.38302		64.65000		324.00000 
 43692.65567		 674.75042			43017.90525		218.70200		875.00000 
 43692.65567		 305.27265			43387.38302		64.65000		324.00000 
 43692.65567		 674.75042			43017.90525		218.70200		875.00000 
 43692.65567		 305.27265			43387.38302		64.65000		324.00000 
 43692.65567		 674.75042			43017.90525		218.70200		875.00000 
 43692.65567		 305.27265			43387.38302		64.65000		324.00000 
 43692.65567		 674.75042			43017.90525		218.70200		875.00000 
 43692.65567		 305.27265			43387.38302		64.65000		324.00000 
 43692.65567		 674.75042			43017.90525		219.66200		875.00000 
 43692.65567		 305.27265			43387.38302		64.65000		324.00000 
 43692.65567		 674.75042			43017.90525		219.66200		875.00000 
 43692.65567		 305.27265			43387.38302		64.65000		324.00000 
 43692.65567		 674.75042			43017.90525		219.66200		875.00000 
 43692.65567		 305.27265			43387.38302		64.65000		324.00000 
 43692.65567		 674.75042			43017.90525		219.66200		875.00000 
 43692.65567		 305.27265			43387.38302		64.65000		324.00000 
 43692.65567		 674.75042			43017.90525		219.66200		875.00000 
 43692.65567		 305.27265			43387.38302		64.65000		324.00000 
 43692.65567		 674.75042			43017.90525		219.66200		875.00000 
 43692.65567		 305.27265			43387.38302		64.65000		324.00000 
 43692.65567		 674.75042			43017.90525		219.66200		875.00000 
 43692.65567		 305.27265			43387.38302		64.65000		324.00000 
 43692.65567		 674.75042			43017.90525		219.66200		875.00000 
 43692.65567		 305.27265			43387.38302		64.65000		324.00000 
 43692.65567		 674.75042			43017.90525		219.66200		875.00000 
 43692.65567		 305.27265			43387.38302		64.65000		324.00000 
 43692.65567		 674.75042			43017.90525		219.66200		875.00000 
 43692.65567		 305.27265			43387.38302		64.65000		324.00000 
 43692.65567		 674.75042			43017.90525		219.66200		875.00000 
 43692.65567		 305.27265			43387.38302		64.65000		324.00000 
 43692.65567		 674.75042			43017.90525		219.66200		875.00000 
 43692.65567		 305.27265			43387.38302		64.65000		324.00000 
 43692.65567		 674.75042			43017.90525		219.66200		875.00000 
 43692.65567		 305.27265			43387.38302		64.65000		324.00000 
 43692.65567		 674.75042			43017.90525		219.66200		875.00000 
 43692.65567		 305.27265			43387.38302		64.65000		324.00000 
 43692.65567		 674.75042			43017.90525		219.66200		875.00000 
 43692.65567		 305.27265			43387.38302		64.65000		324.00000 
 43692.65567		 674.75042			43017.90525		219.66200		875.00000 
 43692.65567		 305.27265			43387.38302		64.65000		324.00000 
 43692.65567		 674.75042			43017.90525		219.66200		875.00000 
 43692.65567		 305.27265			43387.38302		64.65000		324.00000 
 43692.65567		 674.75042			43017.90525		219.66200		875.00000 
 43692.65567		 305.27265			43387.38302		64.65000		324.00000 
 43692.65567		 674.75042			43017.90525		219.66200		875.00000 
 43692.65567		 305.27265			43387.38302		64.65000		324.00000 
 43692.65567		 674.75042			43017.90525		219.66200		875.00000 
 43692.65567		 305.27265			43387.38302		64.65000		324.00000 
 43692.65567		 674.75042			43017.90525		219.66200		875.00000 
 43692.65567		 305.27265			43387.38302		64.65000		324.00000 
 43692.65567		 674.75042			43017.90525		219.66200		875.00000 
 43692.65567		 305.27265			43387.38302		64.65000		324.00000 
 43692.65567		 674.75042			43017.90525		219.66200		875.00000 
 43692.65567		 305.27265			43387.38302		64.65000		324.00000 
 43692.65567		 674.75042			43017.90525		219.66200		875.00000 
 43692.65567		 305.27265			43387.38302		64.65000		324.00000 
 43692.65567		 674.75042			43017.90525		219.66200		875.00000 
 43692.65567		 305.27265			43387.38302		64.65000		324.00000 
 43692.65567		 674.75042			43017.90525		219.66200		875.00000 
 43692.65567		 305.27265			43387.38302		64.65000		324.00000 
 43692.65567		 674.75042			43017.90525		219.66200		875.00000 
 43692.65567		 305.27265			43387.38302		64.65000		324.00000 
 43692.65567		 674.75042			43017.90525		219.66200		875.00000 
 43692.65567		 305.27265			43387.38302		64.65000		324.00000 
 43692.65567		 674.75042			43017.90525		219.66200		875.00000 
 43692.65567		 305.27265			43387.38302		64.65000		324.00000 
 43692.65567		 674.75042			43017.90525		219.66200		875.00000 
 43692.65567		 305.27265			43387.38302		64.65000		324.00000 
 43692.65567		 674.75042			43017.90525		219.66200		875.00000 
 43692.65567		 305.27265			43387.38302		64.65000		324.00000 
 43692.65567		 674.75042			43017.90525		219.66200		875.00000 
 43692.65567		 305.27265			43387.38302		64.65000		324.00000 
 43692.65567		 674.75042			43017.90525		219.66200		875.00000 
 43692.65567		 305.27265			43387.38302		64.65000		324.00000 
 43692.65567		 674.75042			43017.90525		219.66200		875.00000 
 43692.65567		 305.27265			43387.38302		64.65000		324.00000 
 43692.65567		 674.75042			43017.90525		219.66200		875.00000 
 43692.65567		 305.27265			43387.38302		64.65000		324.00000 
 43692.65567		 674.75042			43017.90525		219.66200		875.00000 
 43692.65567		 305.27265			43387.38302		64.65000		324.00000 
 43692.65567		 674.75042			43017.90525		219.66200		875.00000 
 43692.65567		 305.27265			43387.38302		64.65000		324.00000 
 43692.65567		 674.75042			43017.90525		219.66200		875.00000 
 43692.65567		 305.27265			43387.38302		64.65000		324.00000 
 43692.65567		 674.75042			43017.90525		219.66200		875.00000 
 43692.65567		 305.27265			43387.38302		64.65000		324.00000 
 43692.65567		 674.75042			43017.90525		219.66200		875.00000 
 43692.65567		 305.27265			43387.38302		64.65000		324.00000 
 43692.65567		 674.75042			43017.90525		219.66200		875.00000 
 43692.65567		 305.27265			43387.38302		64.65000		324.00000 
 43692.65567		 674.75042			43017.90525		219.66200		875.00000 
 43692.65567		 305.27265			43387.38302		64.65000		324.00000 
 43692.65567		 674.75042			43017.90525		219.66200		875.00000 
 43692.65567		 305.27265			43387.38302		64.65000		324.00000 
 43692.65567		 674.75042			43017.90525		219.66200		875.00000 
 43692.65567		 305.27265			43387.38302		64.65000		324.00000 
 43692.65567		 674.75042			43017.90525		219.66200		875.00000 
 43692.65567		 305.27265			43387.38302		64.65000		324.00000 
 43692.65567		 674.75042			43017.90525		219.66200		875.00000 
 43692.65567		 305.27265			43387.38302		64.65000		324.00000 
 43692.65567		 674.75042			43017.90525		219.66200		875.00000 
 43692.65567		 305.27265			43387.38302		64.65000		324.00000 
 43692.65567		 674.75042			43017.90525		219.66200		875.00000 
 43692.65567		 305.27265			43387.38302		64.65000		324.00000 
 43692.65567		 674.75042			43017.90525		219.66200		875.00000 
 43692.65567		 305.27265			43387.38302		64.65000		324.00000 
 43692.65567		 674.75042			43017.90525		219.66200		875.00000 
 43692.65567		 305.27265			43387.38302		64.65000		324.00000 
 43692.65567		 674.75042			43017.90525		219.66200		875.00000 
 43692.65567		 305.27265			43387.38302		64.65000		324.00000 
 43692.65567		 674.75042			43017.90525		219.66200		875.00000 
 43692.65567		 305.27265			43387.38302		64.65000		324.00000 
 43692.65567		 674.75042			43017.90525		219.66200		875.00000 
 43692.65567		 305.27265			43387.38302		64.65000		324.00000 
 43692.65567		 674.75042			43017.90525		219.66200		875.00000 
 43692.65567		 305.27265			43387.38302		64.65000		324.00000 
 43692.65567		 674.75042			43017.90525		219.66200		875.00000 
 43692.65567		 305.27265			43387.38302		64.65000		324.00000 
 43692.65567		 674.75042			43017.90525		219.66200		875.00000 
 43692.65567		 305.27265			43387.38302		64.65000		324.00000 
 43692.65567		 674.75042			43017.90525		219.66200		875.00000 
 43692.65567		 305.27265			43387.38302		64.65000		324.00000 
 43692.65567		 674.75042			43017.90525		219.66200		875.00000 
 43692.65567		 305.27265			43387.38302		64.65000		324.00000 
 43692.65567		 674.75042			43017.90525		219.66200		875.00000 
 43692.65567		 305.27265			43387.38302		64.65000		324.00000 
 43692.65567		 674.75042			43017.90525		219.66200		875.00000 
 43692.65567		 305.27265			43387.38302		64.65000		324.00000 
 43692.65567		 674.75042			43017.90525		219.66200		875.00000 
 43692.65567		 305.27265			43387.38302		64.65000		324.00000 
 43692.65567		 674.75042			43017.90525		219.66200		875.00000 
 43692.65567		 305.27265			43387.38302		64.65000		324.00000 
 43692.65567		 674.75042			43017.90525		219.66200		875.00000 
 43692.65567		 305.27265			43387.38302		64.65000		324.00000 
 43692.65567		 674.75042			43017.90525		219.66200		875.00000 
 43692.65567		 305.27265			43387.38302		64.65000		324.00000 
 43692.65567		 674.75042			43017.90525		220.26200		875.00000 
 43692.65567		 305.27265			43387.38302		64.65000		324.00000 
 43692.65567		 674.75042			43017.90525		220.26200		875.00000 
 43692.65567		 305.27265			43387.38302		64.65000		324.00000 
 43692.65567		 674.75042			43017.90525		220.26200		875.00000 
 43692.65567		 305.27265			43387.38302		64.65000		324.00000 
 43692.65567		 674.75042			43017.90525		220.26200		875.00000 
 43692.65567		 305.27265			43387.38302		64.65000		324.00000 
 43692.65567		 674.75042			43017.90525		220.26200		875.00000 
 43692.65567		 305.27265			43387.38302		64.65000		324.00000 
 43692.65567		 674.75042			43017.90525		220.26200		875.00000 
 43692.65567		 305.27265			43387.38302		64.65000		324.00000 
 43692.65567		 674.75042			43017.90525		220.26200		875.00000 
 43692.65567		 305.27265			43387.38302		64.65000		324.00000 
 43692.65567		 674.75042			43017.90525		220.26200		875.00000 
 43692.65567		 305.27265			43387.38302		64.65000		324.00000 
 43692.65567		 674.75042			43017.90525		220.26200		875.00000 
 43692.65567		 305.27265			43387.38302		64.65000		324.00000 
 43692.65567		 674.75042			43017.90525		220.26200		875.00000 
 43692.65567		 305.27265			43387.38302		64.65000		324.00000 
 43692.65567		 674.75042			43017.90525		220.26200		875.00000 
 43692.65567		 305.27265			43387.38302		64.65000		324.00000 
 43692.65567		 674.75042			43017.90525		220.26200		875.00000 
 43692.65567		 305.27265			43387.38302		64.65000		324.00000 
 43692.65567		 674.75042			43017.90525		220.26200		875.00000 
 43692.65567		 305.27265			43387.38302		64.65000		324.00000 
 43692.65567		 674.75042			43017.90525		220.26200		875.00000 
 43692.65567		 305.27265			43387.38302		64.65000		324.00000 
 43692.65567		 674.75042			43017.90525		220.26200		875.00000 
 43692.65567		 305.27265			43387.38302		64.65000		324.00000 
 43692.65567		 674.75042			43017.90525		220.26200		875.00000 
 43692.65567		 305.27265			43387.38302		64.65000		324.00000 
 43692.65567		 674.75042			43017.90525		220.26200		875.00000 
 43692.65567		 305.27265			43387.38302		64.65000		324.00000 
 43692.65567		 674.75042			43017.90525		220.26200		875.00000 
 43692.65567		 305.27265			43387.38302		64.65000		324.00000 
 43692.65567		 674.75042			43017.90525		220.26200		875.00000 
 43692.65567		 305.27265			43387.38302		64.65000		324.00000 
 43692.65567		 674.75042			43017.90525		220.26200		875.00000 
 43692.65567		 305.27265			43387.38302		64.65000		324.00000 
 43692.65567		 674.75042			43017.90525		220.26200		875.00000 
 43692.65567		 305.27265			43387.38302		64.65000		324.00000 
 43692.65567		 674.75042			43017.90525		220.26200		875.00000 
 43692.65567		 305.27265			43387.38302		64.65000		324.00000 
 43692.65567		 674.75042			43017.90525		220.26200		875.00000 
 43692.65567		 305.27265			43387.38302		64.65000		324.00000 
 43692.65567		 674.75042			43017.90525		220.26200		875.00000 
 43692.65567		 305.27265			43387.38302		64.65000		324.00000 
 43692.65567		 674.75042			43017.90525		220.26200		875.00000 
 43692.65567		 305.27265			43387.38302		64.65000		324.00000 
 43692.65567		 674.75042			43017.90525		220.26200		875.00000 
 43692.65567		 305.27265			43387.38302		64.65000		324.00000 
 43692.65567		 674.75042			43017.90525		220.26200		875.00000 
 43692.65567		 305.27265			43387.38302		64.65000		324.00000 
 43692.65567		 674.75042			43017.90525		220.26200		875.00000 
 43692.65567		 305.27265			43387.38302		64.65000		324.00000 
 43692.65567		 674.75042			43017.90525		220.26200		875.00000 
 43692.65567		 305.27265			43387.38302		64.65000		324.00000 
 43692.65567		 674.75042			43017.90525		220.26200		875.00000 
 43692.65567		 305.27265			43387.38302		64.65000		324.00000 
 43692.65567		 674.75042			43017.90525		220.26200		875.00000 
 43692.65567		 305.27265			43387.38302		64.65000		324.00000 
 43692.65567		 674.75042			43017.90525		220.26200		875.00000 
 43692.65567		 305.27265			43387.38302		64.65000		324.00000 
 43692.65567		 674.75042			43017.90525		220.26200		875.00000 
 43692.65567		 305.27265			43387.38302		64.65000		324.00000 
 43692.65567		 674.75042			43017.90525		220.26200		875.00000 
 43692.65567		 305.27265			43387.38302		64.65000		324.00000 
 43692.65567		 674.75042			43017.90525		220.26200		875.00000 
 43692.65567		 305.27265			43387.38302		64.65000		324.00000 
 43692.65567		 674.75042			43017.90525		220.26200		875.00000 
 43692.65567		 305.27265			43387.38302		64.65000		324.00000 
 43692.65567		 674.75042			43017.90525		220.26200		875.00000 
 43692.65567		 305.27265			43387.38302		64.65000		324.00000 
 43692.65567		 674.75042			43017.90525		220.26200		875.00000 
 43692.65567		 305.27265			43387.38302		64.65000		324.00000 
 43692.65567		 674.75042			43017.90525		220.26200		875.00000 
 43692.65567		 305.27265			43387.38302		64.65000		324.00000 
 43692.65567		 674.75042			43017.90525		220.26200		875.00000 
 43692.65567		 305.27265			43387.38302		64.65000		324.00000 
 43692.65567		 674.75042			43017.90525		220.26200		875.00000 
 43692.65567		 305.27265			43387.38302		64.65000		324.00000 
 43692.65567		 674.75042			43017.90525		220.26200		875.00000 
 43692.65567		 305.27265			43387.38302		64.65000		324.00000 
 43692.65567		 674.75042			43017.90525		220.26200		875.00000 
 43692.65567		 305.27265			43387.38302		64.65000		324.00000 
 43692.65567		 674.75042			43017.90525		220.26200		875.00000 
 43692.65567		 305.27265			43387.38302		64.65000		324.00000 
 43692.65567		 674.75042			43017.90525		220.26200		875.00000 
 43692.65567		 305.27265			43387.38302		64.65000		324.00000 
 43692.65567		 674.75042			43017.90525		220.26200		875.00000 
 43692.65567		 305.27265			43387.38302		64.65000		324.00000 
 43692.65567		 628.92372			43063.73195		220.26200		875.00000 
 43692.65567		 305.27265			43387.38302		64.65000		324.00000 
 43692.65567		 583.09702			43109.55865		220.26200		875.00000 
 43692.65567		 305.27265			43387.38302		64.65000		324.00000 
 43692.65567		 537.27032			43155.38535		220.26200		875.00000 
 43692.65567		 305.27265			43387.38302		64.65000		324.00000 
 43692.65567		 537.27032			43155.38535		220.26200		875.00000 
 43692.65567		 305.27265			43387.38302		64.65000		324.00000 
 43692.65567		 537.27032			43155.38535		220.26200		875.00000 
 43692.65567		 305.27265			43387.38302		64.65000		324.00000 
 43692.65567		 537.27032			43155.38535		220.26200		875.00000 
 43692.65567		 305.27265			43387.38302		64.65000		324.00000 
 43692.65567		 537.27032			43155.38535		220.26200		875.00000 
 43692.65567		 305.27265			43387.38302		64.65000		324.00000 
 43692.65567		 537.27032			43155.38535		220.26200		875.00000 
 43692.65567		 305.27265			43387.38302		64.65000		324.00000 
 43692.65567		 537.27032			43155.38535		220.26200		875.00000 
 43692.65567		 305.27265			43387.38302		64.65000		324.00000 
 43692.65567		 537.27032			43155.38535		220.26200		875.00000 
 43692.65567		 305.27265			43387.38302		64.65000		324.00000 
 43692.65567		 537.27032			43155.38535		220.26200		875.00000 
 43692.65567		 305.27265			43387.38302		64.65000		324.00000 
 43692.65567		 537.27032			43155.38535		220.26200		875.00000 
 43692.65567		 305.27265			43387.38302		64.65000		324.00000 
 43692.65567		 537.27032			43155.38535		220.26200		875.00000 
 43692.65567		 305.27265			43387.38302		64.65000		324.00000 
 43692.65567		 537.27032			43155.38535		220.26200		875.00000 
 43692.65567		 305.27265			43387.38302		64.65000		324.00000 
 43692.65567		 537.27032			43155.38535		220.26200		875.00000 
 43692.65567		 305.27265			43387.38302		64.65000		324.00000 
 43692.65567		 537.27032			43155.38535		198.15400		875.00000 
 43692.65567		 305.27265			43387.38302		64.65000		324.00000 
 43692.65567		 537.27032			43155.38535		198.15400		875.00000 
 43692.65567		 305.27265			43387.38302		64.65000		324.00000 
 43692.65567		 537.27032			43155.38535		198.15400		875.00000 
 43692.65567		 305.27265			43387.38302		64.65000		324.00000 
 43692.65567		 537.27032			43155.38535		198.15400		875.00000 
 43692.65567		 305.27265			43387.38302		64.65000		324.00000 
 43692.65567		 537.27032			43155.38535		198.15400		875.00000 
 43692.65567		 305.27265			43387.38302		64.65000		324.00000 
 43692.65567		 537.27032			43155.38535		198.15400		875.00000 
 43692.65567		 305.27265			43387.38302		64.65000		324.00000 
 43692.65567		 537.27032			43155.38535		198.15400		875.00000 
 43692.65567		 305.27265			43387.38302		64.65000		324.00000 
 43692.65567		 529.63254			43163.02313		198.15400		875.00000 
 43692.65567		 305.27265			43387.38302		64.65000		324.00000 
 43692.65567		 525.81365			43166.84203		198.15400		875.00000 
 43692.65567		 305.27265			43387.38302		64.65000		324.00000 
 43692.65567		 525.81365			43166.84203		198.15400		875.00000 
 43692.65567		 261.35540			43431.30027		64.65000		324.00000 
