Memory Total (MiB) 	 Memory Used (MiB) 	    Memory Free (MiB) 	 Power Drawed (W) 	 Clocks (Mhz) 	 
 43692.65567		 261.35540			43431.30027		174.55200		875.00000 
 43692.65567		 261.35540			43431.30027		69.65600		324.00000 
 43692.65567		 261.35540			43431.30027		174.55200		875.00000 
 43692.65567		 261.35540			43431.30027		69.65600		324.00000 
 43692.65567		 261.35540			43431.30027		174.55200		875.00000 
 43692.65567		 261.35540			43431.30027		69.65600		324.00000 
 43692.65567		 261.35540			43431.30027		174.55200		875.00000 
 43692.65567		 261.35540			43431.30027		69.65600		324.00000 
 43692.65567		 261.35540			43431.30027		174.55200		875.00000 
 43692.65567		 261.35540			43431.30027		69.65600		324.00000 
 43692.65567		 261.35540			43431.30027		174.55200		875.00000 
 43692.65567		 261.35540			43431.30027		69.65600		324.00000 
 43692.65567		 261.35540			43431.30027		174.55200		875.00000 
 43692.65567		 261.35540			43431.30027		69.65600		324.00000 
 43692.65567		 261.35540			43431.30027		174.55200		875.00000 
 43692.65567		 261.35540			43431.30027		69.65600		324.00000 
 43692.65567		 261.35540			43431.30027		174.55200		875.00000 
 43692.65567		 261.35540			43431.30027		69.65600		324.00000 
 43692.65567		 261.35540			43431.30027		174.55200		875.00000 
 43692.65567		 261.35540			43431.30027		69.65600		324.00000 
 43692.65567		 261.35540			43431.30027		174.55200		875.00000 
 43692.65567		 261.35540			43431.30027		69.65600		324.00000 
 43692.65567		 261.35540			43431.30027		174.55200		875.00000 
 43692.65567		 261.35540			43431.30027		69.65600		324.00000 
 43692.65567		 261.35540			43431.30027		174.55200		875.00000 
 43692.65567		 261.35540			43431.30027		69.65600		324.00000 
 43692.65567		 261.35540			43431.30027		174.55200		875.00000 
 43692.65567		 261.35540			43431.30027		69.65600		324.00000 
 43692.65567		 261.35540			43431.30027		174.55200		875.00000 
 43692.65567		 261.35540			43431.30027		69.65600		324.00000 
 43692.65567		 261.35540			43431.30027		174.55200		875.00000 
 43692.65567		 261.35540			43431.30027		69.65600		324.00000 
 43692.65567		 261.35540			43431.30027		174.55200		875.00000 
 43692.65567		 261.35540			43431.30027		69.65600		324.00000 
 43692.65567		 261.35540			43431.30027		174.55200		875.00000 
 43692.65567		 261.35540			43431.30027		69.65600		324.00000 
 43692.65567		 265.17429			43427.48138		147.50000		875.00000 
 43692.65567		 261.35540			43431.30027		69.65600		324.00000 
 43692.65567		 265.17429			43427.48138		147.50000		875.00000 
 43692.65567		 261.35540			43431.30027		69.65600		324.00000 
 43692.65567		 272.81207			43419.84360		147.50000		875.00000 
 43692.65567		 261.35540			43431.30027		69.65600		324.00000 
 43692.65567		 272.81207			43419.84360		147.50000		875.00000 
 43692.65567		 261.35540			43431.30027		69.65600		324.00000 
 43692.65567		 272.81207			43419.84360		147.50000		875.00000 
 43692.65567		 265.17429			43427.48138		69.65600		324.00000 
 43692.65567		 272.81207			43419.84360		147.50000		875.00000 
 43692.65567		 265.17429			43427.48138		69.65600		324.00000 
 43692.65567		 272.81207			43419.84360		147.50000		875.00000 
 43692.65567		 272.81207			43419.84360		69.65600		324.00000 
 43692.65567		 272.81207			43419.84360		147.50000		875.00000 
 43692.65567		 272.81207			43419.84360		69.65600		324.00000 
 43692.65567		 272.81207			43419.84360		147.50000		875.00000 
 43692.65567		 272.81207			43419.84360		69.65600		324.00000 
 43692.65567		 272.81207			43419.84360		147.50000		875.00000 
 43692.65567		 305.27265			43387.38302		69.65600		324.00000 
 43692.65567		 305.27265			43387.38302		147.50000		875.00000 
 43692.65567		 305.27265			43387.38302		69.65600		324.00000 
 43692.65567		 305.27265			43387.38302		147.50000		875.00000 
 43692.65567		 305.27265			43387.38302		69.65600		324.00000 
 43692.65567		 305.27265			43387.38302		147.50000		875.00000 
 43692.65567		 305.27265			43387.38302		69.65600		324.00000 
 43692.65567		 305.27265			43387.38302		147.50000		875.00000 
 43692.65567		 305.27265			43387.38302		69.65600		324.00000 
 43692.65567		 309.09154			43383.56413		147.50000		875.00000 
 43692.65567		 305.27265			43387.38302		69.65600		324.00000 
 43692.65567		 310.52363			43382.13204		147.50000		875.00000 
 43692.65567		 305.27265			43387.38302		69.65600		324.00000 
 43692.65567		 311.00099			43381.65468		147.50000		875.00000 
 43692.65567		 305.27265			43387.38302		69.65600		324.00000 
 43692.65567		 311.00099			43381.65468		147.50000		875.00000 
 43692.65567		 305.27265			43387.38302		69.65600		324.00000 
 43692.65567		 311.00099			43381.65468		147.50000		875.00000 
 43692.65567		 305.27265			43387.38302		69.65600		324.00000 
 43692.65567		 311.00099			43381.65468		147.50000		875.00000 
 43692.65567		 305.27265			43387.38302		69.65600		324.00000 
 43692.65567		 311.00099			43381.65468		147.50000		875.00000 
 43692.65567		 305.27265			43387.38302		69.65600		324.00000 
 43692.65567		 311.00099			43381.65468		147.50000		875.00000 
 43692.65567		 305.27265			43387.38302		69.65600		324.00000 
 43692.65567		 311.00099			43381.65468		147.50000		875.00000 
 43692.65567		 305.27265			43387.38302		69.65600		324.00000 
 43692.65567		 311.00099			43381.65468		147.50000		875.00000 
 43692.65567		 305.27265			43387.38302		69.65600		324.00000 
 43692.65567		 311.00099			43381.65468		147.50000		875.00000 
 43692.65567		 305.27265			43387.38302		69.65600		324.00000 
 43692.65567		 311.00099			43381.65468		147.50000		875.00000 
 43692.65567		 305.27265			43387.38302		69.65600		324.00000 
 43692.65567		 311.00099			43381.65468		147.50000		875.00000 
 43692.65567		 305.27265			43387.38302		69.65600		324.00000 
 43692.65567		 311.00099			43381.65468		147.50000		875.00000 
 43692.65567		 305.27265			43387.38302		69.65600		324.00000 
 43692.65567		 311.00099			43381.65468		147.50000		875.00000 
 43692.65567		 305.27265			43387.38302		69.65600		324.00000 
 43692.65567		 311.00099			43381.65468		147.50000		875.00000 
 43692.65567		 305.27265			43387.38302		69.65600		324.00000 
 43692.65567		 311.00099			43381.65468		138.68600		875.00000 
 43692.65567		 305.27265			43387.38302		69.65600		324.00000 
 43692.65567		 311.00099			43381.65468		138.68600		875.00000 
 43692.65567		 305.27265			43387.38302		69.65600		324.00000 
 43692.65567		 311.00099			43381.65468		138.68600		875.00000 
 43692.65567		 305.27265			43387.38302		69.65600		324.00000 
 43692.65567		 311.00099			43381.65468		138.68600		875.00000 
 43692.65567		 305.27265			43387.38302		69.65600		324.00000 
 43692.65567		 311.00099			43381.65468		138.68600		875.00000 
 43692.65567		 305.27265			43387.38302		69.65600		324.00000 
 43692.65567		 311.00099			43381.65468		138.68600		875.00000 
 43692.65567		 305.27265			43387.38302		69.65600		324.00000 
 43692.65567		 311.00099			43381.65468		138.68600		875.00000 
 43692.65567		 305.27265			43387.38302		69.65600		324.00000 
 43692.65567		 311.00099			43381.65468		138.68600		875.00000 
 43692.65567		 305.27265			43387.38302		69.65600		324.00000 
 43692.65567		 311.00099			43381.65468		138.68600		875.00000 
 43692.65567		 305.27265			43387.38302		69.65600		324.00000 
 43692.65567		 311.00099			43381.65468		138.68600		875.00000 
 43692.65567		 305.27265			43387.38302		69.65600		324.00000 
 43692.65567		 311.00099			43381.65468		138.68600		875.00000 
 43692.65567		 305.27265			43387.38302		69.65600		324.00000 
 43692.65567		 311.00099			43381.65468		138.68600		875.00000 
 43692.65567		 305.27265			43387.38302		69.65600		324.00000 
 43692.65567		 311.00099			43381.65468		138.68600		875.00000 
 43692.65567		 305.27265			43387.38302		69.65600		324.00000 
 43692.65567		 311.00099			43381.65468		138.68600		875.00000 
 43692.65567		 305.27265			43387.38302		69.65600		324.00000 
 43692.65567		 311.00099			43381.65468		138.68600		875.00000 
 43692.65567		 305.27265			43387.38302		65.73800		324.00000 
 43692.65567		 311.00099			43381.65468		138.68600		875.00000 
 43692.65567		 305.27265			43387.38302		65.73800		324.00000 
 43692.65567		 311.00099			43381.65468		138.68600		875.00000 
 43692.65567		 305.27265			43387.38302		65.73800		324.00000 
 43692.65567		 311.00099			43381.65468		138.68600		875.00000 
 43692.65567		 305.27265			43387.38302		65.73800		324.00000 
 43692.65567		 311.00099			43381.65468		138.68600		875.00000 
 43692.65567		 305.27265			43387.38302		65.73800		324.00000 
 43692.65567		 311.00099			43381.65468		138.68600		875.00000 
 43692.65567		 305.27265			43387.38302		65.73800		324.00000 
 43692.65567		 311.00099			43381.65468		138.68600		875.00000 
 43692.65567		 305.27265			43387.38302		65.73800		324.00000 
 43692.65567		 311.00099			43381.65468		138.68600		875.00000 
 43692.65567		 305.27265			43387.38302		65.73800		324.00000 
 43692.65567		 311.00099			43381.65468		138.68600		875.00000 
 43692.65567		 305.27265			43387.38302		65.73800		324.00000 
 43692.65567		 311.00099			43381.65468		138.68600		875.00000 
 43692.65567		 305.27265			43387.38302		65.73800		324.00000 
 43692.65567		 311.00099			43381.65468		138.68600		875.00000 
 43692.65567		 305.27265			43387.38302		65.73800		324.00000 
 43692.65567		 311.00099			43381.65468		138.68600		875.00000 
 43692.65567		 305.27265			43387.38302		65.73800		324.00000 
 43692.65567		 311.00099			43381.65468		138.68600		875.00000 
 43692.65567		 305.27265			43387.38302		65.73800		324.00000 
 43692.65567		 311.00099			43381.65468		138.68600		875.00000 
 43692.65567		 305.27265			43387.38302		65.73800		324.00000 
 43692.65567		 311.00099			43381.65468		138.68600		875.00000 
 43692.65567		 305.27265			43387.38302		65.73800		324.00000 
 43692.65567		 311.00099			43381.65468		135.12400		875.00000 
 43692.65567		 305.27265			43387.38302		65.73800		324.00000 
 43692.65567		 311.00099			43381.65468		135.12400		875.00000 
 43692.65567		 305.27265			43387.38302		65.73800		324.00000 
 43692.65567		 311.00099			43381.65468		135.12400		875.00000 
 43692.65567		 305.27265			43387.38302		65.73800		324.00000 
 43692.65567		 311.00099			43381.65468		135.12400		875.00000 
 43692.65567		 305.27265			43387.38302		65.73800		324.00000 
 43692.65567		 311.00099			43381.65468		135.12400		875.00000 
 43692.65567		 305.27265			43387.38302		65.73800		324.00000 
 43692.65567		 311.00099			43381.65468		135.12400		875.00000 
 43692.65567		 305.27265			43387.38302		65.73800		324.00000 
 43692.65567		 314.81988			43377.83579		135.12400		875.00000 
 43692.65567		 305.27265			43387.38302		65.73800		324.00000 
 43692.65567		 314.81988			43377.83579		135.12400		875.00000 
 43692.65567		 305.27265			43387.38302		65.73800		324.00000 
 43692.65567		 314.81988			43377.83579		135.12400		875.00000 
 43692.65567		 305.27265			43387.38302		65.73800		324.00000 
 43692.65567		 318.63877			43374.01690		135.12400		875.00000 
 43692.65567		 305.27265			43387.38302		65.73800		324.00000 
 43692.65567		 322.45767			43370.19801		135.12400		875.00000 
 43692.65567		 305.27265			43387.38302		65.73800		324.00000 
 43692.65567		 326.27656			43366.37912		135.12400		875.00000 
 43692.65567		 305.27265			43387.38302		65.73800		324.00000 
 43692.65567		 326.27656			43366.37912		135.12400		875.00000 
 43692.65567		 305.27265			43387.38302		65.73800		324.00000 
 43692.65567		 326.27656			43366.37912		135.12400		875.00000 
 43692.65567		 305.27265			43387.38302		65.73800		324.00000 
 43692.65567		 537.27032			43155.38535		135.12400		875.00000 
 43692.65567		 305.27265			43387.38302		65.73800		324.00000 
 43692.65567		 819.86831			42872.78737		135.12400		875.00000 
 43692.65567		 305.27265			43387.38302		65.73800		324.00000 
 43692.65567		 961.16730			42731.48837		135.12400		875.00000 
 43692.65567		 305.27265			43387.38302		65.73800		324.00000 
 43692.65567		 961.16730			42731.48837		135.12400		875.00000 
 43692.65567		 305.27265			43387.38302		65.73800		324.00000 
 43692.65567		 961.16730			42731.48837		135.12400		875.00000 
 43692.65567		 305.27265			43387.38302		65.73800		324.00000 
 43692.65567		 961.16730			42731.48837		135.12400		875.00000 
 43692.65567		 305.27265			43387.38302		65.73800		324.00000 
 43692.65567		 961.16730			42731.48837		135.12400		875.00000 
 43692.65567		 305.27265			43387.38302		65.73800		324.00000 
 43692.65567		 961.16730			42731.48837		135.12400		875.00000 
 43692.65567		 305.27265			43387.38302		65.73800		324.00000 
 43692.65567		 961.16730			42731.48837		135.12400		875.00000 
 43692.65567		 305.27265			43387.38302		65.73800		324.00000 
 43692.65567		 961.16730			42731.48837		135.12400		875.00000 
 43692.65567		 305.27265			43387.38302		65.73800		324.00000 
 43692.65567		 961.16730			42731.48837		135.12400		875.00000 
 43692.65567		 305.27265			43387.38302		65.73800		324.00000 
 43692.65567		 961.16730			42731.48837		135.12400		875.00000 
 43692.65567		 305.27265			43387.38302		65.73800		324.00000 
 43692.65567		 961.16730			42731.48837		135.12400		875.00000 
 43692.65567		 305.27265			43387.38302		65.73800		324.00000 
 43692.65567		 961.16730			42731.48837		135.12400		875.00000 
 43692.65567		 305.27265			43387.38302		65.73800		324.00000 
 43692.65567		 961.16730			42731.48837		135.12400		875.00000 
 43692.65567		 305.27265			43387.38302		65.73800		324.00000 
 43692.65567		 961.16730			42731.48837		135.12400		875.00000 
 43692.65567		 305.27265			43387.38302		65.73800		324.00000 
 43692.65567		 961.16730			42731.48837		135.12400		875.00000 
 43692.65567		 305.27265			43387.38302		65.73800		324.00000 
 43692.65567		 961.16730			42731.48837		135.12400		875.00000 
 43692.65567		 305.27265			43387.38302		65.73800		324.00000 
 43692.65567		 961.16730			42731.48837		135.12400		875.00000 
 43692.65567		 305.27265			43387.38302		65.73800		324.00000 
 43692.65567		 961.16730			42731.48837		135.12400		875.00000 
 43692.65567		 305.27265			43387.38302		65.73800		324.00000 
 43692.65567		 961.16730			42731.48837		135.12400		875.00000 
 43692.65567		 305.27265			43387.38302		65.73800		324.00000 
 43692.65567		 961.16730			42731.48837		135.12400		875.00000 
 43692.65567		 305.27265			43387.38302		65.73800		324.00000 
 43692.65567		 961.16730			42731.48837		135.12400		875.00000 
 43692.65567		 305.27265			43387.38302		65.73800		324.00000 
 43692.65567		 961.16730			42731.48837		135.12400		875.00000 
 43692.65567		 305.27265			43387.38302		65.73800		324.00000 
 43692.65567		 961.16730			42731.48837		135.12400		875.00000 
 43692.65567		 305.27265			43387.38302		65.73800		324.00000 
 43692.65567		 961.16730			42731.48837		135.12400		875.00000 
 43692.65567		 305.27265			43387.38302		65.73800		324.00000 
 43692.65567		 961.16730			42731.48837		135.12400		875.00000 
 43692.65567		 305.27265			43387.38302		65.73800		324.00000 
 43692.65567		 961.16730			42731.48837		135.12400		875.00000 
 43692.65567		 305.27265			43387.38302		65.73800		324.00000 
 43692.65567		 961.16730			42731.48837		135.12400		875.00000 
 43692.65567		 305.27265			43387.38302		65.73800		324.00000 
 43692.65567		 961.16730			42731.48837		135.12400		875.00000 
 43692.65567		 305.27265			43387.38302		65.73800		324.00000 
 43692.65567		 961.16730			42731.48837		135.12400		875.00000 
 43692.65567		 305.27265			43387.38302		65.73800		324.00000 
 43692.65567		 961.16730			42731.48837		135.12400		875.00000 
 43692.65567		 305.27265			43387.38302		65.73800		324.00000 
 43692.65567		 961.16730			42731.48837		135.12400		875.00000 
 43692.65567		 305.27265			43387.38302		65.73800		324.00000 
 43692.65567		 961.16730			42731.48837		135.12400		875.00000 
 43692.65567		 305.27265			43387.38302		65.73800		324.00000 
 43692.65567		 961.16730			42731.48837		135.12400		875.00000 
 43692.65567		 305.27265			43387.38302		65.73800		324.00000 
 43692.65567		 961.16730			42731.48837		135.12400		875.00000 
 43692.65567		 305.27265			43387.38302		65.73800		324.00000 
 43692.65567		 961.16730			42731.48837		135.12400		875.00000 
 43692.65567		 305.27265			43387.38302		65.73800		324.00000 
 43692.65567		 961.16730			42731.48837		135.12400		875.00000 
 43692.65567		 305.27265			43387.38302		65.73800		324.00000 
 43692.65567		 961.16730			42731.48837		135.12400		875.00000 
 43692.65567		 305.27265			43387.38302		65.73800		324.00000 
 43692.65567		 961.16730			42731.48837		176.57600		875.00000 
 43692.65567		 305.27265			43387.38302		65.73800		324.00000 
 43692.65567		 961.16730			42731.48837		176.57600		875.00000 
 43692.65567		 305.27265			43387.38302		65.73800		324.00000 
 43692.65567		 961.16730			42731.48837		176.57600		875.00000 
 43692.65567		 305.27265			43387.38302		65.73800		324.00000 
 43692.65567		 961.16730			42731.48837		176.57600		875.00000 
 43692.65567		 305.27265			43387.38302		65.73800		324.00000 
 43692.65567		 961.16730			42731.48837		176.57600		875.00000 
 43692.65567		 305.27265			43387.38302		65.73800		324.00000 
 43692.65567		 961.16730			42731.48837		176.57600		875.00000 
 43692.65567		 305.27265			43387.38302		65.73800		324.00000 
 43692.65567		 961.16730			42731.48837		176.57600		875.00000 
 43692.65567		 305.27265			43387.38302		65.73800		324.00000 
 43692.65567		 961.16730			42731.48837		176.57600		875.00000 
 43692.65567		 305.27265			43387.38302		65.73800		324.00000 
 43692.65567		 961.16730			42731.48837		176.57600		875.00000 
 43692.65567		 305.27265			43387.38302		65.73800		324.00000 
 43692.65567		 961.16730			42731.48837		176.57600		875.00000 
 43692.65567		 305.27265			43387.38302		65.73800		324.00000 
 43692.65567		 961.16730			42731.48837		176.57600		875.00000 
 43692.65567		 305.27265			43387.38302		65.73800		324.00000 
 43692.65567		 961.16730			42731.48837		176.57600		875.00000 
 43692.65567		 305.27265			43387.38302		65.73800		324.00000 
 43692.65567		 961.16730			42731.48837		176.57600		875.00000 
 43692.65567		 305.27265			43387.38302		65.73800		324.00000 
 43692.65567		 961.16730			42731.48837		176.57600		875.00000 
 43692.65567		 305.27265			43387.38302		65.73800		324.00000 
 43692.65567		 961.16730			42731.48837		176.57600		875.00000 
 43692.65567		 305.27265			43387.38302		65.73800		324.00000 
 43692.65567		 961.16730			42731.48837		176.57600		875.00000 
 43692.65567		 305.27265			43387.38302		65.73800		324.00000 
 43692.65567		 961.16730			42731.48837		176.57600		875.00000 
 43692.65567		 305.27265			43387.38302		65.73800		324.00000 
 43692.65567		 961.16730			42731.48837		176.57600		875.00000 
 43692.65567		 305.27265			43387.38302		65.73800		324.00000 
 43692.65567		 961.16730			42731.48837		176.57600		875.00000 
 43692.65567		 305.27265			43387.38302		65.73800		324.00000 
 43692.65567		 961.16730			42731.48837		176.57600		875.00000 
 43692.65567		 305.27265			43387.38302		65.73800		324.00000 
 43692.65567		 961.16730			42731.48837		176.57600		875.00000 
 43692.65567		 305.27265			43387.38302		65.73800		324.00000 
 43692.65567		 961.16730			42731.48837		176.57600		875.00000 
 43692.65567		 305.27265			43387.38302		65.73800		324.00000 
 43692.65567		 961.16730			42731.48837		176.57600		875.00000 
 43692.65567		 305.27265			43387.38302		65.73800		324.00000 
 43692.65567		 961.16730			42731.48837		176.57600		875.00000 
 43692.65567		 305.27265			43387.38302		65.73800		324.00000 
 43692.65567		 961.16730			42731.48837		176.57600		875.00000 
 43692.65567		 305.27265			43387.38302		65.73800		324.00000 
 43692.65567		 961.16730			42731.48837		176.57600		875.00000 
 43692.65567		 305.27265			43387.38302		65.73800		324.00000 
 43692.65567		 961.16730			42731.48837		176.57600		875.00000 
 43692.65567		 305.27265			43387.38302		65.73800		324.00000 
 43692.65567		 961.16730			42731.48837		176.57600		875.00000 
 43692.65567		 305.27265			43387.38302		65.73800		324.00000 
 43692.65567		 961.16730			42731.48837		176.57600		875.00000 
 43692.65567		 305.27265			43387.38302		65.73800		324.00000 
 43692.65567		 961.16730			42731.48837		176.57600		875.00000 
 43692.65567		 305.27265			43387.38302		65.73800		324.00000 
 43692.65567		 961.16730			42731.48837		176.57600		875.00000 
 43692.65567		 305.27265			43387.38302		65.73800		324.00000 
 43692.65567		 961.16730			42731.48837		176.57600		875.00000 
 43692.65567		 305.27265			43387.38302		65.73800		324.00000 
 43692.65567		 961.16730			42731.48837		176.57600		875.00000 
 43692.65567		 305.27265			43387.38302		65.73800		324.00000 
 43692.65567		 961.16730			42731.48837		176.57600		875.00000 
 43692.65567		 305.27265			43387.38302		65.73800		324.00000 
 43692.65567		 961.16730			42731.48837		176.57600		875.00000 
 43692.65567		 305.27265			43387.38302		65.73800		324.00000 
 43692.65567		 961.16730			42731.48837		176.57600		875.00000 
 43692.65567		 305.27265			43387.38302		65.73800		324.00000 
 43692.65567		 961.16730			42731.48837		176.57600		875.00000 
 43692.65567		 305.27265			43387.38302		65.73800		324.00000 
 43692.65567		 961.16730			42731.48837		176.57600		875.00000 
 43692.65567		 305.27265			43387.38302		65.73800		324.00000 
 43692.65567		 961.16730			42731.48837		176.57600		875.00000 
 43692.65567		 305.27265			43387.38302		65.73800		324.00000 
 43692.65567		 961.16730			42731.48837		176.57600		875.00000 
 43692.65567		 305.27265			43387.38302		65.73800		324.00000 
 43692.65567		 961.16730			42731.48837		176.57600		875.00000 
 43692.65567		 305.27265			43387.38302		65.73800		324.00000 
 43692.65567		 961.16730			42731.48837		176.57600		875.00000 
 43692.65567		 305.27265			43387.38302		65.73800		324.00000 
 43692.65567		 961.16730			42731.48837		176.57600		875.00000 
 43692.65567		 305.27265			43387.38302		65.73800		324.00000 
 43692.65567		 961.16730			42731.48837		176.57600		875.00000 
 43692.65567		 305.27265			43387.38302		65.73800		324.00000 
 43692.65567		 961.16730			42731.48837		176.57600		875.00000 
 43692.65567		 305.27265			43387.38302		65.73800		324.00000 
 43692.65567		 961.16730			42731.48837		176.57600		875.00000 
 43692.65567		 305.27265			43387.38302		65.73800		324.00000 
 43692.65567		 961.16730			42731.48837		176.57600		875.00000 
 43692.65567		 305.27265			43387.38302		65.73800		324.00000 
 43692.65567		 961.16730			42731.48837		176.57600		875.00000 
 43692.65567		 305.27265			43387.38302		65.73800		324.00000 
 43692.65567		 961.16730			42731.48837		176.57600		875.00000 
 43692.65567		 305.27265			43387.38302		65.73800		324.00000 
 43692.65567		 961.16730			42731.48837		176.57600		875.00000 
 43692.65567		 305.27265			43387.38302		65.73800		324.00000 
 43692.65567		 961.16730			42731.48837		176.57600		875.00000 
 43692.65567		 305.27265			43387.38302		65.73800		324.00000 
 43692.65567		 961.16730			42731.48837		176.57600		875.00000 
 43692.65567		 305.27265			43387.38302		65.73800		324.00000 
 43692.65567		 961.16730			42731.48837		176.57600		875.00000 
 43692.65567		 305.27265			43387.38302		65.73800		324.00000 
 43692.65567		 961.16730			42731.48837		176.57600		875.00000 
 43692.65567		 305.27265			43387.38302		65.73800		324.00000 
 43692.65567		 961.16730			42731.48837		176.57600		875.00000 
 43692.65567		 305.27265			43387.38302		65.73800		324.00000 
 43692.65567		 961.16730			42731.48837		176.57600		875.00000 
 43692.65567		 305.27265			43387.38302		65.73800		324.00000 
 43692.65567		 961.16730			42731.48837		176.57600		875.00000 
 43692.65567		 305.27265			43387.38302		65.73800		324.00000 
 43692.65567		 961.16730			42731.48837		176.57600		875.00000 
 43692.65567		 305.27265			43387.38302		65.73800		324.00000 
 43692.65567		 961.16730			42731.48837		176.57600		875.00000 
 43692.65567		 305.27265			43387.38302		65.73800		324.00000 
 43692.65567		 961.16730			42731.48837		176.57600		875.00000 
 43692.65567		 305.27265			43387.38302		65.73800		324.00000 
 43692.65567		 961.16730			42731.48837		176.57600		875.00000 
 43692.65567		 305.27265			43387.38302		65.73800		324.00000 
 43692.65567		 961.16730			42731.48837		176.57600		875.00000 
 43692.65567		 305.27265			43387.38302		65.73800		324.00000 
 43692.65567		 961.16730			42731.48837		176.57600		875.00000 
 43692.65567		 305.27265			43387.38302		65.73800		324.00000 
 43692.65567		 961.16730			42731.48837		176.57600		875.00000 
 43692.65567		 305.27265			43387.38302		65.73800		324.00000 
 43692.65567		 961.16730			42731.48837		210.91000		875.00000 
 43692.65567		 305.27265			43387.38302		65.73800		324.00000 
 43692.65567		 961.16730			42731.48837		210.91000		875.00000 
 43692.65567		 305.27265			43387.38302		65.73800		324.00000 
 43692.65567		 961.16730			42731.48837		210.91000		875.00000 
 43692.65567		 305.27265			43387.38302		65.73800		324.00000 
 43692.65567		 961.16730			42731.48837		210.91000		875.00000 
 43692.65567		 305.27265			43387.38302		65.73800		324.00000 
 43692.65567		 961.16730			42731.48837		210.91000		875.00000 
 43692.65567		 305.27265			43387.38302		65.73800		324.00000 
 43692.65567		 961.16730			42731.48837		210.91000		875.00000 
 43692.65567		 305.27265			43387.38302		65.73800		324.00000 
 43692.65567		 961.16730			42731.48837		210.91000		875.00000 
 43692.65567		 305.27265			43387.38302		65.73800		324.00000 
 43692.65567		 961.16730			42731.48837		210.91000		875.00000 
 43692.65567		 305.27265			43387.38302		65.73800		324.00000 
 43692.65567		 961.16730			42731.48837		210.91000		875.00000 
 43692.65567		 305.27265			43387.38302		65.73800		324.00000 
 43692.65567		 961.16730			42731.48837		210.91000		875.00000 
 43692.65567		 305.27265			43387.38302		65.73800		324.00000 
 43692.65567		 961.16730			42731.48837		210.91000		875.00000 
 43692.65567		 305.27265			43387.38302		65.73800		324.00000 
 43692.65567		 961.16730			42731.48837		210.91000		875.00000 
 43692.65567		 305.27265			43387.38302		65.73800		324.00000 
 43692.65567		 961.16730			42731.48837		210.91000		875.00000 
 43692.65567		 305.27265			43387.38302		65.73800		324.00000 
 43692.65567		 961.16730			42731.48837		210.91000		875.00000 
 43692.65567		 305.27265			43387.38302		65.73800		324.00000 
 43692.65567		 961.16730			42731.48837		210.91000		875.00000 
 43692.65567		 305.27265			43387.38302		65.73800		324.00000 
 43692.65567		 961.16730			42731.48837		210.91000		875.00000 
 43692.65567		 305.27265			43387.38302		65.73800		324.00000 
 43692.65567		 961.16730			42731.48837		210.91000		875.00000 
 43692.65567		 305.27265			43387.38302		65.73800		324.00000 
 43692.65567		 961.16730			42731.48837		210.91000		875.00000 
 43692.65567		 305.27265			43387.38302		65.73800		324.00000 
 43692.65567		 961.16730			42731.48837		210.91000		875.00000 
 43692.65567		 305.27265			43387.38302		65.73800		324.00000 
 43692.65567		 961.16730			42731.48837		210.91000		875.00000 
 43692.65567		 305.27265			43387.38302		65.73800		324.00000 
 43692.65567		 961.16730			42731.48837		210.91000		875.00000 
 43692.65567		 305.27265			43387.38302		65.73800		324.00000 
 43692.65567		 961.16730			42731.48837		210.91000		875.00000 
 43692.65567		 305.27265			43387.38302		65.73800		324.00000 
 43692.65567		 961.16730			42731.48837		210.91000		875.00000 
 43692.65567		 305.27265			43387.38302		65.73800		324.00000 
 43692.65567		 961.16730			42731.48837		210.91000		875.00000 
 43692.65567		 305.27265			43387.38302		65.73800		324.00000 
 43692.65567		 961.16730			42731.48837		210.91000		875.00000 
 43692.65567		 305.27265			43387.38302		65.73800		324.00000 
 43692.65567		 961.16730			42731.48837		210.91000		875.00000 
 43692.65567		 305.27265			43387.38302		65.73800		324.00000 
 43692.65567		 961.16730			42731.48837		210.91000		875.00000 
 43692.65567		 305.27265			43387.38302		65.73800		324.00000 
 43692.65567		 961.16730			42731.48837		210.91000		875.00000 
 43692.65567		 305.27265			43387.38302		65.73800		324.00000 
 43692.65567		 961.16730			42731.48837		210.91000		875.00000 
 43692.65567		 305.27265			43387.38302		65.73800		324.00000 
 43692.65567		 961.16730			42731.48837		210.91000		875.00000 
 43692.65567		 305.27265			43387.38302		65.73800		324.00000 
 43692.65567		 961.16730			42731.48837		210.91000		875.00000 
 43692.65567		 305.27265			43387.38302		65.73800		324.00000 
 43692.65567		 961.16730			42731.48837		210.91000		875.00000 
 43692.65567		 305.27265			43387.38302		65.73800		324.00000 
 43692.65567		 961.16730			42731.48837		210.91000		875.00000 
 43692.65567		 305.27265			43387.38302		65.73800		324.00000 
 43692.65567		 961.16730			42731.48837		210.91000		875.00000 
 43692.65567		 305.27265			43387.38302		65.73800		324.00000 
 43692.65567		 961.16730			42731.48837		210.91000		875.00000 
 43692.65567		 305.27265			43387.38302		65.73800		324.00000 
 43692.65567		 961.16730			42731.48837		210.91000		875.00000 
 43692.65567		 305.27265			43387.38302		65.73800		324.00000 
 43692.65567		 961.16730			42731.48837		210.91000		875.00000 
 43692.65567		 305.27265			43387.38302		65.73800		324.00000 
 43692.65567		 961.16730			42731.48837		210.91000		875.00000 
 43692.65567		 305.27265			43387.38302		65.73800		324.00000 
 43692.65567		 961.16730			42731.48837		210.91000		875.00000 
 43692.65567		 305.27265			43387.38302		65.73800		324.00000 
 43692.65567		 961.16730			42731.48837		210.91000		875.00000 
 43692.65567		 305.27265			43387.38302		65.73800		324.00000 
 43692.65567		 961.16730			42731.48837		210.91000		875.00000 
 43692.65567		 305.27265			43387.38302		65.73800		324.00000 
 43692.65567		 961.16730			42731.48837		210.91000		875.00000 
 43692.65567		 305.27265			43387.38302		65.73800		324.00000 
 43692.65567		 961.16730			42731.48837		210.91000		875.00000 
 43692.65567		 305.27265			43387.38302		65.73800		324.00000 
 43692.65567		 961.16730			42731.48837		210.91000		875.00000 
 43692.65567		 305.27265			43387.38302		65.73800		324.00000 
 43692.65567		 961.16730			42731.48837		210.91000		875.00000 
 43692.65567		 305.27265			43387.38302		65.73800		324.00000 
 43692.65567		 961.16730			42731.48837		210.91000		875.00000 
 43692.65567		 305.27265			43387.38302		65.73800		324.00000 
 43692.65567		 961.16730			42731.48837		210.91000		875.00000 
 43692.65567		 305.27265			43387.38302		65.73800		324.00000 
 43692.65567		 961.16730			42731.48837		210.91000		875.00000 
 43692.65567		 305.27265			43387.38302		65.73800		324.00000 
 43692.65567		 961.16730			42731.48837		210.91000		875.00000 
 43692.65567		 305.27265			43387.38302		65.73800		324.00000 
 43692.65567		 961.16730			42731.48837		210.91000		875.00000 
 43692.65567		 305.27265			43387.38302		65.73800		324.00000 
 43692.65567		 961.16730			42731.48837		210.91000		875.00000 
 43692.65567		 305.27265			43387.38302		65.73800		324.00000 
 43692.65567		 961.16730			42731.48837		210.91000		875.00000 
 43692.65567		 305.27265			43387.38302		65.73800		324.00000 
 43692.65567		 961.16730			42731.48837		210.91000		875.00000 
 43692.65567		 305.27265			43387.38302		65.73800		324.00000 
 43692.65567		 961.16730			42731.48837		210.91000		875.00000 
 43692.65567		 305.27265			43387.38302		65.73800		324.00000 
 43692.65567		 961.16730			42731.48837		210.91000		875.00000 
 43692.65567		 305.27265			43387.38302		65.73800		324.00000 
 43692.65567		 961.16730			42731.48837		210.91000		875.00000 
 43692.65567		 305.27265			43387.38302		65.73800		324.00000 
 43692.65567		 961.16730			42731.48837		210.91000		875.00000 
 43692.65567		 305.27265			43387.38302		65.73800		324.00000 
 43692.65567		 961.16730			42731.48837		210.91000		875.00000 
 43692.65567		 305.27265			43387.38302		65.73800		324.00000 
 43692.65567		 961.16730			42731.48837		210.91000		875.00000 
 43692.65567		 305.27265			43387.38302		65.73800		324.00000 
 43692.65567		 961.16730			42731.48837		210.91000		875.00000 
 43692.65567		 305.27265			43387.38302		65.73800		324.00000 
 43692.65567		 961.16730			42731.48837		210.91000		875.00000 
 43692.65567		 305.27265			43387.38302		65.73800		324.00000 
 43692.65567		 961.16730			42731.48837		210.91000		875.00000 
 43692.65567		 305.27265			43387.38302		65.73800		324.00000 
 43692.65567		 961.16730			42731.48837		210.91000		875.00000 
 43692.65567		 305.27265			43387.38302		65.73800		324.00000 
 43692.65567		 961.16730			42731.48837		210.91000		875.00000 
 43692.65567		 305.27265			43387.38302		65.73800		324.00000 
 43692.65567		 961.16730			42731.48837		223.76200		875.00000 
 43692.65567		 305.27265			43387.38302		65.73800		324.00000 
 43692.65567		 961.16730			42731.48837		223.76200		875.00000 
 43692.65567		 305.27265			43387.38302		65.73800		324.00000 
 43692.65567		 961.16730			42731.48837		223.76200		875.00000 
 43692.65567		 305.27265			43387.38302		65.73800		324.00000 
 43692.65567		 961.16730			42731.48837		223.76200		875.00000 
 43692.65567		 305.27265			43387.38302		65.73800		324.00000 
 43692.65567		 961.16730			42731.48837		223.76200		875.00000 
 43692.65567		 305.27265			43387.38302		65.73800		324.00000 
 43692.65567		 961.16730			42731.48837		223.76200		875.00000 
 43692.65567		 305.27265			43387.38302		65.73800		324.00000 
 43692.65567		 961.16730			42731.48837		223.76200		875.00000 
 43692.65567		 305.27265			43387.38302		65.73800		324.00000 
 43692.65567		 961.16730			42731.48837		223.76200		875.00000 
 43692.65567		 305.27265			43387.38302		65.73800		324.00000 
 43692.65567		 961.16730			42731.48837		223.76200		875.00000 
 43692.65567		 305.27265			43387.38302		65.73800		324.00000 
 43692.65567		 961.16730			42731.48837		223.76200		875.00000 
 43692.65567		 305.27265			43387.38302		65.73800		324.00000 
 43692.65567		 961.16730			42731.48837		223.76200		875.00000 
 43692.65567		 305.27265			43387.38302		65.73800		324.00000 
 43692.65567		 961.16730			42731.48837		223.76200		875.00000 
 43692.65567		 305.27265			43387.38302		65.73800		324.00000 
 43692.65567		 961.16730			42731.48837		223.76200		875.00000 
 43692.65567		 305.27265			43387.38302		65.73800		324.00000 
 43692.65567		 961.16730			42731.48837		223.76200		875.00000 
 43692.65567		 305.27265			43387.38302		65.73800		324.00000 
 43692.65567		 961.16730			42731.48837		223.76200		875.00000 
 43692.65567		 305.27265			43387.38302		65.73800		324.00000 
 43692.65567		 961.16730			42731.48837		223.76200		875.00000 
 43692.65567		 305.27265			43387.38302		65.73800		324.00000 
 43692.65567		 961.16730			42731.48837		223.76200		875.00000 
 43692.65567		 305.27265			43387.38302		65.73800		324.00000 
 43692.65567		 961.16730			42731.48837		223.76200		875.00000 
 43692.65567		 305.27265			43387.38302		65.73800		324.00000 
 43692.65567		 961.16730			42731.48837		223.76200		875.00000 
 43692.65567		 305.27265			43387.38302		65.73800		324.00000 
 43692.65567		 961.16730			42731.48837		223.76200		875.00000 
 43692.65567		 305.27265			43387.38302		65.73800		324.00000 
 43692.65567		 961.16730			42731.48837		223.76200		875.00000 
 43692.65567		 305.27265			43387.38302		65.73800		324.00000 
 43692.65567		 961.16730			42731.48837		223.76200		875.00000 
 43692.65567		 305.27265			43387.38302		65.73800		324.00000 
 43692.65567		 961.16730			42731.48837		223.76200		875.00000 
 43692.65567		 305.27265			43387.38302		65.73800		324.00000 
 43692.65567		 961.16730			42731.48837		223.76200		875.00000 
 43692.65567		 305.27265			43387.38302		65.73800		324.00000 
 43692.65567		 961.16730			42731.48837		223.76200		875.00000 
 43692.65567		 305.27265			43387.38302		65.73800		324.00000 
 43692.65567		 961.16730			42731.48837		223.76200		875.00000 
 43692.65567		 305.27265			43387.38302		65.73800		324.00000 
 43692.65567		 961.16730			42731.48837		223.76200		875.00000 
 43692.65567		 305.27265			43387.38302		65.73800		324.00000 
 43692.65567		 961.16730			42731.48837		223.76200		875.00000 
 43692.65567		 305.27265			43387.38302		65.73800		324.00000 
 43692.65567		 961.16730			42731.48837		223.76200		875.00000 
 43692.65567		 305.27265			43387.38302		65.73800		324.00000 
 43692.65567		 961.16730			42731.48837		223.76200		875.00000 
 43692.65567		 305.27265			43387.38302		65.73800		324.00000 
 43692.65567		 961.16730			42731.48837		223.76200		875.00000 
 43692.65567		 305.27265			43387.38302		65.73800		324.00000 
 43692.65567		 961.16730			42731.48837		223.76200		875.00000 
 43692.65567		 305.27265			43387.38302		65.73800		324.00000 
 43692.65567		 961.16730			42731.48837		223.76200		875.00000 
 43692.65567		 305.27265			43387.38302		65.73800		324.00000 
 43692.65567		 961.16730			42731.48837		223.76200		875.00000 
 43692.65567		 305.27265			43387.38302		65.73800		324.00000 
 43692.65567		 961.16730			42731.48837		223.76200		875.00000 
 43692.65567		 305.27265			43387.38302		65.73800		324.00000 
 43692.65567		 961.16730			42731.48837		223.76200		875.00000 
 43692.65567		 305.27265			43387.38302		65.73800		324.00000 
 43692.65567		 961.16730			42731.48837		223.76200		875.00000 
 43692.65567		 305.27265			43387.38302		65.73800		324.00000 
 43692.65567		 961.16730			42731.48837		223.76200		875.00000 
 43692.65567		 305.27265			43387.38302		65.73800		324.00000 
 43692.65567		 961.16730			42731.48837		223.76200		875.00000 
 43692.65567		 305.27265			43387.38302		65.73800		324.00000 
 43692.65567		 961.16730			42731.48837		223.76200		875.00000 
 43692.65567		 305.27265			43387.38302		65.73800		324.00000 
 43692.65567		 961.16730			42731.48837		223.76200		875.00000 
 43692.65567		 305.27265			43387.38302		65.73800		324.00000 
 43692.65567		 961.16730			42731.48837		223.76200		875.00000 
 43692.65567		 305.27265			43387.38302		65.73800		324.00000 
 43692.65567		 961.16730			42731.48837		223.76200		875.00000 
 43692.65567		 305.27265			43387.38302		65.73800		324.00000 
 43692.65567		 961.16730			42731.48837		223.76200		875.00000 
 43692.65567		 305.27265			43387.38302		65.73800		324.00000 
 43692.65567		 961.16730			42731.48837		223.76200		875.00000 
 43692.65567		 305.27265			43387.38302		65.73800		324.00000 
 43692.65567		 961.16730			42731.48837		223.76200		875.00000 
 43692.65567		 305.27265			43387.38302		65.73800		324.00000 
 43692.65567		 961.16730			42731.48837		223.76200		875.00000 
 43692.65567		 305.27265			43387.38302		65.73800		324.00000 
 43692.65567		 961.16730			42731.48837		223.76200		875.00000 
 43692.65567		 305.27265			43387.38302		65.73800		324.00000 
 43692.65567		 961.16730			42731.48837		223.76200		875.00000 
 43692.65567		 305.27265			43387.38302		65.73800		324.00000 
 43692.65567		 961.16730			42731.48837		223.76200		875.00000 
 43692.65567		 305.27265			43387.38302		65.73800		324.00000 
 43692.65567		 961.16730			42731.48837		223.76200		875.00000 
 43692.65567		 305.27265			43387.38302		65.73800		324.00000 
 43692.65567		 961.16730			42731.48837		223.76200		875.00000 
 43692.65567		 305.27265			43387.38302		65.73800		324.00000 
 43692.65567		 961.16730			42731.48837		223.76200		875.00000 
 43692.65567		 305.27265			43387.38302		65.73800		324.00000 
 43692.65567		 961.16730			42731.48837		223.76200		875.00000 
 43692.65567		 305.27265			43387.38302		65.73800		324.00000 
 43692.65567		 961.16730			42731.48837		223.76200		875.00000 
 43692.65567		 305.27265			43387.38302		65.73800		324.00000 
 43692.65567		 961.16730			42731.48837		223.76200		875.00000 
 43692.65567		 305.27265			43387.38302		65.73800		324.00000 
 43692.65567		 961.16730			42731.48837		223.76200		875.00000 
 43692.65567		 305.27265			43387.38302		65.73800		324.00000 
 43692.65567		 961.16730			42731.48837		223.76200		875.00000 
 43692.65567		 305.27265			43387.38302		65.73800		324.00000 
 43692.65567		 961.16730			42731.48837		223.76200		875.00000 
 43692.65567		 305.27265			43387.38302		65.73800		324.00000 
 43692.65567		 961.16730			42731.48837		223.76200		875.00000 
 43692.65567		 305.27265			43387.38302		65.73800		324.00000 
 43692.65567		 961.16730			42731.48837		223.76200		875.00000 
 43692.65567		 305.27265			43387.38302		65.73800		324.00000 
 43692.65567		 961.16730			42731.48837		223.76200		875.00000 
 43692.65567		 305.27265			43387.38302		65.73800		324.00000 
 43692.65567		 961.16730			42731.48837		223.76200		875.00000 
 43692.65567		 305.27265			43387.38302		65.73800		324.00000 
 43692.65567		 961.16730			42731.48837		223.76200		875.00000 
 43692.65567		 305.27265			43387.38302		65.73800		324.00000 
 43692.65567		 961.16730			42731.48837		223.76200		875.00000 
 43692.65567		 305.27265			43387.38302		65.73800		324.00000 
 43692.65567		 961.16730			42731.48837		227.85200		875.00000 
 43692.65567		 305.27265			43387.38302		65.73800		324.00000 
 43692.65567		 961.16730			42731.48837		227.85200		875.00000 
 43692.65567		 305.27265			43387.38302		65.73800		324.00000 
 43692.65567		 961.16730			42731.48837		227.85200		875.00000 
 43692.65567		 305.27265			43387.38302		65.73800		324.00000 
 43692.65567		 961.16730			42731.48837		227.85200		875.00000 
 43692.65567		 305.27265			43387.38302		65.73800		324.00000 
 43692.65567		 961.16730			42731.48837		227.85200		875.00000 
 43692.65567		 305.27265			43387.38302		65.73800		324.00000 
 43692.65567		 961.16730			42731.48837		227.85200		875.00000 
 43692.65567		 305.27265			43387.38302		65.73800		324.00000 
 43692.65567		 961.16730			42731.48837		227.85200		875.00000 
 43692.65567		 305.27265			43387.38302		65.73800		324.00000 
 43692.65567		 961.16730			42731.48837		227.85200		875.00000 
 43692.65567		 305.27265			43387.38302		65.73800		324.00000 
 43692.65567		 961.16730			42731.48837		227.85200		875.00000 
 43692.65567		 305.27265			43387.38302		65.73800		324.00000 
 43692.65567		 961.16730			42731.48837		227.85200		875.00000 
 43692.65567		 305.27265			43387.38302		65.73800		324.00000 
 43692.65567		 961.16730			42731.48837		227.85200		875.00000 
 43692.65567		 305.27265			43387.38302		65.73800		324.00000 
 43692.65567		 961.16730			42731.48837		227.85200		875.00000 
 43692.65567		 305.27265			43387.38302		65.73800		324.00000 
 43692.65567		 961.16730			42731.48837		227.85200		875.00000 
 43692.65567		 305.27265			43387.38302		65.73800		324.00000 
 43692.65567		 961.16730			42731.48837		227.85200		875.00000 
 43692.65567		 305.27265			43387.38302		65.73800		324.00000 
 43692.65567		 961.16730			42731.48837		227.85200		875.00000 
 43692.65567		 305.27265			43387.38302		65.73800		324.00000 
 43692.65567		 961.16730			42731.48837		227.85200		875.00000 
 43692.65567		 305.27265			43387.38302		65.73800		324.00000 
 43692.65567		 961.16730			42731.48837		227.85200		875.00000 
 43692.65567		 305.27265			43387.38302		65.73800		324.00000 
 43692.65567		 961.16730			42731.48837		227.85200		875.00000 
 43692.65567		 305.27265			43387.38302		65.73800		324.00000 
 43692.65567		 961.16730			42731.48837		227.85200		875.00000 
 43692.65567		 305.27265			43387.38302		65.73800		324.00000 
 43692.65567		 961.16730			42731.48837		227.85200		875.00000 
 43692.65567		 305.27265			43387.38302		65.73800		324.00000 
 43692.65567		 961.16730			42731.48837		227.85200		875.00000 
 43692.65567		 305.27265			43387.38302		65.73800		324.00000 
 43692.65567		 961.16730			42731.48837		227.85200		875.00000 
 43692.65567		 305.27265			43387.38302		65.73800		324.00000 
 43692.65567		 961.16730			42731.48837		227.85200		875.00000 
 43692.65567		 305.27265			43387.38302		65.73800		324.00000 
 43692.65567		 961.16730			42731.48837		227.85200		875.00000 
 43692.65567		 305.27265			43387.38302		65.73800		324.00000 
 43692.65567		 961.16730			42731.48837		227.85200		875.00000 
 43692.65567		 305.27265			43387.38302		65.73800		324.00000 
 43692.65567		 961.16730			42731.48837		227.85200		875.00000 
 43692.65567		 305.27265			43387.38302		65.73800		324.00000 
 43692.65567		 961.16730			42731.48837		227.85200		875.00000 
 43692.65567		 305.27265			43387.38302		65.73800		324.00000 
 43692.65567		 961.16730			42731.48837		227.85200		875.00000 
 43692.65567		 305.27265			43387.38302		65.73800		324.00000 
 43692.65567		 961.16730			42731.48837		227.85200		875.00000 
 43692.65567		 305.27265			43387.38302		65.73800		324.00000 
 43692.65567		 961.16730			42731.48837		227.85200		875.00000 
 43692.65567		 305.27265			43387.38302		65.73800		324.00000 
 43692.65567		 961.16730			42731.48837		227.85200		875.00000 
 43692.65567		 305.27265			43387.38302		65.73800		324.00000 
 43692.65567		 961.16730			42731.48837		227.85200		875.00000 
 43692.65567		 305.27265			43387.38302		65.73800		324.00000 
 43692.65567		 961.16730			42731.48837		227.85200		875.00000 
 43692.65567		 305.27265			43387.38302		65.73800		324.00000 
 43692.65567		 961.16730			42731.48837		227.85200		875.00000 
 43692.65567		 305.27265			43387.38302		65.73800		324.00000 
 43692.65567		 961.16730			42731.48837		227.85200		875.00000 
 43692.65567		 305.27265			43387.38302		65.73800		324.00000 
 43692.65567		 961.16730			42731.48837		227.85200		875.00000 
 43692.65567		 305.27265			43387.38302		65.73800		324.00000 
 43692.65567		 961.16730			42731.48837		227.85200		875.00000 
 43692.65567		 305.27265			43387.38302		65.73800		324.00000 
 43692.65567		 961.16730			42731.48837		227.85200		875.00000 
 43692.65567		 305.27265			43387.38302		65.73800		324.00000 
 43692.65567		 961.16730			42731.48837		227.85200		875.00000 
 43692.65567		 305.27265			43387.38302		65.73800		324.00000 
 43692.65567		 961.16730			42731.48837		227.85200		875.00000 
 43692.65567		 305.27265			43387.38302		65.73800		324.00000 
 43692.65567		 961.16730			42731.48837		227.85200		875.00000 
 43692.65567		 305.27265			43387.38302		65.73800		324.00000 
 43692.65567		 961.16730			42731.48837		227.85200		875.00000 
 43692.65567		 305.27265			43387.38302		65.73800		324.00000 
 43692.65567		 961.16730			42731.48837		227.85200		875.00000 
 43692.65567		 305.27265			43387.38302		65.73800		324.00000 
 43692.65567		 961.16730			42731.48837		227.85200		875.00000 
 43692.65567		 305.27265			43387.38302		65.73800		324.00000 
 43692.65567		 961.16730			42731.48837		227.85200		875.00000 
 43692.65567		 305.27265			43387.38302		65.73800		324.00000 
 43692.65567		 961.16730			42731.48837		227.85200		875.00000 
 43692.65567		 305.27265			43387.38302		65.73800		324.00000 
 43692.65567		 961.16730			42731.48837		227.85200		875.00000 
 43692.65567		 305.27265			43387.38302		65.73800		324.00000 
 43692.65567		 961.16730			42731.48837		227.85200		875.00000 
 43692.65567		 305.27265			43387.38302		65.73800		324.00000 
 43692.65567		 961.16730			42731.48837		227.85200		875.00000 
 43692.65567		 305.27265			43387.38302		65.73800		324.00000 
 43692.65567		 961.16730			42731.48837		227.85200		875.00000 
 43692.65567		 305.27265			43387.38302		65.73800		324.00000 
 43692.65567		 961.16730			42731.48837		227.85200		875.00000 
 43692.65567		 305.27265			43387.38302		65.73800		324.00000 
 43692.65567		 961.16730			42731.48837		227.85200		875.00000 
 43692.65567		 305.27265			43387.38302		65.73800		324.00000 
 43692.65567		 961.16730			42731.48837		227.85200		875.00000 
 43692.65567		 305.27265			43387.38302		65.73800		324.00000 
 43692.65567		 961.16730			42731.48837		227.85200		875.00000 
 43692.65567		 305.27265			43387.38302		65.73800		324.00000 
 43692.65567		 961.16730			42731.48837		227.85200		875.00000 
 43692.65567		 305.27265			43387.38302		65.73800		324.00000 
 43692.65567		 961.16730			42731.48837		227.85200		875.00000 
 43692.65567		 305.27265			43387.38302		65.73800		324.00000 
 43692.65567		 961.16730			42731.48837		227.85200		875.00000 
 43692.65567		 305.27265			43387.38302		65.73800		324.00000 
 43692.65567		 961.16730			42731.48837		227.85200		875.00000 
 43692.65567		 305.27265			43387.38302		65.73800		324.00000 
 43692.65567		 961.16730			42731.48837		227.85200		875.00000 
 43692.65567		 305.27265			43387.38302		65.73800		324.00000 
 43692.65567		 961.16730			42731.48837		227.85200		875.00000 
 43692.65567		 305.27265			43387.38302		65.73800		324.00000 
 43692.65567		 961.16730			42731.48837		227.85200		875.00000 
 43692.65567		 305.27265			43387.38302		65.73800		324.00000 
 43692.65567		 961.16730			42731.48837		227.85200		875.00000 
 43692.65567		 305.27265			43387.38302		65.73800		324.00000 
 43692.65567		 961.16730			42731.48837		227.85200		875.00000 
 43692.65567		 305.27265			43387.38302		65.73800		324.00000 
 43692.65567		 961.16730			42731.48837		227.85200		875.00000 
 43692.65567		 305.27265			43387.38302		65.73800		324.00000 
 43692.65567		 961.16730			42731.48837		227.85200		875.00000 
 43692.65567		 305.27265			43387.38302		65.73800		324.00000 
 43692.65567		 961.16730			42731.48837		227.85200		875.00000 
 43692.65567		 305.27265			43387.38302		65.73800		324.00000 
 43692.65567		 961.16730			42731.48837		227.85200		875.00000 
 43692.65567		 305.27265			43387.38302		65.73800		324.00000 
 43692.65567		 961.16730			42731.48837		229.64200		875.00000 
 43692.65567		 305.27265			43387.38302		65.73800		324.00000 
 43692.65567		 961.16730			42731.48837		229.64200		875.00000 
 43692.65567		 305.27265			43387.38302		65.73800		324.00000 
 43692.65567		 961.16730			42731.48837		229.64200		875.00000 
 43692.65567		 305.27265			43387.38302		65.73800		324.00000 
 43692.65567		 961.16730			42731.48837		229.64200		875.00000 
 43692.65567		 305.27265			43387.38302		65.73800		324.00000 
 43692.65567		 961.16730			42731.48837		229.64200		875.00000 
 43692.65567		 305.27265			43387.38302		65.73800		324.00000 
 43692.65567		 961.16730			42731.48837		229.64200		875.00000 
 43692.65567		 305.27265			43387.38302		65.73800		324.00000 
 43692.65567		 961.16730			42731.48837		229.64200		875.00000 
 43692.65567		 305.27265			43387.38302		65.73800		324.00000 
 43692.65567		 961.16730			42731.48837		229.64200		875.00000 
 43692.65567		 305.27265			43387.38302		65.73800		324.00000 
 43692.65567		 961.16730			42731.48837		229.64200		875.00000 
 43692.65567		 305.27265			43387.38302		65.73800		324.00000 
 43692.65567		 961.16730			42731.48837		229.64200		875.00000 
 43692.65567		 305.27265			43387.38302		65.73800		324.00000 
 43692.65567		 961.16730			42731.48837		229.64200		875.00000 
 43692.65567		 305.27265			43387.38302		65.73800		324.00000 
 43692.65567		 961.16730			42731.48837		229.64200		875.00000 
 43692.65567		 305.27265			43387.38302		65.73800		324.00000 
 43692.65567		 961.16730			42731.48837		229.64200		875.00000 
 43692.65567		 305.27265			43387.38302		65.73800		324.00000 
 43692.65567		 961.16730			42731.48837		229.64200		875.00000 
 43692.65567		 305.27265			43387.38302		65.73800		324.00000 
 43692.65567		 961.16730			42731.48837		229.64200		875.00000 
 43692.65567		 305.27265			43387.38302		65.73800		324.00000 
 43692.65567		 961.16730			42731.48837		229.64200		875.00000 
 43692.65567		 305.27265			43387.38302		65.73800		324.00000 
 43692.65567		 961.16730			42731.48837		229.64200		875.00000 
 43692.65567		 305.27265			43387.38302		65.73800		324.00000 
 43692.65567		 961.16730			42731.48837		229.64200		875.00000 
 43692.65567		 305.27265			43387.38302		65.73800		324.00000 
 43692.65567		 961.16730			42731.48837		229.64200		875.00000 
 43692.65567		 305.27265			43387.38302		65.73800		324.00000 
 43692.65567		 961.16730			42731.48837		229.64200		875.00000 
 43692.65567		 305.27265			43387.38302		65.73800		324.00000 
 43692.65567		 961.16730			42731.48837		229.64200		875.00000 
 43692.65567		 305.27265			43387.38302		65.73800		324.00000 
 43692.65567		 961.16730			42731.48837		229.64200		875.00000 
 43692.65567		 305.27265			43387.38302		65.73800		324.00000 
 43692.65567		 961.16730			42731.48837		229.64200		875.00000 
 43692.65567		 305.27265			43387.38302		65.73800		324.00000 
 43692.65567		 961.16730			42731.48837		229.64200		875.00000 
 43692.65567		 305.27265			43387.38302		65.73800		324.00000 
 43692.65567		 961.16730			42731.48837		229.64200		875.00000 
 43692.65567		 305.27265			43387.38302		65.73800		324.00000 
 43692.65567		 961.16730			42731.48837		229.64200		875.00000 
 43692.65567		 305.27265			43387.38302		65.73800		324.00000 
 43692.65567		 961.16730			42731.48837		229.64200		875.00000 
 43692.65567		 305.27265			43387.38302		65.73800		324.00000 
 43692.65567		 961.16730			42731.48837		229.64200		875.00000 
 43692.65567		 305.27265			43387.38302		65.73800		324.00000 
 43692.65567		 961.16730			42731.48837		229.64200		875.00000 
 43692.65567		 305.27265			43387.38302		65.73800		324.00000 
 43692.65567		 961.16730			42731.48837		229.64200		875.00000 
 43692.65567		 305.27265			43387.38302		65.73800		324.00000 
 43692.65567		 961.16730			42731.48837		229.64200		875.00000 
 43692.65567		 305.27265			43387.38302		65.73800		324.00000 
 43692.65567		 961.16730			42731.48837		229.64200		875.00000 
 43692.65567		 305.27265			43387.38302		65.73800		324.00000 
 43692.65567		 961.16730			42731.48837		229.64200		875.00000 
 43692.65567		 305.27265			43387.38302		65.73800		324.00000 
 43692.65567		 961.16730			42731.48837		229.64200		875.00000 
 43692.65567		 305.27265			43387.38302		65.73800		324.00000 
 43692.65567		 961.16730			42731.48837		229.64200		875.00000 
 43692.65567		 305.27265			43387.38302		65.73800		324.00000 
 43692.65567		 961.16730			42731.48837		229.64200		875.00000 
 43692.65567		 305.27265			43387.38302		65.73800		324.00000 
 43692.65567		 961.16730			42731.48837		229.64200		875.00000 
 43692.65567		 305.27265			43387.38302		65.73800		324.00000 
 43692.65567		 961.16730			42731.48837		229.64200		875.00000 
 43692.65567		 305.27265			43387.38302		65.73800		324.00000 
 43692.65567		 961.16730			42731.48837		229.64200		875.00000 
 43692.65567		 305.27265			43387.38302		65.73800		324.00000 
 43692.65567		 961.16730			42731.48837		229.64200		875.00000 
 43692.65567		 305.27265			43387.38302		65.73800		324.00000 
 43692.65567		 961.16730			42731.48837		229.64200		875.00000 
 43692.65567		 305.27265			43387.38302		65.73800		324.00000 
 43692.65567		 961.16730			42731.48837		229.64200		875.00000 
 43692.65567		 305.27265			43387.38302		65.73800		324.00000 
 43692.65567		 961.16730			42731.48837		229.64200		875.00000 
 43692.65567		 305.27265			43387.38302		65.73800		324.00000 
 43692.65567		 961.16730			42731.48837		229.64200		875.00000 
 43692.65567		 305.27265			43387.38302		65.73800		324.00000 
 43692.65567		 961.16730			42731.48837		229.64200		875.00000 
 43692.65567		 305.27265			43387.38302		65.73800		324.00000 
 43692.65567		 961.16730			42731.48837		229.64200		875.00000 
 43692.65567		 305.27265			43387.38302		65.73800		324.00000 
 43692.65567		 961.16730			42731.48837		229.64200		875.00000 
 43692.65567		 305.27265			43387.38302		65.73800		324.00000 
 43692.65567		 961.16730			42731.48837		229.64200		875.00000 
 43692.65567		 305.27265			43387.38302		65.73800		324.00000 
 43692.65567		 961.16730			42731.48837		229.64200		875.00000 
 43692.65567		 305.27265			43387.38302		65.73800		324.00000 
 43692.65567		 961.16730			42731.48837		229.64200		875.00000 
 43692.65567		 305.27265			43387.38302		65.73800		324.00000 
 43692.65567		 961.16730			42731.48837		229.64200		875.00000 
 43692.65567		 305.27265			43387.38302		65.73800		324.00000 
 43692.65567		 961.16730			42731.48837		229.64200		875.00000 
 43692.65567		 305.27265			43387.38302		65.73800		324.00000 
 43692.65567		 961.16730			42731.48837		229.64200		875.00000 
 43692.65567		 305.27265			43387.38302		65.73800		324.00000 
 43692.65567		 961.16730			42731.48837		229.64200		875.00000 
 43692.65567		 305.27265			43387.38302		65.73800		324.00000 
 43692.65567		 961.16730			42731.48837		229.64200		875.00000 
 43692.65567		 305.27265			43387.38302		65.73800		324.00000 
 43692.65567		 961.16730			42731.48837		229.64200		875.00000 
 43692.65567		 305.27265			43387.38302		65.73800		324.00000 
 43692.65567		 961.16730			42731.48837		229.64200		875.00000 
 43692.65567		 305.27265			43387.38302		65.73800		324.00000 
 43692.65567		 961.16730			42731.48837		229.64200		875.00000 
 43692.65567		 305.27265			43387.38302		65.73800		324.00000 
 43692.65567		 961.16730			42731.48837		229.64200		875.00000 
 43692.65567		 305.27265			43387.38302		65.73800		324.00000 
 43692.65567		 961.16730			42731.48837		229.64200		875.00000 
 43692.65567		 305.27265			43387.38302		65.73800		324.00000 
 43692.65567		 961.16730			42731.48837		229.64200		875.00000 
 43692.65567		 305.27265			43387.38302		65.73800		324.00000 
 43692.65567		 961.16730			42731.48837		229.64200		875.00000 
 43692.65567		 305.27265			43387.38302		65.73800		324.00000 
 43692.65567		 961.16730			42731.48837		229.64200		875.00000 
 43692.65567		 305.27265			43387.38302		65.73800		324.00000 
 43692.65567		 961.16730			42731.48837		229.64200		875.00000 
 43692.65567		 305.27265			43387.38302		65.73800		324.00000 
 43692.65567		 961.16730			42731.48837		229.64200		875.00000 
 43692.65567		 305.27265			43387.38302		65.73800		324.00000 
 43692.65567		 961.16730			42731.48837		229.64200		875.00000 
 43692.65567		 305.27265			43387.38302		65.73800		324.00000 
 43692.65567		 961.16730			42731.48837		229.64200		875.00000 
 43692.65567		 305.27265			43387.38302		65.73800		324.00000 
 43692.65567		 961.16730			42731.48837		230.38800		875.00000 
 43692.65567		 305.27265			43387.38302		65.73800		324.00000 
 43692.65567		 961.16730			42731.48837		230.38800		875.00000 
 43692.65567		 305.27265			43387.38302		65.73800		324.00000 
 43692.65567		 961.16730			42731.48837		230.38800		875.00000 
 43692.65567		 305.27265			43387.38302		65.73800		324.00000 
 43692.65567		 961.16730			42731.48837		230.38800		875.00000 
 43692.65567		 305.27265			43387.38302		65.73800		324.00000 
 43692.65567		 961.16730			42731.48837		230.38800		875.00000 
 43692.65567		 305.27265			43387.38302		65.73800		324.00000 
 43692.65567		 961.16730			42731.48837		230.38800		875.00000 
 43692.65567		 305.27265			43387.38302		65.73800		324.00000 
 43692.65567		 961.16730			42731.48837		230.38800		875.00000 
 43692.65567		 305.27265			43387.38302		65.73800		324.00000 
 43692.65567		 961.16730			42731.48837		230.38800		875.00000 
 43692.65567		 305.27265			43387.38302		65.73800		324.00000 
 43692.65567		 961.16730			42731.48837		230.38800		875.00000 
 43692.65567		 305.27265			43387.38302		65.73800		324.00000 
 43692.65567		 961.16730			42731.48837		230.38800		875.00000 
 43692.65567		 305.27265			43387.38302		65.73800		324.00000 
 43692.65567		 961.16730			42731.48837		230.38800		875.00000 
 43692.65567		 305.27265			43387.38302		65.73800		324.00000 
 43692.65567		 961.16730			42731.48837		230.38800		875.00000 
 43692.65567		 305.27265			43387.38302		65.73800		324.00000 
 43692.65567		 961.16730			42731.48837		230.38800		875.00000 
 43692.65567		 305.27265			43387.38302		65.73800		324.00000 
 43692.65567		 961.16730			42731.48837		230.38800		875.00000 
 43692.65567		 305.27265			43387.38302		65.73800		324.00000 
 43692.65567		 961.16730			42731.48837		230.38800		875.00000 
 43692.65567		 305.27265			43387.38302		65.73800		324.00000 
 43692.65567		 961.16730			42731.48837		230.38800		875.00000 
 43692.65567		 305.27265			43387.38302		65.73800		324.00000 
 43692.65567		 961.16730			42731.48837		230.38800		875.00000 
 43692.65567		 305.27265			43387.38302		65.73800		324.00000 
 43692.65567		 961.16730			42731.48837		230.38800		875.00000 
 43692.65567		 305.27265			43387.38302		65.73800		324.00000 
 43692.65567		 961.16730			42731.48837		230.38800		875.00000 
 43692.65567		 305.27265			43387.38302		65.73800		324.00000 
 43692.65567		 961.16730			42731.48837		230.38800		875.00000 
 43692.65567		 305.27265			43387.38302		65.73800		324.00000 
 43692.65567		 961.16730			42731.48837		230.38800		875.00000 
 43692.65567		 305.27265			43387.38302		65.73800		324.00000 
 43692.65567		 961.16730			42731.48837		230.38800		875.00000 
 43692.65567		 305.27265			43387.38302		65.73800		324.00000 
 43692.65567		 961.16730			42731.48837		230.38800		875.00000 
 43692.65567		 305.27265			43387.38302		65.73800		324.00000 
 43692.65567		 961.16730			42731.48837		230.38800		875.00000 
 43692.65567		 305.27265			43387.38302		65.73800		324.00000 
 43692.65567		 961.16730			42731.48837		230.38800		875.00000 
 43692.65567		 305.27265			43387.38302		65.73800		324.00000 
 43692.65567		 961.16730			42731.48837		230.38800		875.00000 
 43692.65567		 305.27265			43387.38302		65.73800		324.00000 
 43692.65567		 961.16730			42731.48837		230.38800		875.00000 
 43692.65567		 305.27265			43387.38302		65.73800		324.00000 
 43692.65567		 961.16730			42731.48837		230.38800		875.00000 
 43692.65567		 305.27265			43387.38302		65.73800		324.00000 
 43692.65567		 961.16730			42731.48837		230.38800		875.00000 
 43692.65567		 305.27265			43387.38302		65.73800		324.00000 
 43692.65567		 961.16730			42731.48837		230.38800		875.00000 
 43692.65567		 305.27265			43387.38302		65.73800		324.00000 
 43692.65567		 961.16730			42731.48837		230.38800		875.00000 
 43692.65567		 305.27265			43387.38302		65.73800		324.00000 
 43692.65567		 961.16730			42731.48837		230.38800		875.00000 
 43692.65567		 305.27265			43387.38302		65.73800		324.00000 
 43692.65567		 961.16730			42731.48837		230.38800		875.00000 
 43692.65567		 305.27265			43387.38302		65.73800		324.00000 
 43692.65567		 961.16730			42731.48837		230.38800		875.00000 
 43692.65567		 305.27265			43387.38302		65.73800		324.00000 
 43692.65567		 961.16730			42731.48837		230.38800		875.00000 
 43692.65567		 305.27265			43387.38302		65.73800		324.00000 
 43692.65567		 961.16730			42731.48837		230.38800		875.00000 
 43692.65567		 305.27265			43387.38302		65.73800		324.00000 
 43692.65567		 961.16730			42731.48837		230.38800		875.00000 
 43692.65567		 305.27265			43387.38302		65.73800		324.00000 
 43692.65567		 961.16730			42731.48837		230.38800		875.00000 
 43692.65567		 305.27265			43387.38302		65.73800		324.00000 
 43692.65567		 961.16730			42731.48837		230.38800		875.00000 
 43692.65567		 305.27265			43387.38302		65.73800		324.00000 
 43692.65567		 961.16730			42731.48837		230.38800		875.00000 
 43692.65567		 305.27265			43387.38302		65.73800		324.00000 
 43692.65567		 961.16730			42731.48837		230.38800		875.00000 
 43692.65567		 305.27265			43387.38302		65.73800		324.00000 
 43692.65567		 961.16730			42731.48837		230.38800		875.00000 
 43692.65567		 305.27265			43387.38302		65.73800		324.00000 
 43692.65567		 961.16730			42731.48837		230.38800		875.00000 
 43692.65567		 305.27265			43387.38302		65.73800		324.00000 
 43692.65567		 961.16730			42731.48837		230.38800		875.00000 
 43692.65567		 305.27265			43387.38302		65.73800		324.00000 
 43692.65567		 961.16730			42731.48837		230.38800		875.00000 
 43692.65567		 305.27265			43387.38302		65.73800		324.00000 
 43692.65567		 961.16730			42731.48837		230.38800		875.00000 
 43692.65567		 305.27265			43387.38302		65.73800		324.00000 
 43692.65567		 961.16730			42731.48837		230.38800		875.00000 
 43692.65567		 305.27265			43387.38302		65.73800		324.00000 
 43692.65567		 961.16730			42731.48837		230.38800		875.00000 
 43692.65567		 305.27265			43387.38302		65.73800		324.00000 
 43692.65567		 961.16730			42731.48837		230.38800		875.00000 
 43692.65567		 305.27265			43387.38302		65.73800		324.00000 
 43692.65567		 961.16730			42731.48837		230.38800		875.00000 
 43692.65567		 305.27265			43387.38302		65.73800		324.00000 
 43692.65567		 961.16730			42731.48837		230.38800		875.00000 
 43692.65567		 305.27265			43387.38302		65.73800		324.00000 
 43692.65567		 961.16730			42731.48837		230.38800		875.00000 
 43692.65567		 305.27265			43387.38302		65.73800		324.00000 
 43692.65567		 961.16730			42731.48837		230.38800		875.00000 
 43692.65567		 305.27265			43387.38302		65.73800		324.00000 
 43692.65567		 961.16730			42731.48837		230.38800		875.00000 
 43692.65567		 305.27265			43387.38302		65.73800		324.00000 
 43692.65567		 961.16730			42731.48837		230.38800		875.00000 
 43692.65567		 305.27265			43387.38302		65.73800		324.00000 
 43692.65567		 961.16730			42731.48837		230.38800		875.00000 
 43692.65567		 305.27265			43387.38302		65.73800		324.00000 
 43692.65567		 961.16730			42731.48837		230.38800		875.00000 
 43692.65567		 305.27265			43387.38302		65.73800		324.00000 
 43692.65567		 961.16730			42731.48837		230.38800		875.00000 
 43692.65567		 305.27265			43387.38302		65.73800		324.00000 
 43692.65567		 961.16730			42731.48837		230.38800		875.00000 
 43692.65567		 305.27265			43387.38302		65.73800		324.00000 
 43692.65567		 961.16730			42731.48837		230.38800		875.00000 
 43692.65567		 305.27265			43387.38302		65.73800		324.00000 
 43692.65567		 961.16730			42731.48837		230.38800		875.00000 
 43692.65567		 305.27265			43387.38302		65.73800		324.00000 
 43692.65567		 961.16730			42731.48837		230.38800		875.00000 
 43692.65567		 305.27265			43387.38302		65.73800		324.00000 
 43692.65567		 961.16730			42731.48837		230.38800		875.00000 
 43692.65567		 305.27265			43387.38302		65.73800		324.00000 
 43692.65567		 961.16730			42731.48837		230.38800		875.00000 
 43692.65567		 305.27265			43387.38302		65.73800		324.00000 
 43692.65567		 961.16730			42731.48837		230.38800		875.00000 
 43692.65567		 305.27265			43387.38302		65.73800		324.00000 
 43692.65567		 961.16730			42731.48837		230.38800		875.00000 
 43692.65567		 305.27265			43387.38302		65.73800		324.00000 
 43692.65567		 961.16730			42731.48837		230.14400		875.00000 
 43692.65567		 305.27265			43387.38302		65.73800		324.00000 
 43692.65567		 961.16730			42731.48837		230.14400		875.00000 
 43692.65567		 305.27265			43387.38302		65.73800		324.00000 
 43692.65567		 961.16730			42731.48837		230.14400		875.00000 
 43692.65567		 305.27265			43387.38302		65.73800		324.00000 
 43692.65567		 961.16730			42731.48837		230.14400		875.00000 
 43692.65567		 305.27265			43387.38302		65.73800		324.00000 
 43692.65567		 961.16730			42731.48837		230.14400		875.00000 
 43692.65567		 305.27265			43387.38302		65.73800		324.00000 
 43692.65567		 961.16730			42731.48837		230.14400		875.00000 
 43692.65567		 305.27265			43387.38302		65.73800		324.00000 
 43692.65567		 961.16730			42731.48837		230.14400		875.00000 
 43692.65567		 305.27265			43387.38302		65.73800		324.00000 
 43692.65567		 961.16730			42731.48837		230.14400		875.00000 
 43692.65567		 305.27265			43387.38302		65.73800		324.00000 
 43692.65567		 961.16730			42731.48837		230.14400		875.00000 
 43692.65567		 305.27265			43387.38302		65.73800		324.00000 
 43692.65567		 961.16730			42731.48837		230.14400		875.00000 
 43692.65567		 305.27265			43387.38302		65.73800		324.00000 
 43692.65567		 961.16730			42731.48837		230.14400		875.00000 
 43692.65567		 305.27265			43387.38302		65.73800		324.00000 
 43692.65567		 961.16730			42731.48837		230.14400		875.00000 
 43692.65567		 305.27265			43387.38302		65.73800		324.00000 
 43692.65567		 961.16730			42731.48837		230.14400		875.00000 
 43692.65567		 305.27265			43387.38302		65.73800		324.00000 
 43692.65567		 961.16730			42731.48837		230.14400		875.00000 
 43692.65567		 305.27265			43387.38302		65.73800		324.00000 
 43692.65567		 961.16730			42731.48837		230.14400		875.00000 
 43692.65567		 305.27265			43387.38302		65.73800		324.00000 
 43692.65567		 961.16730			42731.48837		230.14400		875.00000 
 43692.65567		 305.27265			43387.38302		65.73800		324.00000 
 43692.65567		 961.16730			42731.48837		230.14400		875.00000 
 43692.65567		 305.27265			43387.38302		65.73800		324.00000 
 43692.65567		 961.16730			42731.48837		230.14400		875.00000 
 43692.65567		 305.27265			43387.38302		65.73800		324.00000 
 43692.65567		 961.16730			42731.48837		230.14400		875.00000 
 43692.65567		 305.27265			43387.38302		65.73800		324.00000 
 43692.65567		 961.16730			42731.48837		230.14400		875.00000 
 43692.65567		 305.27265			43387.38302		65.73800		324.00000 
 43692.65567		 961.16730			42731.48837		230.14400		875.00000 
 43692.65567		 305.27265			43387.38302		65.73800		324.00000 
 43692.65567		 961.16730			42731.48837		230.14400		875.00000 
 43692.65567		 305.27265			43387.38302		65.73800		324.00000 
 43692.65567		 961.16730			42731.48837		230.14400		875.00000 
 43692.65567		 305.27265			43387.38302		65.73800		324.00000 
 43692.65567		 961.16730			42731.48837		230.14400		875.00000 
 43692.65567		 305.27265			43387.38302		65.73800		324.00000 
 43692.65567		 961.16730			42731.48837		230.14400		875.00000 
 43692.65567		 305.27265			43387.38302		65.73800		324.00000 
 43692.65567		 961.16730			42731.48837		230.14400		875.00000 
 43692.65567		 305.27265			43387.38302		65.73800		324.00000 
 43692.65567		 961.16730			42731.48837		230.14400		875.00000 
 43692.65567		 305.27265			43387.38302		65.73800		324.00000 
 43692.65567		 961.16730			42731.48837		230.14400		875.00000 
 43692.65567		 305.27265			43387.38302		65.73800		324.00000 
 43692.65567		 961.16730			42731.48837		230.14400		875.00000 
 43692.65567		 305.27265			43387.38302		65.73800		324.00000 
 43692.65567		 961.16730			42731.48837		230.14400		875.00000 
 43692.65567		 305.27265			43387.38302		65.73800		324.00000 
 43692.65567		 961.16730			42731.48837		230.14400		875.00000 
 43692.65567		 305.27265			43387.38302		65.73800		324.00000 
 43692.65567		 961.16730			42731.48837		230.14400		875.00000 
 43692.65567		 305.27265			43387.38302		65.73800		324.00000 
 43692.65567		 961.16730			42731.48837		230.14400		875.00000 
 43692.65567		 305.27265			43387.38302		65.73800		324.00000 
 43692.65567		 961.16730			42731.48837		230.14400		875.00000 
 43692.65567		 305.27265			43387.38302		65.73800		324.00000 
 43692.65567		 961.16730			42731.48837		230.14400		875.00000 
 43692.65567		 305.27265			43387.38302		65.73800		324.00000 
 43692.65567		 961.16730			42731.48837		230.14400		875.00000 
 43692.65567		 305.27265			43387.38302		65.73800		324.00000 
 43692.65567		 961.16730			42731.48837		230.14400		875.00000 
 43692.65567		 305.27265			43387.38302		65.73800		324.00000 
 43692.65567		 961.16730			42731.48837		230.14400		875.00000 
 43692.65567		 305.27265			43387.38302		65.73800		324.00000 
 43692.65567		 961.16730			42731.48837		230.14400		875.00000 
 43692.65567		 305.27265			43387.38302		65.73800		324.00000 
 43692.65567		 961.16730			42731.48837		230.14400		875.00000 
 43692.65567		 305.27265			43387.38302		65.73800		324.00000 
 43692.65567		 961.16730			42731.48837		230.14400		875.00000 
 43692.65567		 305.27265			43387.38302		65.73800		324.00000 
 43692.65567		 961.16730			42731.48837		230.14400		875.00000 
 43692.65567		 305.27265			43387.38302		65.73800		324.00000 
 43692.65567		 961.16730			42731.48837		230.14400		875.00000 
 43692.65567		 305.27265			43387.38302		65.73800		324.00000 
 43692.65567		 961.16730			42731.48837		230.14400		875.00000 
 43692.65567		 305.27265			43387.38302		65.73800		324.00000 
 43692.65567		 961.16730			42731.48837		230.14400		875.00000 
 43692.65567		 305.27265			43387.38302		65.73800		324.00000 
 43692.65567		 961.16730			42731.48837		230.14400		875.00000 
 43692.65567		 305.27265			43387.38302		65.73800		324.00000 
 43692.65567		 961.16730			42731.48837		230.14400		875.00000 
 43692.65567		 305.27265			43387.38302		65.73800		324.00000 
 43692.65567		 961.16730			42731.48837		230.14400		875.00000 
 43692.65567		 305.27265			43387.38302		65.73800		324.00000 
 43692.65567		 961.16730			42731.48837		230.14400		875.00000 
 43692.65567		 305.27265			43387.38302		65.73800		324.00000 
 43692.65567		 961.16730			42731.48837		230.14400		875.00000 
 43692.65567		 305.27265			43387.38302		65.73800		324.00000 
 43692.65567		 961.16730			42731.48837		230.14400		875.00000 
 43692.65567		 305.27265			43387.38302		65.73800		324.00000 
 43692.65567		 961.16730			42731.48837		230.14400		875.00000 
 43692.65567		 305.27265			43387.38302		65.73800		324.00000 
 43692.65567		 961.16730			42731.48837		230.14400		875.00000 
 43692.65567		 305.27265			43387.38302		65.73800		324.00000 
 43692.65567		 961.16730			42731.48837		230.14400		875.00000 
 43692.65567		 305.27265			43387.38302		65.73800		324.00000 
 43692.65567		 961.16730			42731.48837		230.14400		875.00000 
 43692.65567		 305.27265			43387.38302		65.73800		324.00000 
 43692.65567		 961.16730			42731.48837		230.14400		875.00000 
 43692.65567		 305.27265			43387.38302		65.73800		324.00000 
 43692.65567		 961.16730			42731.48837		230.14400		875.00000 
 43692.65567		 305.27265			43387.38302		65.73800		324.00000 
 43692.65567		 961.16730			42731.48837		230.14400		875.00000 
 43692.65567		 305.27265			43387.38302		65.73800		324.00000 
 43692.65567		 961.16730			42731.48837		230.14400		875.00000 
 43692.65567		 305.27265			43387.38302		65.73800		324.00000 
 43692.65567		 961.16730			42731.48837		230.14400		875.00000 
 43692.65567		 305.27265			43387.38302		65.73800		324.00000 
 43692.65567		 961.16730			42731.48837		230.14400		875.00000 
 43692.65567		 305.27265			43387.38302		65.73800		324.00000 
 43692.65567		 961.16730			42731.48837		230.14400		875.00000 
 43692.65567		 305.27265			43387.38302		65.73800		324.00000 
 43692.65567		 961.16730			42731.48837		230.14400		875.00000 
 43692.65567		 305.27265			43387.38302		65.73800		324.00000 
 43692.65567		 961.16730			42731.48837		229.54400		875.00000 
 43692.65567		 305.27265			43387.38302		65.73800		324.00000 
 43692.65567		 961.16730			42731.48837		229.54400		875.00000 
 43692.65567		 305.27265			43387.38302		65.73800		324.00000 
 43692.65567		 961.16730			42731.48837		229.54400		875.00000 
 43692.65567		 305.27265			43387.38302		65.73800		324.00000 
 43692.65567		 961.16730			42731.48837		229.54400		875.00000 
 43692.65567		 305.27265			43387.38302		65.73800		324.00000 
 43692.65567		 961.16730			42731.48837		229.54400		875.00000 
 43692.65567		 305.27265			43387.38302		65.73800		324.00000 
 43692.65567		 961.16730			42731.48837		229.54400		875.00000 
 43692.65567		 305.27265			43387.38302		65.73800		324.00000 
 43692.65567		 961.16730			42731.48837		229.54400		875.00000 
 43692.65567		 305.27265			43387.38302		65.73800		324.00000 
 43692.65567		 961.16730			42731.48837		229.54400		875.00000 
 43692.65567		 305.27265			43387.38302		65.73800		324.00000 
 43692.65567		 961.16730			42731.48837		229.54400		875.00000 
 43692.65567		 305.27265			43387.38302		65.73800		324.00000 
 43692.65567		 961.16730			42731.48837		229.54400		875.00000 
 43692.65567		 305.27265			43387.38302		65.73800		324.00000 
 43692.65567		 961.16730			42731.48837		229.54400		875.00000 
 43692.65567		 305.27265			43387.38302		65.73800		324.00000 
 43692.65567		 961.16730			42731.48837		229.54400		875.00000 
 43692.65567		 305.27265			43387.38302		65.73800		324.00000 
 43692.65567		 961.16730			42731.48837		229.54400		875.00000 
 43692.65567		 305.27265			43387.38302		65.73800		324.00000 
 43692.65567		 961.16730			42731.48837		229.54400		875.00000 
 43692.65567		 305.27265			43387.38302		65.73800		324.00000 
 43692.65567		 961.16730			42731.48837		229.54400		875.00000 
 43692.65567		 305.27265			43387.38302		65.73800		324.00000 
 43692.65567		 961.16730			42731.48837		229.54400		875.00000 
 43692.65567		 305.27265			43387.38302		65.73800		324.00000 
 43692.65567		 961.16730			42731.48837		229.54400		875.00000 
 43692.65567		 305.27265			43387.38302		65.73800		324.00000 
 43692.65567		 961.16730			42731.48837		229.54400		875.00000 
 43692.65567		 305.27265			43387.38302		65.73800		324.00000 
 43692.65567		 961.16730			42731.48837		229.54400		875.00000 
 43692.65567		 305.27265			43387.38302		65.73800		324.00000 
 43692.65567		 961.16730			42731.48837		229.54400		875.00000 
 43692.65567		 305.27265			43387.38302		65.73800		324.00000 
 43692.65567		 961.16730			42731.48837		229.54400		875.00000 
 43692.65567		 305.27265			43387.38302		65.73800		324.00000 
 43692.65567		 961.16730			42731.48837		229.54400		875.00000 
 43692.65567		 305.27265			43387.38302		65.73800		324.00000 
 43692.65567		 961.16730			42731.48837		229.54400		875.00000 
 43692.65567		 305.27265			43387.38302		65.73800		324.00000 
 43692.65567		 961.16730			42731.48837		229.54400		875.00000 
 43692.65567		 305.27265			43387.38302		65.73800		324.00000 
 43692.65567		 961.16730			42731.48837		229.54400		875.00000 
 43692.65567		 305.27265			43387.38302		65.73800		324.00000 
 43692.65567		 961.16730			42731.48837		229.54400		875.00000 
 43692.65567		 305.27265			43387.38302		65.73800		324.00000 
 43692.65567		 961.16730			42731.48837		229.54400		875.00000 
 43692.65567		 305.27265			43387.38302		65.73800		324.00000 
 43692.65567		 961.16730			42731.48837		229.54400		875.00000 
 43692.65567		 305.27265			43387.38302		65.73800		324.00000 
 43692.65567		 961.16730			42731.48837		229.54400		875.00000 
 43692.65567		 305.27265			43387.38302		65.73800		324.00000 
 43692.65567		 961.16730			42731.48837		229.54400		875.00000 
 43692.65567		 305.27265			43387.38302		65.73800		324.00000 
 43692.65567		 961.16730			42731.48837		229.54400		875.00000 
 43692.65567		 305.27265			43387.38302		65.73800		324.00000 
 43692.65567		 961.16730			42731.48837		229.54400		875.00000 
 43692.65567		 305.27265			43387.38302		65.73800		324.00000 
 43692.65567		 961.16730			42731.48837		229.54400		875.00000 
 43692.65567		 305.27265			43387.38302		65.73800		324.00000 
 43692.65567		 961.16730			42731.48837		229.54400		875.00000 
 43692.65567		 305.27265			43387.38302		65.73800		324.00000 
 43692.65567		 961.16730			42731.48837		229.54400		875.00000 
 43692.65567		 305.27265			43387.38302		65.73800		324.00000 
 43692.65567		 961.16730			42731.48837		229.54400		875.00000 
 43692.65567		 305.27265			43387.38302		65.73800		324.00000 
 43692.65567		 961.16730			42731.48837		229.54400		875.00000 
 43692.65567		 305.27265			43387.38302		65.73800		324.00000 
 43692.65567		 961.16730			42731.48837		229.54400		875.00000 
 43692.65567		 305.27265			43387.38302		65.73800		324.00000 
 43692.65567		 961.16730			42731.48837		229.54400		875.00000 
 43692.65567		 305.27265			43387.38302		65.73800		324.00000 
 43692.65567		 961.16730			42731.48837		229.54400		875.00000 
 43692.65567		 305.27265			43387.38302		65.73800		324.00000 
 43692.65567		 961.16730			42731.48837		229.54400		875.00000 
 43692.65567		 305.27265			43387.38302		65.73800		324.00000 
 43692.65567		 961.16730			42731.48837		229.54400		875.00000 
 43692.65567		 305.27265			43387.38302		65.73800		324.00000 
 43692.65567		 961.16730			42731.48837		229.54400		875.00000 
 43692.65567		 305.27265			43387.38302		65.73800		324.00000 
 43692.65567		 961.16730			42731.48837		229.54400		875.00000 
 43692.65567		 305.27265			43387.38302		65.73800		324.00000 
 43692.65567		 961.16730			42731.48837		229.54400		875.00000 
 43692.65567		 305.27265			43387.38302		65.73800		324.00000 
 43692.65567		 961.16730			42731.48837		229.54400		875.00000 
 43692.65567		 305.27265			43387.38302		65.73800		324.00000 
 43692.65567		 961.16730			42731.48837		229.54400		875.00000 
 43692.65567		 305.27265			43387.38302		65.73800		324.00000 
 43692.65567		 961.16730			42731.48837		229.54400		875.00000 
 43692.65567		 305.27265			43387.38302		65.73800		324.00000 
 43692.65567		 961.16730			42731.48837		229.54400		875.00000 
 43692.65567		 305.27265			43387.38302		65.73800		324.00000 
 43692.65567		 961.16730			42731.48837		229.54400		875.00000 
 43692.65567		 305.27265			43387.38302		65.73800		324.00000 
 43692.65567		 961.16730			42731.48837		229.54400		875.00000 
 43692.65567		 305.27265			43387.38302		65.73800		324.00000 
 43692.65567		 961.16730			42731.48837		229.54400		875.00000 
 43692.65567		 305.27265			43387.38302		65.73800		324.00000 
 43692.65567		 961.16730			42731.48837		229.54400		875.00000 
 43692.65567		 305.27265			43387.38302		65.73800		324.00000 
 43692.65567		 961.16730			42731.48837		229.54400		875.00000 
 43692.65567		 305.27265			43387.38302		65.73800		324.00000 
 43692.65567		 961.16730			42731.48837		229.54400		875.00000 
 43692.65567		 305.27265			43387.38302		65.73800		324.00000 
 43692.65567		 961.16730			42731.48837		229.54400		875.00000 
 43692.65567		 305.27265			43387.38302		65.73800		324.00000 
 43692.65567		 961.16730			42731.48837		229.54400		875.00000 
 43692.65567		 305.27265			43387.38302		65.73800		324.00000 
 43692.65567		 961.16730			42731.48837		229.54400		875.00000 
 43692.65567		 305.27265			43387.38302		65.73800		324.00000 
 43692.65567		 961.16730			42731.48837		229.54400		875.00000 
 43692.65567		 305.27265			43387.38302		65.73800		324.00000 
 43692.65567		 961.16730			42731.48837		229.54400		875.00000 
 43692.65567		 305.27265			43387.38302		65.73800		324.00000 
 43692.65567		 961.16730			42731.48837		229.54400		875.00000 
 43692.65567		 305.27265			43387.38302		65.73800		324.00000 
 43692.65567		 961.16730			42731.48837		229.54400		875.00000 
 43692.65567		 305.27265			43387.38302		65.73800		324.00000 
 43692.65567		 961.16730			42731.48837		229.54400		875.00000 
 43692.65567		 305.27265			43387.38302		65.73800		324.00000 
 43692.65567		 961.16730			42731.48837		229.54400		875.00000 
 43692.65567		 305.27265			43387.38302		65.73800		324.00000 
 43692.65567		 961.16730			42731.48837		228.94600		875.00000 
 43692.65567		 305.27265			43387.38302		65.73800		324.00000 
 43692.65567		 961.16730			42731.48837		228.94600		875.00000 
 43692.65567		 305.27265			43387.38302		65.73800		324.00000 
 43692.65567		 961.16730			42731.48837		228.94600		875.00000 
 43692.65567		 305.27265			43387.38302		65.73800		324.00000 
 43692.65567		 961.16730			42731.48837		228.94600		875.00000 
 43692.65567		 305.27265			43387.38302		65.73800		324.00000 
 43692.65567		 961.16730			42731.48837		228.94600		875.00000 
 43692.65567		 305.27265			43387.38302		65.73800		324.00000 
 43692.65567		 961.16730			42731.48837		228.94600		875.00000 
 43692.65567		 305.27265			43387.38302		65.73800		324.00000 
 43692.65567		 961.16730			42731.48837		228.94600		875.00000 
 43692.65567		 305.27265			43387.38302		65.73800		324.00000 
 43692.65567		 961.16730			42731.48837		228.94600		875.00000 
 43692.65567		 305.27265			43387.38302		65.73800		324.00000 
 43692.65567		 961.16730			42731.48837		228.94600		875.00000 
 43692.65567		 305.27265			43387.38302		65.73800		324.00000 
 43692.65567		 961.16730			42731.48837		228.94600		875.00000 
 43692.65567		 305.27265			43387.38302		65.73800		324.00000 
 43692.65567		 961.16730			42731.48837		228.94600		875.00000 
 43692.65567		 305.27265			43387.38302		65.73800		324.00000 
 43692.65567		 961.16730			42731.48837		228.94600		875.00000 
 43692.65567		 305.27265			43387.38302		65.73800		324.00000 
 43692.65567		 961.16730			42731.48837		228.94600		875.00000 
 43692.65567		 305.27265			43387.38302		65.73800		324.00000 
 43692.65567		 961.16730			42731.48837		228.94600		875.00000 
 43692.65567		 305.27265			43387.38302		65.73800		324.00000 
 43692.65567		 961.16730			42731.48837		228.94600		875.00000 
 43692.65567		 305.27265			43387.38302		65.73800		324.00000 
 43692.65567		 961.16730			42731.48837		228.94600		875.00000 
 43692.65567		 305.27265			43387.38302		65.73800		324.00000 
 43692.65567		 961.16730			42731.48837		228.94600		875.00000 
 43692.65567		 305.27265			43387.38302		65.73800		324.00000 
 43692.65567		 961.16730			42731.48837		228.94600		875.00000 
 43692.65567		 305.27265			43387.38302		65.73800		324.00000 
 43692.65567		 961.16730			42731.48837		228.94600		875.00000 
 43692.65567		 305.27265			43387.38302		65.73800		324.00000 
 43692.65567		 961.16730			42731.48837		228.94600		875.00000 
 43692.65567		 305.27265			43387.38302		65.73800		324.00000 
 43692.65567		 961.16730			42731.48837		228.94600		875.00000 
 43692.65567		 305.27265			43387.38302		65.73800		324.00000 
 43692.65567		 961.16730			42731.48837		228.94600		875.00000 
 43692.65567		 305.27265			43387.38302		65.73800		324.00000 
 43692.65567		 961.16730			42731.48837		228.94600		875.00000 
 43692.65567		 305.27265			43387.38302		65.73800		324.00000 
 43692.65567		 961.16730			42731.48837		228.94600		875.00000 
 43692.65567		 305.27265			43387.38302		65.73800		324.00000 
 43692.65567		 961.16730			42731.48837		228.94600		875.00000 
 43692.65567		 305.27265			43387.38302		65.73800		324.00000 
 43692.65567		 961.16730			42731.48837		228.94600		875.00000 
 43692.65567		 305.27265			43387.38302		65.73800		324.00000 
 43692.65567		 961.16730			42731.48837		228.94600		875.00000 
 43692.65567		 305.27265			43387.38302		65.73800		324.00000 
 43692.65567		 961.16730			42731.48837		228.94600		875.00000 
 43692.65567		 305.27265			43387.38302		65.73800		324.00000 
 43692.65567		 961.16730			42731.48837		228.94600		875.00000 
 43692.65567		 305.27265			43387.38302		65.73800		324.00000 
 43692.65567		 961.16730			42731.48837		228.94600		875.00000 
 43692.65567		 305.27265			43387.38302		65.73800		324.00000 
 43692.65567		 961.16730			42731.48837		228.94600		875.00000 
 43692.65567		 305.27265			43387.38302		65.73800		324.00000 
 43692.65567		 961.16730			42731.48837		228.94600		875.00000 
 43692.65567		 305.27265			43387.38302		65.73800		324.00000 
 43692.65567		 961.16730			42731.48837		228.94600		875.00000 
 43692.65567		 305.27265			43387.38302		65.73800		324.00000 
 43692.65567		 961.16730			42731.48837		228.94600		875.00000 
 43692.65567		 305.27265			43387.38302		65.73800		324.00000 
 43692.65567		 961.16730			42731.48837		228.94600		875.00000 
 43692.65567		 305.27265			43387.38302		65.73800		324.00000 
 43692.65567		 961.16730			42731.48837		228.94600		875.00000 
 43692.65567		 305.27265			43387.38302		65.73800		324.00000 
 43692.65567		 961.16730			42731.48837		228.94600		875.00000 
 43692.65567		 305.27265			43387.38302		65.73800		324.00000 
 43692.65567		 961.16730			42731.48837		228.94600		875.00000 
 43692.65567		 305.27265			43387.38302		65.73800		324.00000 
 43692.65567		 961.16730			42731.48837		228.94600		875.00000 
 43692.65567		 305.27265			43387.38302		65.73800		324.00000 
 43692.65567		 961.16730			42731.48837		228.94600		875.00000 
 43692.65567		 305.27265			43387.38302		65.73800		324.00000 
 43692.65567		 961.16730			42731.48837		228.94600		875.00000 
 43692.65567		 305.27265			43387.38302		65.73800		324.00000 
 43692.65567		 961.16730			42731.48837		228.94600		875.00000 
 43692.65567		 305.27265			43387.38302		68.68200		324.00000 
 43692.65567		 961.16730			42731.48837		228.94600		875.00000 
 43692.65567		 305.27265			43387.38302		68.68200		324.00000 
 43692.65567		 961.16730			42731.48837		228.94600		875.00000 
 43692.65567		 305.27265			43387.38302		68.68200		324.00000 
 43692.65567		 961.16730			42731.48837		228.94600		875.00000 
 43692.65567		 305.27265			43387.38302		68.68200		324.00000 
 43692.65567		 961.16730			42731.48837		228.94600		875.00000 
 43692.65567		 305.27265			43387.38302		68.68200		324.00000 
 43692.65567		 961.16730			42731.48837		228.94600		875.00000 
 43692.65567		 305.27265			43387.38302		68.68200		324.00000 
 43692.65567		 961.16730			42731.48837		228.94600		875.00000 
 43692.65567		 305.27265			43387.38302		68.68200		324.00000 
 43692.65567		 961.16730			42731.48837		228.94600		875.00000 
 43692.65567		 305.27265			43387.38302		68.68200		324.00000 
 43692.65567		 961.16730			42731.48837		228.94600		875.00000 
 43692.65567		 305.27265			43387.38302		68.68200		324.00000 
 43692.65567		 961.16730			42731.48837		228.94600		875.00000 
 43692.65567		 305.27265			43387.38302		68.68200		324.00000 
 43692.65567		 961.16730			42731.48837		228.94600		875.00000 
 43692.65567		 305.27265			43387.38302		68.68200		324.00000 
 43692.65567		 961.16730			42731.48837		228.94600		875.00000 
 43692.65567		 305.27265			43387.38302		68.68200		324.00000 
 43692.65567		 961.16730			42731.48837		228.94600		875.00000 
 43692.65567		 305.27265			43387.38302		68.68200		324.00000 
 43692.65567		 961.16730			42731.48837		228.94600		875.00000 
 43692.65567		 305.27265			43387.38302		68.68200		324.00000 
 43692.65567		 961.16730			42731.48837		229.54400		875.00000 
 43692.65567		 305.27265			43387.38302		68.68200		324.00000 
 43692.65567		 961.16730			42731.48837		229.54400		875.00000 
 43692.65567		 305.27265			43387.38302		68.68200		324.00000 
 43692.65567		 961.16730			42731.48837		229.54400		875.00000 
 43692.65567		 305.27265			43387.38302		68.68200		324.00000 
 43692.65567		 961.16730			42731.48837		229.54400		875.00000 
 43692.65567		 305.27265			43387.38302		68.68200		324.00000 
 43692.65567		 961.16730			42731.48837		229.54400		875.00000 
 43692.65567		 305.27265			43387.38302		68.68200		324.00000 
 43692.65567		 961.16730			42731.48837		229.54400		875.00000 
 43692.65567		 305.27265			43387.38302		68.68200		324.00000 
 43692.65567		 961.16730			42731.48837		229.54400		875.00000 
 43692.65567		 305.27265			43387.38302		68.68200		324.00000 
 43692.65567		 961.16730			42731.48837		229.54400		875.00000 
 43692.65567		 305.27265			43387.38302		68.68200		324.00000 
 43692.65567		 961.16730			42731.48837		229.54400		875.00000 
 43692.65567		 305.27265			43387.38302		68.68200		324.00000 
 43692.65567		 961.16730			42731.48837		229.54400		875.00000 
 43692.65567		 305.27265			43387.38302		68.68200		324.00000 
 43692.65567		 961.16730			42731.48837		229.54400		875.00000 
 43692.65567		 305.27265			43387.38302		68.68200		324.00000 
 43692.65567		 961.16730			42731.48837		229.54400		875.00000 
 43692.65567		 305.27265			43387.38302		68.68200		324.00000 
 43692.65567		 961.16730			42731.48837		229.54400		875.00000 
 43692.65567		 305.27265			43387.38302		68.68200		324.00000 
 43692.65567		 961.16730			42731.48837		229.54400		875.00000 
 43692.65567		 305.27265			43387.38302		68.68200		324.00000 
 43692.65567		 961.16730			42731.48837		229.54400		875.00000 
 43692.65567		 305.27265			43387.38302		68.68200		324.00000 
 43692.65567		 961.16730			42731.48837		229.54400		875.00000 
 43692.65567		 305.27265			43387.38302		68.68200		324.00000 
 43692.65567		 961.16730			42731.48837		229.54400		875.00000 
 43692.65567		 305.27265			43387.38302		68.68200		324.00000 
 43692.65567		 961.16730			42731.48837		229.54400		875.00000 
 43692.65567		 305.27265			43387.38302		68.68200		324.00000 
 43692.65567		 961.16730			42731.48837		229.54400		875.00000 
 43692.65567		 305.27265			43387.38302		68.68200		324.00000 
 43692.65567		 961.16730			42731.48837		229.54400		875.00000 
 43692.65567		 305.27265			43387.38302		68.68200		324.00000 
 43692.65567		 961.16730			42731.48837		229.54400		875.00000 
 43692.65567		 305.27265			43387.38302		68.68200		324.00000 
 43692.65567		 961.16730			42731.48837		229.54400		875.00000 
 43692.65567		 305.27265			43387.38302		68.68200		324.00000 
 43692.65567		 961.16730			42731.48837		229.54400		875.00000 
 43692.65567		 305.27265			43387.38302		68.68200		324.00000 
 43692.65567		 961.16730			42731.48837		229.54400		875.00000 
 43692.65567		 305.27265			43387.38302		68.68200		324.00000 
 43692.65567		 961.16730			42731.48837		229.54400		875.00000 
 43692.65567		 305.27265			43387.38302		68.68200		324.00000 
 43692.65567		 961.16730			42731.48837		229.54400		875.00000 
 43692.65567		 305.27265			43387.38302		68.68200		324.00000 
 43692.65567		 961.16730			42731.48837		229.54400		875.00000 
 43692.65567		 305.27265			43387.38302		68.68200		324.00000 
 43692.65567		 961.16730			42731.48837		229.54400		875.00000 
 43692.65567		 305.27265			43387.38302		68.68200		324.00000 
 43692.65567		 961.16730			42731.48837		229.54400		875.00000 
 43692.65567		 305.27265			43387.38302		68.68200		324.00000 
 43692.65567		 961.16730			42731.48837		229.54400		875.00000 
 43692.65567		 305.27265			43387.38302		68.68200		324.00000 
 43692.65567		 961.16730			42731.48837		229.54400		875.00000 
 43692.65567		 305.27265			43387.38302		68.68200		324.00000 
 43692.65567		 961.16730			42731.48837		229.54400		875.00000 
 43692.65567		 305.27265			43387.38302		68.68200		324.00000 
 43692.65567		 961.16730			42731.48837		229.54400		875.00000 
 43692.65567		 305.27265			43387.38302		68.68200		324.00000 
 43692.65567		 961.16730			42731.48837		229.54400		875.00000 
 43692.65567		 305.27265			43387.38302		68.68200		324.00000 
 43692.65567		 961.16730			42731.48837		229.54400		875.00000 
 43692.65567		 305.27265			43387.38302		68.68200		324.00000 
 43692.65567		 961.16730			42731.48837		229.54400		875.00000 
 43692.65567		 305.27265			43387.38302		68.68200		324.00000 
 43692.65567		 961.16730			42731.48837		229.54400		875.00000 
 43692.65567		 305.27265			43387.38302		68.68200		324.00000 
 43692.65567		 961.16730			42731.48837		229.54400		875.00000 
 43692.65567		 305.27265			43387.38302		68.68200		324.00000 
 43692.65567		 961.16730			42731.48837		229.54400		875.00000 
 43692.65567		 305.27265			43387.38302		68.68200		324.00000 
 43692.65567		 961.16730			42731.48837		229.54400		875.00000 
 43692.65567		 305.27265			43387.38302		68.68200		324.00000 
 43692.65567		 961.16730			42731.48837		229.54400		875.00000 
 43692.65567		 305.27265			43387.38302		68.68200		324.00000 
 43692.65567		 961.16730			42731.48837		229.54400		875.00000 
 43692.65567		 305.27265			43387.38302		68.68200		324.00000 
 43692.65567		 961.16730			42731.48837		229.54400		875.00000 
 43692.65567		 305.27265			43387.38302		68.68200		324.00000 
 43692.65567		 961.16730			42731.48837		229.54400		875.00000 
 43692.65567		 305.27265			43387.38302		68.68200		324.00000 
 43692.65567		 961.16730			42731.48837		229.54400		875.00000 
 43692.65567		 305.27265			43387.38302		68.68200		324.00000 
 43692.65567		 961.16730			42731.48837		229.54400		875.00000 
 43692.65567		 305.27265			43387.38302		68.68200		324.00000 
 43692.65567		 961.16730			42731.48837		229.54400		875.00000 
 43692.65567		 305.27265			43387.38302		68.68200		324.00000 
 43692.65567		 961.16730			42731.48837		229.54400		875.00000 
 43692.65567		 305.27265			43387.38302		68.68200		324.00000 
 43692.65567		 961.16730			42731.48837		229.54400		875.00000 
 43692.65567		 305.27265			43387.38302		68.68200		324.00000 
 43692.65567		 961.16730			42731.48837		229.54400		875.00000 
 43692.65567		 305.27265			43387.38302		68.68200		324.00000 
 43692.65567		 961.16730			42731.48837		229.54400		875.00000 
 43692.65567		 305.27265			43387.38302		68.68200		324.00000 
 43692.65567		 961.16730			42731.48837		229.54400		875.00000 
 43692.65567		 305.27265			43387.38302		68.68200		324.00000 
 43692.65567		 961.16730			42731.48837		229.54400		875.00000 
 43692.65567		 305.27265			43387.38302		68.68200		324.00000 
 43692.65567		 961.16730			42731.48837		229.54400		875.00000 
 43692.65567		 305.27265			43387.38302		68.68200		324.00000 
 43692.65567		 961.16730			42731.48837		229.54400		875.00000 
 43692.65567		 305.27265			43387.38302		68.68200		324.00000 
 43692.65567		 961.16730			42731.48837		229.54400		875.00000 
 43692.65567		 305.27265			43387.38302		68.68200		324.00000 
 43692.65567		 961.16730			42731.48837		229.54400		875.00000 
 43692.65567		 305.27265			43387.38302		68.68200		324.00000 
 43692.65567		 961.16730			42731.48837		229.54400		875.00000 
 43692.65567		 305.27265			43387.38302		68.68200		324.00000 
 43692.65567		 961.16730			42731.48837		229.54400		875.00000 
 43692.65567		 305.27265			43387.38302		68.68200		324.00000 
 43692.65567		 961.16730			42731.48837		229.54400		875.00000 
 43692.65567		 305.27265			43387.38302		68.68200		324.00000 
 43692.65567		 961.16730			42731.48837		229.54400		875.00000 
 43692.65567		 305.27265			43387.38302		68.68200		324.00000 
 43692.65567		 961.16730			42731.48837		229.54400		875.00000 
 43692.65567		 305.27265			43387.38302		68.68200		324.00000 
 43692.65567		 961.16730			42731.48837		229.54400		875.00000 
 43692.65567		 305.27265			43387.38302		68.68200		324.00000 
 43692.65567		 961.16730			42731.48837		229.54400		875.00000 
 43692.65567		 305.27265			43387.38302		68.68200		324.00000 
 43692.65567		 961.16730			42731.48837		229.54400		875.00000 
 43692.65567		 305.27265			43387.38302		68.68200		324.00000 
 43692.65567		 961.16730			42731.48837		229.54400		875.00000 
 43692.65567		 305.27265			43387.38302		68.68200		324.00000 
 43692.65567		 961.16730			42731.48837		229.54400		875.00000 
 43692.65567		 305.27265			43387.38302		68.68200		324.00000 
 43692.65567		 961.16730			42731.48837		229.54400		875.00000 
 43692.65567		 305.27265			43387.38302		68.68200		324.00000 
 43692.65567		 961.16730			42731.48837		229.54400		875.00000 
 43692.65567		 305.27265			43387.38302		68.68200		324.00000 
 43692.65567		 961.16730			42731.48837		229.54400		875.00000 
 43692.65567		 305.27265			43387.38302		68.68200		324.00000 
 43692.65567		 961.16730			42731.48837		229.54400		875.00000 
 43692.65567		 305.27265			43387.38302		68.68200		324.00000 
 43692.65567		 961.16730			42731.48837		229.54400		875.00000 
 43692.65567		 305.27265			43387.38302		68.68200		324.00000 
 43692.65567		 961.16730			42731.48837		229.54400		875.00000 
 43692.65567		 305.27265			43387.38302		68.68200		324.00000 
 43692.65567		 961.16730			42731.48837		229.54400		875.00000 
 43692.65567		 305.27265			43387.38302		68.68200		324.00000 
 43692.65567		 961.16730			42731.48837		229.54400		875.00000 
 43692.65567		 305.27265			43387.38302		68.68200		324.00000 
 43692.65567		 961.16730			42731.48837		229.54400		875.00000 
 43692.65567		 305.27265			43387.38302		68.68200		324.00000 
 43692.65567		 961.16730			42731.48837		229.54400		875.00000 
 43692.65567		 305.27265			43387.38302		68.68200		324.00000 
 43692.65567		 961.16730			42731.48837		229.54400		875.00000 
 43692.65567		 305.27265			43387.38302		68.68200		324.00000 
 43692.65567		 961.16730			42731.48837		229.54400		875.00000 
 43692.65567		 305.27265			43387.38302		68.68200		324.00000 
 43692.65567		 961.16730			42731.48837		229.54400		875.00000 
 43692.65567		 305.27265			43387.38302		68.68200		324.00000 
 43692.65567		 961.16730			42731.48837		229.54400		875.00000 
 43692.65567		 305.27265			43387.38302		68.68200		324.00000 
 43692.65567		 961.16730			42731.48837		229.54400		875.00000 
 43692.65567		 305.27265			43387.38302		68.68200		324.00000 
 43692.65567		 961.16730			42731.48837		229.54400		875.00000 
 43692.65567		 305.27265			43387.38302		68.68200		324.00000 
 43692.65567		 961.16730			42731.48837		229.54400		875.00000 
 43692.65567		 305.27265			43387.38302		68.68200		324.00000 
 43692.65567		 961.16730			42731.48837		229.54400		875.00000 
 43692.65567		 305.27265			43387.38302		68.68200		324.00000 
 43692.65567		 961.16730			42731.48837		229.54400		875.00000 
 43692.65567		 305.27265			43387.38302		68.68200		324.00000 
 43692.65567		 961.16730			42731.48837		229.54400		875.00000 
 43692.65567		 305.27265			43387.38302		68.68200		324.00000 
 43692.65567		 961.16730			42731.48837		229.54400		875.00000 
 43692.65567		 305.27265			43387.38302		68.68200		324.00000 
 43692.65567		 961.16730			42731.48837		229.54400		875.00000 
 43692.65567		 305.27265			43387.38302		68.68200		324.00000 
 43692.65567		 961.16730			42731.48837		229.54400		875.00000 
 43692.65567		 305.27265			43387.38302		68.68200		324.00000 
 43692.65567		 961.16730			42731.48837		229.54400		875.00000 
 43692.65567		 305.27265			43387.38302		68.68200		324.00000 
 43692.65567		 961.16730			42731.48837		229.54400		875.00000 
 43692.65567		 305.27265			43387.38302		68.68200		324.00000 
 43692.65567		 961.16730			42731.48837		229.54400		875.00000 
 43692.65567		 305.27265			43387.38302		68.68200		324.00000 
 43692.65567		 961.16730			42731.48837		229.54400		875.00000 
 43692.65567		 305.27265			43387.38302		68.68200		324.00000 
 43692.65567		 961.16730			42731.48837		229.54400		875.00000 
 43692.65567		 305.27265			43387.38302		68.68200		324.00000 
 43692.65567		 961.16730			42731.48837		229.54400		875.00000 
 43692.65567		 305.27265			43387.38302		68.68200		324.00000 
 43692.65567		 961.16730			42731.48837		229.54400		875.00000 
 43692.65567		 305.27265			43387.38302		68.68200		324.00000 
 43692.65567		 961.16730			42731.48837		229.54400		875.00000 
 43692.65567		 305.27265			43387.38302		68.68200		324.00000 
 43692.65567		 961.16730			42731.48837		229.54400		875.00000 
 43692.65567		 305.27265			43387.38302		68.68200		324.00000 
 43692.65567		 961.16730			42731.48837		229.54400		875.00000 
 43692.65567		 305.27265			43387.38302		68.68200		324.00000 
 43692.65567		 961.16730			42731.48837		229.54400		875.00000 
 43692.65567		 305.27265			43387.38302		68.68200		324.00000 
 43692.65567		 961.16730			42731.48837		229.54400		875.00000 
 43692.65567		 305.27265			43387.38302		68.68200		324.00000 
 43692.65567		 961.16730			42731.48837		229.54400		875.00000 
 43692.65567		 305.27265			43387.38302		68.68200		324.00000 
 43692.65567		 961.16730			42731.48837		229.54400		875.00000 
 43692.65567		 305.27265			43387.38302		68.68200		324.00000 
 43692.65567		 961.16730			42731.48837		229.54400		875.00000 
 43692.65567		 305.27265			43387.38302		68.68200		324.00000 
 43692.65567		 961.16730			42731.48837		229.54400		875.00000 
 43692.65567		 305.27265			43387.38302		68.68200		324.00000 
 43692.65567		 961.16730			42731.48837		229.54400		875.00000 
 43692.65567		 305.27265			43387.38302		68.68200		324.00000 
 43692.65567		 961.16730			42731.48837		229.54400		875.00000 
 43692.65567		 305.27265			43387.38302		68.68200		324.00000 
 43692.65567		 961.16730			42731.48837		229.54400		875.00000 
 43692.65567		 305.27265			43387.38302		68.68200		324.00000 
 43692.65567		 961.16730			42731.48837		229.54400		875.00000 
 43692.65567		 305.27265			43387.38302		68.68200		324.00000 
 43692.65567		 961.16730			42731.48837		229.54400		875.00000 
 43692.65567		 305.27265			43387.38302		68.68200		324.00000 
 43692.65567		 961.16730			42731.48837		229.54400		875.00000 
 43692.65567		 305.27265			43387.38302		68.68200		324.00000 
 43692.65567		 961.16730			42731.48837		229.54400		875.00000 
 43692.65567		 305.27265			43387.38302		68.68200		324.00000 
 43692.65567		 961.16730			42731.48837		229.54400		875.00000 
 43692.65567		 305.27265			43387.38302		68.68200		324.00000 
 43692.65567		 961.16730			42731.48837		229.54400		875.00000 
 43692.65567		 305.27265			43387.38302		68.68200		324.00000 
 43692.65567		 961.16730			42731.48837		229.54400		875.00000 
 43692.65567		 305.27265			43387.38302		68.68200		324.00000 
 43692.65567		 961.16730			42731.48837		229.54400		875.00000 
 43692.65567		 305.27265			43387.38302		68.68200		324.00000 
 43692.65567		 961.16730			42731.48837		229.54400		875.00000 
 43692.65567		 305.27265			43387.38302		68.68200		324.00000 
 43692.65567		 961.16730			42731.48837		229.54400		875.00000 
 43692.65567		 305.27265			43387.38302		68.68200		324.00000 
 43692.65567		 961.16730			42731.48837		229.54400		875.00000 
 43692.65567		 305.27265			43387.38302		68.68200		324.00000 
 43692.65567		 961.16730			42731.48837		229.54400		875.00000 
 43692.65567		 305.27265			43387.38302		68.68200		324.00000 
 43692.65567		 961.16730			42731.48837		229.54400		875.00000 
 43692.65567		 305.27265			43387.38302		68.68200		324.00000 
 43692.65567		 961.16730			42731.48837		229.54400		875.00000 
 43692.65567		 305.27265			43387.38302		68.68200		324.00000 
 43692.65567		 961.16730			42731.48837		229.54400		875.00000 
 43692.65567		 305.27265			43387.38302		68.68200		324.00000 
 43692.65567		 961.16730			42731.48837		229.54400		875.00000 
 43692.65567		 305.27265			43387.38302		68.68200		324.00000 
 43692.65567		 961.16730			42731.48837		229.54400		875.00000 
 43692.65567		 305.27265			43387.38302		68.68200		324.00000 
 43692.65567		 961.16730			42731.48837		229.54400		875.00000 
 43692.65567		 305.27265			43387.38302		68.68200		324.00000 
 43692.65567		 961.16730			42731.48837		229.54400		875.00000 
 43692.65567		 305.27265			43387.38302		68.68200		324.00000 
 43692.65567		 961.16730			42731.48837		229.54400		875.00000 
 43692.65567		 305.27265			43387.38302		68.68200		324.00000 
 43692.65567		 961.16730			42731.48837		229.54400		875.00000 
 43692.65567		 305.27265			43387.38302		68.68200		324.00000 
 43692.65567		 961.16730			42731.48837		229.54400		875.00000 
 43692.65567		 305.27265			43387.38302		68.68200		324.00000 
 43692.65567		 961.16730			42731.48837		229.54400		875.00000 
 43692.65567		 305.27265			43387.38302		68.68200		324.00000 
 43692.65567		 961.16730			42731.48837		229.54400		875.00000 
 43692.65567		 305.27265			43387.38302		68.68200		324.00000 
 43692.65567		 961.16730			42731.48837		229.54400		875.00000 
 43692.65567		 305.27265			43387.38302		68.68200		324.00000 
 43692.65567		 961.16730			42731.48837		229.54400		875.00000 
 43692.65567		 305.27265			43387.38302		68.68200		324.00000 
 43692.65567		 961.16730			42731.48837		229.54400		875.00000 
 43692.65567		 305.27265			43387.38302		68.68200		324.00000 
 43692.65567		 961.16730			42731.48837		229.54400		875.00000 
 43692.65567		 305.27265			43387.38302		68.68200		324.00000 
 43692.65567		 961.16730			42731.48837		229.54400		875.00000 
 43692.65567		 305.27265			43387.38302		68.68200		324.00000 
 43692.65567		 961.16730			42731.48837		229.54400		875.00000 
 43692.65567		 305.27265			43387.38302		68.68200		324.00000 
 43692.65567		 961.16730			42731.48837		229.54400		875.00000 
 43692.65567		 305.27265			43387.38302		68.68200		324.00000 
 43692.65567		 961.16730			42731.48837		229.54400		875.00000 
 43692.65567		 305.27265			43387.38302		68.68200		324.00000 
 43692.65567		 961.16730			42731.48837		229.54400		875.00000 
 43692.65567		 305.27265			43387.38302		68.68200		324.00000 
 43692.65567		 961.16730			42731.48837		229.54400		875.00000 
 43692.65567		 305.27265			43387.38302		68.68200		324.00000 
 43692.65567		 961.16730			42731.48837		229.54400		875.00000 
 43692.65567		 305.27265			43387.38302		68.68200		324.00000 
 43692.65567		 961.16730			42731.48837		229.54400		875.00000 
 43692.65567		 305.27265			43387.38302		68.68200		324.00000 
 43692.65567		 961.16730			42731.48837		229.54400		875.00000 
 43692.65567		 305.27265			43387.38302		68.68200		324.00000 
 43692.65567		 961.16730			42731.48837		229.54400		875.00000 
 43692.65567		 305.27265			43387.38302		68.68200		324.00000 
 43692.65567		 961.16730			42731.48837		229.54400		875.00000 
 43692.65567		 305.27265			43387.38302		68.68200		324.00000 
 43692.65567		 961.16730			42731.48837		229.54400		875.00000 
 43692.65567		 305.27265			43387.38302		68.68200		324.00000 
 43692.65567		 961.16730			42731.48837		229.54400		875.00000 
 43692.65567		 305.27265			43387.38302		68.68200		324.00000 
 43692.65567		 961.16730			42731.48837		229.54400		875.00000 
 43692.65567		 305.27265			43387.38302		68.68200		324.00000 
 43692.65567		 961.16730			42731.48837		229.54400		875.00000 
 43692.65567		 305.27265			43387.38302		68.68200		324.00000 
 43692.65567		 961.16730			42731.48837		229.54400		875.00000 
 43692.65567		 305.27265			43387.38302		68.68200		324.00000 
 43692.65567		 961.16730			42731.48837		229.54400		875.00000 
 43692.65567		 305.27265			43387.38302		68.68200		324.00000 
 43692.65567		 961.16730			42731.48837		229.54400		875.00000 
 43692.65567		 305.27265			43387.38302		68.68200		324.00000 
 43692.65567		 961.16730			42731.48837		229.54400		875.00000 
 43692.65567		 305.27265			43387.38302		68.68200		324.00000 
 43692.65567		 961.16730			42731.48837		229.54400		875.00000 
 43692.65567		 305.27265			43387.38302		68.68200		324.00000 
 43692.65567		 961.16730			42731.48837		229.54400		875.00000 
 43692.65567		 305.27265			43387.38302		68.68200		324.00000 
 43692.65567		 961.16730			42731.48837		229.54400		875.00000 
 43692.65567		 305.27265			43387.38302		68.68200		324.00000 
 43692.65567		 961.16730			42731.48837		229.54400		875.00000 
 43692.65567		 305.27265			43387.38302		68.68200		324.00000 
 43692.65567		 961.16730			42731.48837		229.54400		875.00000 
 43692.65567		 305.27265			43387.38302		68.68200		324.00000 
 43692.65567		 961.16730			42731.48837		229.54400		875.00000 
 43692.65567		 305.27265			43387.38302		68.68200		324.00000 
 43692.65567		 961.16730			42731.48837		229.54400		875.00000 
 43692.65567		 305.27265			43387.38302		68.68200		324.00000 
 43692.65567		 961.16730			42731.48837		229.54400		875.00000 
 43692.65567		 305.27265			43387.38302		68.68200		324.00000 
 43692.65567		 961.16730			42731.48837		229.54400		875.00000 
 43692.65567		 305.27265			43387.38302		68.68200		324.00000 
 43692.65567		 961.16730			42731.48837		229.54400		875.00000 
 43692.65567		 305.27265			43387.38302		68.68200		324.00000 
 43692.65567		 961.16730			42731.48837		229.54400		875.00000 
 43692.65567		 305.27265			43387.38302		68.68200		324.00000 
 43692.65567		 961.16730			42731.48837		229.54400		875.00000 
 43692.65567		 305.27265			43387.38302		68.68200		324.00000 
 43692.65567		 961.16730			42731.48837		229.54400		875.00000 
 43692.65567		 305.27265			43387.38302		68.68200		324.00000 
 43692.65567		 961.16730			42731.48837		229.54400		875.00000 
 43692.65567		 305.27265			43387.38302		68.68200		324.00000 
 43692.65567		 961.16730			42731.48837		229.54400		875.00000 
 43692.65567		 305.27265			43387.38302		68.68200		324.00000 
 43692.65567		 961.16730			42731.48837		229.54400		875.00000 
 43692.65567		 305.27265			43387.38302		68.68200		324.00000 
 43692.65567		 961.16730			42731.48837		229.54400		875.00000 
 43692.65567		 305.27265			43387.38302		68.68200		324.00000 
 43692.65567		 961.16730			42731.48837		229.54400		875.00000 
 43692.65567		 305.27265			43387.38302		68.68200		324.00000 
 43692.65567		 961.16730			42731.48837		229.54400		875.00000 
 43692.65567		 305.27265			43387.38302		68.68200		324.00000 
 43692.65567		 961.16730			42731.48837		229.54400		875.00000 
 43692.65567		 305.27265			43387.38302		68.68200		324.00000 
 43692.65567		 961.16730			42731.48837		229.54400		875.00000 
 43692.65567		 305.27265			43387.38302		68.68200		324.00000 
 43692.65567		 961.16730			42731.48837		229.54400		875.00000 
 43692.65567		 305.27265			43387.38302		68.68200		324.00000 
 43692.65567		 961.16730			42731.48837		229.54400		875.00000 
 43692.65567		 305.27265			43387.38302		68.68200		324.00000 
 43692.65567		 961.16730			42731.48837		229.54400		875.00000 
 43692.65567		 305.27265			43387.38302		68.68200		324.00000 
 43692.65567		 961.16730			42731.48837		229.54400		875.00000 
 43692.65567		 305.27265			43387.38302		68.68200		324.00000 
 43692.65567		 961.16730			42731.48837		229.54400		875.00000 
 43692.65567		 305.27265			43387.38302		68.68200		324.00000 
 43692.65567		 961.16730			42731.48837		229.54400		875.00000 
 43692.65567		 305.27265			43387.38302		68.68200		324.00000 
 43692.65567		 961.16730			42731.48837		229.54400		875.00000 
 43692.65567		 305.27265			43387.38302		68.68200		324.00000 
 43692.65567		 961.16730			42731.48837		229.54400		875.00000 
 43692.65567		 305.27265			43387.38302		68.68200		324.00000 
 43692.65567		 961.16730			42731.48837		229.54400		875.00000 
 43692.65567		 305.27265			43387.38302		68.68200		324.00000 
 43692.65567		 961.16730			42731.48837		229.54400		875.00000 
 43692.65567		 305.27265			43387.38302		68.68200		324.00000 
 43692.65567		 961.16730			42731.48837		229.54400		875.00000 
 43692.65567		 305.27265			43387.38302		68.68200		324.00000 
 43692.65567		 961.16730			42731.48837		229.54400		875.00000 
 43692.65567		 305.27265			43387.38302		68.68200		324.00000 
 43692.65567		 961.16730			42731.48837		229.54400		875.00000 
 43692.65567		 305.27265			43387.38302		68.68200		324.00000 
 43692.65567		 961.16730			42731.48837		229.54400		875.00000 
 43692.65567		 305.27265			43387.38302		68.68200		324.00000 
 43692.65567		 961.16730			42731.48837		229.54400		875.00000 
 43692.65567		 305.27265			43387.38302		68.68200		324.00000 
 43692.65567		 961.16730			42731.48837		229.54400		875.00000 
 43692.65567		 305.27265			43387.38302		68.68200		324.00000 
 43692.65567		 961.16730			42731.48837		229.54400		875.00000 
 43692.65567		 305.27265			43387.38302		68.68200		324.00000 
 43692.65567		 961.16730			42731.48837		229.54400		875.00000 
 43692.65567		 305.27265			43387.38302		68.68200		324.00000 
 43692.65567		 961.16730			42731.48837		229.54400		875.00000 
 43692.65567		 305.27265			43387.38302		68.68200		324.00000 
 43692.65567		 961.16730			42731.48837		229.54400		875.00000 
 43692.65567		 305.27265			43387.38302		68.68200		324.00000 
 43692.65567		 961.16730			42731.48837		229.54400		875.00000 
 43692.65567		 305.27265			43387.38302		68.68200		324.00000 
 43692.65567		 961.16730			42731.48837		229.54400		875.00000 
 43692.65567		 305.27265			43387.38302		68.68200		324.00000 
 43692.65567		 961.16730			42731.48837		229.54400		875.00000 
 43692.65567		 305.27265			43387.38302		68.68200		324.00000 
 43692.65567		 961.16730			42731.48837		229.54400		875.00000 
 43692.65567		 305.27265			43387.38302		68.68200		324.00000 
 43692.65567		 961.16730			42731.48837		229.54400		875.00000 
 43692.65567		 305.27265			43387.38302		68.68200		324.00000 
 43692.65567		 961.16730			42731.48837		229.54400		875.00000 
 43692.65567		 305.27265			43387.38302		68.68200		324.00000 
 43692.65567		 961.16730			42731.48837		229.54400		875.00000 
 43692.65567		 305.27265			43387.38302		68.68200		324.00000 
 43692.65567		 961.16730			42731.48837		229.54400		875.00000 
 43692.65567		 305.27265			43387.38302		68.68200		324.00000 
 43692.65567		 961.16730			42731.48837		229.54400		875.00000 
 43692.65567		 305.27265			43387.38302		68.68200		324.00000 
 43692.65567		 961.16730			42731.48837		229.54400		875.00000 
 43692.65567		 305.27265			43387.38302		68.68200		324.00000 
 43692.65567		 961.16730			42731.48837		229.54400		875.00000 
 43692.65567		 305.27265			43387.38302		68.68200		324.00000 
 43692.65567		 961.16730			42731.48837		229.54400		875.00000 
 43692.65567		 305.27265			43387.38302		68.68200		324.00000 
 43692.65567		 961.16730			42731.48837		229.54400		875.00000 
 43692.65567		 305.27265			43387.38302		68.68200		324.00000 
 43692.65567		 961.16730			42731.48837		229.54400		875.00000 
 43692.65567		 305.27265			43387.38302		68.68200		324.00000 
 43692.65567		 961.16730			42731.48837		229.54400		875.00000 
 43692.65567		 305.27265			43387.38302		68.68200		324.00000 
 43692.65567		 961.16730			42731.48837		229.54400		875.00000 
 43692.65567		 305.27265			43387.38302		68.68200		324.00000 
 43692.65567		 961.16730			42731.48837		229.54400		875.00000 
 43692.65567		 305.27265			43387.38302		68.68200		324.00000 
 43692.65567		 961.16730			42731.48837		229.54400		875.00000 
 43692.65567		 305.27265			43387.38302		68.68200		324.00000 
 43692.65567		 961.16730			42731.48837		229.54400		875.00000 
 43692.65567		 305.27265			43387.38302		68.68200		324.00000 
 43692.65567		 961.16730			42731.48837		229.54400		875.00000 
 43692.65567		 305.27265			43387.38302		68.68200		324.00000 
 43692.65567		 961.16730			42731.48837		229.54400		875.00000 
 43692.65567		 305.27265			43387.38302		68.68200		324.00000 
 43692.65567		 961.16730			42731.48837		229.54400		875.00000 
 43692.65567		 305.27265			43387.38302		68.68200		324.00000 
 43692.65567		 961.16730			42731.48837		229.54400		875.00000 
 43692.65567		 305.27265			43387.38302		68.68200		324.00000 
 43692.65567		 961.16730			42731.48837		229.54400		875.00000 
 43692.65567		 305.27265			43387.38302		68.68200		324.00000 
 43692.65567		 961.16730			42731.48837		229.54400		875.00000 
 43692.65567		 305.27265			43387.38302		68.68200		324.00000 
 43692.65567		 961.16730			42731.48837		229.54400		875.00000 
 43692.65567		 305.27265			43387.38302		68.68200		324.00000 
 43692.65567		 961.16730			42731.48837		229.54400		875.00000 
 43692.65567		 305.27265			43387.38302		68.68200		324.00000 
 43692.65567		 961.16730			42731.48837		229.54400		875.00000 
 43692.65567		 305.27265			43387.38302		68.68200		324.00000 
 43692.65567		 961.16730			42731.48837		229.54400		875.00000 
 43692.65567		 305.27265			43387.38302		68.68200		324.00000 
 43692.65567		 961.16730			42731.48837		229.54400		875.00000 
 43692.65567		 305.27265			43387.38302		68.68200		324.00000 
 43692.65567		 961.16730			42731.48837		229.54400		875.00000 
 43692.65567		 305.27265			43387.38302		68.68200		324.00000 
 43692.65567		 961.16730			42731.48837		229.54400		875.00000 
 43692.65567		 305.27265			43387.38302		68.68200		324.00000 
 43692.65567		 961.16730			42731.48837		229.54400		875.00000 
 43692.65567		 305.27265			43387.38302		68.68200		324.00000 
 43692.65567		 961.16730			42731.48837		229.54400		875.00000 
 43692.65567		 305.27265			43387.38302		68.68200		324.00000 
 43692.65567		 961.16730			42731.48837		229.54400		875.00000 
 43692.65567		 305.27265			43387.38302		68.68200		324.00000 
 43692.65567		 961.16730			42731.48837		229.54400		875.00000 
 43692.65567		 305.27265			43387.38302		68.68200		324.00000 
 43692.65567		 961.16730			42731.48837		229.54400		875.00000 
 43692.65567		 305.27265			43387.38302		68.68200		324.00000 
 43692.65567		 961.16730			42731.48837		229.54400		875.00000 
 43692.65567		 305.27265			43387.38302		68.68200		324.00000 
 43692.65567		 961.16730			42731.48837		229.54400		875.00000 
 43692.65567		 305.27265			43387.38302		68.68200		324.00000 
 43692.65567		 961.16730			42731.48837		229.54400		875.00000 
 43692.65567		 305.27265			43387.38302		68.68200		324.00000 
 43692.65567		 961.16730			42731.48837		229.54400		875.00000 
 43692.65567		 305.27265			43387.38302		68.68200		324.00000 
 43692.65567		 961.16730			42731.48837		229.54400		875.00000 
 43692.65567		 305.27265			43387.38302		68.68200		324.00000 
 43692.65567		 961.16730			42731.48837		229.54400		875.00000 
 43692.65567		 305.27265			43387.38302		68.68200		324.00000 
 43692.65567		 961.16730			42731.48837		229.54400		875.00000 
 43692.65567		 305.27265			43387.38302		68.68200		324.00000 
 43692.65567		 961.16730			42731.48837		229.54400		875.00000 
 43692.65567		 305.27265			43387.38302		68.68200		324.00000 
 43692.65567		 961.16730			42731.48837		229.54400		875.00000 
 43692.65567		 305.27265			43387.38302		68.68200		324.00000 
 43692.65567		 961.16730			42731.48837		229.54400		875.00000 
 43692.65567		 305.27265			43387.38302		68.68200		324.00000 
 43692.65567		 961.16730			42731.48837		229.54400		875.00000 
 43692.65567		 305.27265			43387.38302		68.68200		324.00000 
 43692.65567		 961.16730			42731.48837		229.54400		875.00000 
 43692.65567		 305.27265			43387.38302		68.68200		324.00000 
 43692.65567		 961.16730			42731.48837		229.54400		875.00000 
 43692.65567		 305.27265			43387.38302		68.68200		324.00000 
 43692.65567		 961.16730			42731.48837		229.54400		875.00000 
 43692.65567		 305.27265			43387.38302		68.68200		324.00000 
 43692.65567		 961.16730			42731.48837		229.54400		875.00000 
 43692.65567		 305.27265			43387.38302		68.68200		324.00000 
 43692.65567		 961.16730			42731.48837		229.54400		875.00000 
 43692.65567		 305.27265			43387.38302		68.68200		324.00000 
 43692.65567		 961.16730			42731.48837		229.54400		875.00000 
 43692.65567		 305.27265			43387.38302		68.68200		324.00000 
 43692.65567		 961.16730			42731.48837		229.54400		875.00000 
 43692.65567		 305.27265			43387.38302		68.68200		324.00000 
 43692.65567		 961.16730			42731.48837		229.54400		875.00000 
 43692.65567		 305.27265			43387.38302		68.68200		324.00000 
 43692.65567		 961.16730			42731.48837		229.54400		875.00000 
 43692.65567		 305.27265			43387.38302		68.68200		324.00000 
 43692.65567		 961.16730			42731.48837		229.54400		875.00000 
 43692.65567		 305.27265			43387.38302		68.68200		324.00000 
 43692.65567		 961.16730			42731.48837		229.54400		875.00000 
 43692.65567		 305.27265			43387.38302		68.68200		324.00000 
 43692.65567		 961.16730			42731.48837		228.94600		875.00000 
 43692.65567		 305.27265			43387.38302		68.68200		324.00000 
 43692.65567		 961.16730			42731.48837		228.94600		875.00000 
 43692.65567		 305.27265			43387.38302		68.68200		324.00000 
 43692.65567		 961.16730			42731.48837		228.94600		875.00000 
 43692.65567		 305.27265			43387.38302		68.68200		324.00000 
 43692.65567		 961.16730			42731.48837		228.94600		875.00000 
 43692.65567		 305.27265			43387.38302		68.68200		324.00000 
 43692.65567		 961.16730			42731.48837		228.94600		875.00000 
 43692.65567		 305.27265			43387.38302		68.68200		324.00000 
 43692.65567		 961.16730			42731.48837		228.94600		875.00000 
 43692.65567		 305.27265			43387.38302		68.68200		324.00000 
 43692.65567		 961.16730			42731.48837		228.94600		875.00000 
 43692.65567		 305.27265			43387.38302		68.68200		324.00000 
 43692.65567		 961.16730			42731.48837		228.94600		875.00000 
 43692.65567		 305.27265			43387.38302		68.68200		324.00000 
 43692.65567		 961.16730			42731.48837		228.94600		875.00000 
 43692.65567		 305.27265			43387.38302		68.68200		324.00000 
 43692.65567		 961.16730			42731.48837		228.94600		875.00000 
 43692.65567		 305.27265			43387.38302		68.68200		324.00000 
 43692.65567		 961.16730			42731.48837		228.94600		875.00000 
 43692.65567		 305.27265			43387.38302		68.68200		324.00000 
 43692.65567		 961.16730			42731.48837		228.94600		875.00000 
 43692.65567		 305.27265			43387.38302		68.68200		324.00000 
 43692.65567		 961.16730			42731.48837		228.94600		875.00000 
 43692.65567		 305.27265			43387.38302		68.68200		324.00000 
 43692.65567		 961.16730			42731.48837		228.94600		875.00000 
 43692.65567		 305.27265			43387.38302		68.68200		324.00000 
 43692.65567		 961.16730			42731.48837		228.94600		875.00000 
 43692.65567		 305.27265			43387.38302		68.68200		324.00000 
 43692.65567		 961.16730			42731.48837		228.94600		875.00000 
 43692.65567		 305.27265			43387.38302		68.68200		324.00000 
 43692.65567		 961.16730			42731.48837		228.94600		875.00000 
 43692.65567		 305.27265			43387.38302		68.68200		324.00000 
 43692.65567		 961.16730			42731.48837		228.94600		875.00000 
 43692.65567		 305.27265			43387.38302		68.68200		324.00000 
 43692.65567		 961.16730			42731.48837		228.94600		875.00000 
 43692.65567		 305.27265			43387.38302		68.68200		324.00000 
 43692.65567		 961.16730			42731.48837		228.94600		875.00000 
 43692.65567		 305.27265			43387.38302		68.68200		324.00000 
 43692.65567		 961.16730			42731.48837		228.94600		875.00000 
 43692.65567		 305.27265			43387.38302		68.68200		324.00000 
 43692.65567		 961.16730			42731.48837		228.94600		875.00000 
 43692.65567		 305.27265			43387.38302		68.68200		324.00000 
 43692.65567		 961.16730			42731.48837		228.94600		875.00000 
 43692.65567		 305.27265			43387.38302		68.68200		324.00000 
 43692.65567		 961.16730			42731.48837		228.94600		875.00000 
 43692.65567		 305.27265			43387.38302		68.68200		324.00000 
 43692.65567		 961.16730			42731.48837		228.94600		875.00000 
 43692.65567		 305.27265			43387.38302		68.68200		324.00000 
 43692.65567		 961.16730			42731.48837		228.94600		875.00000 
 43692.65567		 305.27265			43387.38302		68.68200		324.00000 
 43692.65567		 961.16730			42731.48837		228.94600		875.00000 
 43692.65567		 305.27265			43387.38302		68.68200		324.00000 
 43692.65567		 961.16730			42731.48837		228.94600		875.00000 
 43692.65567		 305.27265			43387.38302		68.68200		324.00000 
 43692.65567		 961.16730			42731.48837		228.94600		875.00000 
 43692.65567		 305.27265			43387.38302		68.68200		324.00000 
 43692.65567		 961.16730			42731.48837		228.94600		875.00000 
 43692.65567		 305.27265			43387.38302		68.68200		324.00000 
 43692.65567		 961.16730			42731.48837		228.94600		875.00000 
 43692.65567		 305.27265			43387.38302		68.68200		324.00000 
 43692.65567		 961.16730			42731.48837		228.94600		875.00000 
 43692.65567		 305.27265			43387.38302		68.68200		324.00000 
 43692.65567		 961.16730			42731.48837		228.94600		875.00000 
 43692.65567		 305.27265			43387.38302		68.68200		324.00000 
 43692.65567		 961.16730			42731.48837		228.94600		875.00000 
 43692.65567		 305.27265			43387.38302		68.68200		324.00000 
 43692.65567		 961.16730			42731.48837		228.94600		875.00000 
 43692.65567		 305.27265			43387.38302		68.68200		324.00000 
 43692.65567		 961.16730			42731.48837		228.94600		875.00000 
 43692.65567		 305.27265			43387.38302		68.68200		324.00000 
 43692.65567		 961.16730			42731.48837		228.94600		875.00000 
 43692.65567		 305.27265			43387.38302		68.68200		324.00000 
 43692.65567		 961.16730			42731.48837		228.94600		875.00000 
 43692.65567		 305.27265			43387.38302		68.68200		324.00000 
 43692.65567		 961.16730			42731.48837		228.94600		875.00000 
 43692.65567		 305.27265			43387.38302		68.68200		324.00000 
 43692.65567		 961.16730			42731.48837		228.94600		875.00000 
 43692.65567		 305.27265			43387.38302		68.68200		324.00000 
 43692.65567		 961.16730			42731.48837		228.94600		875.00000 
 43692.65567		 305.27265			43387.38302		68.68200		324.00000 
 43692.65567		 961.16730			42731.48837		228.94600		875.00000 
 43692.65567		 305.27265			43387.38302		68.68200		324.00000 
 43692.65567		 961.16730			42731.48837		228.94600		875.00000 
 43692.65567		 305.27265			43387.38302		68.68200		324.00000 
 43692.65567		 961.16730			42731.48837		228.94600		875.00000 
 43692.65567		 305.27265			43387.38302		68.68200		324.00000 
 43692.65567		 961.16730			42731.48837		228.94600		875.00000 
 43692.65567		 305.27265			43387.38302		68.68200		324.00000 
 43692.65567		 961.16730			42731.48837		228.94600		875.00000 
 43692.65567		 305.27265			43387.38302		68.68200		324.00000 
 43692.65567		 961.16730			42731.48837		228.94600		875.00000 
 43692.65567		 305.27265			43387.38302		68.68200		324.00000 
 43692.65567		 961.16730			42731.48837		228.94600		875.00000 
 43692.65567		 305.27265			43387.38302		68.68200		324.00000 
 43692.65567		 961.16730			42731.48837		228.94600		875.00000 
 43692.65567		 305.27265			43387.38302		68.68200		324.00000 
 43692.65567		 961.16730			42731.48837		228.94600		875.00000 
 43692.65567		 305.27265			43387.38302		68.68200		324.00000 
 43692.65567		 961.16730			42731.48837		228.94600		875.00000 
 43692.65567		 305.27265			43387.38302		68.68200		324.00000 
 43692.65567		 961.16730			42731.48837		228.94600		875.00000 
 43692.65567		 305.27265			43387.38302		68.68200		324.00000 
 43692.65567		 961.16730			42731.48837		228.94600		875.00000 
 43692.65567		 305.27265			43387.38302		68.68200		324.00000 
 43692.65567		 961.16730			42731.48837		228.94600		875.00000 
 43692.65567		 305.27265			43387.38302		68.68200		324.00000 
 43692.65567		 961.16730			42731.48837		228.94600		875.00000 
 43692.65567		 305.27265			43387.38302		68.68200		324.00000 
 43692.65567		 961.16730			42731.48837		228.94600		875.00000 
 43692.65567		 305.27265			43387.38302		68.68200		324.00000 
 43692.65567		 961.16730			42731.48837		228.94600		875.00000 
 43692.65567		 305.27265			43387.38302		68.68200		324.00000 
 43692.65567		 961.16730			42731.48837		228.94600		875.00000 
 43692.65567		 305.27265			43387.38302		68.68200		324.00000 
 43692.65567		 961.16730			42731.48837		228.94600		875.00000 
 43692.65567		 305.27265			43387.38302		68.68200		324.00000 
 43692.65567		 961.16730			42731.48837		228.94600		875.00000 
 43692.65567		 305.27265			43387.38302		68.68200		324.00000 
 43692.65567		 961.16730			42731.48837		228.94600		875.00000 
 43692.65567		 305.27265			43387.38302		68.68200		324.00000 
 43692.65567		 961.16730			42731.48837		228.94600		875.00000 
 43692.65567		 305.27265			43387.38302		68.68200		324.00000 
 43692.65567		 961.16730			42731.48837		228.94600		875.00000 
 43692.65567		 305.27265			43387.38302		68.68200		324.00000 
 43692.65567		 961.16730			42731.48837		228.94600		875.00000 
 43692.65567		 305.27265			43387.38302		68.68200		324.00000 
 43692.65567		 961.16730			42731.48837		229.54400		875.00000 
 43692.65567		 305.27265			43387.38302		68.68200		324.00000 
 43692.65567		 961.16730			42731.48837		229.54400		875.00000 
 43692.65567		 305.27265			43387.38302		68.68200		324.00000 
 43692.65567		 961.16730			42731.48837		229.54400		875.00000 
 43692.65567		 305.27265			43387.38302		68.68200		324.00000 
 43692.65567		 961.16730			42731.48837		229.54400		875.00000 
 43692.65567		 305.27265			43387.38302		68.68200		324.00000 
 43692.65567		 961.16730			42731.48837		229.54400		875.00000 
 43692.65567		 305.27265			43387.38302		68.68200		324.00000 
 43692.65567		 961.16730			42731.48837		229.54400		875.00000 
 43692.65567		 305.27265			43387.38302		68.68200		324.00000 
 43692.65567		 961.16730			42731.48837		229.54400		875.00000 
 43692.65567		 305.27265			43387.38302		68.68200		324.00000 
 43692.65567		 961.16730			42731.48837		229.54400		875.00000 
 43692.65567		 305.27265			43387.38302		68.68200		324.00000 
 43692.65567		 961.16730			42731.48837		229.54400		875.00000 
 43692.65567		 305.27265			43387.38302		68.68200		324.00000 
 43692.65567		 961.16730			42731.48837		229.54400		875.00000 
 43692.65567		 305.27265			43387.38302		68.68200		324.00000 
 43692.65567		 961.16730			42731.48837		229.54400		875.00000 
 43692.65567		 305.27265			43387.38302		68.68200		324.00000 
 43692.65567		 961.16730			42731.48837		229.54400		875.00000 
 43692.65567		 305.27265			43387.38302		68.68200		324.00000 
 43692.65567		 961.16730			42731.48837		229.54400		875.00000 
 43692.65567		 305.27265			43387.38302		68.68200		324.00000 
 43692.65567		 961.16730			42731.48837		229.54400		875.00000 
 43692.65567		 305.27265			43387.38302		68.68200		324.00000 
 43692.65567		 961.16730			42731.48837		229.54400		875.00000 
 43692.65567		 305.27265			43387.38302		68.68200		324.00000 
 43692.65567		 961.16730			42731.48837		229.54400		875.00000 
 43692.65567		 305.27265			43387.38302		68.68200		324.00000 
 43692.65567		 961.16730			42731.48837		229.54400		875.00000 
 43692.65567		 305.27265			43387.38302		68.68200		324.00000 
 43692.65567		 961.16730			42731.48837		229.54400		875.00000 
 43692.65567		 305.27265			43387.38302		68.68200		324.00000 
 43692.65567		 961.16730			42731.48837		229.54400		875.00000 
 43692.65567		 305.27265			43387.38302		68.68200		324.00000 
 43692.65567		 961.16730			42731.48837		229.54400		875.00000 
 43692.65567		 305.27265			43387.38302		68.68200		324.00000 
 43692.65567		 961.16730			42731.48837		229.54400		875.00000 
 43692.65567		 305.27265			43387.38302		68.68200		324.00000 
 43692.65567		 961.16730			42731.48837		229.54400		875.00000 
 43692.65567		 305.27265			43387.38302		68.68200		324.00000 
 43692.65567		 961.16730			42731.48837		229.54400		875.00000 
 43692.65567		 305.27265			43387.38302		68.68200		324.00000 
 43692.65567		 961.16730			42731.48837		229.54400		875.00000 
 43692.65567		 305.27265			43387.38302		68.68200		324.00000 
 43692.65567		 961.16730			42731.48837		229.54400		875.00000 
 43692.65567		 305.27265			43387.38302		68.68200		324.00000 
 43692.65567		 961.16730			42731.48837		229.54400		875.00000 
 43692.65567		 305.27265			43387.38302		68.68200		324.00000 
 43692.65567		 961.16730			42731.48837		229.54400		875.00000 
 43692.65567		 305.27265			43387.38302		68.68200		324.00000 
 43692.65567		 961.16730			42731.48837		229.54400		875.00000 
 43692.65567		 305.27265			43387.38302		68.68200		324.00000 
 43692.65567		 961.16730			42731.48837		229.54400		875.00000 
 43692.65567		 305.27265			43387.38302		68.68200		324.00000 
 43692.65567		 961.16730			42731.48837		229.54400		875.00000 
 43692.65567		 305.27265			43387.38302		68.68200		324.00000 
 43692.65567		 961.16730			42731.48837		229.54400		875.00000 
 43692.65567		 305.27265			43387.38302		68.68200		324.00000 
 43692.65567		 961.16730			42731.48837		229.54400		875.00000 
 43692.65567		 305.27265			43387.38302		68.68200		324.00000 
 43692.65567		 961.16730			42731.48837		229.54400		875.00000 
 43692.65567		 305.27265			43387.38302		68.68200		324.00000 
 43692.65567		 961.16730			42731.48837		229.54400		875.00000 
 43692.65567		 305.27265			43387.38302		68.68200		324.00000 
 43692.65567		 961.16730			42731.48837		229.54400		875.00000 
 43692.65567		 305.27265			43387.38302		68.68200		324.00000 
 43692.65567		 961.16730			42731.48837		229.54400		875.00000 
 43692.65567		 305.27265			43387.38302		68.68200		324.00000 
 43692.65567		 961.16730			42731.48837		229.54400		875.00000 
 43692.65567		 305.27265			43387.38302		68.68200		324.00000 
 43692.65567		 961.16730			42731.48837		229.54400		875.00000 
 43692.65567		 305.27265			43387.38302		68.68200		324.00000 
 43692.65567		 961.16730			42731.48837		229.54400		875.00000 
 43692.65567		 305.27265			43387.38302		68.68200		324.00000 
 43692.65567		 961.16730			42731.48837		229.54400		875.00000 
 43692.65567		 305.27265			43387.38302		68.68200		324.00000 
 43692.65567		 961.16730			42731.48837		229.54400		875.00000 
 43692.65567		 305.27265			43387.38302		68.68200		324.00000 
 43692.65567		 961.16730			42731.48837		229.54400		875.00000 
 43692.65567		 305.27265			43387.38302		68.68200		324.00000 
 43692.65567		 961.16730			42731.48837		229.54400		875.00000 
 43692.65567		 305.27265			43387.38302		68.68200		324.00000 
 43692.65567		 961.16730			42731.48837		229.54400		875.00000 
 43692.65567		 305.27265			43387.38302		68.68200		324.00000 
 43692.65567		 961.16730			42731.48837		229.54400		875.00000 
 43692.65567		 305.27265			43387.38302		68.68200		324.00000 
 43692.65567		 961.16730			42731.48837		229.54400		875.00000 
 43692.65567		 305.27265			43387.38302		68.68200		324.00000 
 43692.65567		 961.16730			42731.48837		229.54400		875.00000 
 43692.65567		 305.27265			43387.38302		68.68200		324.00000 
 43692.65567		 961.16730			42731.48837		229.54400		875.00000 
 43692.65567		 305.27265			43387.38302		68.68200		324.00000 
 43692.65567		 961.16730			42731.48837		229.54400		875.00000 
 43692.65567		 305.27265			43387.38302		68.68200		324.00000 
 43692.65567		 961.16730			42731.48837		229.54400		875.00000 
 43692.65567		 305.27265			43387.38302		68.68200		324.00000 
 43692.65567		 961.16730			42731.48837		229.54400		875.00000 
 43692.65567		 305.27265			43387.38302		68.68200		324.00000 
 43692.65567		 961.16730			42731.48837		229.54400		875.00000 
 43692.65567		 305.27265			43387.38302		68.68200		324.00000 
 43692.65567		 961.16730			42731.48837		229.54400		875.00000 
 43692.65567		 305.27265			43387.38302		68.68200		324.00000 
 43692.65567		 961.16730			42731.48837		229.54400		875.00000 
 43692.65567		 305.27265			43387.38302		68.68200		324.00000 
 43692.65567		 961.16730			42731.48837		229.54400		875.00000 
 43692.65567		 305.27265			43387.38302		68.68200		324.00000 
 43692.65567		 961.16730			42731.48837		229.54400		875.00000 
 43692.65567		 305.27265			43387.38302		68.68200		324.00000 
 43692.65567		 961.16730			42731.48837		229.54400		875.00000 
 43692.65567		 305.27265			43387.38302		68.68200		324.00000 
 43692.65567		 961.16730			42731.48837		229.54400		875.00000 
 43692.65567		 305.27265			43387.38302		68.68200		324.00000 
 43692.65567		 961.16730			42731.48837		229.54400		875.00000 
 43692.65567		 305.27265			43387.38302		68.68200		324.00000 
 43692.65567		 961.16730			42731.48837		229.54400		875.00000 
 43692.65567		 305.27265			43387.38302		68.68200		324.00000 
 43692.65567		 961.16730			42731.48837		229.54400		875.00000 
 43692.65567		 305.27265			43387.38302		68.68200		324.00000 
 43692.65567		 961.16730			42731.48837		229.54400		875.00000 
 43692.65567		 305.27265			43387.38302		68.68200		324.00000 
 43692.65567		 961.16730			42731.48837		229.54400		875.00000 
 43692.65567		 305.27265			43387.38302		68.68200		324.00000 
 43692.65567		 961.16730			42731.48837		229.54400		875.00000 
 43692.65567		 305.27265			43387.38302		68.68200		324.00000 
 43692.65567		 961.16730			42731.48837		229.54400		875.00000 
 43692.65567		 305.27265			43387.38302		68.68200		324.00000 
 43692.65567		 961.16730			42731.48837		229.54400		875.00000 
 43692.65567		 305.27265			43387.38302		68.68200		324.00000 
 43692.65567		 961.16730			42731.48837		229.54400		875.00000 
 43692.65567		 305.27265			43387.38302		68.68200		324.00000 
 43692.65567		 961.16730			42731.48837		229.54400		875.00000 
 43692.65567		 305.27265			43387.38302		68.68200		324.00000 
 43692.65567		 961.16730			42731.48837		229.54400		875.00000 
 43692.65567		 305.27265			43387.38302		68.68200		324.00000 
 43692.65567		 961.16730			42731.48837		229.54400		875.00000 
 43692.65567		 305.27265			43387.38302		68.68200		324.00000 
 43692.65567		 961.16730			42731.48837		229.54400		875.00000 
 43692.65567		 305.27265			43387.38302		68.68200		324.00000 
 43692.65567		 961.16730			42731.48837		229.54400		875.00000 
 43692.65567		 305.27265			43387.38302		68.68200		324.00000 
 43692.65567		 961.16730			42731.48837		229.54400		875.00000 
 43692.65567		 305.27265			43387.38302		68.68200		324.00000 
 43692.65567		 961.16730			42731.48837		229.54400		875.00000 
 43692.65567		 305.27265			43387.38302		68.68200		324.00000 
 43692.65567		 961.16730			42731.48837		229.54400		875.00000 
 43692.65567		 305.27265			43387.38302		68.68200		324.00000 
 43692.65567		 961.16730			42731.48837		229.54400		875.00000 
 43692.65567		 305.27265			43387.38302		68.68200		324.00000 
 43692.65567		 961.16730			42731.48837		229.54400		875.00000 
 43692.65567		 305.27265			43387.38302		68.68200		324.00000 
 43692.65567		 961.16730			42731.48837		229.54400		875.00000 
 43692.65567		 305.27265			43387.38302		68.68200		324.00000 
 43692.65567		 961.16730			42731.48837		229.54400		875.00000 
 43692.65567		 305.27265			43387.38302		68.68200		324.00000 
 43692.65567		 961.16730			42731.48837		229.54400		875.00000 
 43692.65567		 305.27265			43387.38302		68.68200		324.00000 
 43692.65567		 961.16730			42731.48837		229.54400		875.00000 
 43692.65567		 305.27265			43387.38302		68.68200		324.00000 
 43692.65567		 961.16730			42731.48837		229.54400		875.00000 
 43692.65567		 305.27265			43387.38302		68.68200		324.00000 
 43692.65567		 961.16730			42731.48837		229.54400		875.00000 
 43692.65567		 305.27265			43387.38302		68.68200		324.00000 
 43692.65567		 961.16730			42731.48837		229.54400		875.00000 
 43692.65567		 305.27265			43387.38302		68.68200		324.00000 
 43692.65567		 961.16730			42731.48837		229.54400		875.00000 
 43692.65567		 305.27265			43387.38302		68.68200		324.00000 
 43692.65567		 961.16730			42731.48837		229.54400		875.00000 
 43692.65567		 305.27265			43387.38302		68.68200		324.00000 
 43692.65567		 961.16730			42731.48837		229.54400		875.00000 
 43692.65567		 305.27265			43387.38302		68.68200		324.00000 
 43692.65567		 961.16730			42731.48837		229.54400		875.00000 
 43692.65567		 305.27265			43387.38302		68.68200		324.00000 
 43692.65567		 961.16730			42731.48837		229.54400		875.00000 
 43692.65567		 305.27265			43387.38302		68.68200		324.00000 
 43692.65567		 961.16730			42731.48837		229.54400		875.00000 
 43692.65567		 305.27265			43387.38302		68.68200		324.00000 
 43692.65567		 961.16730			42731.48837		229.54400		875.00000 
 43692.65567		 305.27265			43387.38302		68.68200		324.00000 
 43692.65567		 961.16730			42731.48837		229.54400		875.00000 
 43692.65567		 305.27265			43387.38302		68.68200		324.00000 
 43692.65567		 961.16730			42731.48837		229.54400		875.00000 
 43692.65567		 305.27265			43387.38302		68.68200		324.00000 
 43692.65567		 961.16730			42731.48837		229.54400		875.00000 
 43692.65567		 305.27265			43387.38302		68.68200		324.00000 
 43692.65567		 961.16730			42731.48837		229.54400		875.00000 
 43692.65567		 305.27265			43387.38302		68.68200		324.00000 
 43692.65567		 961.16730			42731.48837		229.54400		875.00000 
 43692.65567		 305.27265			43387.38302		68.68200		324.00000 
 43692.65567		 961.16730			42731.48837		229.54400		875.00000 
 43692.65567		 305.27265			43387.38302		68.68200		324.00000 
 43692.65567		 961.16730			42731.48837		229.54400		875.00000 
 43692.65567		 305.27265			43387.38302		68.68200		324.00000 
 43692.65567		 961.16730			42731.48837		229.54400		875.00000 
 43692.65567		 305.27265			43387.38302		68.68200		324.00000 
 43692.65567		 961.16730			42731.48837		229.54400		875.00000 
 43692.65567		 305.27265			43387.38302		68.68200		324.00000 
 43692.65567		 961.16730			42731.48837		229.54400		875.00000 
 43692.65567		 305.27265			43387.38302		68.68200		324.00000 
 43692.65567		 961.16730			42731.48837		229.54400		875.00000 
 43692.65567		 305.27265			43387.38302		68.68200		324.00000 
 43692.65567		 961.16730			42731.48837		229.54400		875.00000 
 43692.65567		 305.27265			43387.38302		68.68200		324.00000 
 43692.65567		 961.16730			42731.48837		229.54400		875.00000 
 43692.65567		 305.27265			43387.38302		68.68200		324.00000 
 43692.65567		 961.16730			42731.48837		229.54400		875.00000 
 43692.65567		 305.27265			43387.38302		68.68200		324.00000 
 43692.65567		 961.16730			42731.48837		229.54400		875.00000 
 43692.65567		 305.27265			43387.38302		68.68200		324.00000 
 43692.65567		 961.16730			42731.48837		229.54400		875.00000 
 43692.65567		 305.27265			43387.38302		68.68200		324.00000 
 43692.65567		 961.16730			42731.48837		229.54400		875.00000 
 43692.65567		 305.27265			43387.38302		68.68200		324.00000 
 43692.65567		 961.16730			42731.48837		229.54400		875.00000 
 43692.65567		 305.27265			43387.38302		68.68200		324.00000 
 43692.65567		 961.16730			42731.48837		229.54400		875.00000 
 43692.65567		 305.27265			43387.38302		68.68200		324.00000 
 43692.65567		 961.16730			42731.48837		229.54400		875.00000 
 43692.65567		 305.27265			43387.38302		68.68200		324.00000 
 43692.65567		 961.16730			42731.48837		229.54400		875.00000 
 43692.65567		 305.27265			43387.38302		68.68200		324.00000 
 43692.65567		 961.16730			42731.48837		229.54400		875.00000 
 43692.65567		 305.27265			43387.38302		68.68200		324.00000 
 43692.65567		 961.16730			42731.48837		229.54400		875.00000 
 43692.65567		 305.27265			43387.38302		68.68200		324.00000 
 43692.65567		 961.16730			42731.48837		229.54400		875.00000 
 43692.65567		 305.27265			43387.38302		68.68200		324.00000 
 43692.65567		 961.16730			42731.48837		229.54400		875.00000 
 43692.65567		 305.27265			43387.38302		68.68200		324.00000 
 43692.65567		 961.16730			42731.48837		229.54400		875.00000 
 43692.65567		 305.27265			43387.38302		68.68200		324.00000 
 43692.65567		 961.16730			42731.48837		229.54400		875.00000 
 43692.65567		 305.27265			43387.38302		68.68200		324.00000 
 43692.65567		 961.16730			42731.48837		229.54400		875.00000 
 43692.65567		 305.27265			43387.38302		68.68200		324.00000 
 43692.65567		 961.16730			42731.48837		229.54400		875.00000 
 43692.65567		 305.27265			43387.38302		68.68200		324.00000 
 43692.65567		 961.16730			42731.48837		229.54400		875.00000 
 43692.65567		 305.27265			43387.38302		68.68200		324.00000 
 43692.65567		 961.16730			42731.48837		229.54400		875.00000 
 43692.65567		 305.27265			43387.38302		68.68200		324.00000 
 43692.65567		 961.16730			42731.48837		229.54400		875.00000 
 43692.65567		 305.27265			43387.38302		68.68200		324.00000 
 43692.65567		 961.16730			42731.48837		229.54400		875.00000 
 43692.65567		 305.27265			43387.38302		68.68200		324.00000 
 43692.65567		 961.16730			42731.48837		229.54400		875.00000 
 43692.65567		 305.27265			43387.38302		68.68200		324.00000 
 43692.65567		 961.16730			42731.48837		229.54400		875.00000 
 43692.65567		 305.27265			43387.38302		68.68200		324.00000 
 43692.65567		 961.16730			42731.48837		229.54400		875.00000 
 43692.65567		 305.27265			43387.38302		68.68200		324.00000 
 43692.65567		 961.16730			42731.48837		229.54400		875.00000 
 43692.65567		 305.27265			43387.38302		68.68200		324.00000 
 43692.65567		 961.16730			42731.48837		228.94600		875.00000 
 43692.65567		 305.27265			43387.38302		68.68200		324.00000 
 43692.65567		 961.16730			42731.48837		228.94600		875.00000 
 43692.65567		 305.27265			43387.38302		68.68200		324.00000 
 43692.65567		 961.16730			42731.48837		228.94600		875.00000 
 43692.65567		 305.27265			43387.38302		68.68200		324.00000 
 43692.65567		 961.16730			42731.48837		228.94600		875.00000 
 43692.65567		 305.27265			43387.38302		68.68200		324.00000 
 43692.65567		 961.16730			42731.48837		228.94600		875.00000 
 43692.65567		 305.27265			43387.38302		68.68200		324.00000 
 43692.65567		 961.16730			42731.48837		228.94600		875.00000 
 43692.65567		 305.27265			43387.38302		68.68200		324.00000 
 43692.65567		 961.16730			42731.48837		228.94600		875.00000 
 43692.65567		 305.27265			43387.38302		68.68200		324.00000 
 43692.65567		 961.16730			42731.48837		228.94600		875.00000 
 43692.65567		 305.27265			43387.38302		68.68200		324.00000 
 43692.65567		 961.16730			42731.48837		228.94600		875.00000 
 43692.65567		 305.27265			43387.38302		68.68200		324.00000 
 43692.65567		 961.16730			42731.48837		228.94600		875.00000 
 43692.65567		 305.27265			43387.38302		68.68200		324.00000 
 43692.65567		 961.16730			42731.48837		228.94600		875.00000 
 43692.65567		 305.27265			43387.38302		68.68200		324.00000 
 43692.65567		 961.16730			42731.48837		228.94600		875.00000 
 43692.65567		 305.27265			43387.38302		68.68200		324.00000 
 43692.65567		 961.16730			42731.48837		228.94600		875.00000 
 43692.65567		 305.27265			43387.38302		68.68200		324.00000 
 43692.65567		 961.16730			42731.48837		228.94600		875.00000 
 43692.65567		 305.27265			43387.38302		68.68200		324.00000 
 43692.65567		 961.16730			42731.48837		228.94600		875.00000 
 43692.65567		 305.27265			43387.38302		68.68200		324.00000 
 43692.65567		 961.16730			42731.48837		228.94600		875.00000 
 43692.65567		 305.27265			43387.38302		68.68200		324.00000 
 43692.65567		 961.16730			42731.48837		228.94600		875.00000 
 43692.65567		 305.27265			43387.38302		68.68200		324.00000 
 43692.65567		 961.16730			42731.48837		228.94600		875.00000 
 43692.65567		 305.27265			43387.38302		68.68200		324.00000 
 43692.65567		 961.16730			42731.48837		228.94600		875.00000 
 43692.65567		 305.27265			43387.38302		68.68200		324.00000 
 43692.65567		 961.16730			42731.48837		228.94600		875.00000 
 43692.65567		 305.27265			43387.38302		68.68200		324.00000 
 43692.65567		 961.16730			42731.48837		228.94600		875.00000 
 43692.65567		 305.27265			43387.38302		68.68200		324.00000 
 43692.65567		 961.16730			42731.48837		228.94600		875.00000 
 43692.65567		 305.27265			43387.38302		68.68200		324.00000 
 43692.65567		 961.16730			42731.48837		228.94600		875.00000 
 43692.65567		 305.27265			43387.38302		68.68200		324.00000 
 43692.65567		 961.16730			42731.48837		228.94600		875.00000 
 43692.65567		 305.27265			43387.38302		68.68200		324.00000 
 43692.65567		 961.16730			42731.48837		228.94600		875.00000 
 43692.65567		 305.27265			43387.38302		68.68200		324.00000 
 43692.65567		 961.16730			42731.48837		228.94600		875.00000 
 43692.65567		 305.27265			43387.38302		68.68200		324.00000 
 43692.65567		 961.16730			42731.48837		228.94600		875.00000 
 43692.65567		 305.27265			43387.38302		68.68200		324.00000 
 43692.65567		 961.16730			42731.48837		228.94600		875.00000 
 43692.65567		 305.27265			43387.38302		68.68200		324.00000 
 43692.65567		 961.16730			42731.48837		228.94600		875.00000 
 43692.65567		 305.27265			43387.38302		68.68200		324.00000 
 43692.65567		 961.16730			42731.48837		228.94600		875.00000 
 43692.65567		 305.27265			43387.38302		68.68200		324.00000 
 43692.65567		 961.16730			42731.48837		228.94600		875.00000 
 43692.65567		 305.27265			43387.38302		68.68200		324.00000 
 43692.65567		 961.16730			42731.48837		228.94600		875.00000 
 43692.65567		 305.27265			43387.38302		68.68200		324.00000 
 43692.65567		 961.16730			42731.48837		228.94600		875.00000 
 43692.65567		 305.27265			43387.38302		68.68200		324.00000 
 43692.65567		 961.16730			42731.48837		228.94600		875.00000 
 43692.65567		 305.27265			43387.38302		68.68200		324.00000 
 43692.65567		 961.16730			42731.48837		228.94600		875.00000 
 43692.65567		 305.27265			43387.38302		68.68200		324.00000 
 43692.65567		 961.16730			42731.48837		228.94600		875.00000 
 43692.65567		 305.27265			43387.38302		68.68200		324.00000 
 43692.65567		 961.16730			42731.48837		228.94600		875.00000 
 43692.65567		 305.27265			43387.38302		68.68200		324.00000 
 43692.65567		 961.16730			42731.48837		228.94600		875.00000 
 43692.65567		 305.27265			43387.38302		68.68200		324.00000 
 43692.65567		 961.16730			42731.48837		228.94600		875.00000 
 43692.65567		 305.27265			43387.38302		68.68200		324.00000 
 43692.65567		 961.16730			42731.48837		228.94600		875.00000 
 43692.65567		 305.27265			43387.38302		68.68200		324.00000 
 43692.65567		 961.16730			42731.48837		228.94600		875.00000 
 43692.65567		 305.27265			43387.38302		68.68200		324.00000 
 43692.65567		 961.16730			42731.48837		228.94600		875.00000 
 43692.65567		 305.27265			43387.38302		68.68200		324.00000 
 43692.65567		 961.16730			42731.48837		228.94600		875.00000 
 43692.65567		 305.27265			43387.38302		68.68200		324.00000 
 43692.65567		 961.16730			42731.48837		228.94600		875.00000 
 43692.65567		 305.27265			43387.38302		68.68200		324.00000 
 43692.65567		 961.16730			42731.48837		228.94600		875.00000 
 43692.65567		 305.27265			43387.38302		68.68200		324.00000 
 43692.65567		 961.16730			42731.48837		228.94600		875.00000 
 43692.65567		 305.27265			43387.38302		68.68200		324.00000 
 43692.65567		 961.16730			42731.48837		228.94600		875.00000 
 43692.65567		 305.27265			43387.38302		68.68200		324.00000 
 43692.65567		 961.16730			42731.48837		228.94600		875.00000 
 43692.65567		 305.27265			43387.38302		68.68200		324.00000 
 43692.65567		 961.16730			42731.48837		228.94600		875.00000 
 43692.65567		 305.27265			43387.38302		68.68200		324.00000 
 43692.65567		 961.16730			42731.48837		228.94600		875.00000 
 43692.65567		 305.27265			43387.38302		68.68200		324.00000 
 43692.65567		 961.16730			42731.48837		228.94600		875.00000 
 43692.65567		 305.27265			43387.38302		68.68200		324.00000 
 43692.65567		 961.16730			42731.48837		228.94600		875.00000 
 43692.65567		 305.27265			43387.38302		68.68200		324.00000 
 43692.65567		 961.16730			42731.48837		228.94600		875.00000 
 43692.65567		 305.27265			43387.38302		68.68200		324.00000 
 43692.65567		 961.16730			42731.48837		228.94600		875.00000 
 43692.65567		 305.27265			43387.38302		68.68200		324.00000 
 43692.65567		 961.16730			42731.48837		228.94600		875.00000 
 43692.65567		 305.27265			43387.38302		68.68200		324.00000 
 43692.65567		 961.16730			42731.48837		228.94600		875.00000 
 43692.65567		 305.27265			43387.38302		68.68200		324.00000 
 43692.65567		 961.16730			42731.48837		228.94600		875.00000 
 43692.65567		 305.27265			43387.38302		68.68200		324.00000 
 43692.65567		 961.16730			42731.48837		228.94600		875.00000 
 43692.65567		 305.27265			43387.38302		68.68200		324.00000 
 43692.65567		 961.16730			42731.48837		228.94600		875.00000 
 43692.65567		 305.27265			43387.38302		68.68200		324.00000 
 43692.65567		 961.16730			42731.48837		228.94600		875.00000 
 43692.65567		 305.27265			43387.38302		68.68200		324.00000 
 43692.65567		 961.16730			42731.48837		228.94600		875.00000 
 43692.65567		 305.27265			43387.38302		68.68200		324.00000 
 43692.65567		 961.16730			42731.48837		228.94600		875.00000 
 43692.65567		 305.27265			43387.38302		68.68200		324.00000 
 43692.65567		 961.16730			42731.48837		228.94600		875.00000 
 43692.65567		 305.27265			43387.38302		68.68200		324.00000 
 43692.65567		 961.16730			42731.48837		228.94600		875.00000 
 43692.65567		 305.27265			43387.38302		68.68200		324.00000 
 43692.65567		 961.16730			42731.48837		229.54400		875.00000 
 43692.65567		 305.27265			43387.38302		68.68200		324.00000 
 43692.65567		 961.16730			42731.48837		229.54400		875.00000 
 43692.65567		 305.27265			43387.38302		68.68200		324.00000 
 43692.65567		 961.16730			42731.48837		229.54400		875.00000 
 43692.65567		 305.27265			43387.38302		68.68200		324.00000 
 43692.65567		 961.16730			42731.48837		229.54400		875.00000 
 43692.65567		 305.27265			43387.38302		68.68200		324.00000 
 43692.65567		 961.16730			42731.48837		229.54400		875.00000 
 43692.65567		 305.27265			43387.38302		68.68200		324.00000 
 43692.65567		 961.16730			42731.48837		229.54400		875.00000 
 43692.65567		 305.27265			43387.38302		68.68200		324.00000 
 43692.65567		 961.16730			42731.48837		229.54400		875.00000 
 43692.65567		 305.27265			43387.38302		68.68200		324.00000 
 43692.65567		 961.16730			42731.48837		229.54400		875.00000 
 43692.65567		 305.27265			43387.38302		68.68200		324.00000 
 43692.65567		 961.16730			42731.48837		229.54400		875.00000 
 43692.65567		 305.27265			43387.38302		68.68200		324.00000 
 43692.65567		 961.16730			42731.48837		229.54400		875.00000 
 43692.65567		 305.27265			43387.38302		68.68200		324.00000 
 43692.65567		 961.16730			42731.48837		229.54400		875.00000 
 43692.65567		 305.27265			43387.38302		68.68200		324.00000 
 43692.65567		 961.16730			42731.48837		229.54400		875.00000 
 43692.65567		 305.27265			43387.38302		68.68200		324.00000 
 43692.65567		 961.16730			42731.48837		229.54400		875.00000 
 43692.65567		 305.27265			43387.38302		68.68200		324.00000 
 43692.65567		 961.16730			42731.48837		229.54400		875.00000 
 43692.65567		 305.27265			43387.38302		68.68200		324.00000 
 43692.65567		 961.16730			42731.48837		229.54400		875.00000 
 43692.65567		 305.27265			43387.38302		68.68200		324.00000 
 43692.65567		 961.16730			42731.48837		229.54400		875.00000 
 43692.65567		 305.27265			43387.38302		68.68200		324.00000 
 43692.65567		 961.16730			42731.48837		229.54400		875.00000 
 43692.65567		 305.27265			43387.38302		68.68200		324.00000 
 43692.65567		 961.16730			42731.48837		229.54400		875.00000 
 43692.65567		 305.27265			43387.38302		68.68200		324.00000 
 43692.65567		 961.16730			42731.48837		229.54400		875.00000 
 43692.65567		 305.27265			43387.38302		68.68200		324.00000 
 43692.65567		 961.16730			42731.48837		229.54400		875.00000 
 43692.65567		 305.27265			43387.38302		68.68200		324.00000 
 43692.65567		 961.16730			42731.48837		229.54400		875.00000 
 43692.65567		 305.27265			43387.38302		68.68200		324.00000 
 43692.65567		 961.16730			42731.48837		229.54400		875.00000 
 43692.65567		 305.27265			43387.38302		68.68200		324.00000 
 43692.65567		 961.16730			42731.48837		229.54400		875.00000 
 43692.65567		 305.27265			43387.38302		68.68200		324.00000 
 43692.65567		 961.16730			42731.48837		229.54400		875.00000 
 43692.65567		 305.27265			43387.38302		68.68200		324.00000 
 43692.65567		 961.16730			42731.48837		229.54400		875.00000 
 43692.65567		 305.27265			43387.38302		68.68200		324.00000 
 43692.65567		 961.16730			42731.48837		229.54400		875.00000 
 43692.65567		 305.27265			43387.38302		68.68200		324.00000 
 43692.65567		 961.16730			42731.48837		229.54400		875.00000 
 43692.65567		 305.27265			43387.38302		68.68200		324.00000 
 43692.65567		 961.16730			42731.48837		229.54400		875.00000 
 43692.65567		 305.27265			43387.38302		68.68200		324.00000 
 43692.65567		 961.16730			42731.48837		229.54400		875.00000 
 43692.65567		 305.27265			43387.38302		68.68200		324.00000 
 43692.65567		 961.16730			42731.48837		229.54400		875.00000 
 43692.65567		 305.27265			43387.38302		68.68200		324.00000 
 43692.65567		 961.16730			42731.48837		229.54400		875.00000 
 43692.65567		 305.27265			43387.38302		68.68200		324.00000 
 43692.65567		 961.16730			42731.48837		229.54400		875.00000 
 43692.65567		 305.27265			43387.38302		68.68200		324.00000 
 43692.65567		 961.16730			42731.48837		229.54400		875.00000 
 43692.65567		 305.27265			43387.38302		68.68200		324.00000 
 43692.65567		 961.16730			42731.48837		229.54400		875.00000 
 43692.65567		 305.27265			43387.38302		68.68200		324.00000 
 43692.65567		 961.16730			42731.48837		229.54400		875.00000 
 43692.65567		 305.27265			43387.38302		68.68200		324.00000 
 43692.65567		 961.16730			42731.48837		229.54400		875.00000 
 43692.65567		 305.27265			43387.38302		68.68200		324.00000 
 43692.65567		 961.16730			42731.48837		229.54400		875.00000 
 43692.65567		 305.27265			43387.38302		68.68200		324.00000 
 43692.65567		 961.16730			42731.48837		229.54400		875.00000 
 43692.65567		 305.27265			43387.38302		68.68200		324.00000 
 43692.65567		 961.16730			42731.48837		229.54400		875.00000 
 43692.65567		 305.27265			43387.38302		68.68200		324.00000 
 43692.65567		 961.16730			42731.48837		229.54400		875.00000 
 43692.65567		 305.27265			43387.38302		68.68200		324.00000 
 43692.65567		 961.16730			42731.48837		229.54400		875.00000 
 43692.65567		 305.27265			43387.38302		68.68200		324.00000 
 43692.65567		 961.16730			42731.48837		229.54400		875.00000 
 43692.65567		 305.27265			43387.38302		68.68200		324.00000 
 43692.65567		 961.16730			42731.48837		229.54400		875.00000 
 43692.65567		 305.27265			43387.38302		68.68200		324.00000 
 43692.65567		 961.16730			42731.48837		229.54400		875.00000 
 43692.65567		 305.27265			43387.38302		68.68200		324.00000 
 43692.65567		 961.16730			42731.48837		229.54400		875.00000 
 43692.65567		 305.27265			43387.38302		68.68200		324.00000 
 43692.65567		 961.16730			42731.48837		229.54400		875.00000 
 43692.65567		 305.27265			43387.38302		68.68200		324.00000 
 43692.65567		 961.16730			42731.48837		229.54400		875.00000 
 43692.65567		 305.27265			43387.38302		68.68200		324.00000 
 43692.65567		 961.16730			42731.48837		229.54400		875.00000 
 43692.65567		 305.27265			43387.38302		68.68200		324.00000 
 43692.65567		 961.16730			42731.48837		229.54400		875.00000 
 43692.65567		 305.27265			43387.38302		68.68200		324.00000 
 43692.65567		 961.16730			42731.48837		229.54400		875.00000 
 43692.65567		 305.27265			43387.38302		68.68200		324.00000 
 43692.65567		 961.16730			42731.48837		229.54400		875.00000 
 43692.65567		 305.27265			43387.38302		68.68200		324.00000 
 43692.65567		 961.16730			42731.48837		229.54400		875.00000 
 43692.65567		 305.27265			43387.38302		68.68200		324.00000 
 43692.65567		 961.16730			42731.48837		229.54400		875.00000 
 43692.65567		 305.27265			43387.38302		68.68200		324.00000 
 43692.65567		 961.16730			42731.48837		229.54400		875.00000 
 43692.65567		 305.27265			43387.38302		68.68200		324.00000 
 43692.65567		 961.16730			42731.48837		229.54400		875.00000 
 43692.65567		 305.27265			43387.38302		68.68200		324.00000 
 43692.65567		 961.16730			42731.48837		229.54400		875.00000 
 43692.65567		 305.27265			43387.38302		68.68200		324.00000 
 43692.65567		 961.16730			42731.48837		229.54400		875.00000 
 43692.65567		 305.27265			43387.38302		68.68200		324.00000 
 43692.65567		 961.16730			42731.48837		229.54400		875.00000 
 43692.65567		 305.27265			43387.38302		68.68200		324.00000 
 43692.65567		 961.16730			42731.48837		229.54400		875.00000 
 43692.65567		 305.27265			43387.38302		68.68200		324.00000 
 43692.65567		 961.16730			42731.48837		229.54400		875.00000 
 43692.65567		 305.27265			43387.38302		68.68200		324.00000 
 43692.65567		 961.16730			42731.48837		229.54400		875.00000 
 43692.65567		 305.27265			43387.38302		68.68200		324.00000 
 43692.65567		 961.16730			42731.48837		229.54400		875.00000 
 43692.65567		 305.27265			43387.38302		68.68200		324.00000 
 43692.65567		 961.16730			42731.48837		229.54400		875.00000 
 43692.65567		 305.27265			43387.38302		68.68200		324.00000 
 43692.65567		 961.16730			42731.48837		229.54400		875.00000 
 43692.65567		 305.27265			43387.38302		68.68200		324.00000 
 43692.65567		 961.16730			42731.48837		229.54400		875.00000 
 43692.65567		 305.27265			43387.38302		68.68200		324.00000 
 43692.65567		 961.16730			42731.48837		229.54400		875.00000 
 43692.65567		 305.27265			43387.38302		68.68200		324.00000 
 43692.65567		 961.16730			42731.48837		229.54400		875.00000 
 43692.65567		 305.27265			43387.38302		68.68200		324.00000 
 43692.65567		 961.16730			42731.48837		229.54400		875.00000 
 43692.65567		 305.27265			43387.38302		68.68200		324.00000 
 43692.65567		 961.16730			42731.48837		229.54400		875.00000 
 43692.65567		 305.27265			43387.38302		68.68200		324.00000 
 43692.65567		 961.16730			42731.48837		229.54400		875.00000 
 43692.65567		 305.27265			43387.38302		68.68200		324.00000 
 43692.65567		 961.16730			42731.48837		229.54400		875.00000 
 43692.65567		 305.27265			43387.38302		68.68200		324.00000 
 43692.65567		 961.16730			42731.48837		229.54400		875.00000 
 43692.65567		 305.27265			43387.38302		68.68200		324.00000 
 43692.65567		 961.16730			42731.48837		229.54400		875.00000 
 43692.65567		 305.27265			43387.38302		68.68200		324.00000 
 43692.65567		 961.16730			42731.48837		229.54400		875.00000 
 43692.65567		 305.27265			43387.38302		68.68200		324.00000 
 43692.65567		 961.16730			42731.48837		229.54400		875.00000 
 43692.65567		 305.27265			43387.38302		68.68200		324.00000 
 43692.65567		 961.16730			42731.48837		229.54400		875.00000 
 43692.65567		 305.27265			43387.38302		68.68200		324.00000 
 43692.65567		 961.16730			42731.48837		229.54400		875.00000 
 43692.65567		 305.27265			43387.38302		68.68200		324.00000 
 43692.65567		 961.16730			42731.48837		229.54400		875.00000 
 43692.65567		 305.27265			43387.38302		68.68200		324.00000 
 43692.65567		 961.16730			42731.48837		229.54400		875.00000 
 43692.65567		 305.27265			43387.38302		68.68200		324.00000 
 43692.65567		 961.16730			42731.48837		229.54400		875.00000 
 43692.65567		 305.27265			43387.38302		68.68200		324.00000 
 43692.65567		 961.16730			42731.48837		229.54400		875.00000 
 43692.65567		 305.27265			43387.38302		68.68200		324.00000 
 43692.65567		 961.16730			42731.48837		229.54400		875.00000 
 43692.65567		 305.27265			43387.38302		68.68200		324.00000 
 43692.65567		 961.16730			42731.48837		229.54400		875.00000 
 43692.65567		 305.27265			43387.38302		68.68200		324.00000 
 43692.65567		 961.16730			42731.48837		229.54400		875.00000 
 43692.65567		 305.27265			43387.38302		68.68200		324.00000 
 43692.65567		 961.16730			42731.48837		229.54400		875.00000 
 43692.65567		 305.27265			43387.38302		68.68200		324.00000 
 43692.65567		 961.16730			42731.48837		229.54400		875.00000 
 43692.65567		 305.27265			43387.38302		68.68200		324.00000 
 43692.65567		 961.16730			42731.48837		229.54400		875.00000 
 43692.65567		 305.27265			43387.38302		68.68200		324.00000 
 43692.65567		 961.16730			42731.48837		229.54400		875.00000 
 43692.65567		 305.27265			43387.38302		68.68200		324.00000 
 43692.65567		 961.16730			42731.48837		229.54400		875.00000 
 43692.65567		 305.27265			43387.38302		68.68200		324.00000 
 43692.65567		 961.16730			42731.48837		229.54400		875.00000 
 43692.65567		 305.27265			43387.38302		68.68200		324.00000 
 43692.65567		 961.16730			42731.48837		229.54400		875.00000 
 43692.65567		 305.27265			43387.38302		68.68200		324.00000 
 43692.65567		 961.16730			42731.48837		229.54400		875.00000 
 43692.65567		 305.27265			43387.38302		68.68200		324.00000 
 43692.65567		 961.16730			42731.48837		229.54400		875.00000 
 43692.65567		 305.27265			43387.38302		68.68200		324.00000 
 43692.65567		 961.16730			42731.48837		229.54400		875.00000 
 43692.65567		 305.27265			43387.38302		68.68200		324.00000 
 43692.65567		 961.16730			42731.48837		229.54400		875.00000 
 43692.65567		 305.27265			43387.38302		68.68200		324.00000 
 43692.65567		 961.16730			42731.48837		229.54400		875.00000 
 43692.65567		 305.27265			43387.38302		68.68200		324.00000 
 43692.65567		 961.16730			42731.48837		229.54400		875.00000 
 43692.65567		 305.27265			43387.38302		68.68200		324.00000 
 43692.65567		 961.16730			42731.48837		229.54400		875.00000 
 43692.65567		 305.27265			43387.38302		68.68200		324.00000 
 43692.65567		 961.16730			42731.48837		229.54400		875.00000 
 43692.65567		 305.27265			43387.38302		68.68200		324.00000 
 43692.65567		 961.16730			42731.48837		229.54400		875.00000 
 43692.65567		 305.27265			43387.38302		68.68200		324.00000 
 43692.65567		 961.16730			42731.48837		229.54400		875.00000 
 43692.65567		 305.27265			43387.38302		68.68200		324.00000 
 43692.65567		 961.16730			42731.48837		229.54400		875.00000 
 43692.65567		 305.27265			43387.38302		68.68200		324.00000 
 43692.65567		 961.16730			42731.48837		229.54400		875.00000 
 43692.65567		 305.27265			43387.38302		68.68200		324.00000 
 43692.65567		 961.16730			42731.48837		229.54400		875.00000 
 43692.65567		 305.27265			43387.38302		68.68200		324.00000 
 43692.65567		 961.16730			42731.48837		229.54400		875.00000 
 43692.65567		 305.27265			43387.38302		68.68200		324.00000 
 43692.65567		 961.16730			42731.48837		229.54400		875.00000 
 43692.65567		 305.27265			43387.38302		68.68200		324.00000 
 43692.65567		 961.16730			42731.48837		229.54400		875.00000 
 43692.65567		 305.27265			43387.38302		68.68200		324.00000 
 43692.65567		 961.16730			42731.48837		229.54400		875.00000 
 43692.65567		 305.27265			43387.38302		68.68200		324.00000 
 43692.65567		 961.16730			42731.48837		229.54400		875.00000 
 43692.65567		 305.27265			43387.38302		68.68200		324.00000 
 43692.65567		 961.16730			42731.48837		229.54400		875.00000 
 43692.65567		 305.27265			43387.38302		68.68200		324.00000 
 43692.65567		 961.16730			42731.48837		229.54400		875.00000 
 43692.65567		 305.27265			43387.38302		68.68200		324.00000 
 43692.65567		 961.16730			42731.48837		229.54400		875.00000 
 43692.65567		 305.27265			43387.38302		68.68200		324.00000 
 43692.65567		 961.16730			42731.48837		229.54400		875.00000 
 43692.65567		 305.27265			43387.38302		68.68200		324.00000 
 43692.65567		 961.16730			42731.48837		229.54400		875.00000 
 43692.65567		 305.27265			43387.38302		68.68200		324.00000 
 43692.65567		 961.16730			42731.48837		229.54400		875.00000 
 43692.65567		 305.27265			43387.38302		68.68200		324.00000 
 43692.65567		 961.16730			42731.48837		229.54400		875.00000 
 43692.65567		 305.27265			43387.38302		68.68200		324.00000 
 43692.65567		 961.16730			42731.48837		229.54400		875.00000 
 43692.65567		 305.27265			43387.38302		68.68200		324.00000 
 43692.65567		 961.16730			42731.48837		229.54400		875.00000 
 43692.65567		 305.27265			43387.38302		68.68200		324.00000 
 43692.65567		 961.16730			42731.48837		229.54400		875.00000 
 43692.65567		 305.27265			43387.38302		68.68200		324.00000 
 43692.65567		 961.16730			42731.48837		229.54400		875.00000 
 43692.65567		 305.27265			43387.38302		68.68200		324.00000 
 43692.65567		 961.16730			42731.48837		229.54400		875.00000 
 43692.65567		 305.27265			43387.38302		68.68200		324.00000 
 43692.65567		 961.16730			42731.48837		229.54400		875.00000 
 43692.65567		 305.27265			43387.38302		68.68200		324.00000 
 43692.65567		 961.16730			42731.48837		229.54400		875.00000 
 43692.65567		 305.27265			43387.38302		68.68200		324.00000 
 43692.65567		 961.16730			42731.48837		229.54400		875.00000 
 43692.65567		 305.27265			43387.38302		68.68200		324.00000 
 43692.65567		 961.16730			42731.48837		229.54400		875.00000 
 43692.65567		 305.27265			43387.38302		68.68200		324.00000 
 43692.65567		 961.16730			42731.48837		229.54400		875.00000 
 43692.65567		 305.27265			43387.38302		68.68200		324.00000 
 43692.65567		 961.16730			42731.48837		229.54400		875.00000 
 43692.65567		 305.27265			43387.38302		68.68200		324.00000 
 43692.65567		 961.16730			42731.48837		229.54400		875.00000 
 43692.65567		 305.27265			43387.38302		68.68200		324.00000 
 43692.65567		 961.16730			42731.48837		229.54400		875.00000 
 43692.65567		 305.27265			43387.38302		68.68200		324.00000 
 43692.65567		 961.16730			42731.48837		229.54400		875.00000 
 43692.65567		 305.27265			43387.38302		69.63800		324.00000 
 43692.65567		 961.16730			42731.48837		229.54400		875.00000 
 43692.65567		 305.27265			43387.38302		69.63800		324.00000 
 43692.65567		 961.16730			42731.48837		229.54400		875.00000 
 43692.65567		 305.27265			43387.38302		69.63800		324.00000 
 43692.65567		 961.16730			42731.48837		229.54400		875.00000 
 43692.65567		 305.27265			43387.38302		69.63800		324.00000 
 43692.65567		 961.16730			42731.48837		229.54400		875.00000 
 43692.65567		 305.27265			43387.38302		69.63800		324.00000 
 43692.65567		 961.16730			42731.48837		229.54400		875.00000 
 43692.65567		 305.27265			43387.38302		69.63800		324.00000 
 43692.65567		 961.16730			42731.48837		229.54400		875.00000 
 43692.65567		 305.27265			43387.38302		69.63800		324.00000 
 43692.65567		 961.16730			42731.48837		229.54400		875.00000 
 43692.65567		 305.27265			43387.38302		69.63800		324.00000 
 43692.65567		 961.16730			42731.48837		229.54400		875.00000 
 43692.65567		 305.27265			43387.38302		69.63800		324.00000 
 43692.65567		 961.16730			42731.48837		229.54400		875.00000 
 43692.65567		 305.27265			43387.38302		69.63800		324.00000 
 43692.65567		 961.16730			42731.48837		229.54400		875.00000 
 43692.65567		 305.27265			43387.38302		69.63800		324.00000 
 43692.65567		 961.16730			42731.48837		229.54400		875.00000 
 43692.65567		 305.27265			43387.38302		69.63800		324.00000 
 43692.65567		 961.16730			42731.48837		229.54400		875.00000 
 43692.65567		 305.27265			43387.38302		69.63800		324.00000 
 43692.65567		 961.16730			42731.48837		229.54400		875.00000 
 43692.65567		 305.27265			43387.38302		69.63800		324.00000 
 43692.65567		 961.16730			42731.48837		229.54400		875.00000 
 43692.65567		 305.27265			43387.38302		69.63800		324.00000 
 43692.65567		 961.16730			42731.48837		229.54400		875.00000 
 43692.65567		 305.27265			43387.38302		69.63800		324.00000 
 43692.65567		 961.16730			42731.48837		229.54400		875.00000 
 43692.65567		 305.27265			43387.38302		69.63800		324.00000 
 43692.65567		 961.16730			42731.48837		229.54400		875.00000 
 43692.65567		 305.27265			43387.38302		69.63800		324.00000 
 43692.65567		 961.16730			42731.48837		229.54400		875.00000 
 43692.65567		 305.27265			43387.38302		69.63800		324.00000 
 43692.65567		 961.16730			42731.48837		229.54400		875.00000 
 43692.65567		 305.27265			43387.38302		69.63800		324.00000 
 43692.65567		 961.16730			42731.48837		229.54400		875.00000 
 43692.65567		 305.27265			43387.38302		69.63800		324.00000 
 43692.65567		 961.16730			42731.48837		229.54400		875.00000 
 43692.65567		 305.27265			43387.38302		69.63800		324.00000 
 43692.65567		 961.16730			42731.48837		229.54400		875.00000 
 43692.65567		 305.27265			43387.38302		69.63800		324.00000 
 43692.65567		 961.16730			42731.48837		229.54400		875.00000 
 43692.65567		 305.27265			43387.38302		69.63800		324.00000 
 43692.65567		 961.16730			42731.48837		229.54400		875.00000 
 43692.65567		 305.27265			43387.38302		69.63800		324.00000 
 43692.65567		 961.16730			42731.48837		229.54400		875.00000 
 43692.65567		 305.27265			43387.38302		69.63800		324.00000 
 43692.65567		 961.16730			42731.48837		229.54400		875.00000 
 43692.65567		 305.27265			43387.38302		69.63800		324.00000 
 43692.65567		 961.16730			42731.48837		229.54400		875.00000 
 43692.65567		 305.27265			43387.38302		69.63800		324.00000 
 43692.65567		 961.16730			42731.48837		229.54400		875.00000 
 43692.65567		 305.27265			43387.38302		69.63800		324.00000 
 43692.65567		 961.16730			42731.48837		229.54400		875.00000 
 43692.65567		 305.27265			43387.38302		69.63800		324.00000 
 43692.65567		 961.16730			42731.48837		229.54400		875.00000 
 43692.65567		 305.27265			43387.38302		69.63800		324.00000 
 43692.65567		 961.16730			42731.48837		229.54400		875.00000 
 43692.65567		 305.27265			43387.38302		69.63800		324.00000 
 43692.65567		 961.16730			42731.48837		229.54400		875.00000 
 43692.65567		 305.27265			43387.38302		69.63800		324.00000 
 43692.65567		 961.16730			42731.48837		229.54400		875.00000 
 43692.65567		 305.27265			43387.38302		69.63800		324.00000 
 43692.65567		 961.16730			42731.48837		229.54400		875.00000 
 43692.65567		 305.27265			43387.38302		69.63800		324.00000 
 43692.65567		 961.16730			42731.48837		229.54400		875.00000 
 43692.65567		 305.27265			43387.38302		69.63800		324.00000 
 43692.65567		 961.16730			42731.48837		229.54400		875.00000 
 43692.65567		 305.27265			43387.38302		69.63800		324.00000 
 43692.65567		 961.16730			42731.48837		229.54400		875.00000 
 43692.65567		 305.27265			43387.38302		69.63800		324.00000 
 43692.65567		 961.16730			42731.48837		229.54400		875.00000 
 43692.65567		 305.27265			43387.38302		69.63800		324.00000 
 43692.65567		 961.16730			42731.48837		229.54400		875.00000 
 43692.65567		 305.27265			43387.38302		69.63800		324.00000 
 43692.65567		 961.16730			42731.48837		229.54400		875.00000 
 43692.65567		 305.27265			43387.38302		69.63800		324.00000 
 43692.65567		 961.16730			42731.48837		229.54400		875.00000 
 43692.65567		 305.27265			43387.38302		69.63800		324.00000 
 43692.65567		 961.16730			42731.48837		229.54400		875.00000 
 43692.65567		 305.27265			43387.38302		69.63800		324.00000 
 43692.65567		 961.16730			42731.48837		229.54400		875.00000 
 43692.65567		 305.27265			43387.38302		69.63800		324.00000 
 43692.65567		 961.16730			42731.48837		229.54400		875.00000 
 43692.65567		 305.27265			43387.38302		69.63800		324.00000 
 43692.65567		 961.16730			42731.48837		229.54400		875.00000 
 43692.65567		 305.27265			43387.38302		69.63800		324.00000 
 43692.65567		 961.16730			42731.48837		229.54400		875.00000 
 43692.65567		 305.27265			43387.38302		69.63800		324.00000 
 43692.65567		 961.16730			42731.48837		229.54400		875.00000 
 43692.65567		 305.27265			43387.38302		69.63800		324.00000 
 43692.65567		 961.16730			42731.48837		229.54400		875.00000 
 43692.65567		 305.27265			43387.38302		69.63800		324.00000 
 43692.65567		 961.16730			42731.48837		229.54400		875.00000 
 43692.65567		 305.27265			43387.38302		69.63800		324.00000 
 43692.65567		 961.16730			42731.48837		229.54400		875.00000 
 43692.65567		 305.27265			43387.38302		69.63800		324.00000 
 43692.65567		 961.16730			42731.48837		229.54400		875.00000 
 43692.65567		 305.27265			43387.38302		69.63800		324.00000 
 43692.65567		 961.16730			42731.48837		229.54400		875.00000 
 43692.65567		 305.27265			43387.38302		69.63800		324.00000 
 43692.65567		 961.16730			42731.48837		229.54400		875.00000 
 43692.65567		 305.27265			43387.38302		69.63800		324.00000 
 43692.65567		 961.16730			42731.48837		229.54400		875.00000 
 43692.65567		 305.27265			43387.38302		69.63800		324.00000 
 43692.65567		 961.16730			42731.48837		229.54400		875.00000 
 43692.65567		 305.27265			43387.38302		69.63800		324.00000 
 43692.65567		 961.16730			42731.48837		229.54400		875.00000 
 43692.65567		 305.27265			43387.38302		69.63800		324.00000 
 43692.65567		 961.16730			42731.48837		229.54400		875.00000 
 43692.65567		 305.27265			43387.38302		69.63800		324.00000 
 43692.65567		 961.16730			42731.48837		229.54400		875.00000 
 43692.65567		 305.27265			43387.38302		69.63800		324.00000 
 43692.65567		 961.16730			42731.48837		229.54400		875.00000 
 43692.65567		 305.27265			43387.38302		69.63800		324.00000 
 43692.65567		 961.16730			42731.48837		229.54400		875.00000 
 43692.65567		 305.27265			43387.38302		69.63800		324.00000 
 43692.65567		 961.16730			42731.48837		229.54400		875.00000 
 43692.65567		 305.27265			43387.38302		69.63800		324.00000 
 43692.65567		 961.16730			42731.48837		229.54400		875.00000 
 43692.65567		 305.27265			43387.38302		69.63800		324.00000 
 43692.65567		 961.16730			42731.48837		229.54400		875.00000 
 43692.65567		 305.27265			43387.38302		69.63800		324.00000 
 43692.65567		 961.16730			42731.48837		229.54400		875.00000 
 43692.65567		 305.27265			43387.38302		69.63800		324.00000 
 43692.65567		 961.16730			42731.48837		229.54400		875.00000 
 43692.65567		 305.27265			43387.38302		69.63800		324.00000 
 43692.65567		 961.16730			42731.48837		229.54400		875.00000 
 43692.65567		 305.27265			43387.38302		69.63800		324.00000 
 43692.65567		 961.16730			42731.48837		229.54400		875.00000 
 43692.65567		 305.27265			43387.38302		69.63800		324.00000 
 43692.65567		 961.16730			42731.48837		229.54400		875.00000 
 43692.65567		 305.27265			43387.38302		69.63800		324.00000 
 43692.65567		 961.16730			42731.48837		229.54400		875.00000 
 43692.65567		 305.27265			43387.38302		69.63800		324.00000 
 43692.65567		 961.16730			42731.48837		229.54400		875.00000 
 43692.65567		 305.27265			43387.38302		69.63800		324.00000 
 43692.65567		 961.16730			42731.48837		229.54400		875.00000 
 43692.65567		 305.27265			43387.38302		69.63800		324.00000 
 43692.65567		 961.16730			42731.48837		229.54400		875.00000 
 43692.65567		 305.27265			43387.38302		69.63800		324.00000 
 43692.65567		 961.16730			42731.48837		229.54400		875.00000 
 43692.65567		 305.27265			43387.38302		69.63800		324.00000 
 43692.65567		 961.16730			42731.48837		229.54400		875.00000 
 43692.65567		 305.27265			43387.38302		69.63800		324.00000 
 43692.65567		 961.16730			42731.48837		229.54400		875.00000 
 43692.65567		 305.27265			43387.38302		69.63800		324.00000 
 43692.65567		 961.16730			42731.48837		229.54400		875.00000 
 43692.65567		 305.27265			43387.38302		69.63800		324.00000 
 43692.65567		 961.16730			42731.48837		229.54400		875.00000 
 43692.65567		 305.27265			43387.38302		69.63800		324.00000 
 43692.65567		 961.16730			42731.48837		229.54400		875.00000 
 43692.65567		 305.27265			43387.38302		69.63800		324.00000 
 43692.65567		 961.16730			42731.48837		229.54400		875.00000 
 43692.65567		 305.27265			43387.38302		69.63800		324.00000 
 43692.65567		 961.16730			42731.48837		229.54400		875.00000 
 43692.65567		 305.27265			43387.38302		69.63800		324.00000 
 43692.65567		 961.16730			42731.48837		229.54400		875.00000 
 43692.65567		 305.27265			43387.38302		69.63800		324.00000 
 43692.65567		 961.16730			42731.48837		229.54400		875.00000 
 43692.65567		 305.27265			43387.38302		69.63800		324.00000 
 43692.65567		 961.16730			42731.48837		229.54400		875.00000 
 43692.65567		 305.27265			43387.38302		69.63800		324.00000 
 43692.65567		 961.16730			42731.48837		229.54400		875.00000 
 43692.65567		 305.27265			43387.38302		69.63800		324.00000 
 43692.65567		 961.16730			42731.48837		229.54400		875.00000 
 43692.65567		 305.27265			43387.38302		69.63800		324.00000 
 43692.65567		 961.16730			42731.48837		229.54400		875.00000 
 43692.65567		 305.27265			43387.38302		69.63800		324.00000 
 43692.65567		 961.16730			42731.48837		229.54400		875.00000 
 43692.65567		 305.27265			43387.38302		69.63800		324.00000 
 43692.65567		 961.16730			42731.48837		229.54400		875.00000 
 43692.65567		 305.27265			43387.38302		69.63800		324.00000 
 43692.65567		 961.16730			42731.48837		229.54400		875.00000 
 43692.65567		 305.27265			43387.38302		69.63800		324.00000 
 43692.65567		 961.16730			42731.48837		229.54400		875.00000 
 43692.65567		 305.27265			43387.38302		69.63800		324.00000 
 43692.65567		 961.16730			42731.48837		229.54400		875.00000 
 43692.65567		 305.27265			43387.38302		69.63800		324.00000 
 43692.65567		 961.16730			42731.48837		229.54400		875.00000 
 43692.65567		 305.27265			43387.38302		69.63800		324.00000 
 43692.65567		 961.16730			42731.48837		229.54400		875.00000 
 43692.65567		 305.27265			43387.38302		69.63800		324.00000 
 43692.65567		 961.16730			42731.48837		229.54400		875.00000 
 43692.65567		 305.27265			43387.38302		69.63800		324.00000 
 43692.65567		 961.16730			42731.48837		229.54400		875.00000 
 43692.65567		 305.27265			43387.38302		69.63800		324.00000 
 43692.65567		 961.16730			42731.48837		229.54400		875.00000 
 43692.65567		 305.27265			43387.38302		69.63800		324.00000 
 43692.65567		 961.16730			42731.48837		229.54400		875.00000 
 43692.65567		 305.27265			43387.38302		69.63800		324.00000 
 43692.65567		 961.16730			42731.48837		229.54400		875.00000 
 43692.65567		 305.27265			43387.38302		69.63800		324.00000 
 43692.65567		 961.16730			42731.48837		229.54400		875.00000 
 43692.65567		 305.27265			43387.38302		69.63800		324.00000 
 43692.65567		 961.16730			42731.48837		229.54400		875.00000 
 43692.65567		 305.27265			43387.38302		69.63800		324.00000 
 43692.65567		 961.16730			42731.48837		229.54400		875.00000 
 43692.65567		 305.27265			43387.38302		69.63800		324.00000 
 43692.65567		 961.16730			42731.48837		229.54400		875.00000 
 43692.65567		 305.27265			43387.38302		69.63800		324.00000 
 43692.65567		 961.16730			42731.48837		229.54400		875.00000 
 43692.65567		 305.27265			43387.38302		69.63800		324.00000 
 43692.65567		 961.16730			42731.48837		229.54400		875.00000 
 43692.65567		 305.27265			43387.38302		69.63800		324.00000 
 43692.65567		 961.16730			42731.48837		229.54400		875.00000 
 43692.65567		 305.27265			43387.38302		69.63800		324.00000 
 43692.65567		 961.16730			42731.48837		229.54400		875.00000 
 43692.65567		 305.27265			43387.38302		69.63800		324.00000 
 43692.65567		 961.16730			42731.48837		229.54400		875.00000 
 43692.65567		 305.27265			43387.38302		69.63800		324.00000 
 43692.65567		 961.16730			42731.48837		229.54400		875.00000 
 43692.65567		 305.27265			43387.38302		69.63800		324.00000 
 43692.65567		 961.16730			42731.48837		229.54400		875.00000 
 43692.65567		 305.27265			43387.38302		69.63800		324.00000 
 43692.65567		 961.16730			42731.48837		229.54400		875.00000 
 43692.65567		 305.27265			43387.38302		69.63800		324.00000 
 43692.65567		 961.16730			42731.48837		229.54400		875.00000 
 43692.65567		 305.27265			43387.38302		69.63800		324.00000 
 43692.65567		 961.16730			42731.48837		229.54400		875.00000 
 43692.65567		 305.27265			43387.38302		69.63800		324.00000 
 43692.65567		 961.16730			42731.48837		229.54400		875.00000 
 43692.65567		 305.27265			43387.38302		69.63800		324.00000 
 43692.65567		 961.16730			42731.48837		229.54400		875.00000 
 43692.65567		 305.27265			43387.38302		69.63800		324.00000 
 43692.65567		 961.16730			42731.48837		229.54400		875.00000 
 43692.65567		 305.27265			43387.38302		69.63800		324.00000 
 43692.65567		 961.16730			42731.48837		229.54400		875.00000 
 43692.65567		 305.27265			43387.38302		69.63800		324.00000 
 43692.65567		 961.16730			42731.48837		229.54400		875.00000 
 43692.65567		 305.27265			43387.38302		69.63800		324.00000 
 43692.65567		 961.16730			42731.48837		229.54400		875.00000 
 43692.65567		 305.27265			43387.38302		69.63800		324.00000 
 43692.65567		 961.16730			42731.48837		229.54400		875.00000 
 43692.65567		 305.27265			43387.38302		69.63800		324.00000 
 43692.65567		 961.16730			42731.48837		229.54400		875.00000 
 43692.65567		 305.27265			43387.38302		69.63800		324.00000 
 43692.65567		 961.16730			42731.48837		229.54400		875.00000 
 43692.65567		 305.27265			43387.38302		69.63800		324.00000 
 43692.65567		 961.16730			42731.48837		229.54400		875.00000 
 43692.65567		 305.27265			43387.38302		69.63800		324.00000 
 43692.65567		 961.16730			42731.48837		229.54400		875.00000 
 43692.65567		 305.27265			43387.38302		69.63800		324.00000 
 43692.65567		 961.16730			42731.48837		229.54400		875.00000 
 43692.65567		 305.27265			43387.38302		69.63800		324.00000 
 43692.65567		 961.16730			42731.48837		229.54400		875.00000 
 43692.65567		 305.27265			43387.38302		69.63800		324.00000 
 43692.65567		 961.16730			42731.48837		229.54400		875.00000 
 43692.65567		 305.27265			43387.38302		69.63800		324.00000 
 43692.65567		 961.16730			42731.48837		229.54400		875.00000 
 43692.65567		 305.27265			43387.38302		69.63800		324.00000 
 43692.65567		 961.16730			42731.48837		229.54400		875.00000 
 43692.65567		 305.27265			43387.38302		69.63800		324.00000 
 43692.65567		 961.16730			42731.48837		229.54400		875.00000 
 43692.65567		 305.27265			43387.38302		69.63800		324.00000 
 43692.65567		 961.16730			42731.48837		229.54400		875.00000 
 43692.65567		 305.27265			43387.38302		69.63800		324.00000 
 43692.65567		 961.16730			42731.48837		229.54400		875.00000 
 43692.65567		 305.27265			43387.38302		69.63800		324.00000 
 43692.65567		 961.16730			42731.48837		229.54400		875.00000 
 43692.65567		 305.27265			43387.38302		69.63800		324.00000 
 43692.65567		 961.16730			42731.48837		229.54400		875.00000 
 43692.65567		 305.27265			43387.38302		69.63800		324.00000 
 43692.65567		 961.16730			42731.48837		229.54400		875.00000 
 43692.65567		 305.27265			43387.38302		69.63800		324.00000 
 43692.65567		 961.16730			42731.48837		229.54400		875.00000 
 43692.65567		 305.27265			43387.38302		69.63800		324.00000 
 43692.65567		 961.16730			42731.48837		229.54400		875.00000 
 43692.65567		 305.27265			43387.38302		69.63800		324.00000 
 43692.65567		 961.16730			42731.48837		229.54400		875.00000 
 43692.65567		 305.27265			43387.38302		69.63800		324.00000 
 43692.65567		 961.16730			42731.48837		229.54400		875.00000 
 43692.65567		 305.27265			43387.38302		69.63800		324.00000 
 43692.65567		 961.16730			42731.48837		229.54400		875.00000 
 43692.65567		 305.27265			43387.38302		69.63800		324.00000 
 43692.65567		 961.16730			42731.48837		229.54400		875.00000 
 43692.65567		 305.27265			43387.38302		69.63800		324.00000 
 43692.65567		 961.16730			42731.48837		229.54400		875.00000 
 43692.65567		 305.27265			43387.38302		69.63800		324.00000 
 43692.65567		 961.16730			42731.48837		229.54400		875.00000 
 43692.65567		 305.27265			43387.38302		69.63800		324.00000 
 43692.65567		 961.16730			42731.48837		229.54400		875.00000 
 43692.65567		 305.27265			43387.38302		69.63800		324.00000 
 43692.65567		 961.16730			42731.48837		229.54400		875.00000 
 43692.65567		 305.27265			43387.38302		69.63800		324.00000 
 43692.65567		 961.16730			42731.48837		229.54400		875.00000 
 43692.65567		 305.27265			43387.38302		69.63800		324.00000 
 43692.65567		 961.16730			42731.48837		229.54400		875.00000 
 43692.65567		 305.27265			43387.38302		69.63800		324.00000 
 43692.65567		 961.16730			42731.48837		229.54400		875.00000 
 43692.65567		 305.27265			43387.38302		69.63800		324.00000 
 43692.65567		 961.16730			42731.48837		229.54400		875.00000 
 43692.65567		 305.27265			43387.38302		69.63800		324.00000 
 43692.65567		 961.16730			42731.48837		229.54400		875.00000 
 43692.65567		 305.27265			43387.38302		69.63800		324.00000 
 43692.65567		 961.16730			42731.48837		229.54400		875.00000 
 43692.65567		 305.27265			43387.38302		69.63800		324.00000 
 43692.65567		 961.16730			42731.48837		229.54400		875.00000 
 43692.65567		 305.27265			43387.38302		69.63800		324.00000 
 43692.65567		 961.16730			42731.48837		229.54400		875.00000 
 43692.65567		 305.27265			43387.38302		69.63800		324.00000 
 43692.65567		 961.16730			42731.48837		229.54400		875.00000 
 43692.65567		 305.27265			43387.38302		69.63800		324.00000 
 43692.65567		 961.16730			42731.48837		229.54400		875.00000 
 43692.65567		 305.27265			43387.38302		69.63800		324.00000 
 43692.65567		 961.16730			42731.48837		229.54400		875.00000 
 43692.65567		 305.27265			43387.38302		69.63800		324.00000 
 43692.65567		 961.16730			42731.48837		229.54400		875.00000 
 43692.65567		 305.27265			43387.38302		69.63800		324.00000 
 43692.65567		 961.16730			42731.48837		229.54400		875.00000 
 43692.65567		 305.27265			43387.38302		69.63800		324.00000 
 43692.65567		 961.16730			42731.48837		229.54400		875.00000 
 43692.65567		 305.27265			43387.38302		69.63800		324.00000 
 43692.65567		 961.16730			42731.48837		229.54400		875.00000 
 43692.65567		 305.27265			43387.38302		69.63800		324.00000 
 43692.65567		 961.16730			42731.48837		229.54400		875.00000 
 43692.65567		 305.27265			43387.38302		69.63800		324.00000 
 43692.65567		 961.16730			42731.48837		229.54400		875.00000 
 43692.65567		 305.27265			43387.38302		69.63800		324.00000 
 43692.65567		 961.16730			42731.48837		229.54400		875.00000 
 43692.65567		 305.27265			43387.38302		69.63800		324.00000 
 43692.65567		 961.16730			42731.48837		229.54400		875.00000 
 43692.65567		 305.27265			43387.38302		69.63800		324.00000 
 43692.65567		 961.16730			42731.48837		229.54400		875.00000 
 43692.65567		 305.27265			43387.38302		69.63800		324.00000 
 43692.65567		 961.16730			42731.48837		229.54400		875.00000 
 43692.65567		 305.27265			43387.38302		69.63800		324.00000 
 43692.65567		 961.16730			42731.48837		229.54400		875.00000 
 43692.65567		 305.27265			43387.38302		69.63800		324.00000 
 43692.65567		 961.16730			42731.48837		229.54400		875.00000 
 43692.65567		 305.27265			43387.38302		69.63800		324.00000 
 43692.65567		 961.16730			42731.48837		229.54400		875.00000 
 43692.65567		 305.27265			43387.38302		69.63800		324.00000 
 43692.65567		 961.16730			42731.48837		229.54400		875.00000 
 43692.65567		 305.27265			43387.38302		69.63800		324.00000 
 43692.65567		 961.16730			42731.48837		229.54400		875.00000 
 43692.65567		 305.27265			43387.38302		69.63800		324.00000 
 43692.65567		 961.16730			42731.48837		229.54400		875.00000 
 43692.65567		 305.27265			43387.38302		69.63800		324.00000 
 43692.65567		 961.16730			42731.48837		229.54400		875.00000 
 43692.65567		 305.27265			43387.38302		69.63800		324.00000 
 43692.65567		 961.16730			42731.48837		229.54400		875.00000 
 43692.65567		 305.27265			43387.38302		69.63800		324.00000 
 43692.65567		 961.16730			42731.48837		229.54400		875.00000 
 43692.65567		 305.27265			43387.38302		69.63800		324.00000 
 43692.65567		 961.16730			42731.48837		229.54400		875.00000 
 43692.65567		 305.27265			43387.38302		69.63800		324.00000 
 43692.65567		 961.16730			42731.48837		229.54400		875.00000 
 43692.65567		 305.27265			43387.38302		69.63800		324.00000 
 43692.65567		 961.16730			42731.48837		229.54400		875.00000 
 43692.65567		 305.27265			43387.38302		69.63800		324.00000 
 43692.65567		 961.16730			42731.48837		229.54400		875.00000 
 43692.65567		 305.27265			43387.38302		69.63800		324.00000 
 43692.65567		 961.16730			42731.48837		229.54400		875.00000 
 43692.65567		 305.27265			43387.38302		69.63800		324.00000 
 43692.65567		 961.16730			42731.48837		229.54400		875.00000 
 43692.65567		 305.27265			43387.38302		69.63800		324.00000 
 43692.65567		 961.16730			42731.48837		229.54400		875.00000 
 43692.65567		 305.27265			43387.38302		69.63800		324.00000 
 43692.65567		 961.16730			42731.48837		229.54400		875.00000 
 43692.65567		 305.27265			43387.38302		69.63800		324.00000 
 43692.65567		 961.16730			42731.48837		229.54400		875.00000 
 43692.65567		 305.27265			43387.38302		69.63800		324.00000 
 43692.65567		 961.16730			42731.48837		229.54400		875.00000 
 43692.65567		 305.27265			43387.38302		69.63800		324.00000 
 43692.65567		 961.16730			42731.48837		229.54400		875.00000 
 43692.65567		 305.27265			43387.38302		69.63800		324.00000 
 43692.65567		 961.16730			42731.48837		229.54400		875.00000 
 43692.65567		 305.27265			43387.38302		69.63800		324.00000 
 43692.65567		 961.16730			42731.48837		229.54400		875.00000 
 43692.65567		 305.27265			43387.38302		69.63800		324.00000 
 43692.65567		 961.16730			42731.48837		229.54400		875.00000 
 43692.65567		 305.27265			43387.38302		69.63800		324.00000 
 43692.65567		 961.16730			42731.48837		229.54400		875.00000 
 43692.65567		 305.27265			43387.38302		69.63800		324.00000 
 43692.65567		 961.16730			42731.48837		229.54400		875.00000 
 43692.65567		 305.27265			43387.38302		69.63800		324.00000 
 43692.65567		 961.16730			42731.48837		229.54400		875.00000 
 43692.65567		 305.27265			43387.38302		69.63800		324.00000 
 43692.65567		 961.16730			42731.48837		229.54400		875.00000 
 43692.65567		 305.27265			43387.38302		69.63800		324.00000 
 43692.65567		 961.16730			42731.48837		229.54400		875.00000 
 43692.65567		 305.27265			43387.38302		69.63800		324.00000 
 43692.65567		 961.16730			42731.48837		229.54400		875.00000 
 43692.65567		 305.27265			43387.38302		69.63800		324.00000 
 43692.65567		 961.16730			42731.48837		229.54400		875.00000 
 43692.65567		 305.27265			43387.38302		69.63800		324.00000 
 43692.65567		 961.16730			42731.48837		229.54400		875.00000 
 43692.65567		 305.27265			43387.38302		69.63800		324.00000 
 43692.65567		 961.16730			42731.48837		229.54400		875.00000 
 43692.65567		 305.27265			43387.38302		69.63800		324.00000 
 43692.65567		 961.16730			42731.48837		229.54400		875.00000 
 43692.65567		 305.27265			43387.38302		69.63800		324.00000 
 43692.65567		 961.16730			42731.48837		229.54400		875.00000 
 43692.65567		 305.27265			43387.38302		69.63800		324.00000 
 43692.65567		 961.16730			42731.48837		229.54400		875.00000 
 43692.65567		 305.27265			43387.38302		69.63800		324.00000 
 43692.65567		 961.16730			42731.48837		229.54400		875.00000 
 43692.65567		 305.27265			43387.38302		69.63800		324.00000 
 43692.65567		 961.16730			42731.48837		229.54400		875.00000 
 43692.65567		 305.27265			43387.38302		69.63800		324.00000 
 43692.65567		 961.16730			42731.48837		229.54400		875.00000 
 43692.65567		 305.27265			43387.38302		69.63800		324.00000 
 43692.65567		 961.16730			42731.48837		229.54400		875.00000 
 43692.65567		 305.27265			43387.38302		69.63800		324.00000 
 43692.65567		 961.16730			42731.48837		229.54400		875.00000 
 43692.65567		 305.27265			43387.38302		69.63800		324.00000 
 43692.65567		 961.16730			42731.48837		229.54400		875.00000 
 43692.65567		 305.27265			43387.38302		69.63800		324.00000 
 43692.65567		 961.16730			42731.48837		229.54400		875.00000 
 43692.65567		 305.27265			43387.38302		69.63800		324.00000 
 43692.65567		 961.16730			42731.48837		229.54400		875.00000 
 43692.65567		 305.27265			43387.38302		69.63800		324.00000 
 43692.65567		 961.16730			42731.48837		229.54400		875.00000 
 43692.65567		 305.27265			43387.38302		69.63800		324.00000 
 43692.65567		 961.16730			42731.48837		229.54400		875.00000 
 43692.65567		 305.27265			43387.38302		69.63800		324.00000 
 43692.65567		 819.86831			42872.78737		229.54400		875.00000 
 43692.65567		 305.27265			43387.38302		69.63800		324.00000 
 43692.65567		 819.86831			42872.78737		229.54400		875.00000 
 43692.65567		 305.27265			43387.38302		69.63800		324.00000 
 43692.65567		 678.56931			43014.08636		229.54400		875.00000 
 43692.65567		 305.27265			43387.38302		69.63800		324.00000 
 43692.65567		 678.56931			43014.08636		229.54400		875.00000 
 43692.65567		 305.27265			43387.38302		69.63800		324.00000 
 43692.65567		 678.56931			43014.08636		229.54400		875.00000 
 43692.65567		 305.27265			43387.38302		69.63800		324.00000 
 43692.65567		 537.27032			43155.38535		229.54400		875.00000 
 43692.65567		 305.27265			43387.38302		69.63800		324.00000 
 43692.65567		 537.27032			43155.38535		229.54400		875.00000 
 43692.65567		 305.27265			43387.38302		69.63800		324.00000 
 43692.65567		 537.27032			43155.38535		229.54400		875.00000 
 43692.65567		 305.27265			43387.38302		69.63800		324.00000 
 43692.65567		 537.27032			43155.38535		229.54400		875.00000 
 43692.65567		 305.27265			43387.38302		69.63800		324.00000 
 43692.65567		 537.27032			43155.38535		229.54400		875.00000 
 43692.65567		 305.27265			43387.38302		69.63800		324.00000 
 43692.65567		 537.27032			43155.38535		229.54400		875.00000 
 43692.65567		 305.27265			43387.38302		69.63800		324.00000 
 43692.65567		 537.27032			43155.38535		229.54400		875.00000 
 43692.65567		 305.27265			43387.38302		69.63800		324.00000 
 43692.65567		 537.27032			43155.38535		229.54400		875.00000 
 43692.65567		 305.27265			43387.38302		69.63800		324.00000 
 43692.65567		 537.27032			43155.38535		229.54400		875.00000 
 43692.65567		 305.27265			43387.38302		69.63800		324.00000 
 43692.65567		 537.27032			43155.38535		229.54400		875.00000 
 43692.65567		 305.27265			43387.38302		69.63800		324.00000 
 43692.65567		 537.27032			43155.38535		229.54400		875.00000 
 43692.65567		 305.27265			43387.38302		69.63800		324.00000 
 43692.65567		 537.27032			43155.38535		229.54400		875.00000 
 43692.65567		 305.27265			43387.38302		69.63800		324.00000 
 43692.65567		 537.27032			43155.38535		229.54400		875.00000 
 43692.65567		 305.27265			43387.38302		69.63800		324.00000 
 43692.65567		 537.27032			43155.38535		229.54400		875.00000 
 43692.65567		 305.27265			43387.38302		69.63800		324.00000 
 43692.65567		 537.27032			43155.38535		229.54400		875.00000 
 43692.65567		 305.27265			43387.38302		69.63800		324.00000 
 43692.65567		 537.27032			43155.38535		229.54400		875.00000 
 43692.65567		 305.27265			43387.38302		69.63800		324.00000 
 43692.65567		 537.27032			43155.38535		229.54400		875.00000 
 43692.65567		 305.27265			43387.38302		69.63800		324.00000 
 43692.65567		 537.27032			43155.38535		229.54400		875.00000 
 43692.65567		 305.27265			43387.38302		69.63800		324.00000 
 43692.65567		 537.27032			43155.38535		229.54400		875.00000 
 43692.65567		 305.27265			43387.38302		69.63800		324.00000 
 43692.65567		 529.63254			43163.02313		229.54400		875.00000 
 43692.65567		 305.27265			43387.38302		69.63800		324.00000 
 43692.65567		 525.81365			43166.84203		229.54400		875.00000 
 43692.65567		 293.81598			43398.83969		69.63800		324.00000 
 43692.65567		 261.35540			43431.30027		186.04200		875.00000 
 43692.65567		 261.35540			43431.30027		69.63800		324.00000 
