Memory Total (MiB) 	 Memory Used (MiB) 	    Memory Free (MiB) 	 Power Drawed (W) 	 Clocks (Mhz) 	 
 43692.65567		 261.35540			43431.30027		213.77600		875.00000 
 43692.65567		 261.35540			43431.30027		69.19600		324.00000 
 43692.65567		 261.35540			43431.30027		213.77600		875.00000 
 43692.65567		 261.35540			43431.30027		69.19600		324.00000 
 43692.65567		 261.35540			43431.30027		213.77600		875.00000 
 43692.65567		 261.35540			43431.30027		69.19600		324.00000 
 43692.65567		 261.35540			43431.30027		213.77600		875.00000 
 43692.65567		 261.35540			43431.30027		69.19600		324.00000 
 43692.65567		 261.35540			43431.30027		213.77600		875.00000 
 43692.65567		 261.35540			43431.30027		69.19600		324.00000 
 43692.65567		 261.35540			43431.30027		213.77600		875.00000 
 43692.65567		 261.35540			43431.30027		69.19600		324.00000 
 43692.65567		 261.35540			43431.30027		213.77600		875.00000 
 43692.65567		 261.35540			43431.30027		69.19600		324.00000 
 43692.65567		 261.35540			43431.30027		213.77600		875.00000 
 43692.65567		 261.35540			43431.30027		69.19600		324.00000 
 43692.65567		 261.35540			43431.30027		213.77600		875.00000 
 43692.65567		 261.35540			43431.30027		69.19600		324.00000 
 43692.65567		 261.35540			43431.30027		213.77600		875.00000 
 43692.65567		 261.35540			43431.30027		69.19600		324.00000 
 43692.65567		 261.35540			43431.30027		213.77600		875.00000 
 43692.65567		 261.35540			43431.30027		69.19600		324.00000 
 43692.65567		 261.35540			43431.30027		213.77600		875.00000 
 43692.65567		 261.35540			43431.30027		69.19600		324.00000 
 43692.65567		 261.35540			43431.30027		163.01600		875.00000 
 43692.65567		 261.35540			43431.30027		69.19600		324.00000 
 43692.65567		 261.35540			43431.30027		163.01600		875.00000 
 43692.65567		 261.35540			43431.30027		69.19600		324.00000 
 43692.65567		 261.35540			43431.30027		163.01600		875.00000 
 43692.65567		 261.35540			43431.30027		69.19600		324.00000 
 43692.65567		 261.35540			43431.30027		163.01600		875.00000 
 43692.65567		 261.35540			43431.30027		69.19600		324.00000 
 43692.65567		 261.35540			43431.30027		163.01600		875.00000 
 43692.65567		 261.35540			43431.30027		69.19600		324.00000 
 43692.65567		 261.35540			43431.30027		163.01600		875.00000 
 43692.65567		 261.35540			43431.30027		69.19600		324.00000 
 43692.65567		 265.17429			43427.48138		163.01600		875.00000 
 43692.65567		 261.35540			43431.30027		69.19600		324.00000 
 43692.65567		 265.17429			43427.48138		163.01600		875.00000 
 43692.65567		 261.35540			43431.30027		69.19600		324.00000 
 43692.65567		 272.81207			43419.84360		163.01600		875.00000 
 43692.65567		 261.35540			43431.30027		69.19600		324.00000 
 43692.65567		 272.81207			43419.84360		163.01600		875.00000 
 43692.65567		 261.35540			43431.30027		69.19600		324.00000 
 43692.65567		 272.81207			43419.84360		163.01600		875.00000 
 43692.65567		 265.17429			43427.48138		69.19600		324.00000 
 43692.65567		 272.81207			43419.84360		163.01600		875.00000 
 43692.65567		 265.17429			43427.48138		69.19600		324.00000 
 43692.65567		 272.81207			43419.84360		163.01600		875.00000 
 43692.65567		 265.17429			43427.48138		69.19600		324.00000 
 43692.65567		 272.81207			43419.84360		163.01600		875.00000 
 43692.65567		 272.81207			43419.84360		69.19600		324.00000 
 43692.65567		 272.81207			43419.84360		163.01600		875.00000 
 43692.65567		 272.81207			43419.84360		69.19600		324.00000 
 43692.65567		 272.81207			43419.84360		163.01600		875.00000 
 43692.65567		 272.81207			43419.84360		69.19600		324.00000 
 43692.65567		 305.27265			43387.38302		163.01600		875.00000 
 43692.65567		 305.27265			43387.38302		69.19600		324.00000 
 43692.65567		 305.27265			43387.38302		163.01600		875.00000 
 43692.65567		 305.27265			43387.38302		69.19600		324.00000 
 43692.65567		 305.27265			43387.38302		163.01600		875.00000 
 43692.65567		 305.27265			43387.38302		69.19600		324.00000 
 43692.65567		 305.27265			43387.38302		163.01600		875.00000 
 43692.65567		 305.27265			43387.38302		69.19600		324.00000 
 43692.65567		 305.27265			43387.38302		163.01600		875.00000 
 43692.65567		 305.27265			43387.38302		69.19600		324.00000 
 43692.65567		 309.09154			43383.56413		163.01600		875.00000 
 43692.65567		 305.27265			43387.38302		69.19600		324.00000 
 43692.65567		 310.52363			43382.13204		163.01600		875.00000 
 43692.65567		 305.27265			43387.38302		69.19600		324.00000 
 43692.65567		 311.00099			43381.65468		163.01600		875.00000 
 43692.65567		 305.27265			43387.38302		69.19600		324.00000 
 43692.65567		 311.00099			43381.65468		163.01600		875.00000 
 43692.65567		 305.27265			43387.38302		69.19600		324.00000 
 43692.65567		 311.00099			43381.65468		163.01600		875.00000 
 43692.65567		 305.27265			43387.38302		69.19600		324.00000 
 43692.65567		 311.00099			43381.65468		163.01600		875.00000 
 43692.65567		 305.27265			43387.38302		69.19600		324.00000 
 43692.65567		 311.00099			43381.65468		163.01600		875.00000 
 43692.65567		 305.27265			43387.38302		69.19600		324.00000 
 43692.65567		 311.00099			43381.65468		163.01600		875.00000 
 43692.65567		 305.27265			43387.38302		69.19600		324.00000 
 43692.65567		 311.00099			43381.65468		163.01600		875.00000 
 43692.65567		 305.27265			43387.38302		69.19600		324.00000 
 43692.65567		 311.00099			43381.65468		163.01600		875.00000 
 43692.65567		 305.27265			43387.38302		69.19600		324.00000 
 43692.65567		 311.00099			43381.65468		163.01600		875.00000 
 43692.65567		 305.27265			43387.38302		69.19600		324.00000 
 43692.65567		 311.00099			43381.65468		163.01600		875.00000 
 43692.65567		 305.27265			43387.38302		69.19600		324.00000 
 43692.65567		 311.00099			43381.65468		142.94800		875.00000 
 43692.65567		 305.27265			43387.38302		69.19600		324.00000 
 43692.65567		 311.00099			43381.65468		142.94800		875.00000 
 43692.65567		 305.27265			43387.38302		69.19600		324.00000 
 43692.65567		 311.00099			43381.65468		142.94800		875.00000 
 43692.65567		 305.27265			43387.38302		69.19600		324.00000 
 43692.65567		 311.00099			43381.65468		142.94800		875.00000 
 43692.65567		 305.27265			43387.38302		69.19600		324.00000 
 43692.65567		 311.00099			43381.65468		142.94800		875.00000 
 43692.65567		 305.27265			43387.38302		69.19600		324.00000 
 43692.65567		 311.00099			43381.65468		142.94800		875.00000 
 43692.65567		 305.27265			43387.38302		69.19600		324.00000 
 43692.65567		 311.00099			43381.65468		142.94800		875.00000 
 43692.65567		 305.27265			43387.38302		69.19600		324.00000 
 43692.65567		 311.00099			43381.65468		142.94800		875.00000 
 43692.65567		 305.27265			43387.38302		69.19600		324.00000 
 43692.65567		 311.00099			43381.65468		142.94800		875.00000 
 43692.65567		 305.27265			43387.38302		69.19600		324.00000 
 43692.65567		 311.00099			43381.65468		142.94800		875.00000 
 43692.65567		 305.27265			43387.38302		69.19600		324.00000 
 43692.65567		 311.00099			43381.65468		142.94800		875.00000 
 43692.65567		 305.27265			43387.38302		69.19600		324.00000 
 43692.65567		 311.00099			43381.65468		142.94800		875.00000 
 43692.65567		 305.27265			43387.38302		69.19600		324.00000 
 43692.65567		 311.00099			43381.65468		142.94800		875.00000 
 43692.65567		 305.27265			43387.38302		69.19600		324.00000 
 43692.65567		 311.00099			43381.65468		142.94800		875.00000 
 43692.65567		 305.27265			43387.38302		69.19600		324.00000 
 43692.65567		 311.00099			43381.65468		142.94800		875.00000 
 43692.65567		 305.27265			43387.38302		69.19600		324.00000 
 43692.65567		 311.00099			43381.65468		142.94800		875.00000 
 43692.65567		 305.27265			43387.38302		69.19600		324.00000 
 43692.65567		 311.00099			43381.65468		142.94800		875.00000 
 43692.65567		 305.27265			43387.38302		69.19600		324.00000 
 43692.65567		 311.00099			43381.65468		142.94800		875.00000 
 43692.65567		 305.27265			43387.38302		69.19600		324.00000 
 43692.65567		 311.00099			43381.65468		142.94800		875.00000 
 43692.65567		 305.27265			43387.38302		69.19600		324.00000 
 43692.65567		 311.00099			43381.65468		142.94800		875.00000 
 43692.65567		 305.27265			43387.38302		69.19600		324.00000 
 43692.65567		 311.00099			43381.65468		142.94800		875.00000 
 43692.65567		 305.27265			43387.38302		69.19600		324.00000 
 43692.65567		 311.00099			43381.65468		142.94800		875.00000 
 43692.65567		 305.27265			43387.38302		69.19600		324.00000 
 43692.65567		 311.00099			43381.65468		142.94800		875.00000 
 43692.65567		 305.27265			43387.38302		69.19600		324.00000 
 43692.65567		 311.00099			43381.65468		142.94800		875.00000 
 43692.65567		 305.27265			43387.38302		69.19600		324.00000 
 43692.65567		 311.00099			43381.65468		142.94800		875.00000 
 43692.65567		 305.27265			43387.38302		69.19600		324.00000 
 43692.65567		 311.00099			43381.65468		142.94800		875.00000 
 43692.65567		 305.27265			43387.38302		69.19600		324.00000 
 43692.65567		 311.00099			43381.65468		142.94800		875.00000 
 43692.65567		 305.27265			43387.38302		69.19600		324.00000 
 43692.65567		 311.00099			43381.65468		142.94800		875.00000 
 43692.65567		 305.27265			43387.38302		69.19600		324.00000 
 43692.65567		 311.00099			43381.65468		142.94800		875.00000 
 43692.65567		 305.27265			43387.38302		69.19600		324.00000 
 43692.65567		 311.00099			43381.65468		142.94800		875.00000 
 43692.65567		 305.27265			43387.38302		69.19600		324.00000 
 43692.65567		 311.00099			43381.65468		142.94800		875.00000 
 43692.65567		 305.27265			43387.38302		69.19600		324.00000 
 43692.65567		 311.00099			43381.65468		142.94800		875.00000 
 43692.65567		 305.27265			43387.38302		69.19600		324.00000 
 43692.65567		 311.00099			43381.65468		135.34600		875.00000 
 43692.65567		 305.27265			43387.38302		69.19600		324.00000 
 43692.65567		 311.00099			43381.65468		135.34600		875.00000 
 43692.65567		 305.27265			43387.38302		69.19600		324.00000 
 43692.65567		 311.00099			43381.65468		135.34600		875.00000 
 43692.65567		 305.27265			43387.38302		69.19600		324.00000 
 43692.65567		 311.00099			43381.65468		135.34600		875.00000 
 43692.65567		 305.27265			43387.38302		69.19600		324.00000 
 43692.65567		 311.00099			43381.65468		135.34600		875.00000 
 43692.65567		 305.27265			43387.38302		69.19600		324.00000 
 43692.65567		 311.00099			43381.65468		135.34600		875.00000 
 43692.65567		 305.27265			43387.38302		69.19600		324.00000 
 43692.65567		 311.00099			43381.65468		135.34600		875.00000 
 43692.65567		 305.27265			43387.38302		69.19600		324.00000 
 43692.65567		 311.00099			43381.65468		135.34600		875.00000 
 43692.65567		 305.27265			43387.38302		69.19600		324.00000 
 43692.65567		 311.00099			43381.65468		135.34600		875.00000 
 43692.65567		 305.27265			43387.38302		69.19600		324.00000 
 43692.65567		 314.81988			43377.83579		135.34600		875.00000 
 43692.65567		 305.27265			43387.38302		69.19600		324.00000 
 43692.65567		 314.81988			43377.83579		135.34600		875.00000 
 43692.65567		 305.27265			43387.38302		69.19600		324.00000 
 43692.65567		 314.81988			43377.83579		135.34600		875.00000 
 43692.65567		 305.27265			43387.38302		69.19600		324.00000 
 43692.65567		 322.45767			43370.19801		135.34600		875.00000 
 43692.65567		 305.27265			43387.38302		69.19600		324.00000 
 43692.65567		 326.27656			43366.37912		135.34600		875.00000 
 43692.65567		 305.27265			43387.38302		69.19600		324.00000 
 43692.65567		 326.27656			43366.37912		135.34600		875.00000 
 43692.65567		 305.27265			43387.38302		69.19600		324.00000 
 43692.65567		 326.27656			43366.37912		135.34600		875.00000 
 43692.65567		 305.27265			43387.38302		69.19600		324.00000 
 43692.65567		 326.27656			43366.37912		135.34600		875.00000 
 43692.65567		 305.27265			43387.38302		69.19600		324.00000 
 43692.65567		 537.27032			43155.38535		135.34600		875.00000 
 43692.65567		 305.27265			43387.38302		69.19600		324.00000 
 43692.65567		 598.37259			43094.28308		135.34600		875.00000 
 43692.65567		 305.27265			43387.38302		69.19600		324.00000 
 43692.65567		 628.92372			43063.73195		135.34600		875.00000 
 43692.65567		 305.27265			43387.38302		69.19600		324.00000 
 43692.65567		 628.92372			43063.73195		135.34600		875.00000 
 43692.65567		 305.27265			43387.38302		69.19600		324.00000 
 43692.65567		 628.92372			43063.73195		135.34600		875.00000 
 43692.65567		 305.27265			43387.38302		69.19600		324.00000 
 43692.65567		 628.92372			43063.73195		135.34600		875.00000 
 43692.65567		 305.27265			43387.38302		69.19600		324.00000 
 43692.65567		 628.92372			43063.73195		135.34600		875.00000 
 43692.65567		 305.27265			43387.38302		69.19600		324.00000 
 43692.65567		 628.92372			43063.73195		135.34600		875.00000 
 43692.65567		 305.27265			43387.38302		69.19600		324.00000 
 43692.65567		 628.92372			43063.73195		135.34600		875.00000 
 43692.65567		 305.27265			43387.38302		69.19600		324.00000 
 43692.65567		 628.92372			43063.73195		135.34600		875.00000 
 43692.65567		 305.27265			43387.38302		69.19600		324.00000 
 43692.65567		 628.92372			43063.73195		135.34600		875.00000 
 43692.65567		 305.27265			43387.38302		69.19600		324.00000 
 43692.65567		 628.92372			43063.73195		135.34600		875.00000 
 43692.65567		 305.27265			43387.38302		69.19600		324.00000 
 43692.65567		 628.92372			43063.73195		135.34600		875.00000 
 43692.65567		 305.27265			43387.38302		69.19600		324.00000 
 43692.65567		 628.92372			43063.73195		135.34600		875.00000 
 43692.65567		 305.27265			43387.38302		69.19600		324.00000 
 43692.65567		 628.92372			43063.73195		135.34600		875.00000 
 43692.65567		 305.27265			43387.38302		69.19600		324.00000 
 43692.65567		 628.92372			43063.73195		135.34600		875.00000 
 43692.65567		 305.27265			43387.38302		69.19600		324.00000 
 43692.65567		 628.92372			43063.73195		135.34600		875.00000 
 43692.65567		 305.27265			43387.38302		69.19600		324.00000 
 43692.65567		 628.92372			43063.73195		135.34600		875.00000 
 43692.65567		 305.27265			43387.38302		69.19600		324.00000 
 43692.65567		 628.92372			43063.73195		135.34600		875.00000 
 43692.65567		 305.27265			43387.38302		69.19600		324.00000 
 43692.65567		 628.92372			43063.73195		135.34600		875.00000 
 43692.65567		 305.27265			43387.38302		69.19600		324.00000 
 43692.65567		 628.92372			43063.73195		135.34600		875.00000 
 43692.65567		 305.27265			43387.38302		69.19600		324.00000 
 43692.65567		 628.92372			43063.73195		135.34600		875.00000 
 43692.65567		 305.27265			43387.38302		69.19600		324.00000 
 43692.65567		 628.92372			43063.73195		135.34600		875.00000 
 43692.65567		 305.27265			43387.38302		69.19600		324.00000 
 43692.65567		 628.92372			43063.73195		135.34600		875.00000 
 43692.65567		 305.27265			43387.38302		69.19600		324.00000 
 43692.65567		 628.92372			43063.73195		135.34600		875.00000 
 43692.65567		 305.27265			43387.38302		69.19600		324.00000 
 43692.65567		 628.92372			43063.73195		135.34600		875.00000 
 43692.65567		 305.27265			43387.38302		69.19600		324.00000 
 43692.65567		 628.92372			43063.73195		135.34600		875.00000 
 43692.65567		 305.27265			43387.38302		69.19600		324.00000 
 43692.65567		 628.92372			43063.73195		135.34600		875.00000 
 43692.65567		 305.27265			43387.38302		69.19600		324.00000 
 43692.65567		 628.92372			43063.73195		135.34600		875.00000 
 43692.65567		 305.27265			43387.38302		69.19600		324.00000 
 43692.65567		 628.92372			43063.73195		135.34600		875.00000 
 43692.65567		 305.27265			43387.38302		69.19600		324.00000 
 43692.65567		 628.92372			43063.73195		135.34600		875.00000 
 43692.65567		 305.27265			43387.38302		69.19600		324.00000 
 43692.65567		 628.92372			43063.73195		135.34600		875.00000 
 43692.65567		 305.27265			43387.38302		69.19600		324.00000 
 43692.65567		 628.92372			43063.73195		135.34600		875.00000 
 43692.65567		 305.27265			43387.38302		69.19600		324.00000 
 43692.65567		 628.92372			43063.73195		167.08000		875.00000 
 43692.65567		 305.27265			43387.38302		69.19600		324.00000 
 43692.65567		 628.92372			43063.73195		167.08000		875.00000 
 43692.65567		 305.27265			43387.38302		69.19600		324.00000 
 43692.65567		 628.92372			43063.73195		167.08000		875.00000 
 43692.65567		 305.27265			43387.38302		69.19600		324.00000 
 43692.65567		 628.92372			43063.73195		167.08000		875.00000 
 43692.65567		 305.27265			43387.38302		69.19600		324.00000 
 43692.65567		 628.92372			43063.73195		167.08000		875.00000 
 43692.65567		 305.27265			43387.38302		69.19600		324.00000 
 43692.65567		 628.92372			43063.73195		167.08000		875.00000 
 43692.65567		 305.27265			43387.38302		69.19600		324.00000 
 43692.65567		 628.92372			43063.73195		167.08000		875.00000 
 43692.65567		 305.27265			43387.38302		69.19600		324.00000 
 43692.65567		 628.92372			43063.73195		167.08000		875.00000 
 43692.65567		 305.27265			43387.38302		69.19600		324.00000 
 43692.65567		 628.92372			43063.73195		167.08000		875.00000 
 43692.65567		 305.27265			43387.38302		69.19600		324.00000 
 43692.65567		 628.92372			43063.73195		167.08000		875.00000 
 43692.65567		 305.27265			43387.38302		69.19600		324.00000 
 43692.65567		 628.92372			43063.73195		167.08000		875.00000 
 43692.65567		 305.27265			43387.38302		69.19600		324.00000 
 43692.65567		 628.92372			43063.73195		167.08000		875.00000 
 43692.65567		 305.27265			43387.38302		69.19600		324.00000 
 43692.65567		 628.92372			43063.73195		167.08000		875.00000 
 43692.65567		 305.27265			43387.38302		69.19600		324.00000 
 43692.65567		 628.92372			43063.73195		167.08000		875.00000 
 43692.65567		 305.27265			43387.38302		69.19600		324.00000 
 43692.65567		 628.92372			43063.73195		167.08000		875.00000 
 43692.65567		 305.27265			43387.38302		69.19600		324.00000 
 43692.65567		 628.92372			43063.73195		167.08000		875.00000 
 43692.65567		 305.27265			43387.38302		69.19600		324.00000 
 43692.65567		 628.92372			43063.73195		167.08000		875.00000 
 43692.65567		 305.27265			43387.38302		69.19600		324.00000 
 43692.65567		 628.92372			43063.73195		167.08000		875.00000 
 43692.65567		 305.27265			43387.38302		69.19600		324.00000 
 43692.65567		 628.92372			43063.73195		167.08000		875.00000 
 43692.65567		 305.27265			43387.38302		69.19600		324.00000 
 43692.65567		 628.92372			43063.73195		167.08000		875.00000 
 43692.65567		 305.27265			43387.38302		69.19600		324.00000 
 43692.65567		 628.92372			43063.73195		167.08000		875.00000 
 43692.65567		 305.27265			43387.38302		69.19600		324.00000 
 43692.65567		 628.92372			43063.73195		167.08000		875.00000 
 43692.65567		 305.27265			43387.38302		69.19600		324.00000 
 43692.65567		 628.92372			43063.73195		167.08000		875.00000 
 43692.65567		 305.27265			43387.38302		69.19600		324.00000 
 43692.65567		 628.92372			43063.73195		167.08000		875.00000 
 43692.65567		 305.27265			43387.38302		69.19600		324.00000 
 43692.65567		 628.92372			43063.73195		167.08000		875.00000 
 43692.65567		 305.27265			43387.38302		69.19600		324.00000 
 43692.65567		 628.92372			43063.73195		167.08000		875.00000 
 43692.65567		 305.27265			43387.38302		69.19600		324.00000 
 43692.65567		 628.92372			43063.73195		167.08000		875.00000 
 43692.65567		 305.27265			43387.38302		69.19600		324.00000 
 43692.65567		 628.92372			43063.73195		167.08000		875.00000 
 43692.65567		 305.27265			43387.38302		69.19600		324.00000 
 43692.65567		 628.92372			43063.73195		167.08000		875.00000 
 43692.65567		 305.27265			43387.38302		69.19600		324.00000 
 43692.65567		 628.92372			43063.73195		167.08000		875.00000 
 43692.65567		 305.27265			43387.38302		69.19600		324.00000 
 43692.65567		 628.92372			43063.73195		167.08000		875.00000 
 43692.65567		 305.27265			43387.38302		69.19600		324.00000 
 43692.65567		 628.92372			43063.73195		167.08000		875.00000 
 43692.65567		 305.27265			43387.38302		69.19600		324.00000 
 43692.65567		 628.92372			43063.73195		167.08000		875.00000 
 43692.65567		 305.27265			43387.38302		69.19600		324.00000 
 43692.65567		 628.92372			43063.73195		167.08000		875.00000 
 43692.65567		 305.27265			43387.38302		69.19600		324.00000 
 43692.65567		 628.92372			43063.73195		167.08000		875.00000 
 43692.65567		 305.27265			43387.38302		69.19600		324.00000 
 43692.65567		 628.92372			43063.73195		167.08000		875.00000 
 43692.65567		 305.27265			43387.38302		69.19600		324.00000 
 43692.65567		 628.92372			43063.73195		167.08000		875.00000 
 43692.65567		 305.27265			43387.38302		69.19600		324.00000 
 43692.65567		 628.92372			43063.73195		167.08000		875.00000 
 43692.65567		 305.27265			43387.38302		69.19600		324.00000 
 43692.65567		 628.92372			43063.73195		167.08000		875.00000 
 43692.65567		 305.27265			43387.38302		69.19600		324.00000 
 43692.65567		 628.92372			43063.73195		167.08000		875.00000 
 43692.65567		 305.27265			43387.38302		69.19600		324.00000 
 43692.65567		 628.92372			43063.73195		167.08000		875.00000 
 43692.65567		 305.27265			43387.38302		69.19600		324.00000 
 43692.65567		 628.92372			43063.73195		167.08000		875.00000 
 43692.65567		 305.27265			43387.38302		69.19600		324.00000 
 43692.65567		 628.92372			43063.73195		167.08000		875.00000 
 43692.65567		 305.27265			43387.38302		69.19600		324.00000 
 43692.65567		 628.92372			43063.73195		167.08000		875.00000 
 43692.65567		 305.27265			43387.38302		69.19600		324.00000 
 43692.65567		 628.92372			43063.73195		167.08000		875.00000 
 43692.65567		 305.27265			43387.38302		69.19600		324.00000 
 43692.65567		 628.92372			43063.73195		167.08000		875.00000 
 43692.65567		 305.27265			43387.38302		69.19600		324.00000 
 43692.65567		 628.92372			43063.73195		167.08000		875.00000 
 43692.65567		 305.27265			43387.38302		69.19600		324.00000 
 43692.65567		 628.92372			43063.73195		167.08000		875.00000 
 43692.65567		 305.27265			43387.38302		69.19600		324.00000 
 43692.65567		 628.92372			43063.73195		167.08000		875.00000 
 43692.65567		 305.27265			43387.38302		69.19600		324.00000 
 43692.65567		 628.92372			43063.73195		167.08000		875.00000 
 43692.65567		 305.27265			43387.38302		69.19600		324.00000 
 43692.65567		 628.92372			43063.73195		167.08000		875.00000 
 43692.65567		 305.27265			43387.38302		69.19600		324.00000 
 43692.65567		 628.92372			43063.73195		167.08000		875.00000 
 43692.65567		 305.27265			43387.38302		69.19600		324.00000 
 43692.65567		 628.92372			43063.73195		167.08000		875.00000 
 43692.65567		 305.27265			43387.38302		69.19600		324.00000 
 43692.65567		 628.92372			43063.73195		167.08000		875.00000 
 43692.65567		 305.27265			43387.38302		69.19600		324.00000 
 43692.65567		 628.92372			43063.73195		167.08000		875.00000 
 43692.65567		 305.27265			43387.38302		69.19600		324.00000 
 43692.65567		 628.92372			43063.73195		167.08000		875.00000 
 43692.65567		 305.27265			43387.38302		69.19600		324.00000 
 43692.65567		 628.92372			43063.73195		167.08000		875.00000 
 43692.65567		 305.27265			43387.38302		69.19600		324.00000 
 43692.65567		 628.92372			43063.73195		167.08000		875.00000 
 43692.65567		 305.27265			43387.38302		69.19600		324.00000 
 43692.65567		 628.92372			43063.73195		167.08000		875.00000 
 43692.65567		 305.27265			43387.38302		69.19600		324.00000 
 43692.65567		 628.92372			43063.73195		167.08000		875.00000 
 43692.65567		 305.27265			43387.38302		69.19600		324.00000 
 43692.65567		 628.92372			43063.73195		167.08000		875.00000 
 43692.65567		 305.27265			43387.38302		69.19600		324.00000 
 43692.65567		 628.92372			43063.73195		167.08000		875.00000 
 43692.65567		 305.27265			43387.38302		69.19600		324.00000 
 43692.65567		 628.92372			43063.73195		167.08000		875.00000 
 43692.65567		 305.27265			43387.38302		69.19600		324.00000 
 43692.65567		 628.92372			43063.73195		167.08000		875.00000 
 43692.65567		 305.27265			43387.38302		69.19600		324.00000 
 43692.65567		 628.92372			43063.73195		199.00800		875.00000 
 43692.65567		 305.27265			43387.38302		69.19600		324.00000 
 43692.65567		 628.92372			43063.73195		199.00800		875.00000 
 43692.65567		 305.27265			43387.38302		69.19600		324.00000 
 43692.65567		 628.92372			43063.73195		199.00800		875.00000 
 43692.65567		 305.27265			43387.38302		69.19600		324.00000 
 43692.65567		 628.92372			43063.73195		199.00800		875.00000 
 43692.65567		 305.27265			43387.38302		69.19600		324.00000 
 43692.65567		 628.92372			43063.73195		199.00800		875.00000 
 43692.65567		 305.27265			43387.38302		69.19600		324.00000 
 43692.65567		 628.92372			43063.73195		199.00800		875.00000 
 43692.65567		 305.27265			43387.38302		69.19600		324.00000 
 43692.65567		 628.92372			43063.73195		199.00800		875.00000 
 43692.65567		 305.27265			43387.38302		69.19600		324.00000 
 43692.65567		 628.92372			43063.73195		199.00800		875.00000 
 43692.65567		 305.27265			43387.38302		69.19600		324.00000 
 43692.65567		 628.92372			43063.73195		199.00800		875.00000 
 43692.65567		 305.27265			43387.38302		69.19600		324.00000 
 43692.65567		 628.92372			43063.73195		199.00800		875.00000 
 43692.65567		 305.27265			43387.38302		69.19600		324.00000 
 43692.65567		 628.92372			43063.73195		199.00800		875.00000 
 43692.65567		 305.27265			43387.38302		69.19600		324.00000 
 43692.65567		 628.92372			43063.73195		199.00800		875.00000 
 43692.65567		 305.27265			43387.38302		69.19600		324.00000 
 43692.65567		 628.92372			43063.73195		199.00800		875.00000 
 43692.65567		 305.27265			43387.38302		69.19600		324.00000 
 43692.65567		 628.92372			43063.73195		199.00800		875.00000 
 43692.65567		 305.27265			43387.38302		69.19600		324.00000 
 43692.65567		 628.92372			43063.73195		199.00800		875.00000 
 43692.65567		 305.27265			43387.38302		69.19600		324.00000 
 43692.65567		 628.92372			43063.73195		199.00800		875.00000 
 43692.65567		 305.27265			43387.38302		69.19600		324.00000 
 43692.65567		 628.92372			43063.73195		199.00800		875.00000 
 43692.65567		 305.27265			43387.38302		69.19600		324.00000 
 43692.65567		 628.92372			43063.73195		199.00800		875.00000 
 43692.65567		 305.27265			43387.38302		69.19600		324.00000 
 43692.65567		 628.92372			43063.73195		199.00800		875.00000 
 43692.65567		 305.27265			43387.38302		69.19600		324.00000 
 43692.65567		 628.92372			43063.73195		199.00800		875.00000 
 43692.65567		 305.27265			43387.38302		69.19600		324.00000 
 43692.65567		 628.92372			43063.73195		199.00800		875.00000 
 43692.65567		 305.27265			43387.38302		69.19600		324.00000 
 43692.65567		 628.92372			43063.73195		199.00800		875.00000 
 43692.65567		 305.27265			43387.38302		69.19600		324.00000 
 43692.65567		 628.92372			43063.73195		199.00800		875.00000 
 43692.65567		 305.27265			43387.38302		69.19600		324.00000 
 43692.65567		 628.92372			43063.73195		199.00800		875.00000 
 43692.65567		 305.27265			43387.38302		69.19600		324.00000 
 43692.65567		 628.92372			43063.73195		199.00800		875.00000 
 43692.65567		 305.27265			43387.38302		69.19600		324.00000 
 43692.65567		 628.92372			43063.73195		199.00800		875.00000 
 43692.65567		 305.27265			43387.38302		69.19600		324.00000 
 43692.65567		 628.92372			43063.73195		199.00800		875.00000 
 43692.65567		 305.27265			43387.38302		69.19600		324.00000 
 43692.65567		 628.92372			43063.73195		199.00800		875.00000 
 43692.65567		 305.27265			43387.38302		69.19600		324.00000 
 43692.65567		 628.92372			43063.73195		199.00800		875.00000 
 43692.65567		 305.27265			43387.38302		69.19600		324.00000 
 43692.65567		 628.92372			43063.73195		199.00800		875.00000 
 43692.65567		 305.27265			43387.38302		69.19600		324.00000 
 43692.65567		 628.92372			43063.73195		199.00800		875.00000 
 43692.65567		 305.27265			43387.38302		69.19600		324.00000 
 43692.65567		 628.92372			43063.73195		199.00800		875.00000 
 43692.65567		 305.27265			43387.38302		69.19600		324.00000 
 43692.65567		 628.92372			43063.73195		199.00800		875.00000 
 43692.65567		 305.27265			43387.38302		69.19600		324.00000 
 43692.65567		 628.92372			43063.73195		199.00800		875.00000 
 43692.65567		 305.27265			43387.38302		69.19600		324.00000 
 43692.65567		 628.92372			43063.73195		199.00800		875.00000 
 43692.65567		 305.27265			43387.38302		69.19600		324.00000 
 43692.65567		 628.92372			43063.73195		199.00800		875.00000 
 43692.65567		 305.27265			43387.38302		69.19600		324.00000 
 43692.65567		 628.92372			43063.73195		199.00800		875.00000 
 43692.65567		 305.27265			43387.38302		69.19600		324.00000 
 43692.65567		 628.92372			43063.73195		199.00800		875.00000 
 43692.65567		 305.27265			43387.38302		69.19600		324.00000 
 43692.65567		 628.92372			43063.73195		199.00800		875.00000 
 43692.65567		 305.27265			43387.38302		69.19600		324.00000 
 43692.65567		 628.92372			43063.73195		199.00800		875.00000 
 43692.65567		 305.27265			43387.38302		69.19600		324.00000 
 43692.65567		 628.92372			43063.73195		199.00800		875.00000 
 43692.65567		 305.27265			43387.38302		69.19600		324.00000 
 43692.65567		 628.92372			43063.73195		199.00800		875.00000 
 43692.65567		 305.27265			43387.38302		69.19600		324.00000 
 43692.65567		 628.92372			43063.73195		199.00800		875.00000 
 43692.65567		 305.27265			43387.38302		69.19600		324.00000 
 43692.65567		 628.92372			43063.73195		199.00800		875.00000 
 43692.65567		 305.27265			43387.38302		69.19600		324.00000 
 43692.65567		 628.92372			43063.73195		199.00800		875.00000 
 43692.65567		 305.27265			43387.38302		69.19600		324.00000 
 43692.65567		 628.92372			43063.73195		199.00800		875.00000 
 43692.65567		 305.27265			43387.38302		69.19600		324.00000 
 43692.65567		 628.92372			43063.73195		199.00800		875.00000 
 43692.65567		 305.27265			43387.38302		69.19600		324.00000 
 43692.65567		 628.92372			43063.73195		199.00800		875.00000 
 43692.65567		 305.27265			43387.38302		69.19600		324.00000 
 43692.65567		 628.92372			43063.73195		199.00800		875.00000 
 43692.65567		 305.27265			43387.38302		69.19600		324.00000 
 43692.65567		 628.92372			43063.73195		199.00800		875.00000 
 43692.65567		 305.27265			43387.38302		69.19600		324.00000 
 43692.65567		 628.92372			43063.73195		199.00800		875.00000 
 43692.65567		 305.27265			43387.38302		69.19600		324.00000 
 43692.65567		 628.92372			43063.73195		199.00800		875.00000 
 43692.65567		 305.27265			43387.38302		69.19600		324.00000 
 43692.65567		 628.92372			43063.73195		199.00800		875.00000 
 43692.65567		 305.27265			43387.38302		69.19600		324.00000 
 43692.65567		 628.92372			43063.73195		199.00800		875.00000 
 43692.65567		 305.27265			43387.38302		69.19600		324.00000 
 43692.65567		 628.92372			43063.73195		199.00800		875.00000 
 43692.65567		 305.27265			43387.38302		69.19600		324.00000 
 43692.65567		 628.92372			43063.73195		199.00800		875.00000 
 43692.65567		 305.27265			43387.38302		69.19600		324.00000 
 43692.65567		 628.92372			43063.73195		199.00800		875.00000 
 43692.65567		 305.27265			43387.38302		69.19600		324.00000 
 43692.65567		 628.92372			43063.73195		199.00800		875.00000 
 43692.65567		 305.27265			43387.38302		69.19600		324.00000 
 43692.65567		 628.92372			43063.73195		199.00800		875.00000 
 43692.65567		 305.27265			43387.38302		69.19600		324.00000 
 43692.65567		 628.92372			43063.73195		199.00800		875.00000 
 43692.65567		 305.27265			43387.38302		69.19600		324.00000 
 43692.65567		 628.92372			43063.73195		199.00800		875.00000 
 43692.65567		 305.27265			43387.38302		69.19600		324.00000 
 43692.65567		 628.92372			43063.73195		199.00800		875.00000 
 43692.65567		 305.27265			43387.38302		69.19600		324.00000 
 43692.65567		 628.92372			43063.73195		199.00800		875.00000 
 43692.65567		 305.27265			43387.38302		69.19600		324.00000 
 43692.65567		 628.92372			43063.73195		199.00800		875.00000 
 43692.65567		 305.27265			43387.38302		69.19600		324.00000 
 43692.65567		 628.92372			43063.73195		212.72400		875.00000 
 43692.65567		 305.27265			43387.38302		69.19600		324.00000 
 43692.65567		 628.92372			43063.73195		212.72400		875.00000 
 43692.65567		 305.27265			43387.38302		69.19600		324.00000 
 43692.65567		 628.92372			43063.73195		212.72400		875.00000 
 43692.65567		 305.27265			43387.38302		69.19600		324.00000 
 43692.65567		 628.92372			43063.73195		212.72400		875.00000 
 43692.65567		 305.27265			43387.38302		69.19600		324.00000 
 43692.65567		 628.92372			43063.73195		212.72400		875.00000 
 43692.65567		 305.27265			43387.38302		69.19600		324.00000 
 43692.65567		 628.92372			43063.73195		212.72400		875.00000 
 43692.65567		 305.27265			43387.38302		69.19600		324.00000 
 43692.65567		 628.92372			43063.73195		212.72400		875.00000 
 43692.65567		 305.27265			43387.38302		69.19600		324.00000 
 43692.65567		 628.92372			43063.73195		212.72400		875.00000 
 43692.65567		 305.27265			43387.38302		69.19600		324.00000 
 43692.65567		 628.92372			43063.73195		212.72400		875.00000 
 43692.65567		 305.27265			43387.38302		69.19600		324.00000 
 43692.65567		 628.92372			43063.73195		212.72400		875.00000 
 43692.65567		 305.27265			43387.38302		69.19600		324.00000 
 43692.65567		 628.92372			43063.73195		212.72400		875.00000 
 43692.65567		 305.27265			43387.38302		69.19600		324.00000 
 43692.65567		 628.92372			43063.73195		212.72400		875.00000 
 43692.65567		 305.27265			43387.38302		69.19600		324.00000 
 43692.65567		 628.92372			43063.73195		212.72400		875.00000 
 43692.65567		 305.27265			43387.38302		69.19600		324.00000 
 43692.65567		 628.92372			43063.73195		212.72400		875.00000 
 43692.65567		 305.27265			43387.38302		69.19600		324.00000 
 43692.65567		 628.92372			43063.73195		212.72400		875.00000 
 43692.65567		 305.27265			43387.38302		69.19600		324.00000 
 43692.65567		 628.92372			43063.73195		212.72400		875.00000 
 43692.65567		 305.27265			43387.38302		69.19600		324.00000 
 43692.65567		 628.92372			43063.73195		212.72400		875.00000 
 43692.65567		 305.27265			43387.38302		69.19600		324.00000 
 43692.65567		 628.92372			43063.73195		212.72400		875.00000 
 43692.65567		 305.27265			43387.38302		69.19600		324.00000 
 43692.65567		 628.92372			43063.73195		212.72400		875.00000 
 43692.65567		 305.27265			43387.38302		69.19600		324.00000 
 43692.65567		 628.92372			43063.73195		212.72400		875.00000 
 43692.65567		 305.27265			43387.38302		69.19600		324.00000 
 43692.65567		 628.92372			43063.73195		212.72400		875.00000 
 43692.65567		 305.27265			43387.38302		69.19600		324.00000 
 43692.65567		 628.92372			43063.73195		212.72400		875.00000 
 43692.65567		 305.27265			43387.38302		69.19600		324.00000 
 43692.65567		 628.92372			43063.73195		212.72400		875.00000 
 43692.65567		 305.27265			43387.38302		69.19600		324.00000 
 43692.65567		 628.92372			43063.73195		212.72400		875.00000 
 43692.65567		 305.27265			43387.38302		69.19600		324.00000 
 43692.65567		 628.92372			43063.73195		212.72400		875.00000 
 43692.65567		 305.27265			43387.38302		69.19600		324.00000 
 43692.65567		 628.92372			43063.73195		212.72400		875.00000 
 43692.65567		 305.27265			43387.38302		69.19600		324.00000 
 43692.65567		 628.92372			43063.73195		212.72400		875.00000 
 43692.65567		 305.27265			43387.38302		69.19600		324.00000 
 43692.65567		 628.92372			43063.73195		212.72400		875.00000 
 43692.65567		 305.27265			43387.38302		69.19600		324.00000 
 43692.65567		 628.92372			43063.73195		212.72400		875.00000 
 43692.65567		 305.27265			43387.38302		69.19600		324.00000 
 43692.65567		 628.92372			43063.73195		212.72400		875.00000 
 43692.65567		 305.27265			43387.38302		69.19600		324.00000 
 43692.65567		 628.92372			43063.73195		212.72400		875.00000 
 43692.65567		 305.27265			43387.38302		69.19600		324.00000 
 43692.65567		 628.92372			43063.73195		212.72400		875.00000 
 43692.65567		 305.27265			43387.38302		69.19600		324.00000 
 43692.65567		 628.92372			43063.73195		212.72400		875.00000 
 43692.65567		 305.27265			43387.38302		69.19600		324.00000 
 43692.65567		 628.92372			43063.73195		212.72400		875.00000 
 43692.65567		 305.27265			43387.38302		69.19600		324.00000 
 43692.65567		 628.92372			43063.73195		212.72400		875.00000 
 43692.65567		 305.27265			43387.38302		69.19600		324.00000 
 43692.65567		 628.92372			43063.73195		212.72400		875.00000 
 43692.65567		 305.27265			43387.38302		69.19600		324.00000 
 43692.65567		 628.92372			43063.73195		212.72400		875.00000 
 43692.65567		 305.27265			43387.38302		69.19600		324.00000 
 43692.65567		 628.92372			43063.73195		212.72400		875.00000 
 43692.65567		 305.27265			43387.38302		69.19600		324.00000 
 43692.65567		 628.92372			43063.73195		212.72400		875.00000 
 43692.65567		 305.27265			43387.38302		69.19600		324.00000 
 43692.65567		 628.92372			43063.73195		212.72400		875.00000 
 43692.65567		 305.27265			43387.38302		69.19600		324.00000 
 43692.65567		 628.92372			43063.73195		212.72400		875.00000 
 43692.65567		 305.27265			43387.38302		69.19600		324.00000 
 43692.65567		 628.92372			43063.73195		212.72400		875.00000 
 43692.65567		 305.27265			43387.38302		69.19600		324.00000 
 43692.65567		 628.92372			43063.73195		212.72400		875.00000 
 43692.65567		 305.27265			43387.38302		69.19600		324.00000 
 43692.65567		 628.92372			43063.73195		212.72400		875.00000 
 43692.65567		 305.27265			43387.38302		69.19600		324.00000 
 43692.65567		 628.92372			43063.73195		212.72400		875.00000 
 43692.65567		 305.27265			43387.38302		69.19600		324.00000 
 43692.65567		 628.92372			43063.73195		212.72400		875.00000 
 43692.65567		 305.27265			43387.38302		69.19600		324.00000 
 43692.65567		 628.92372			43063.73195		212.72400		875.00000 
 43692.65567		 305.27265			43387.38302		69.19600		324.00000 
 43692.65567		 628.92372			43063.73195		212.72400		875.00000 
 43692.65567		 305.27265			43387.38302		69.19600		324.00000 
 43692.65567		 628.92372			43063.73195		212.72400		875.00000 
 43692.65567		 305.27265			43387.38302		69.19600		324.00000 
 43692.65567		 628.92372			43063.73195		212.72400		875.00000 
 43692.65567		 305.27265			43387.38302		69.19600		324.00000 
 43692.65567		 628.92372			43063.73195		212.72400		875.00000 
 43692.65567		 305.27265			43387.38302		69.19600		324.00000 
 43692.65567		 628.92372			43063.73195		212.72400		875.00000 
 43692.65567		 305.27265			43387.38302		69.19600		324.00000 
 43692.65567		 628.92372			43063.73195		212.72400		875.00000 
 43692.65567		 305.27265			43387.38302		69.19600		324.00000 
 43692.65567		 628.92372			43063.73195		212.72400		875.00000 
 43692.65567		 305.27265			43387.38302		69.19600		324.00000 
 43692.65567		 628.92372			43063.73195		212.72400		875.00000 
 43692.65567		 305.27265			43387.38302		69.19600		324.00000 
 43692.65567		 628.92372			43063.73195		212.72400		875.00000 
 43692.65567		 305.27265			43387.38302		69.19600		324.00000 
 43692.65567		 628.92372			43063.73195		212.72400		875.00000 
 43692.65567		 305.27265			43387.38302		69.19600		324.00000 
 43692.65567		 628.92372			43063.73195		212.72400		875.00000 
 43692.65567		 305.27265			43387.38302		69.19600		324.00000 
 43692.65567		 628.92372			43063.73195		212.72400		875.00000 
 43692.65567		 305.27265			43387.38302		69.19600		324.00000 
 43692.65567		 628.92372			43063.73195		212.72400		875.00000 
 43692.65567		 305.27265			43387.38302		69.19600		324.00000 
 43692.65567		 628.92372			43063.73195		212.72400		875.00000 
 43692.65567		 305.27265			43387.38302		69.19600		324.00000 
 43692.65567		 628.92372			43063.73195		212.72400		875.00000 
 43692.65567		 305.27265			43387.38302		69.19600		324.00000 
 43692.65567		 628.92372			43063.73195		212.72400		875.00000 
 43692.65567		 305.27265			43387.38302		69.19600		324.00000 
 43692.65567		 628.92372			43063.73195		212.72400		875.00000 
 43692.65567		 305.27265			43387.38302		69.19600		324.00000 
 43692.65567		 628.92372			43063.73195		217.38000		875.00000 
 43692.65567		 305.27265			43387.38302		69.19600		324.00000 
 43692.65567		 628.92372			43063.73195		217.38000		875.00000 
 43692.65567		 305.27265			43387.38302		69.19600		324.00000 
 43692.65567		 628.92372			43063.73195		217.38000		875.00000 
 43692.65567		 305.27265			43387.38302		69.19600		324.00000 
 43692.65567		 628.92372			43063.73195		217.38000		875.00000 
 43692.65567		 305.27265			43387.38302		69.19600		324.00000 
 43692.65567		 628.92372			43063.73195		217.38000		875.00000 
 43692.65567		 305.27265			43387.38302		69.19600		324.00000 
 43692.65567		 628.92372			43063.73195		217.38000		875.00000 
 43692.65567		 305.27265			43387.38302		69.19600		324.00000 
 43692.65567		 628.92372			43063.73195		217.38000		875.00000 
 43692.65567		 305.27265			43387.38302		69.19600		324.00000 
 43692.65567		 628.92372			43063.73195		217.38000		875.00000 
 43692.65567		 305.27265			43387.38302		69.19600		324.00000 
 43692.65567		 628.92372			43063.73195		217.38000		875.00000 
 43692.65567		 305.27265			43387.38302		69.19600		324.00000 
 43692.65567		 628.92372			43063.73195		217.38000		875.00000 
 43692.65567		 305.27265			43387.38302		69.19600		324.00000 
 43692.65567		 628.92372			43063.73195		217.38000		875.00000 
 43692.65567		 305.27265			43387.38302		69.19600		324.00000 
 43692.65567		 628.92372			43063.73195		217.38000		875.00000 
 43692.65567		 305.27265			43387.38302		69.19600		324.00000 
 43692.65567		 628.92372			43063.73195		217.38000		875.00000 
 43692.65567		 305.27265			43387.38302		69.19600		324.00000 
 43692.65567		 628.92372			43063.73195		217.38000		875.00000 
 43692.65567		 305.27265			43387.38302		69.19600		324.00000 
 43692.65567		 628.92372			43063.73195		217.38000		875.00000 
 43692.65567		 305.27265			43387.38302		69.19600		324.00000 
 43692.65567		 628.92372			43063.73195		217.38000		875.00000 
 43692.65567		 305.27265			43387.38302		69.19600		324.00000 
 43692.65567		 628.92372			43063.73195		217.38000		875.00000 
 43692.65567		 305.27265			43387.38302		69.19600		324.00000 
 43692.65567		 628.92372			43063.73195		217.38000		875.00000 
 43692.65567		 305.27265			43387.38302		69.19600		324.00000 
 43692.65567		 628.92372			43063.73195		217.38000		875.00000 
 43692.65567		 305.27265			43387.38302		69.19600		324.00000 
 43692.65567		 628.92372			43063.73195		217.38000		875.00000 
 43692.65567		 305.27265			43387.38302		69.19600		324.00000 
 43692.65567		 628.92372			43063.73195		217.38000		875.00000 
 43692.65567		 305.27265			43387.38302		69.19600		324.00000 
 43692.65567		 628.92372			43063.73195		217.38000		875.00000 
 43692.65567		 305.27265			43387.38302		69.19600		324.00000 
 43692.65567		 628.92372			43063.73195		217.38000		875.00000 
 43692.65567		 305.27265			43387.38302		69.19600		324.00000 
 43692.65567		 628.92372			43063.73195		217.38000		875.00000 
 43692.65567		 305.27265			43387.38302		69.19600		324.00000 
 43692.65567		 628.92372			43063.73195		217.38000		875.00000 
 43692.65567		 305.27265			43387.38302		69.19600		324.00000 
 43692.65567		 628.92372			43063.73195		217.38000		875.00000 
 43692.65567		 305.27265			43387.38302		69.19600		324.00000 
 43692.65567		 628.92372			43063.73195		217.38000		875.00000 
 43692.65567		 305.27265			43387.38302		69.19600		324.00000 
 43692.65567		 628.92372			43063.73195		217.38000		875.00000 
 43692.65567		 305.27265			43387.38302		69.19600		324.00000 
 43692.65567		 628.92372			43063.73195		217.38000		875.00000 
 43692.65567		 305.27265			43387.38302		69.19600		324.00000 
 43692.65567		 628.92372			43063.73195		217.38000		875.00000 
 43692.65567		 305.27265			43387.38302		69.19600		324.00000 
 43692.65567		 628.92372			43063.73195		217.38000		875.00000 
 43692.65567		 305.27265			43387.38302		69.19600		324.00000 
 43692.65567		 628.92372			43063.73195		217.38000		875.00000 
 43692.65567		 305.27265			43387.38302		69.19600		324.00000 
 43692.65567		 628.92372			43063.73195		217.38000		875.00000 
 43692.65567		 305.27265			43387.38302		69.19600		324.00000 
 43692.65567		 628.92372			43063.73195		217.38000		875.00000 
 43692.65567		 305.27265			43387.38302		69.19600		324.00000 
 43692.65567		 628.92372			43063.73195		217.38000		875.00000 
 43692.65567		 305.27265			43387.38302		69.19600		324.00000 
 43692.65567		 628.92372			43063.73195		217.38000		875.00000 
 43692.65567		 305.27265			43387.38302		69.19600		324.00000 
 43692.65567		 628.92372			43063.73195		217.38000		875.00000 
 43692.65567		 305.27265			43387.38302		69.19600		324.00000 
 43692.65567		 628.92372			43063.73195		217.38000		875.00000 
 43692.65567		 305.27265			43387.38302		69.19600		324.00000 
 43692.65567		 628.92372			43063.73195		217.38000		875.00000 
 43692.65567		 305.27265			43387.38302		69.19600		324.00000 
 43692.65567		 628.92372			43063.73195		217.38000		875.00000 
 43692.65567		 305.27265			43387.38302		69.19600		324.00000 
 43692.65567		 628.92372			43063.73195		217.38000		875.00000 
 43692.65567		 305.27265			43387.38302		69.19600		324.00000 
 43692.65567		 628.92372			43063.73195		217.38000		875.00000 
 43692.65567		 305.27265			43387.38302		69.19600		324.00000 
 43692.65567		 628.92372			43063.73195		217.38000		875.00000 
 43692.65567		 305.27265			43387.38302		69.19600		324.00000 
 43692.65567		 628.92372			43063.73195		217.38000		875.00000 
 43692.65567		 305.27265			43387.38302		69.19600		324.00000 
 43692.65567		 628.92372			43063.73195		217.38000		875.00000 
 43692.65567		 305.27265			43387.38302		69.19600		324.00000 
 43692.65567		 628.92372			43063.73195		217.38000		875.00000 
 43692.65567		 305.27265			43387.38302		69.19600		324.00000 
 43692.65567		 628.92372			43063.73195		217.38000		875.00000 
 43692.65567		 305.27265			43387.38302		69.19600		324.00000 
 43692.65567		 628.92372			43063.73195		217.38000		875.00000 
 43692.65567		 305.27265			43387.38302		69.19600		324.00000 
 43692.65567		 628.92372			43063.73195		217.38000		875.00000 
 43692.65567		 305.27265			43387.38302		69.19600		324.00000 
 43692.65567		 628.92372			43063.73195		217.38000		875.00000 
 43692.65567		 305.27265			43387.38302		69.19600		324.00000 
 43692.65567		 628.92372			43063.73195		217.38000		875.00000 
 43692.65567		 305.27265			43387.38302		69.19600		324.00000 
 43692.65567		 628.92372			43063.73195		217.38000		875.00000 
 43692.65567		 305.27265			43387.38302		69.19600		324.00000 
 43692.65567		 628.92372			43063.73195		217.38000		875.00000 
 43692.65567		 305.27265			43387.38302		69.19600		324.00000 
 43692.65567		 628.92372			43063.73195		217.38000		875.00000 
 43692.65567		 305.27265			43387.38302		69.19600		324.00000 
 43692.65567		 628.92372			43063.73195		217.38000		875.00000 
 43692.65567		 305.27265			43387.38302		69.19600		324.00000 
 43692.65567		 628.92372			43063.73195		217.38000		875.00000 
 43692.65567		 305.27265			43387.38302		69.19600		324.00000 
 43692.65567		 628.92372			43063.73195		217.38000		875.00000 
 43692.65567		 305.27265			43387.38302		69.19600		324.00000 
 43692.65567		 628.92372			43063.73195		217.38000		875.00000 
 43692.65567		 305.27265			43387.38302		69.19600		324.00000 
 43692.65567		 628.92372			43063.73195		217.38000		875.00000 
 43692.65567		 305.27265			43387.38302		69.19600		324.00000 
 43692.65567		 628.92372			43063.73195		217.38000		875.00000 
 43692.65567		 305.27265			43387.38302		69.19600		324.00000 
 43692.65567		 628.92372			43063.73195		217.38000		875.00000 
 43692.65567		 305.27265			43387.38302		69.19600		324.00000 
 43692.65567		 628.92372			43063.73195		217.38000		875.00000 
 43692.65567		 305.27265			43387.38302		69.19600		324.00000 
 43692.65567		 628.92372			43063.73195		217.38000		875.00000 
 43692.65567		 305.27265			43387.38302		69.19600		324.00000 
 43692.65567		 628.92372			43063.73195		217.38000		875.00000 
 43692.65567		 305.27265			43387.38302		69.19600		324.00000 
 43692.65567		 628.92372			43063.73195		219.71600		875.00000 
 43692.65567		 305.27265			43387.38302		69.19600		324.00000 
 43692.65567		 628.92372			43063.73195		219.71600		875.00000 
 43692.65567		 305.27265			43387.38302		69.19600		324.00000 
 43692.65567		 628.92372			43063.73195		219.71600		875.00000 
 43692.65567		 305.27265			43387.38302		69.19600		324.00000 
 43692.65567		 628.92372			43063.73195		219.71600		875.00000 
 43692.65567		 305.27265			43387.38302		69.19600		324.00000 
 43692.65567		 628.92372			43063.73195		219.71600		875.00000 
 43692.65567		 305.27265			43387.38302		69.19600		324.00000 
 43692.65567		 628.92372			43063.73195		219.71600		875.00000 
 43692.65567		 305.27265			43387.38302		69.19600		324.00000 
 43692.65567		 628.92372			43063.73195		219.71600		875.00000 
 43692.65567		 305.27265			43387.38302		69.19600		324.00000 
 43692.65567		 628.92372			43063.73195		219.71600		875.00000 
 43692.65567		 305.27265			43387.38302		69.19600		324.00000 
 43692.65567		 628.92372			43063.73195		219.71600		875.00000 
 43692.65567		 305.27265			43387.38302		69.19600		324.00000 
 43692.65567		 628.92372			43063.73195		219.71600		875.00000 
 43692.65567		 305.27265			43387.38302		69.19600		324.00000 
 43692.65567		 628.92372			43063.73195		219.71600		875.00000 
 43692.65567		 305.27265			43387.38302		69.19600		324.00000 
 43692.65567		 628.92372			43063.73195		219.71600		875.00000 
 43692.65567		 305.27265			43387.38302		69.19600		324.00000 
 43692.65567		 628.92372			43063.73195		219.71600		875.00000 
 43692.65567		 305.27265			43387.38302		69.19600		324.00000 
 43692.65567		 628.92372			43063.73195		219.71600		875.00000 
 43692.65567		 305.27265			43387.38302		69.19600		324.00000 
 43692.65567		 628.92372			43063.73195		219.71600		875.00000 
 43692.65567		 305.27265			43387.38302		69.19600		324.00000 
 43692.65567		 628.92372			43063.73195		219.71600		875.00000 
 43692.65567		 305.27265			43387.38302		69.19600		324.00000 
 43692.65567		 628.92372			43063.73195		219.71600		875.00000 
 43692.65567		 305.27265			43387.38302		69.19600		324.00000 
 43692.65567		 628.92372			43063.73195		219.71600		875.00000 
 43692.65567		 305.27265			43387.38302		69.19600		324.00000 
 43692.65567		 628.92372			43063.73195		219.71600		875.00000 
 43692.65567		 305.27265			43387.38302		69.19600		324.00000 
 43692.65567		 628.92372			43063.73195		219.71600		875.00000 
 43692.65567		 305.27265			43387.38302		69.19600		324.00000 
 43692.65567		 628.92372			43063.73195		219.71600		875.00000 
 43692.65567		 305.27265			43387.38302		69.19600		324.00000 
 43692.65567		 628.92372			43063.73195		219.71600		875.00000 
 43692.65567		 305.27265			43387.38302		69.19600		324.00000 
 43692.65567		 628.92372			43063.73195		219.71600		875.00000 
 43692.65567		 305.27265			43387.38302		69.19600		324.00000 
 43692.65567		 628.92372			43063.73195		219.71600		875.00000 
 43692.65567		 305.27265			43387.38302		69.19600		324.00000 
 43692.65567		 628.92372			43063.73195		219.71600		875.00000 
 43692.65567		 305.27265			43387.38302		69.19600		324.00000 
 43692.65567		 628.92372			43063.73195		219.71600		875.00000 
 43692.65567		 305.27265			43387.38302		69.19600		324.00000 
 43692.65567		 628.92372			43063.73195		219.71600		875.00000 
 43692.65567		 305.27265			43387.38302		69.19600		324.00000 
 43692.65567		 628.92372			43063.73195		219.71600		875.00000 
 43692.65567		 305.27265			43387.38302		69.19600		324.00000 
 43692.65567		 628.92372			43063.73195		219.71600		875.00000 
 43692.65567		 305.27265			43387.38302		69.19600		324.00000 
 43692.65567		 628.92372			43063.73195		219.71600		875.00000 
 43692.65567		 305.27265			43387.38302		69.19600		324.00000 
 43692.65567		 628.92372			43063.73195		219.71600		875.00000 
 43692.65567		 305.27265			43387.38302		69.19600		324.00000 
 43692.65567		 628.92372			43063.73195		219.71600		875.00000 
 43692.65567		 305.27265			43387.38302		69.19600		324.00000 
 43692.65567		 628.92372			43063.73195		219.71600		875.00000 
 43692.65567		 305.27265			43387.38302		69.19600		324.00000 
 43692.65567		 628.92372			43063.73195		219.71600		875.00000 
 43692.65567		 305.27265			43387.38302		69.19600		324.00000 
 43692.65567		 628.92372			43063.73195		219.71600		875.00000 
 43692.65567		 305.27265			43387.38302		69.19600		324.00000 
 43692.65567		 628.92372			43063.73195		219.71600		875.00000 
 43692.65567		 305.27265			43387.38302		69.19600		324.00000 
 43692.65567		 628.92372			43063.73195		219.71600		875.00000 
 43692.65567		 305.27265			43387.38302		69.19600		324.00000 
 43692.65567		 628.92372			43063.73195		219.71600		875.00000 
 43692.65567		 305.27265			43387.38302		69.19600		324.00000 
 43692.65567		 628.92372			43063.73195		219.71600		875.00000 
 43692.65567		 305.27265			43387.38302		69.19600		324.00000 
 43692.65567		 628.92372			43063.73195		219.71600		875.00000 
 43692.65567		 305.27265			43387.38302		69.19600		324.00000 
 43692.65567		 628.92372			43063.73195		219.71600		875.00000 
 43692.65567		 305.27265			43387.38302		69.19600		324.00000 
 43692.65567		 628.92372			43063.73195		219.71600		875.00000 
 43692.65567		 305.27265			43387.38302		69.19600		324.00000 
 43692.65567		 628.92372			43063.73195		219.71600		875.00000 
 43692.65567		 305.27265			43387.38302		69.19600		324.00000 
 43692.65567		 628.92372			43063.73195		219.71600		875.00000 
 43692.65567		 305.27265			43387.38302		69.19600		324.00000 
 43692.65567		 628.92372			43063.73195		219.71600		875.00000 
 43692.65567		 305.27265			43387.38302		69.19600		324.00000 
 43692.65567		 628.92372			43063.73195		219.71600		875.00000 
 43692.65567		 305.27265			43387.38302		69.19600		324.00000 
 43692.65567		 628.92372			43063.73195		219.71600		875.00000 
 43692.65567		 305.27265			43387.38302		69.19600		324.00000 
 43692.65567		 628.92372			43063.73195		219.71600		875.00000 
 43692.65567		 305.27265			43387.38302		69.19600		324.00000 
 43692.65567		 628.92372			43063.73195		219.71600		875.00000 
 43692.65567		 305.27265			43387.38302		69.19600		324.00000 
 43692.65567		 628.92372			43063.73195		219.71600		875.00000 
 43692.65567		 305.27265			43387.38302		69.19600		324.00000 
 43692.65567		 628.92372			43063.73195		219.71600		875.00000 
 43692.65567		 305.27265			43387.38302		69.19600		324.00000 
 43692.65567		 628.92372			43063.73195		219.71600		875.00000 
 43692.65567		 305.27265			43387.38302		69.19600		324.00000 
 43692.65567		 628.92372			43063.73195		219.71600		875.00000 
 43692.65567		 305.27265			43387.38302		69.19600		324.00000 
 43692.65567		 628.92372			43063.73195		219.71600		875.00000 
 43692.65567		 305.27265			43387.38302		69.19600		324.00000 
 43692.65567		 598.37259			43094.28308		219.71600		875.00000 
 43692.65567		 305.27265			43387.38302		69.19600		324.00000 
 43692.65567		 537.27032			43155.38535		219.71600		875.00000 
 43692.65567		 305.27265			43387.38302		69.19600		324.00000 
 43692.65567		 537.27032			43155.38535		219.71600		875.00000 
 43692.65567		 305.27265			43387.38302		69.19600		324.00000 
 43692.65567		 537.27032			43155.38535		219.71600		875.00000 
 43692.65567		 305.27265			43387.38302		69.19600		324.00000 
 43692.65567		 537.27032			43155.38535		219.71600		875.00000 
 43692.65567		 305.27265			43387.38302		69.19600		324.00000 
 43692.65567		 537.27032			43155.38535		219.71600		875.00000 
 43692.65567		 305.27265			43387.38302		69.19600		324.00000 
 43692.65567		 537.27032			43155.38535		219.71600		875.00000 
 43692.65567		 305.27265			43387.38302		69.19600		324.00000 
 43692.65567		 537.27032			43155.38535		219.71600		875.00000 
 43692.65567		 305.27265			43387.38302		69.19600		324.00000 
 43692.65567		 537.27032			43155.38535		206.62000		875.00000 
 43692.65567		 305.27265			43387.38302		69.19600		324.00000 
 43692.65567		 537.27032			43155.38535		206.62000		875.00000 
 43692.65567		 305.27265			43387.38302		69.19600		324.00000 
 43692.65567		 537.27032			43155.38535		206.62000		875.00000 
 43692.65567		 305.27265			43387.38302		69.19600		324.00000 
 43692.65567		 537.27032			43155.38535		206.62000		875.00000 
 43692.65567		 305.27265			43387.38302		69.19600		324.00000 
 43692.65567		 537.27032			43155.38535		206.62000		875.00000 
 43692.65567		 305.27265			43387.38302		69.19600		324.00000 
 43692.65567		 537.27032			43155.38535		206.62000		875.00000 
 43692.65567		 305.27265			43387.38302		69.19600		324.00000 
 43692.65567		 537.27032			43155.38535		206.62000		875.00000 
 43692.65567		 305.27265			43387.38302		69.19600		324.00000 
 43692.65567		 537.27032			43155.38535		206.62000		875.00000 
 43692.65567		 305.27265			43387.38302		69.19600		324.00000 
 43692.65567		 537.27032			43155.38535		206.62000		875.00000 
 43692.65567		 305.27265			43387.38302		69.19600		324.00000 
 43692.65567		 537.27032			43155.38535		206.62000		875.00000 
 43692.65567		 305.27265			43387.38302		69.19600		324.00000 
 43692.65567		 537.27032			43155.38535		206.62000		875.00000 
 43692.65567		 305.27265			43387.38302		69.19600		324.00000 
 43692.65567		 537.27032			43155.38535		206.62000		875.00000 
 43692.65567		 305.27265			43387.38302		69.19600		324.00000 
 43692.65567		 537.27032			43155.38535		206.62000		875.00000 
 43692.65567		 305.27265			43387.38302		69.19600		324.00000 
 43692.65567		 537.27032			43155.38535		206.62000		875.00000 
 43692.65567		 305.27265			43387.38302		69.19600		324.00000 
 43692.65567		 525.81365			43166.84203		206.62000		875.00000 
 43692.65567		 305.27265			43387.38302		69.19600		324.00000 
 43692.65567		 525.81365			43166.84203		206.62000		875.00000 
 43692.65567		 261.35540			43431.30027		69.19600		324.00000 
 43692.65567		 261.35540			43431.30027		206.62000		875.00000 
 43692.65567		 261.35540			43431.30027		69.19600		324.00000 
