Memory Total (MiB) 	 Memory Used (MiB) 	    Memory Free (MiB) 	 Power Drawed (W) 	 Clocks (Mhz) 	 
 43692.65567		 261.35540			43431.30027		163.98000		875.00000 
 43692.65567		 261.35540			43431.30027		70.72800		324.00000 
 43692.65567		 261.35540			43431.30027		163.98000		875.00000 
 43692.65567		 261.35540			43431.30027		70.72800		324.00000 
 43692.65567		 261.35540			43431.30027		163.98000		875.00000 
 43692.65567		 261.35540			43431.30027		70.72800		324.00000 
 43692.65567		 261.35540			43431.30027		163.98000		875.00000 
 43692.65567		 261.35540			43431.30027		70.72800		324.00000 
 43692.65567		 261.35540			43431.30027		163.98000		875.00000 
 43692.65567		 261.35540			43431.30027		70.72800		324.00000 
 43692.65567		 261.35540			43431.30027		163.98000		875.00000 
 43692.65567		 261.35540			43431.30027		70.72800		324.00000 
 43692.65567		 261.35540			43431.30027		163.98000		875.00000 
 43692.65567		 261.35540			43431.30027		70.72800		324.00000 
 43692.65567		 261.35540			43431.30027		163.98000		875.00000 
 43692.65567		 261.35540			43431.30027		70.72800		324.00000 
 43692.65567		 261.35540			43431.30027		163.98000		875.00000 
 43692.65567		 261.35540			43431.30027		70.72800		324.00000 
 43692.65567		 261.35540			43431.30027		163.98000		875.00000 
 43692.65567		 261.35540			43431.30027		70.72800		324.00000 
 43692.65567		 261.35540			43431.30027		163.98000		875.00000 
 43692.65567		 261.35540			43431.30027		70.72800		324.00000 
 43692.65567		 261.35540			43431.30027		163.98000		875.00000 
 43692.65567		 261.35540			43431.30027		70.72800		324.00000 
 43692.65567		 261.35540			43431.30027		163.98000		875.00000 
 43692.65567		 261.35540			43431.30027		70.72800		324.00000 
 43692.65567		 261.35540			43431.30027		163.98000		875.00000 
 43692.65567		 261.35540			43431.30027		70.72800		324.00000 
 43692.65567		 261.35540			43431.30027		163.98000		875.00000 
 43692.65567		 261.35540			43431.30027		70.72800		324.00000 
 43692.65567		 261.35540			43431.30027		163.98000		875.00000 
 43692.65567		 261.35540			43431.30027		70.72800		324.00000 
 43692.65567		 261.35540			43431.30027		163.98000		875.00000 
 43692.65567		 261.35540			43431.30027		70.72800		324.00000 
 43692.65567		 261.35540			43431.30027		163.98000		875.00000 
 43692.65567		 261.35540			43431.30027		70.72800		324.00000 
 43692.65567		 265.17429			43427.48138		163.98000		875.00000 
 43692.65567		 261.35540			43431.30027		70.72800		324.00000 
 43692.65567		 265.17429			43427.48138		163.98000		875.00000 
 43692.65567		 261.35540			43431.30027		70.72800		324.00000 
 43692.65567		 272.81207			43419.84360		163.98000		875.00000 
 43692.65567		 261.35540			43431.30027		70.72800		324.00000 
 43692.65567		 272.81207			43419.84360		163.98000		875.00000 
 43692.65567		 261.35540			43431.30027		70.72800		324.00000 
 43692.65567		 272.81207			43419.84360		163.98000		875.00000 
 43692.65567		 265.17429			43427.48138		70.72800		324.00000 
 43692.65567		 272.81207			43419.84360		163.98000		875.00000 
 43692.65567		 265.17429			43427.48138		70.72800		324.00000 
 43692.65567		 272.81207			43419.84360		163.98000		875.00000 
 43692.65567		 265.17429			43427.48138		70.72800		324.00000 
 43692.65567		 272.81207			43419.84360		163.98000		875.00000 
 43692.65567		 272.81207			43419.84360		70.72800		324.00000 
 43692.65567		 305.27265			43387.38302		143.54600		875.00000 
 43692.65567		 305.27265			43387.38302		70.72800		324.00000 
 43692.65567		 305.27265			43387.38302		143.54600		875.00000 
 43692.65567		 305.27265			43387.38302		70.72800		324.00000 
 43692.65567		 305.27265			43387.38302		143.54600		875.00000 
 43692.65567		 305.27265			43387.38302		70.72800		324.00000 
 43692.65567		 305.27265			43387.38302		143.54600		875.00000 
 43692.65567		 305.27265			43387.38302		70.72800		324.00000 
 43692.65567		 305.27265			43387.38302		143.54600		875.00000 
 43692.65567		 305.27265			43387.38302		70.72800		324.00000 
 43692.65567		 309.09154			43383.56413		143.54600		875.00000 
 43692.65567		 305.27265			43387.38302		70.72800		324.00000 
 43692.65567		 310.52363			43382.13204		143.54600		875.00000 
 43692.65567		 305.27265			43387.38302		70.72800		324.00000 
 43692.65567		 311.00099			43381.65468		143.54600		875.00000 
 43692.65567		 305.27265			43387.38302		70.72800		324.00000 
 43692.65567		 311.00099			43381.65468		143.54600		875.00000 
 43692.65567		 305.27265			43387.38302		70.72800		324.00000 
 43692.65567		 311.00099			43381.65468		143.54600		875.00000 
 43692.65567		 305.27265			43387.38302		70.72800		324.00000 
 43692.65567		 311.00099			43381.65468		143.54600		875.00000 
 43692.65567		 305.27265			43387.38302		70.72800		324.00000 
 43692.65567		 311.00099			43381.65468		143.54600		875.00000 
 43692.65567		 305.27265			43387.38302		70.72800		324.00000 
 43692.65567		 311.00099			43381.65468		143.54600		875.00000 
 43692.65567		 305.27265			43387.38302		70.72800		324.00000 
 43692.65567		 311.00099			43381.65468		143.54600		875.00000 
 43692.65567		 305.27265			43387.38302		70.72800		324.00000 
 43692.65567		 311.00099			43381.65468		143.54600		875.00000 
 43692.65567		 305.27265			43387.38302		70.72800		324.00000 
 43692.65567		 311.00099			43381.65468		143.54600		875.00000 
 43692.65567		 305.27265			43387.38302		70.72800		324.00000 
 43692.65567		 311.00099			43381.65468		143.54600		875.00000 
 43692.65567		 305.27265			43387.38302		70.72800		324.00000 
 43692.65567		 311.00099			43381.65468		143.54600		875.00000 
 43692.65567		 305.27265			43387.38302		70.72800		324.00000 
 43692.65567		 311.00099			43381.65468		143.54600		875.00000 
 43692.65567		 305.27265			43387.38302		70.72800		324.00000 
 43692.65567		 311.00099			43381.65468		143.54600		875.00000 
 43692.65567		 305.27265			43387.38302		70.72800		324.00000 
 43692.65567		 311.00099			43381.65468		143.54600		875.00000 
 43692.65567		 305.27265			43387.38302		70.72800		324.00000 
 43692.65567		 311.00099			43381.65468		143.54600		875.00000 
 43692.65567		 305.27265			43387.38302		70.72800		324.00000 
 43692.65567		 311.00099			43381.65468		143.54600		875.00000 
 43692.65567		 305.27265			43387.38302		70.72800		324.00000 
 43692.65567		 311.00099			43381.65468		143.54600		875.00000 
 43692.65567		 305.27265			43387.38302		70.72800		324.00000 
 43692.65567		 311.00099			43381.65468		143.54600		875.00000 
 43692.65567		 305.27265			43387.38302		70.72800		324.00000 
 43692.65567		 311.00099			43381.65468		143.54600		875.00000 
 43692.65567		 305.27265			43387.38302		70.72800		324.00000 
 43692.65567		 311.00099			43381.65468		143.54600		875.00000 
 43692.65567		 305.27265			43387.38302		70.72800		324.00000 
 43692.65567		 311.00099			43381.65468		143.54600		875.00000 
 43692.65567		 305.27265			43387.38302		70.72800		324.00000 
 43692.65567		 311.00099			43381.65468		143.54600		875.00000 
 43692.65567		 305.27265			43387.38302		70.72800		324.00000 
 43692.65567		 311.00099			43381.65468		143.54600		875.00000 
 43692.65567		 305.27265			43387.38302		70.72800		324.00000 
 43692.65567		 311.00099			43381.65468		143.54600		875.00000 
 43692.65567		 305.27265			43387.38302		70.72800		324.00000 
 43692.65567		 311.00099			43381.65468		143.54600		875.00000 
 43692.65567		 305.27265			43387.38302		70.72800		324.00000 
 43692.65567		 311.00099			43381.65468		136.53400		875.00000 
 43692.65567		 305.27265			43387.38302		70.72800		324.00000 
 43692.65567		 311.00099			43381.65468		136.53400		875.00000 
 43692.65567		 305.27265			43387.38302		70.72800		324.00000 
 43692.65567		 311.00099			43381.65468		136.53400		875.00000 
 43692.65567		 305.27265			43387.38302		70.72800		324.00000 
 43692.65567		 311.00099			43381.65468		136.53400		875.00000 
 43692.65567		 305.27265			43387.38302		70.72800		324.00000 
 43692.65567		 311.00099			43381.65468		136.53400		875.00000 
 43692.65567		 305.27265			43387.38302		70.72800		324.00000 
 43692.65567		 311.00099			43381.65468		136.53400		875.00000 
 43692.65567		 305.27265			43387.38302		70.72800		324.00000 
 43692.65567		 311.00099			43381.65468		136.53400		875.00000 
 43692.65567		 305.27265			43387.38302		70.72800		324.00000 
 43692.65567		 311.00099			43381.65468		136.53400		875.00000 
 43692.65567		 305.27265			43387.38302		70.72800		324.00000 
 43692.65567		 311.00099			43381.65468		136.53400		875.00000 
 43692.65567		 305.27265			43387.38302		70.72800		324.00000 
 43692.65567		 311.00099			43381.65468		136.53400		875.00000 
 43692.65567		 305.27265			43387.38302		70.72800		324.00000 
 43692.65567		 311.00099			43381.65468		136.53400		875.00000 
 43692.65567		 305.27265			43387.38302		70.72800		324.00000 
 43692.65567		 311.00099			43381.65468		136.53400		875.00000 
 43692.65567		 305.27265			43387.38302		70.72800		324.00000 
 43692.65567		 311.00099			43381.65468		136.53400		875.00000 
 43692.65567		 305.27265			43387.38302		70.72800		324.00000 
 43692.65567		 311.00099			43381.65468		136.53400		875.00000 
 43692.65567		 305.27265			43387.38302		70.72800		324.00000 
 43692.65567		 311.00099			43381.65468		136.53400		875.00000 
 43692.65567		 305.27265			43387.38302		70.72800		324.00000 
 43692.65567		 311.00099			43381.65468		136.53400		875.00000 
 43692.65567		 305.27265			43387.38302		70.72800		324.00000 
 43692.65567		 311.00099			43381.65468		136.53400		875.00000 
 43692.65567		 305.27265			43387.38302		70.72800		324.00000 
 43692.65567		 311.00099			43381.65468		136.53400		875.00000 
 43692.65567		 305.27265			43387.38302		70.72800		324.00000 
 43692.65567		 311.00099			43381.65468		136.53400		875.00000 
 43692.65567		 305.27265			43387.38302		70.72800		324.00000 
 43692.65567		 311.00099			43381.65468		136.53400		875.00000 
 43692.65567		 305.27265			43387.38302		70.72800		324.00000 
 43692.65567		 311.00099			43381.65468		136.53400		875.00000 
 43692.65567		 305.27265			43387.38302		70.72800		324.00000 
 43692.65567		 311.00099			43381.65468		136.53400		875.00000 
 43692.65567		 305.27265			43387.38302		70.72800		324.00000 
 43692.65567		 311.00099			43381.65468		136.53400		875.00000 
 43692.65567		 305.27265			43387.38302		70.72800		324.00000 
 43692.65567		 311.00099			43381.65468		136.53400		875.00000 
 43692.65567		 305.27265			43387.38302		70.72800		324.00000 
 43692.65567		 311.00099			43381.65468		136.53400		875.00000 
 43692.65567		 305.27265			43387.38302		70.72800		324.00000 
 43692.65567		 311.00099			43381.65468		136.53400		875.00000 
 43692.65567		 305.27265			43387.38302		70.72800		324.00000 
 43692.65567		 314.81988			43377.83579		136.53400		875.00000 
 43692.65567		 305.27265			43387.38302		70.72800		324.00000 
 43692.65567		 314.81988			43377.83579		136.53400		875.00000 
 43692.65567		 305.27265			43387.38302		70.72800		324.00000 
 43692.65567		 314.81988			43377.83579		136.53400		875.00000 
 43692.65567		 305.27265			43387.38302		70.72800		324.00000 
 43692.65567		 318.63877			43374.01690		136.53400		875.00000 
 43692.65567		 305.27265			43387.38302		70.72800		324.00000 
 43692.65567		 322.45767			43370.19801		136.53400		875.00000 
 43692.65567		 305.27265			43387.38302		70.72800		324.00000 
 43692.65567		 326.27656			43366.37912		136.53400		875.00000 
 43692.65567		 305.27265			43387.38302		70.72800		324.00000 
 43692.65567		 326.27656			43366.37912		133.48400		875.00000 
 43692.65567		 305.27265			43387.38302		70.72800		324.00000 
 43692.65567		 537.27032			43155.38535		133.48400		875.00000 
 43692.65567		 305.27265			43387.38302		70.72800		324.00000 
 43692.65567		 807.45691			42885.19876		133.48400		875.00000 
 43692.65567		 305.27265			43387.38302		70.72800		324.00000 
 43692.65567		 942.55020			42750.10547		133.48400		875.00000 
 43692.65567		 305.27265			43387.38302		70.72800		324.00000 
 43692.65567		 942.55020			42750.10547		133.48400		875.00000 
 43692.65567		 305.27265			43387.38302		70.72800		324.00000 
 43692.65567		 942.55020			42750.10547		133.48400		875.00000 
 43692.65567		 305.27265			43387.38302		70.72800		324.00000 
 43692.65567		 942.55020			42750.10547		133.48400		875.00000 
 43692.65567		 305.27265			43387.38302		70.72800		324.00000 
 43692.65567		 942.55020			42750.10547		133.48400		875.00000 
 43692.65567		 305.27265			43387.38302		70.72800		324.00000 
 43692.65567		 942.55020			42750.10547		133.48400		875.00000 
 43692.65567		 305.27265			43387.38302		70.72800		324.00000 
 43692.65567		 942.55020			42750.10547		133.48400		875.00000 
 43692.65567		 305.27265			43387.38302		70.72800		324.00000 
 43692.65567		 942.55020			42750.10547		133.48400		875.00000 
 43692.65567		 305.27265			43387.38302		70.72800		324.00000 
 43692.65567		 942.55020			42750.10547		133.48400		875.00000 
 43692.65567		 305.27265			43387.38302		70.72800		324.00000 
 43692.65567		 942.55020			42750.10547		133.48400		875.00000 
 43692.65567		 305.27265			43387.38302		70.72800		324.00000 
 43692.65567		 942.55020			42750.10547		133.48400		875.00000 
 43692.65567		 305.27265			43387.38302		70.72800		324.00000 
 43692.65567		 942.55020			42750.10547		133.48400		875.00000 
 43692.65567		 305.27265			43387.38302		70.72800		324.00000 
 43692.65567		 942.55020			42750.10547		133.48400		875.00000 
 43692.65567		 305.27265			43387.38302		70.72800		324.00000 
 43692.65567		 942.55020			42750.10547		133.48400		875.00000 
 43692.65567		 305.27265			43387.38302		70.72800		324.00000 
 43692.65567		 942.55020			42750.10547		133.48400		875.00000 
 43692.65567		 305.27265			43387.38302		70.72800		324.00000 
 43692.65567		 942.55020			42750.10547		133.48400		875.00000 
 43692.65567		 305.27265			43387.38302		70.72800		324.00000 
 43692.65567		 942.55020			42750.10547		133.48400		875.00000 
 43692.65567		 305.27265			43387.38302		70.72800		324.00000 
 43692.65567		 942.55020			42750.10547		133.48400		875.00000 
 43692.65567		 305.27265			43387.38302		70.72800		324.00000 
 43692.65567		 942.55020			42750.10547		133.48400		875.00000 
 43692.65567		 305.27265			43387.38302		70.72800		324.00000 
 43692.65567		 942.55020			42750.10547		133.48400		875.00000 
 43692.65567		 305.27265			43387.38302		70.72800		324.00000 
 43692.65567		 942.55020			42750.10547		133.48400		875.00000 
 43692.65567		 305.27265			43387.38302		70.72800		324.00000 
 43692.65567		 942.55020			42750.10547		133.48400		875.00000 
 43692.65567		 305.27265			43387.38302		70.72800		324.00000 
 43692.65567		 942.55020			42750.10547		133.48400		875.00000 
 43692.65567		 305.27265			43387.38302		70.72800		324.00000 
 43692.65567		 942.55020			42750.10547		133.48400		875.00000 
 43692.65567		 305.27265			43387.38302		70.72800		324.00000 
 43692.65567		 942.55020			42750.10547		133.48400		875.00000 
 43692.65567		 305.27265			43387.38302		70.72800		324.00000 
 43692.65567		 942.55020			42750.10547		133.48400		875.00000 
 43692.65567		 305.27265			43387.38302		70.72800		324.00000 
 43692.65567		 942.55020			42750.10547		133.48400		875.00000 
 43692.65567		 305.27265			43387.38302		70.72800		324.00000 
 43692.65567		 942.55020			42750.10547		133.48400		875.00000 
 43692.65567		 305.27265			43387.38302		70.72800		324.00000 
 43692.65567		 942.55020			42750.10547		133.48400		875.00000 
 43692.65567		 305.27265			43387.38302		70.72800		324.00000 
 43692.65567		 942.55020			42750.10547		133.48400		875.00000 
 43692.65567		 305.27265			43387.38302		70.72800		324.00000 
 43692.65567		 942.55020			42750.10547		133.48400		875.00000 
 43692.65567		 305.27265			43387.38302		70.72800		324.00000 
 43692.65567		 942.55020			42750.10547		133.48400		875.00000 
 43692.65567		 305.27265			43387.38302		70.72800		324.00000 
 43692.65567		 942.55020			42750.10547		133.48400		875.00000 
 43692.65567		 305.27265			43387.38302		70.72800		324.00000 
 43692.65567		 942.55020			42750.10547		133.48400		875.00000 
 43692.65567		 305.27265			43387.38302		70.72800		324.00000 
 43692.65567		 942.55020			42750.10547		133.48400		875.00000 
 43692.65567		 305.27265			43387.38302		70.72800		324.00000 
 43692.65567		 942.55020			42750.10547		133.48400		875.00000 
 43692.65567		 305.27265			43387.38302		70.72800		324.00000 
 43692.65567		 942.55020			42750.10547		133.48400		875.00000 
 43692.65567		 305.27265			43387.38302		70.72800		324.00000 
 43692.65567		 942.55020			42750.10547		133.48400		875.00000 
 43692.65567		 305.27265			43387.38302		70.72800		324.00000 
 43692.65567		 942.55020			42750.10547		133.48400		875.00000 
 43692.65567		 305.27265			43387.38302		70.72800		324.00000 
 43692.65567		 942.55020			42750.10547		133.48400		875.00000 
 43692.65567		 305.27265			43387.38302		70.72800		324.00000 
 43692.65567		 942.55020			42750.10547		133.48400		875.00000 
 43692.65567		 305.27265			43387.38302		70.72800		324.00000 
 43692.65567		 942.55020			42750.10547		133.48400		875.00000 
 43692.65567		 305.27265			43387.38302		70.72800		324.00000 
 43692.65567		 942.55020			42750.10547		133.48400		875.00000 
 43692.65567		 305.27265			43387.38302		70.72800		324.00000 
 43692.65567		 942.55020			42750.10547		133.48400		875.00000 
 43692.65567		 305.27265			43387.38302		70.72800		324.00000 
 43692.65567		 942.55020			42750.10547		133.48400		875.00000 
 43692.65567		 305.27265			43387.38302		70.72800		324.00000 
 43692.65567		 942.55020			42750.10547		133.48400		875.00000 
 43692.65567		 305.27265			43387.38302		70.72800		324.00000 
 43692.65567		 942.55020			42750.10547		133.48400		875.00000 
 43692.65567		 305.27265			43387.38302		70.72800		324.00000 
 43692.65567		 942.55020			42750.10547		133.48400		875.00000 
 43692.65567		 305.27265			43387.38302		70.72800		324.00000 
 43692.65567		 942.55020			42750.10547		133.48400		875.00000 
 43692.65567		 305.27265			43387.38302		70.72800		324.00000 
 43692.65567		 942.55020			42750.10547		133.48400		875.00000 
 43692.65567		 305.27265			43387.38302		70.72800		324.00000 
 43692.65567		 942.55020			42750.10547		133.48400		875.00000 
 43692.65567		 305.27265			43387.38302		70.72800		324.00000 
 43692.65567		 942.55020			42750.10547		133.48400		875.00000 
 43692.65567		 305.27265			43387.38302		70.72800		324.00000 
 43692.65567		 942.55020			42750.10547		133.48400		875.00000 
 43692.65567		 305.27265			43387.38302		70.72800		324.00000 
 43692.65567		 942.55020			42750.10547		133.48400		875.00000 
 43692.65567		 305.27265			43387.38302		70.72800		324.00000 
 43692.65567		 942.55020			42750.10547		133.48400		875.00000 
 43692.65567		 305.27265			43387.38302		70.72800		324.00000 
 43692.65567		 942.55020			42750.10547		133.48400		875.00000 
 43692.65567		 305.27265			43387.38302		70.72800		324.00000 
 43692.65567		 942.55020			42750.10547		133.48400		875.00000 
 43692.65567		 305.27265			43387.38302		70.72800		324.00000 
 43692.65567		 942.55020			42750.10547		133.48400		875.00000 
 43692.65567		 305.27265			43387.38302		70.72800		324.00000 
 43692.65567		 942.55020			42750.10547		133.48400		875.00000 
 43692.65567		 305.27265			43387.38302		70.72800		324.00000 
 43692.65567		 942.55020			42750.10547		133.48400		875.00000 
 43692.65567		 305.27265			43387.38302		70.72800		324.00000 
 43692.65567		 942.55020			42750.10547		190.34600		875.00000 
 43692.65567		 305.27265			43387.38302		70.72800		324.00000 
 43692.65567		 942.55020			42750.10547		190.34600		875.00000 
 43692.65567		 305.27265			43387.38302		70.72800		324.00000 
 43692.65567		 942.55020			42750.10547		190.34600		875.00000 
 43692.65567		 305.27265			43387.38302		70.72800		324.00000 
 43692.65567		 942.55020			42750.10547		190.34600		875.00000 
 43692.65567		 305.27265			43387.38302		70.72800		324.00000 
 43692.65567		 942.55020			42750.10547		190.34600		875.00000 
 43692.65567		 305.27265			43387.38302		70.72800		324.00000 
 43692.65567		 942.55020			42750.10547		190.34600		875.00000 
 43692.65567		 305.27265			43387.38302		70.72800		324.00000 
 43692.65567		 942.55020			42750.10547		190.34600		875.00000 
 43692.65567		 305.27265			43387.38302		70.72800		324.00000 
 43692.65567		 942.55020			42750.10547		190.34600		875.00000 
 43692.65567		 305.27265			43387.38302		70.72800		324.00000 
 43692.65567		 942.55020			42750.10547		190.34600		875.00000 
 43692.65567		 305.27265			43387.38302		70.72800		324.00000 
 43692.65567		 942.55020			42750.10547		190.34600		875.00000 
 43692.65567		 305.27265			43387.38302		70.72800		324.00000 
 43692.65567		 942.55020			42750.10547		190.34600		875.00000 
 43692.65567		 305.27265			43387.38302		70.72800		324.00000 
 43692.65567		 942.55020			42750.10547		190.34600		875.00000 
 43692.65567		 305.27265			43387.38302		70.72800		324.00000 
 43692.65567		 942.55020			42750.10547		190.34600		875.00000 
 43692.65567		 305.27265			43387.38302		70.72800		324.00000 
 43692.65567		 942.55020			42750.10547		190.34600		875.00000 
 43692.65567		 305.27265			43387.38302		70.72800		324.00000 
 43692.65567		 942.55020			42750.10547		190.34600		875.00000 
 43692.65567		 305.27265			43387.38302		70.72800		324.00000 
 43692.65567		 942.55020			42750.10547		190.34600		875.00000 
 43692.65567		 305.27265			43387.38302		70.72800		324.00000 
 43692.65567		 942.55020			42750.10547		190.34600		875.00000 
 43692.65567		 305.27265			43387.38302		70.72800		324.00000 
 43692.65567		 942.55020			42750.10547		190.34600		875.00000 
 43692.65567		 305.27265			43387.38302		70.72800		324.00000 
 43692.65567		 942.55020			42750.10547		190.34600		875.00000 
 43692.65567		 305.27265			43387.38302		70.72800		324.00000 
 43692.65567		 942.55020			42750.10547		190.34600		875.00000 
 43692.65567		 305.27265			43387.38302		70.72800		324.00000 
 43692.65567		 942.55020			42750.10547		190.34600		875.00000 
 43692.65567		 305.27265			43387.38302		70.72800		324.00000 
 43692.65567		 942.55020			42750.10547		190.34600		875.00000 
 43692.65567		 305.27265			43387.38302		70.72800		324.00000 
 43692.65567		 942.55020			42750.10547		190.34600		875.00000 
 43692.65567		 305.27265			43387.38302		70.72800		324.00000 
 43692.65567		 942.55020			42750.10547		190.34600		875.00000 
 43692.65567		 305.27265			43387.38302		70.72800		324.00000 
 43692.65567		 942.55020			42750.10547		190.34600		875.00000 
 43692.65567		 305.27265			43387.38302		70.72800		324.00000 
 43692.65567		 942.55020			42750.10547		190.34600		875.00000 
 43692.65567		 305.27265			43387.38302		70.72800		324.00000 
 43692.65567		 942.55020			42750.10547		190.34600		875.00000 
 43692.65567		 305.27265			43387.38302		70.72800		324.00000 
 43692.65567		 942.55020			42750.10547		190.34600		875.00000 
 43692.65567		 305.27265			43387.38302		70.72800		324.00000 
 43692.65567		 942.55020			42750.10547		190.34600		875.00000 
 43692.65567		 305.27265			43387.38302		70.72800		324.00000 
 43692.65567		 942.55020			42750.10547		190.34600		875.00000 
 43692.65567		 305.27265			43387.38302		70.72800		324.00000 
 43692.65567		 942.55020			42750.10547		190.34600		875.00000 
 43692.65567		 305.27265			43387.38302		70.72800		324.00000 
 43692.65567		 942.55020			42750.10547		190.34600		875.00000 
 43692.65567		 305.27265			43387.38302		70.72800		324.00000 
 43692.65567		 942.55020			42750.10547		190.34600		875.00000 
 43692.65567		 305.27265			43387.38302		70.72800		324.00000 
 43692.65567		 942.55020			42750.10547		190.34600		875.00000 
 43692.65567		 305.27265			43387.38302		70.72800		324.00000 
 43692.65567		 942.55020			42750.10547		190.34600		875.00000 
 43692.65567		 305.27265			43387.38302		70.72800		324.00000 
 43692.65567		 942.55020			42750.10547		190.34600		875.00000 
 43692.65567		 305.27265			43387.38302		70.72800		324.00000 
 43692.65567		 942.55020			42750.10547		190.34600		875.00000 
 43692.65567		 305.27265			43387.38302		70.72800		324.00000 
 43692.65567		 942.55020			42750.10547		190.34600		875.00000 
 43692.65567		 305.27265			43387.38302		70.72800		324.00000 
 43692.65567		 942.55020			42750.10547		190.34600		875.00000 
 43692.65567		 305.27265			43387.38302		70.72800		324.00000 
 43692.65567		 942.55020			42750.10547		190.34600		875.00000 
 43692.65567		 305.27265			43387.38302		70.72800		324.00000 
 43692.65567		 942.55020			42750.10547		190.34600		875.00000 
 43692.65567		 305.27265			43387.38302		70.72800		324.00000 
 43692.65567		 942.55020			42750.10547		190.34600		875.00000 
 43692.65567		 305.27265			43387.38302		70.72800		324.00000 
 43692.65567		 942.55020			42750.10547		190.34600		875.00000 
 43692.65567		 305.27265			43387.38302		70.72800		324.00000 
 43692.65567		 942.55020			42750.10547		190.34600		875.00000 
 43692.65567		 305.27265			43387.38302		70.72800		324.00000 
 43692.65567		 942.55020			42750.10547		190.34600		875.00000 
 43692.65567		 305.27265			43387.38302		70.72800		324.00000 
 43692.65567		 942.55020			42750.10547		190.34600		875.00000 
 43692.65567		 305.27265			43387.38302		70.72800		324.00000 
 43692.65567		 942.55020			42750.10547		190.34600		875.00000 
 43692.65567		 305.27265			43387.38302		70.72800		324.00000 
 43692.65567		 942.55020			42750.10547		190.34600		875.00000 
 43692.65567		 305.27265			43387.38302		70.72800		324.00000 
 43692.65567		 942.55020			42750.10547		190.34600		875.00000 
 43692.65567		 305.27265			43387.38302		70.72800		324.00000 
 43692.65567		 942.55020			42750.10547		190.34600		875.00000 
 43692.65567		 305.27265			43387.38302		70.72800		324.00000 
 43692.65567		 942.55020			42750.10547		190.34600		875.00000 
 43692.65567		 305.27265			43387.38302		70.72800		324.00000 
 43692.65567		 942.55020			42750.10547		190.34600		875.00000 
 43692.65567		 305.27265			43387.38302		70.72800		324.00000 
 43692.65567		 942.55020			42750.10547		190.34600		875.00000 
 43692.65567		 305.27265			43387.38302		70.72800		324.00000 
 43692.65567		 942.55020			42750.10547		190.34600		875.00000 
 43692.65567		 305.27265			43387.38302		70.72800		324.00000 
 43692.65567		 942.55020			42750.10547		190.34600		875.00000 
 43692.65567		 305.27265			43387.38302		70.72800		324.00000 
 43692.65567		 942.55020			42750.10547		190.34600		875.00000 
 43692.65567		 305.27265			43387.38302		70.72800		324.00000 
 43692.65567		 942.55020			42750.10547		190.34600		875.00000 
 43692.65567		 305.27265			43387.38302		70.72800		324.00000 
 43692.65567		 942.55020			42750.10547		190.34600		875.00000 
 43692.65567		 305.27265			43387.38302		70.72800		324.00000 
 43692.65567		 942.55020			42750.10547		190.34600		875.00000 
 43692.65567		 305.27265			43387.38302		70.72800		324.00000 
 43692.65567		 942.55020			42750.10547		190.34600		875.00000 
 43692.65567		 305.27265			43387.38302		70.72800		324.00000 
 43692.65567		 942.55020			42750.10547		190.34600		875.00000 
 43692.65567		 305.27265			43387.38302		70.72800		324.00000 
 43692.65567		 942.55020			42750.10547		190.34600		875.00000 
 43692.65567		 305.27265			43387.38302		70.72800		324.00000 
 43692.65567		 942.55020			42750.10547		190.34600		875.00000 
 43692.65567		 305.27265			43387.38302		70.72800		324.00000 
 43692.65567		 942.55020			42750.10547		190.34600		875.00000 
 43692.65567		 305.27265			43387.38302		70.72800		324.00000 
 43692.65567		 942.55020			42750.10547		216.24200		875.00000 
 43692.65567		 305.27265			43387.38302		70.72800		324.00000 
 43692.65567		 942.55020			42750.10547		216.24200		875.00000 
 43692.65567		 305.27265			43387.38302		70.72800		324.00000 
 43692.65567		 942.55020			42750.10547		216.24200		875.00000 
 43692.65567		 305.27265			43387.38302		70.72800		324.00000 
 43692.65567		 942.55020			42750.10547		216.24200		875.00000 
 43692.65567		 305.27265			43387.38302		70.72800		324.00000 
 43692.65567		 942.55020			42750.10547		216.24200		875.00000 
 43692.65567		 305.27265			43387.38302		70.72800		324.00000 
 43692.65567		 942.55020			42750.10547		216.24200		875.00000 
 43692.65567		 305.27265			43387.38302		70.72800		324.00000 
 43692.65567		 942.55020			42750.10547		216.24200		875.00000 
 43692.65567		 305.27265			43387.38302		70.72800		324.00000 
 43692.65567		 942.55020			42750.10547		216.24200		875.00000 
 43692.65567		 305.27265			43387.38302		70.72800		324.00000 
 43692.65567		 942.55020			42750.10547		216.24200		875.00000 
 43692.65567		 305.27265			43387.38302		70.72800		324.00000 
 43692.65567		 942.55020			42750.10547		216.24200		875.00000 
 43692.65567		 305.27265			43387.38302		70.72800		324.00000 
 43692.65567		 942.55020			42750.10547		216.24200		875.00000 
 43692.65567		 305.27265			43387.38302		70.72800		324.00000 
 43692.65567		 942.55020			42750.10547		216.24200		875.00000 
 43692.65567		 305.27265			43387.38302		70.72800		324.00000 
 43692.65567		 942.55020			42750.10547		216.24200		875.00000 
 43692.65567		 305.27265			43387.38302		70.72800		324.00000 
 43692.65567		 942.55020			42750.10547		216.24200		875.00000 
 43692.65567		 305.27265			43387.38302		70.72800		324.00000 
 43692.65567		 942.55020			42750.10547		216.24200		875.00000 
 43692.65567		 305.27265			43387.38302		70.72800		324.00000 
 43692.65567		 942.55020			42750.10547		216.24200		875.00000 
 43692.65567		 305.27265			43387.38302		70.72800		324.00000 
 43692.65567		 942.55020			42750.10547		216.24200		875.00000 
 43692.65567		 305.27265			43387.38302		70.72800		324.00000 
 43692.65567		 942.55020			42750.10547		216.24200		875.00000 
 43692.65567		 305.27265			43387.38302		70.72800		324.00000 
 43692.65567		 942.55020			42750.10547		216.24200		875.00000 
 43692.65567		 305.27265			43387.38302		70.72800		324.00000 
 43692.65567		 942.55020			42750.10547		216.24200		875.00000 
 43692.65567		 305.27265			43387.38302		70.72800		324.00000 
 43692.65567		 942.55020			42750.10547		216.24200		875.00000 
 43692.65567		 305.27265			43387.38302		70.72800		324.00000 
 43692.65567		 942.55020			42750.10547		216.24200		875.00000 
 43692.65567		 305.27265			43387.38302		70.72800		324.00000 
 43692.65567		 942.55020			42750.10547		216.24200		875.00000 
 43692.65567		 305.27265			43387.38302		70.72800		324.00000 
 43692.65567		 942.55020			42750.10547		216.24200		875.00000 
 43692.65567		 305.27265			43387.38302		70.72800		324.00000 
 43692.65567		 942.55020			42750.10547		216.24200		875.00000 
 43692.65567		 305.27265			43387.38302		70.72800		324.00000 
 43692.65567		 942.55020			42750.10547		216.24200		875.00000 
 43692.65567		 305.27265			43387.38302		70.72800		324.00000 
 43692.65567		 942.55020			42750.10547		216.24200		875.00000 
 43692.65567		 305.27265			43387.38302		70.72800		324.00000 
 43692.65567		 942.55020			42750.10547		216.24200		875.00000 
 43692.65567		 305.27265			43387.38302		70.72800		324.00000 
 43692.65567		 942.55020			42750.10547		216.24200		875.00000 
 43692.65567		 305.27265			43387.38302		70.72800		324.00000 
 43692.65567		 942.55020			42750.10547		216.24200		875.00000 
 43692.65567		 305.27265			43387.38302		70.72800		324.00000 
 43692.65567		 942.55020			42750.10547		216.24200		875.00000 
 43692.65567		 305.27265			43387.38302		70.72800		324.00000 
 43692.65567		 942.55020			42750.10547		216.24200		875.00000 
 43692.65567		 305.27265			43387.38302		70.72800		324.00000 
 43692.65567		 942.55020			42750.10547		216.24200		875.00000 
 43692.65567		 305.27265			43387.38302		70.72800		324.00000 
 43692.65567		 942.55020			42750.10547		216.24200		875.00000 
 43692.65567		 305.27265			43387.38302		70.72800		324.00000 
 43692.65567		 942.55020			42750.10547		216.24200		875.00000 
 43692.65567		 305.27265			43387.38302		70.72800		324.00000 
 43692.65567		 942.55020			42750.10547		216.24200		875.00000 
 43692.65567		 305.27265			43387.38302		70.72800		324.00000 
 43692.65567		 942.55020			42750.10547		216.24200		875.00000 
 43692.65567		 305.27265			43387.38302		70.72800		324.00000 
 43692.65567		 942.55020			42750.10547		216.24200		875.00000 
 43692.65567		 305.27265			43387.38302		70.72800		324.00000 
 43692.65567		 942.55020			42750.10547		216.24200		875.00000 
 43692.65567		 305.27265			43387.38302		70.72800		324.00000 
 43692.65567		 942.55020			42750.10547		216.24200		875.00000 
 43692.65567		 305.27265			43387.38302		70.72800		324.00000 
 43692.65567		 942.55020			42750.10547		216.24200		875.00000 
 43692.65567		 305.27265			43387.38302		70.72800		324.00000 
 43692.65567		 942.55020			42750.10547		216.24200		875.00000 
 43692.65567		 305.27265			43387.38302		70.72800		324.00000 
 43692.65567		 942.55020			42750.10547		216.24200		875.00000 
 43692.65567		 305.27265			43387.38302		70.72800		324.00000 
 43692.65567		 942.55020			42750.10547		216.24200		875.00000 
 43692.65567		 305.27265			43387.38302		70.72800		324.00000 
 43692.65567		 942.55020			42750.10547		216.24200		875.00000 
 43692.65567		 305.27265			43387.38302		70.72800		324.00000 
 43692.65567		 942.55020			42750.10547		216.24200		875.00000 
 43692.65567		 305.27265			43387.38302		70.72800		324.00000 
 43692.65567		 942.55020			42750.10547		216.24200		875.00000 
 43692.65567		 305.27265			43387.38302		70.72800		324.00000 
 43692.65567		 942.55020			42750.10547		216.24200		875.00000 
 43692.65567		 305.27265			43387.38302		70.72800		324.00000 
 43692.65567		 942.55020			42750.10547		216.24200		875.00000 
 43692.65567		 305.27265			43387.38302		70.72800		324.00000 
 43692.65567		 942.55020			42750.10547		216.24200		875.00000 
 43692.65567		 305.27265			43387.38302		70.72800		324.00000 
 43692.65567		 942.55020			42750.10547		216.24200		875.00000 
 43692.65567		 305.27265			43387.38302		70.72800		324.00000 
 43692.65567		 942.55020			42750.10547		216.24200		875.00000 
 43692.65567		 305.27265			43387.38302		70.72800		324.00000 
 43692.65567		 942.55020			42750.10547		216.24200		875.00000 
 43692.65567		 305.27265			43387.38302		70.72800		324.00000 
 43692.65567		 942.55020			42750.10547		216.24200		875.00000 
 43692.65567		 305.27265			43387.38302		70.72800		324.00000 
 43692.65567		 942.55020			42750.10547		216.24200		875.00000 
 43692.65567		 305.27265			43387.38302		70.72800		324.00000 
 43692.65567		 942.55020			42750.10547		216.24200		875.00000 
 43692.65567		 305.27265			43387.38302		70.72800		324.00000 
 43692.65567		 942.55020			42750.10547		216.24200		875.00000 
 43692.65567		 305.27265			43387.38302		70.72800		324.00000 
 43692.65567		 942.55020			42750.10547		216.24200		875.00000 
 43692.65567		 305.27265			43387.38302		70.72800		324.00000 
 43692.65567		 942.55020			42750.10547		216.24200		875.00000 
 43692.65567		 305.27265			43387.38302		70.72800		324.00000 
 43692.65567		 942.55020			42750.10547		216.24200		875.00000 
 43692.65567		 305.27265			43387.38302		70.72800		324.00000 
 43692.65567		 942.55020			42750.10547		216.24200		875.00000 
 43692.65567		 305.27265			43387.38302		70.72800		324.00000 
 43692.65567		 942.55020			42750.10547		216.24200		875.00000 
 43692.65567		 305.27265			43387.38302		70.72800		324.00000 
 43692.65567		 942.55020			42750.10547		216.24200		875.00000 
 43692.65567		 305.27265			43387.38302		70.72800		324.00000 
 43692.65567		 942.55020			42750.10547		216.24200		875.00000 
 43692.65567		 305.27265			43387.38302		70.72800		324.00000 
 43692.65567		 942.55020			42750.10547		216.24200		875.00000 
 43692.65567		 305.27265			43387.38302		70.72800		324.00000 
 43692.65567		 942.55020			42750.10547		224.76800		875.00000 
 43692.65567		 305.27265			43387.38302		70.72800		324.00000 
 43692.65567		 942.55020			42750.10547		224.76800		875.00000 
 43692.65567		 305.27265			43387.38302		70.72800		324.00000 
 43692.65567		 942.55020			42750.10547		224.76800		875.00000 
 43692.65567		 305.27265			43387.38302		70.72800		324.00000 
 43692.65567		 942.55020			42750.10547		224.76800		875.00000 
 43692.65567		 305.27265			43387.38302		70.72800		324.00000 
 43692.65567		 942.55020			42750.10547		224.76800		875.00000 
 43692.65567		 305.27265			43387.38302		70.72800		324.00000 
 43692.65567		 942.55020			42750.10547		224.76800		875.00000 
 43692.65567		 305.27265			43387.38302		70.72800		324.00000 
 43692.65567		 942.55020			42750.10547		224.76800		875.00000 
 43692.65567		 305.27265			43387.38302		70.72800		324.00000 
 43692.65567		 942.55020			42750.10547		224.76800		875.00000 
 43692.65567		 305.27265			43387.38302		70.72800		324.00000 
 43692.65567		 942.55020			42750.10547		224.76800		875.00000 
 43692.65567		 305.27265			43387.38302		70.72800		324.00000 
 43692.65567		 942.55020			42750.10547		224.76800		875.00000 
 43692.65567		 305.27265			43387.38302		70.72800		324.00000 
 43692.65567		 942.55020			42750.10547		224.76800		875.00000 
 43692.65567		 305.27265			43387.38302		70.72800		324.00000 
 43692.65567		 942.55020			42750.10547		224.76800		875.00000 
 43692.65567		 305.27265			43387.38302		70.72800		324.00000 
 43692.65567		 942.55020			42750.10547		224.76800		875.00000 
 43692.65567		 305.27265			43387.38302		70.72800		324.00000 
 43692.65567		 942.55020			42750.10547		224.76800		875.00000 
 43692.65567		 305.27265			43387.38302		70.72800		324.00000 
 43692.65567		 942.55020			42750.10547		224.76800		875.00000 
 43692.65567		 305.27265			43387.38302		70.72800		324.00000 
 43692.65567		 942.55020			42750.10547		224.76800		875.00000 
 43692.65567		 305.27265			43387.38302		70.72800		324.00000 
 43692.65567		 942.55020			42750.10547		224.76800		875.00000 
 43692.65567		 305.27265			43387.38302		70.72800		324.00000 
 43692.65567		 942.55020			42750.10547		224.76800		875.00000 
 43692.65567		 305.27265			43387.38302		70.72800		324.00000 
 43692.65567		 942.55020			42750.10547		224.76800		875.00000 
 43692.65567		 305.27265			43387.38302		70.72800		324.00000 
 43692.65567		 942.55020			42750.10547		224.76800		875.00000 
 43692.65567		 305.27265			43387.38302		70.72800		324.00000 
 43692.65567		 942.55020			42750.10547		224.76800		875.00000 
 43692.65567		 305.27265			43387.38302		70.72800		324.00000 
 43692.65567		 942.55020			42750.10547		224.76800		875.00000 
 43692.65567		 305.27265			43387.38302		70.72800		324.00000 
 43692.65567		 942.55020			42750.10547		224.76800		875.00000 
 43692.65567		 305.27265			43387.38302		70.72800		324.00000 
 43692.65567		 942.55020			42750.10547		224.76800		875.00000 
 43692.65567		 305.27265			43387.38302		70.72800		324.00000 
 43692.65567		 942.55020			42750.10547		224.76800		875.00000 
 43692.65567		 305.27265			43387.38302		70.72800		324.00000 
 43692.65567		 942.55020			42750.10547		224.76800		875.00000 
 43692.65567		 305.27265			43387.38302		70.72800		324.00000 
 43692.65567		 942.55020			42750.10547		224.76800		875.00000 
 43692.65567		 305.27265			43387.38302		70.72800		324.00000 
 43692.65567		 942.55020			42750.10547		224.76800		875.00000 
 43692.65567		 305.27265			43387.38302		70.72800		324.00000 
 43692.65567		 942.55020			42750.10547		224.76800		875.00000 
 43692.65567		 305.27265			43387.38302		70.72800		324.00000 
 43692.65567		 942.55020			42750.10547		224.76800		875.00000 
 43692.65567		 305.27265			43387.38302		70.72800		324.00000 
 43692.65567		 942.55020			42750.10547		224.76800		875.00000 
 43692.65567		 305.27265			43387.38302		70.72800		324.00000 
 43692.65567		 942.55020			42750.10547		224.76800		875.00000 
 43692.65567		 305.27265			43387.38302		70.72800		324.00000 
 43692.65567		 942.55020			42750.10547		224.76800		875.00000 
 43692.65567		 305.27265			43387.38302		70.72800		324.00000 
 43692.65567		 942.55020			42750.10547		224.76800		875.00000 
 43692.65567		 305.27265			43387.38302		70.72800		324.00000 
 43692.65567		 942.55020			42750.10547		224.76800		875.00000 
 43692.65567		 305.27265			43387.38302		70.72800		324.00000 
 43692.65567		 942.55020			42750.10547		224.76800		875.00000 
 43692.65567		 305.27265			43387.38302		70.72800		324.00000 
 43692.65567		 942.55020			42750.10547		224.76800		875.00000 
 43692.65567		 305.27265			43387.38302		70.72800		324.00000 
 43692.65567		 942.55020			42750.10547		224.76800		875.00000 
 43692.65567		 305.27265			43387.38302		70.72800		324.00000 
 43692.65567		 942.55020			42750.10547		224.76800		875.00000 
 43692.65567		 305.27265			43387.38302		70.72800		324.00000 
 43692.65567		 942.55020			42750.10547		224.76800		875.00000 
 43692.65567		 305.27265			43387.38302		70.72800		324.00000 
 43692.65567		 942.55020			42750.10547		224.76800		875.00000 
 43692.65567		 305.27265			43387.38302		70.72800		324.00000 
 43692.65567		 942.55020			42750.10547		224.76800		875.00000 
 43692.65567		 305.27265			43387.38302		70.72800		324.00000 
 43692.65567		 942.55020			42750.10547		224.76800		875.00000 
 43692.65567		 305.27265			43387.38302		70.72800		324.00000 
 43692.65567		 942.55020			42750.10547		224.76800		875.00000 
 43692.65567		 305.27265			43387.38302		70.72800		324.00000 
 43692.65567		 942.55020			42750.10547		224.76800		875.00000 
 43692.65567		 305.27265			43387.38302		70.72800		324.00000 
 43692.65567		 942.55020			42750.10547		224.76800		875.00000 
 43692.65567		 305.27265			43387.38302		70.72800		324.00000 
 43692.65567		 942.55020			42750.10547		224.76800		875.00000 
 43692.65567		 305.27265			43387.38302		70.72800		324.00000 
 43692.65567		 942.55020			42750.10547		224.76800		875.00000 
 43692.65567		 305.27265			43387.38302		70.72800		324.00000 
 43692.65567		 942.55020			42750.10547		224.76800		875.00000 
 43692.65567		 305.27265			43387.38302		70.72800		324.00000 
 43692.65567		 942.55020			42750.10547		224.76800		875.00000 
 43692.65567		 305.27265			43387.38302		70.72800		324.00000 
 43692.65567		 942.55020			42750.10547		224.76800		875.00000 
 43692.65567		 305.27265			43387.38302		70.72800		324.00000 
 43692.65567		 942.55020			42750.10547		224.76800		875.00000 
 43692.65567		 305.27265			43387.38302		70.72800		324.00000 
 43692.65567		 942.55020			42750.10547		224.76800		875.00000 
 43692.65567		 305.27265			43387.38302		70.72800		324.00000 
 43692.65567		 942.55020			42750.10547		224.76800		875.00000 
 43692.65567		 305.27265			43387.38302		70.72800		324.00000 
 43692.65567		 942.55020			42750.10547		224.76800		875.00000 
 43692.65567		 305.27265			43387.38302		70.72800		324.00000 
 43692.65567		 942.55020			42750.10547		224.76800		875.00000 
 43692.65567		 305.27265			43387.38302		70.72800		324.00000 
 43692.65567		 942.55020			42750.10547		224.76800		875.00000 
 43692.65567		 305.27265			43387.38302		70.72800		324.00000 
 43692.65567		 942.55020			42750.10547		224.76800		875.00000 
 43692.65567		 305.27265			43387.38302		70.72800		324.00000 
 43692.65567		 942.55020			42750.10547		224.76800		875.00000 
 43692.65567		 305.27265			43387.38302		70.72800		324.00000 
 43692.65567		 942.55020			42750.10547		224.76800		875.00000 
 43692.65567		 305.27265			43387.38302		70.72800		324.00000 
 43692.65567		 942.55020			42750.10547		224.76800		875.00000 
 43692.65567		 305.27265			43387.38302		70.72800		324.00000 
 43692.65567		 942.55020			42750.10547		224.76800		875.00000 
 43692.65567		 305.27265			43387.38302		70.72800		324.00000 
 43692.65567		 942.55020			42750.10547		224.76800		875.00000 
 43692.65567		 305.27265			43387.38302		70.72800		324.00000 
 43692.65567		 942.55020			42750.10547		224.76800		875.00000 
 43692.65567		 305.27265			43387.38302		70.72800		324.00000 
 43692.65567		 942.55020			42750.10547		228.33800		875.00000 
 43692.65567		 305.27265			43387.38302		70.72800		324.00000 
 43692.65567		 942.55020			42750.10547		228.33800		875.00000 
 43692.65567		 305.27265			43387.38302		70.72800		324.00000 
 43692.65567		 942.55020			42750.10547		228.33800		875.00000 
 43692.65567		 305.27265			43387.38302		70.72800		324.00000 
 43692.65567		 942.55020			42750.10547		228.33800		875.00000 
 43692.65567		 305.27265			43387.38302		70.72800		324.00000 
 43692.65567		 942.55020			42750.10547		228.33800		875.00000 
 43692.65567		 305.27265			43387.38302		70.72800		324.00000 
 43692.65567		 942.55020			42750.10547		228.33800		875.00000 
 43692.65567		 305.27265			43387.38302		70.72800		324.00000 
 43692.65567		 942.55020			42750.10547		228.33800		875.00000 
 43692.65567		 305.27265			43387.38302		70.72800		324.00000 
 43692.65567		 942.55020			42750.10547		228.33800		875.00000 
 43692.65567		 305.27265			43387.38302		70.72800		324.00000 
 43692.65567		 942.55020			42750.10547		228.33800		875.00000 
 43692.65567		 305.27265			43387.38302		70.72800		324.00000 
 43692.65567		 942.55020			42750.10547		228.33800		875.00000 
 43692.65567		 305.27265			43387.38302		70.72800		324.00000 
 43692.65567		 942.55020			42750.10547		228.33800		875.00000 
 43692.65567		 305.27265			43387.38302		70.72800		324.00000 
 43692.65567		 942.55020			42750.10547		228.33800		875.00000 
 43692.65567		 305.27265			43387.38302		70.72800		324.00000 
 43692.65567		 942.55020			42750.10547		228.33800		875.00000 
 43692.65567		 305.27265			43387.38302		70.72800		324.00000 
 43692.65567		 942.55020			42750.10547		228.33800		875.00000 
 43692.65567		 305.27265			43387.38302		70.72800		324.00000 
 43692.65567		 942.55020			42750.10547		228.33800		875.00000 
 43692.65567		 305.27265			43387.38302		70.72800		324.00000 
 43692.65567		 942.55020			42750.10547		228.33800		875.00000 
 43692.65567		 305.27265			43387.38302		70.72800		324.00000 
 43692.65567		 942.55020			42750.10547		228.33800		875.00000 
 43692.65567		 305.27265			43387.38302		70.72800		324.00000 
 43692.65567		 942.55020			42750.10547		228.33800		875.00000 
 43692.65567		 305.27265			43387.38302		70.72800		324.00000 
 43692.65567		 942.55020			42750.10547		228.33800		875.00000 
 43692.65567		 305.27265			43387.38302		70.72800		324.00000 
 43692.65567		 942.55020			42750.10547		228.33800		875.00000 
 43692.65567		 305.27265			43387.38302		70.72800		324.00000 
 43692.65567		 942.55020			42750.10547		228.33800		875.00000 
 43692.65567		 305.27265			43387.38302		70.72800		324.00000 
 43692.65567		 942.55020			42750.10547		228.33800		875.00000 
 43692.65567		 305.27265			43387.38302		70.72800		324.00000 
 43692.65567		 942.55020			42750.10547		228.33800		875.00000 
 43692.65567		 305.27265			43387.38302		70.72800		324.00000 
 43692.65567		 942.55020			42750.10547		228.33800		875.00000 
 43692.65567		 305.27265			43387.38302		70.72800		324.00000 
 43692.65567		 942.55020			42750.10547		228.33800		875.00000 
 43692.65567		 305.27265			43387.38302		70.72800		324.00000 
 43692.65567		 942.55020			42750.10547		228.33800		875.00000 
 43692.65567		 305.27265			43387.38302		70.72800		324.00000 
 43692.65567		 942.55020			42750.10547		228.33800		875.00000 
 43692.65567		 305.27265			43387.38302		70.72800		324.00000 
 43692.65567		 942.55020			42750.10547		228.33800		875.00000 
 43692.65567		 305.27265			43387.38302		70.72800		324.00000 
 43692.65567		 942.55020			42750.10547		228.33800		875.00000 
 43692.65567		 305.27265			43387.38302		70.72800		324.00000 
 43692.65567		 942.55020			42750.10547		228.33800		875.00000 
 43692.65567		 305.27265			43387.38302		70.72800		324.00000 
 43692.65567		 942.55020			42750.10547		228.33800		875.00000 
 43692.65567		 305.27265			43387.38302		70.72800		324.00000 
 43692.65567		 942.55020			42750.10547		228.33800		875.00000 
 43692.65567		 305.27265			43387.38302		70.72800		324.00000 
 43692.65567		 942.55020			42750.10547		228.33800		875.00000 
 43692.65567		 305.27265			43387.38302		70.72800		324.00000 
 43692.65567		 942.55020			42750.10547		228.33800		875.00000 
 43692.65567		 305.27265			43387.38302		70.72800		324.00000 
 43692.65567		 942.55020			42750.10547		228.33800		875.00000 
 43692.65567		 305.27265			43387.38302		70.72800		324.00000 
 43692.65567		 942.55020			42750.10547		228.33800		875.00000 
 43692.65567		 305.27265			43387.38302		70.72800		324.00000 
 43692.65567		 942.55020			42750.10547		228.33800		875.00000 
 43692.65567		 305.27265			43387.38302		70.72800		324.00000 
 43692.65567		 942.55020			42750.10547		228.33800		875.00000 
 43692.65567		 305.27265			43387.38302		70.72800		324.00000 
 43692.65567		 942.55020			42750.10547		228.33800		875.00000 
 43692.65567		 305.27265			43387.38302		70.72800		324.00000 
 43692.65567		 942.55020			42750.10547		228.33800		875.00000 
 43692.65567		 305.27265			43387.38302		70.72800		324.00000 
 43692.65567		 942.55020			42750.10547		228.33800		875.00000 
 43692.65567		 305.27265			43387.38302		70.72800		324.00000 
 43692.65567		 942.55020			42750.10547		228.33800		875.00000 
 43692.65567		 305.27265			43387.38302		70.72800		324.00000 
 43692.65567		 942.55020			42750.10547		228.33800		875.00000 
 43692.65567		 305.27265			43387.38302		70.72800		324.00000 
 43692.65567		 942.55020			42750.10547		228.33800		875.00000 
 43692.65567		 305.27265			43387.38302		70.72800		324.00000 
 43692.65567		 942.55020			42750.10547		228.33800		875.00000 
 43692.65567		 305.27265			43387.38302		70.72800		324.00000 
 43692.65567		 942.55020			42750.10547		228.33800		875.00000 
 43692.65567		 305.27265			43387.38302		70.72800		324.00000 
 43692.65567		 942.55020			42750.10547		228.33800		875.00000 
 43692.65567		 305.27265			43387.38302		70.72800		324.00000 
 43692.65567		 942.55020			42750.10547		228.33800		875.00000 
 43692.65567		 305.27265			43387.38302		70.72800		324.00000 
 43692.65567		 942.55020			42750.10547		228.33800		875.00000 
 43692.65567		 305.27265			43387.38302		70.72800		324.00000 
 43692.65567		 942.55020			42750.10547		228.33800		875.00000 
 43692.65567		 305.27265			43387.38302		70.72800		324.00000 
 43692.65567		 942.55020			42750.10547		228.33800		875.00000 
 43692.65567		 305.27265			43387.38302		70.72800		324.00000 
 43692.65567		 942.55020			42750.10547		228.33800		875.00000 
 43692.65567		 305.27265			43387.38302		70.72800		324.00000 
 43692.65567		 942.55020			42750.10547		228.33800		875.00000 
 43692.65567		 305.27265			43387.38302		70.72800		324.00000 
 43692.65567		 942.55020			42750.10547		228.33800		875.00000 
 43692.65567		 305.27265			43387.38302		70.72800		324.00000 
 43692.65567		 942.55020			42750.10547		228.33800		875.00000 
 43692.65567		 305.27265			43387.38302		70.72800		324.00000 
 43692.65567		 942.55020			42750.10547		228.33800		875.00000 
 43692.65567		 305.27265			43387.38302		70.72800		324.00000 
 43692.65567		 942.55020			42750.10547		228.33800		875.00000 
 43692.65567		 305.27265			43387.38302		70.72800		324.00000 
 43692.65567		 942.55020			42750.10547		228.33800		875.00000 
 43692.65567		 305.27265			43387.38302		70.72800		324.00000 
 43692.65567		 942.55020			42750.10547		228.33800		875.00000 
 43692.65567		 305.27265			43387.38302		70.72800		324.00000 
 43692.65567		 942.55020			42750.10547		228.33800		875.00000 
 43692.65567		 305.27265			43387.38302		70.72800		324.00000 
 43692.65567		 942.55020			42750.10547		228.33800		875.00000 
 43692.65567		 305.27265			43387.38302		70.72800		324.00000 
 43692.65567		 942.55020			42750.10547		228.33800		875.00000 
 43692.65567		 305.27265			43387.38302		70.72800		324.00000 
 43692.65567		 942.55020			42750.10547		228.33800		875.00000 
 43692.65567		 305.27265			43387.38302		70.72800		324.00000 
 43692.65567		 942.55020			42750.10547		228.33800		875.00000 
 43692.65567		 305.27265			43387.38302		70.72800		324.00000 
 43692.65567		 942.55020			42750.10547		229.54400		875.00000 
 43692.65567		 305.27265			43387.38302		70.72800		324.00000 
 43692.65567		 942.55020			42750.10547		229.54400		875.00000 
 43692.65567		 305.27265			43387.38302		70.72800		324.00000 
 43692.65567		 942.55020			42750.10547		229.54400		875.00000 
 43692.65567		 305.27265			43387.38302		70.72800		324.00000 
 43692.65567		 942.55020			42750.10547		229.54400		875.00000 
 43692.65567		 305.27265			43387.38302		70.72800		324.00000 
 43692.65567		 942.55020			42750.10547		229.54400		875.00000 
 43692.65567		 305.27265			43387.38302		70.72800		324.00000 
 43692.65567		 942.55020			42750.10547		229.54400		875.00000 
 43692.65567		 305.27265			43387.38302		70.72800		324.00000 
 43692.65567		 942.55020			42750.10547		229.54400		875.00000 
 43692.65567		 305.27265			43387.38302		70.72800		324.00000 
 43692.65567		 942.55020			42750.10547		229.54400		875.00000 
 43692.65567		 305.27265			43387.38302		70.72800		324.00000 
 43692.65567		 942.55020			42750.10547		229.54400		875.00000 
 43692.65567		 305.27265			43387.38302		70.72800		324.00000 
 43692.65567		 942.55020			42750.10547		229.54400		875.00000 
 43692.65567		 305.27265			43387.38302		70.72800		324.00000 
 43692.65567		 942.55020			42750.10547		229.54400		875.00000 
 43692.65567		 305.27265			43387.38302		70.72800		324.00000 
 43692.65567		 942.55020			42750.10547		229.54400		875.00000 
 43692.65567		 305.27265			43387.38302		70.72800		324.00000 
 43692.65567		 942.55020			42750.10547		229.54400		875.00000 
 43692.65567		 305.27265			43387.38302		70.72800		324.00000 
 43692.65567		 942.55020			42750.10547		229.54400		875.00000 
 43692.65567		 305.27265			43387.38302		70.72800		324.00000 
 43692.65567		 942.55020			42750.10547		229.54400		875.00000 
 43692.65567		 305.27265			43387.38302		70.72800		324.00000 
 43692.65567		 942.55020			42750.10547		229.54400		875.00000 
 43692.65567		 305.27265			43387.38302		70.72800		324.00000 
 43692.65567		 942.55020			42750.10547		229.54400		875.00000 
 43692.65567		 305.27265			43387.38302		70.72800		324.00000 
 43692.65567		 942.55020			42750.10547		229.54400		875.00000 
 43692.65567		 305.27265			43387.38302		70.72800		324.00000 
 43692.65567		 942.55020			42750.10547		229.54400		875.00000 
 43692.65567		 305.27265			43387.38302		70.72800		324.00000 
 43692.65567		 942.55020			42750.10547		229.54400		875.00000 
 43692.65567		 305.27265			43387.38302		70.72800		324.00000 
 43692.65567		 942.55020			42750.10547		229.54400		875.00000 
 43692.65567		 305.27265			43387.38302		70.72800		324.00000 
 43692.65567		 942.55020			42750.10547		229.54400		875.00000 
 43692.65567		 305.27265			43387.38302		70.72800		324.00000 
 43692.65567		 942.55020			42750.10547		229.54400		875.00000 
 43692.65567		 305.27265			43387.38302		70.72800		324.00000 
 43692.65567		 942.55020			42750.10547		229.54400		875.00000 
 43692.65567		 305.27265			43387.38302		70.72800		324.00000 
 43692.65567		 942.55020			42750.10547		229.54400		875.00000 
 43692.65567		 305.27265			43387.38302		70.72800		324.00000 
 43692.65567		 942.55020			42750.10547		229.54400		875.00000 
 43692.65567		 305.27265			43387.38302		70.72800		324.00000 
 43692.65567		 942.55020			42750.10547		229.54400		875.00000 
 43692.65567		 305.27265			43387.38302		70.72800		324.00000 
 43692.65567		 942.55020			42750.10547		229.54400		875.00000 
 43692.65567		 305.27265			43387.38302		70.72800		324.00000 
 43692.65567		 942.55020			42750.10547		229.54400		875.00000 
 43692.65567		 305.27265			43387.38302		70.72800		324.00000 
 43692.65567		 942.55020			42750.10547		229.54400		875.00000 
 43692.65567		 305.27265			43387.38302		70.72800		324.00000 
 43692.65567		 942.55020			42750.10547		229.54400		875.00000 
 43692.65567		 305.27265			43387.38302		70.72800		324.00000 
 43692.65567		 942.55020			42750.10547		229.54400		875.00000 
 43692.65567		 305.27265			43387.38302		70.72800		324.00000 
 43692.65567		 942.55020			42750.10547		229.54400		875.00000 
 43692.65567		 305.27265			43387.38302		70.72800		324.00000 
 43692.65567		 942.55020			42750.10547		229.54400		875.00000 
 43692.65567		 305.27265			43387.38302		70.72800		324.00000 
 43692.65567		 942.55020			42750.10547		229.54400		875.00000 
 43692.65567		 305.27265			43387.38302		70.72800		324.00000 
 43692.65567		 942.55020			42750.10547		229.54400		875.00000 
 43692.65567		 305.27265			43387.38302		70.12000		324.00000 
 43692.65567		 942.55020			42750.10547		229.54400		875.00000 
 43692.65567		 305.27265			43387.38302		70.12000		324.00000 
 43692.65567		 942.55020			42750.10547		229.54400		875.00000 
 43692.65567		 305.27265			43387.38302		70.12000		324.00000 
 43692.65567		 942.55020			42750.10547		229.54400		875.00000 
 43692.65567		 305.27265			43387.38302		70.12000		324.00000 
 43692.65567		 942.55020			42750.10547		229.54400		875.00000 
 43692.65567		 305.27265			43387.38302		70.12000		324.00000 
 43692.65567		 942.55020			42750.10547		229.54400		875.00000 
 43692.65567		 305.27265			43387.38302		70.12000		324.00000 
 43692.65567		 942.55020			42750.10547		229.54400		875.00000 
 43692.65567		 305.27265			43387.38302		70.12000		324.00000 
 43692.65567		 942.55020			42750.10547		229.54400		875.00000 
 43692.65567		 305.27265			43387.38302		70.12000		324.00000 
 43692.65567		 942.55020			42750.10547		229.54400		875.00000 
 43692.65567		 305.27265			43387.38302		70.12000		324.00000 
 43692.65567		 942.55020			42750.10547		229.54400		875.00000 
 43692.65567		 305.27265			43387.38302		70.12000		324.00000 
 43692.65567		 942.55020			42750.10547		229.54400		875.00000 
 43692.65567		 305.27265			43387.38302		70.12000		324.00000 
 43692.65567		 942.55020			42750.10547		229.54400		875.00000 
 43692.65567		 305.27265			43387.38302		70.12000		324.00000 
 43692.65567		 942.55020			42750.10547		229.54400		875.00000 
 43692.65567		 305.27265			43387.38302		70.12000		324.00000 
 43692.65567		 942.55020			42750.10547		229.54400		875.00000 
 43692.65567		 305.27265			43387.38302		70.12000		324.00000 
 43692.65567		 942.55020			42750.10547		229.54400		875.00000 
 43692.65567		 305.27265			43387.38302		70.12000		324.00000 
 43692.65567		 942.55020			42750.10547		229.54400		875.00000 
 43692.65567		 305.27265			43387.38302		70.12000		324.00000 
 43692.65567		 942.55020			42750.10547		229.54400		875.00000 
 43692.65567		 305.27265			43387.38302		70.12000		324.00000 
 43692.65567		 942.55020			42750.10547		229.54400		875.00000 
 43692.65567		 305.27265			43387.38302		70.12000		324.00000 
 43692.65567		 942.55020			42750.10547		229.54400		875.00000 
 43692.65567		 305.27265			43387.38302		70.12000		324.00000 
 43692.65567		 942.55020			42750.10547		229.54400		875.00000 
 43692.65567		 305.27265			43387.38302		70.12000		324.00000 
 43692.65567		 942.55020			42750.10547		229.54400		875.00000 
 43692.65567		 305.27265			43387.38302		70.12000		324.00000 
 43692.65567		 942.55020			42750.10547		229.54400		875.00000 
 43692.65567		 305.27265			43387.38302		70.12000		324.00000 
 43692.65567		 942.55020			42750.10547		229.54400		875.00000 
 43692.65567		 305.27265			43387.38302		70.12000		324.00000 
 43692.65567		 942.55020			42750.10547		229.54400		875.00000 
 43692.65567		 305.27265			43387.38302		70.12000		324.00000 
 43692.65567		 942.55020			42750.10547		229.54400		875.00000 
 43692.65567		 305.27265			43387.38302		70.12000		324.00000 
 43692.65567		 942.55020			42750.10547		229.54400		875.00000 
 43692.65567		 305.27265			43387.38302		70.12000		324.00000 
 43692.65567		 942.55020			42750.10547		229.54400		875.00000 
 43692.65567		 305.27265			43387.38302		70.12000		324.00000 
 43692.65567		 942.55020			42750.10547		229.54400		875.00000 
 43692.65567		 305.27265			43387.38302		70.12000		324.00000 
 43692.65567		 942.55020			42750.10547		229.54400		875.00000 
 43692.65567		 305.27265			43387.38302		70.12000		324.00000 
 43692.65567		 942.55020			42750.10547		229.54400		875.00000 
 43692.65567		 305.27265			43387.38302		70.12000		324.00000 
 43692.65567		 942.55020			42750.10547		229.54400		875.00000 
 43692.65567		 305.27265			43387.38302		70.12000		324.00000 
 43692.65567		 942.55020			42750.10547		229.54400		875.00000 
 43692.65567		 305.27265			43387.38302		70.12000		324.00000 
 43692.65567		 942.55020			42750.10547		229.54400		875.00000 
 43692.65567		 305.27265			43387.38302		70.12000		324.00000 
 43692.65567		 942.55020			42750.10547		229.54400		875.00000 
 43692.65567		 305.27265			43387.38302		70.12000		324.00000 
 43692.65567		 942.55020			42750.10547		229.54400		875.00000 
 43692.65567		 305.27265			43387.38302		70.12000		324.00000 
 43692.65567		 942.55020			42750.10547		229.54400		875.00000 
 43692.65567		 305.27265			43387.38302		70.12000		324.00000 
 43692.65567		 942.55020			42750.10547		229.54400		875.00000 
 43692.65567		 305.27265			43387.38302		70.12000		324.00000 
 43692.65567		 942.55020			42750.10547		229.54400		875.00000 
 43692.65567		 305.27265			43387.38302		70.12000		324.00000 
 43692.65567		 942.55020			42750.10547		229.54400		875.00000 
 43692.65567		 305.27265			43387.38302		70.12000		324.00000 
 43692.65567		 942.55020			42750.10547		229.54400		875.00000 
 43692.65567		 305.27265			43387.38302		70.12000		324.00000 
 43692.65567		 942.55020			42750.10547		229.54400		875.00000 
 43692.65567		 305.27265			43387.38302		70.12000		324.00000 
 43692.65567		 942.55020			42750.10547		229.54400		875.00000 
 43692.65567		 305.27265			43387.38302		70.12000		324.00000 
 43692.65567		 942.55020			42750.10547		229.54400		875.00000 
 43692.65567		 305.27265			43387.38302		70.12000		324.00000 
 43692.65567		 942.55020			42750.10547		229.54400		875.00000 
 43692.65567		 305.27265			43387.38302		70.12000		324.00000 
 43692.65567		 942.55020			42750.10547		229.54400		875.00000 
 43692.65567		 305.27265			43387.38302		70.12000		324.00000 
 43692.65567		 942.55020			42750.10547		229.54400		875.00000 
 43692.65567		 305.27265			43387.38302		70.12000		324.00000 
 43692.65567		 942.55020			42750.10547		229.54400		875.00000 
 43692.65567		 305.27265			43387.38302		70.12000		324.00000 
 43692.65567		 942.55020			42750.10547		229.54400		875.00000 
 43692.65567		 305.27265			43387.38302		70.12000		324.00000 
 43692.65567		 942.55020			42750.10547		229.54400		875.00000 
 43692.65567		 305.27265			43387.38302		70.12000		324.00000 
 43692.65567		 942.55020			42750.10547		229.54400		875.00000 
 43692.65567		 305.27265			43387.38302		70.12000		324.00000 
 43692.65567		 942.55020			42750.10547		229.54400		875.00000 
 43692.65567		 305.27265			43387.38302		70.12000		324.00000 
 43692.65567		 942.55020			42750.10547		229.54400		875.00000 
 43692.65567		 305.27265			43387.38302		70.12000		324.00000 
 43692.65567		 942.55020			42750.10547		229.54400		875.00000 
 43692.65567		 305.27265			43387.38302		70.12000		324.00000 
 43692.65567		 942.55020			42750.10547		229.54400		875.00000 
 43692.65567		 305.27265			43387.38302		70.12000		324.00000 
 43692.65567		 942.55020			42750.10547		229.54400		875.00000 
 43692.65567		 305.27265			43387.38302		70.12000		324.00000 
 43692.65567		 942.55020			42750.10547		229.54400		875.00000 
 43692.65567		 305.27265			43387.38302		70.12000		324.00000 
 43692.65567		 942.55020			42750.10547		229.54400		875.00000 
 43692.65567		 305.27265			43387.38302		70.12000		324.00000 
 43692.65567		 942.55020			42750.10547		229.54400		875.00000 
 43692.65567		 305.27265			43387.38302		70.12000		324.00000 
 43692.65567		 942.55020			42750.10547		229.54400		875.00000 
 43692.65567		 305.27265			43387.38302		70.12000		324.00000 
 43692.65567		 942.55020			42750.10547		229.54400		875.00000 
 43692.65567		 305.27265			43387.38302		70.12000		324.00000 
 43692.65567		 942.55020			42750.10547		229.54400		875.00000 
 43692.65567		 305.27265			43387.38302		70.12000		324.00000 
 43692.65567		 942.55020			42750.10547		229.54400		875.00000 
 43692.65567		 305.27265			43387.38302		70.12000		324.00000 
 43692.65567		 942.55020			42750.10547		229.54400		875.00000 
 43692.65567		 305.27265			43387.38302		70.12000		324.00000 
 43692.65567		 942.55020			42750.10547		229.54400		875.00000 
 43692.65567		 305.27265			43387.38302		70.12000		324.00000 
 43692.65567		 942.55020			42750.10547		229.54400		875.00000 
 43692.65567		 305.27265			43387.38302		70.12000		324.00000 
 43692.65567		 942.55020			42750.10547		229.54400		875.00000 
 43692.65567		 305.27265			43387.38302		70.12000		324.00000 
 43692.65567		 942.55020			42750.10547		229.54400		875.00000 
 43692.65567		 305.27265			43387.38302		70.12000		324.00000 
 43692.65567		 942.55020			42750.10547		229.54400		875.00000 
 43692.65567		 305.27265			43387.38302		70.12000		324.00000 
 43692.65567		 942.55020			42750.10547		229.54400		875.00000 
 43692.65567		 305.27265			43387.38302		70.12000		324.00000 
 43692.65567		 942.55020			42750.10547		229.54400		875.00000 
 43692.65567		 305.27265			43387.38302		70.12000		324.00000 
 43692.65567		 942.55020			42750.10547		229.54400		875.00000 
 43692.65567		 305.27265			43387.38302		70.12000		324.00000 
 43692.65567		 942.55020			42750.10547		229.54400		875.00000 
 43692.65567		 305.27265			43387.38302		70.12000		324.00000 
 43692.65567		 942.55020			42750.10547		229.54400		875.00000 
 43692.65567		 305.27265			43387.38302		70.12000		324.00000 
 43692.65567		 942.55020			42750.10547		229.54400		875.00000 
 43692.65567		 305.27265			43387.38302		70.12000		324.00000 
 43692.65567		 942.55020			42750.10547		229.54400		875.00000 
 43692.65567		 305.27265			43387.38302		70.12000		324.00000 
 43692.65567		 942.55020			42750.10547		229.54400		875.00000 
 43692.65567		 305.27265			43387.38302		70.12000		324.00000 
 43692.65567		 942.55020			42750.10547		229.54400		875.00000 
 43692.65567		 305.27265			43387.38302		70.12000		324.00000 
 43692.65567		 942.55020			42750.10547		229.54400		875.00000 
 43692.65567		 305.27265			43387.38302		70.12000		324.00000 
 43692.65567		 942.55020			42750.10547		229.54400		875.00000 
 43692.65567		 305.27265			43387.38302		70.12000		324.00000 
 43692.65567		 942.55020			42750.10547		229.54400		875.00000 
 43692.65567		 305.27265			43387.38302		70.12000		324.00000 
 43692.65567		 942.55020			42750.10547		229.54400		875.00000 
 43692.65567		 305.27265			43387.38302		70.12000		324.00000 
 43692.65567		 942.55020			42750.10547		229.54400		875.00000 
 43692.65567		 305.27265			43387.38302		70.12000		324.00000 
 43692.65567		 942.55020			42750.10547		229.54400		875.00000 
 43692.65567		 305.27265			43387.38302		70.12000		324.00000 
 43692.65567		 942.55020			42750.10547		229.54400		875.00000 
 43692.65567		 305.27265			43387.38302		70.12000		324.00000 
 43692.65567		 942.55020			42750.10547		229.54400		875.00000 
 43692.65567		 305.27265			43387.38302		70.12000		324.00000 
 43692.65567		 942.55020			42750.10547		229.54400		875.00000 
 43692.65567		 305.27265			43387.38302		70.12000		324.00000 
 43692.65567		 942.55020			42750.10547		229.54400		875.00000 
 43692.65567		 305.27265			43387.38302		70.12000		324.00000 
 43692.65567		 942.55020			42750.10547		229.54400		875.00000 
 43692.65567		 305.27265			43387.38302		70.12000		324.00000 
 43692.65567		 942.55020			42750.10547		229.54400		875.00000 
 43692.65567		 305.27265			43387.38302		70.12000		324.00000 
 43692.65567		 942.55020			42750.10547		229.54400		875.00000 
 43692.65567		 305.27265			43387.38302		70.12000		324.00000 
 43692.65567		 942.55020			42750.10547		229.54400		875.00000 
 43692.65567		 305.27265			43387.38302		70.12000		324.00000 
 43692.65567		 942.55020			42750.10547		229.54400		875.00000 
 43692.65567		 305.27265			43387.38302		70.12000		324.00000 
 43692.65567		 942.55020			42750.10547		229.54400		875.00000 
 43692.65567		 305.27265			43387.38302		70.12000		324.00000 
 43692.65567		 942.55020			42750.10547		229.54400		875.00000 
 43692.65567		 305.27265			43387.38302		70.12000		324.00000 
 43692.65567		 942.55020			42750.10547		229.54400		875.00000 
 43692.65567		 305.27265			43387.38302		70.12000		324.00000 
 43692.65567		 942.55020			42750.10547		229.54400		875.00000 
 43692.65567		 305.27265			43387.38302		70.12000		324.00000 
 43692.65567		 942.55020			42750.10547		229.54400		875.00000 
 43692.65567		 305.27265			43387.38302		70.12000		324.00000 
 43692.65567		 942.55020			42750.10547		229.54400		875.00000 
 43692.65567		 305.27265			43387.38302		70.12000		324.00000 
 43692.65567		 942.55020			42750.10547		229.54400		875.00000 
 43692.65567		 305.27265			43387.38302		70.12000		324.00000 
 43692.65567		 942.55020			42750.10547		229.54400		875.00000 
 43692.65567		 305.27265			43387.38302		70.12000		324.00000 
 43692.65567		 942.55020			42750.10547		229.54400		875.00000 
 43692.65567		 305.27265			43387.38302		70.12000		324.00000 
 43692.65567		 942.55020			42750.10547		229.54400		875.00000 
 43692.65567		 305.27265			43387.38302		70.12000		324.00000 
 43692.65567		 942.55020			42750.10547		229.54400		875.00000 
 43692.65567		 305.27265			43387.38302		70.12000		324.00000 
 43692.65567		 942.55020			42750.10547		229.54400		875.00000 
 43692.65567		 305.27265			43387.38302		70.12000		324.00000 
 43692.65567		 942.55020			42750.10547		229.54400		875.00000 
 43692.65567		 305.27265			43387.38302		70.12000		324.00000 
 43692.65567		 942.55020			42750.10547		229.54400		875.00000 
 43692.65567		 305.27265			43387.38302		70.12000		324.00000 
 43692.65567		 942.55020			42750.10547		229.54400		875.00000 
 43692.65567		 305.27265			43387.38302		70.12000		324.00000 
 43692.65567		 942.55020			42750.10547		229.54400		875.00000 
 43692.65567		 305.27265			43387.38302		70.12000		324.00000 
 43692.65567		 942.55020			42750.10547		229.54400		875.00000 
 43692.65567		 305.27265			43387.38302		70.12000		324.00000 
 43692.65567		 942.55020			42750.10547		229.54400		875.00000 
 43692.65567		 305.27265			43387.38302		70.12000		324.00000 
 43692.65567		 942.55020			42750.10547		229.54400		875.00000 
 43692.65567		 305.27265			43387.38302		70.12000		324.00000 
 43692.65567		 942.55020			42750.10547		229.54400		875.00000 
 43692.65567		 305.27265			43387.38302		70.12000		324.00000 
 43692.65567		 942.55020			42750.10547		229.54400		875.00000 
 43692.65567		 305.27265			43387.38302		70.12000		324.00000 
 43692.65567		 942.55020			42750.10547		229.54400		875.00000 
 43692.65567		 305.27265			43387.38302		70.12000		324.00000 
 43692.65567		 942.55020			42750.10547		229.54400		875.00000 
 43692.65567		 305.27265			43387.38302		70.12000		324.00000 
 43692.65567		 942.55020			42750.10547		229.54400		875.00000 
 43692.65567		 305.27265			43387.38302		70.12000		324.00000 
 43692.65567		 942.55020			42750.10547		229.54400		875.00000 
 43692.65567		 305.27265			43387.38302		70.12000		324.00000 
 43692.65567		 942.55020			42750.10547		229.54400		875.00000 
 43692.65567		 305.27265			43387.38302		70.12000		324.00000 
 43692.65567		 942.55020			42750.10547		229.54400		875.00000 
 43692.65567		 305.27265			43387.38302		70.12000		324.00000 
 43692.65567		 942.55020			42750.10547		229.54400		875.00000 
 43692.65567		 305.27265			43387.38302		70.12000		324.00000 
 43692.65567		 942.55020			42750.10547		229.54400		875.00000 
 43692.65567		 305.27265			43387.38302		70.12000		324.00000 
 43692.65567		 942.55020			42750.10547		229.54400		875.00000 
 43692.65567		 305.27265			43387.38302		70.12000		324.00000 
 43692.65567		 942.55020			42750.10547		229.54400		875.00000 
 43692.65567		 305.27265			43387.38302		70.12000		324.00000 
 43692.65567		 942.55020			42750.10547		229.54400		875.00000 
 43692.65567		 305.27265			43387.38302		70.12000		324.00000 
 43692.65567		 942.55020			42750.10547		229.54400		875.00000 
 43692.65567		 305.27265			43387.38302		70.12000		324.00000 
 43692.65567		 942.55020			42750.10547		229.54400		875.00000 
 43692.65567		 305.27265			43387.38302		70.12000		324.00000 
 43692.65567		 942.55020			42750.10547		229.54400		875.00000 
 43692.65567		 305.27265			43387.38302		70.12000		324.00000 
 43692.65567		 942.55020			42750.10547		229.54400		875.00000 
 43692.65567		 305.27265			43387.38302		70.12000		324.00000 
 43692.65567		 942.55020			42750.10547		229.54400		875.00000 
 43692.65567		 305.27265			43387.38302		70.12000		324.00000 
 43692.65567		 942.55020			42750.10547		229.54400		875.00000 
 43692.65567		 305.27265			43387.38302		70.12000		324.00000 
 43692.65567		 942.55020			42750.10547		229.54400		875.00000 
 43692.65567		 305.27265			43387.38302		70.12000		324.00000 
 43692.65567		 942.55020			42750.10547		229.54400		875.00000 
 43692.65567		 305.27265			43387.38302		70.12000		324.00000 
 43692.65567		 942.55020			42750.10547		229.54400		875.00000 
 43692.65567		 305.27265			43387.38302		70.12000		324.00000 
 43692.65567		 942.55020			42750.10547		229.54400		875.00000 
 43692.65567		 305.27265			43387.38302		70.12000		324.00000 
 43692.65567		 942.55020			42750.10547		229.54400		875.00000 
 43692.65567		 305.27265			43387.38302		70.12000		324.00000 
 43692.65567		 942.55020			42750.10547		229.54400		875.00000 
 43692.65567		 305.27265			43387.38302		70.12000		324.00000 
 43692.65567		 942.55020			42750.10547		229.54400		875.00000 
 43692.65567		 305.27265			43387.38302		70.12000		324.00000 
 43692.65567		 942.55020			42750.10547		229.54400		875.00000 
 43692.65567		 305.27265			43387.38302		70.12000		324.00000 
 43692.65567		 942.55020			42750.10547		229.54400		875.00000 
 43692.65567		 305.27265			43387.38302		70.12000		324.00000 
 43692.65567		 942.55020			42750.10547		229.54400		875.00000 
 43692.65567		 305.27265			43387.38302		70.12000		324.00000 
 43692.65567		 942.55020			42750.10547		229.54400		875.00000 
 43692.65567		 305.27265			43387.38302		70.12000		324.00000 
 43692.65567		 942.55020			42750.10547		229.54400		875.00000 
 43692.65567		 305.27265			43387.38302		70.12000		324.00000 
 43692.65567		 942.55020			42750.10547		229.54400		875.00000 
 43692.65567		 305.27265			43387.38302		70.12000		324.00000 
 43692.65567		 942.55020			42750.10547		229.54400		875.00000 
 43692.65567		 305.27265			43387.38302		70.12000		324.00000 
 43692.65567		 942.55020			42750.10547		229.54400		875.00000 
 43692.65567		 305.27265			43387.38302		70.12000		324.00000 
 43692.65567		 942.55020			42750.10547		229.54400		875.00000 
 43692.65567		 305.27265			43387.38302		70.12000		324.00000 
 43692.65567		 942.55020			42750.10547		229.54400		875.00000 
 43692.65567		 305.27265			43387.38302		70.12000		324.00000 
 43692.65567		 942.55020			42750.10547		229.54400		875.00000 
 43692.65567		 305.27265			43387.38302		70.12000		324.00000 
 43692.65567		 942.55020			42750.10547		229.54400		875.00000 
 43692.65567		 305.27265			43387.38302		70.12000		324.00000 
 43692.65567		 942.55020			42750.10547		229.54400		875.00000 
 43692.65567		 305.27265			43387.38302		70.12000		324.00000 
 43692.65567		 942.55020			42750.10547		229.54400		875.00000 
 43692.65567		 305.27265			43387.38302		70.12000		324.00000 
 43692.65567		 942.55020			42750.10547		229.54400		875.00000 
 43692.65567		 305.27265			43387.38302		70.12000		324.00000 
 43692.65567		 942.55020			42750.10547		229.54400		875.00000 
 43692.65567		 305.27265			43387.38302		70.12000		324.00000 
 43692.65567		 942.55020			42750.10547		229.54400		875.00000 
 43692.65567		 305.27265			43387.38302		70.12000		324.00000 
 43692.65567		 942.55020			42750.10547		229.54400		875.00000 
 43692.65567		 305.27265			43387.38302		70.12000		324.00000 
 43692.65567		 942.55020			42750.10547		229.54400		875.00000 
 43692.65567		 305.27265			43387.38302		70.12000		324.00000 
 43692.65567		 942.55020			42750.10547		229.54400		875.00000 
 43692.65567		 305.27265			43387.38302		70.12000		324.00000 
 43692.65567		 942.55020			42750.10547		229.54400		875.00000 
 43692.65567		 305.27265			43387.38302		70.12000		324.00000 
 43692.65567		 942.55020			42750.10547		229.54400		875.00000 
 43692.65567		 305.27265			43387.38302		70.12000		324.00000 
 43692.65567		 942.55020			42750.10547		229.54400		875.00000 
 43692.65567		 305.27265			43387.38302		70.12000		324.00000 
 43692.65567		 942.55020			42750.10547		229.54400		875.00000 
 43692.65567		 305.27265			43387.38302		70.12000		324.00000 
 43692.65567		 942.55020			42750.10547		229.54400		875.00000 
 43692.65567		 305.27265			43387.38302		70.12000		324.00000 
 43692.65567		 942.55020			42750.10547		229.54400		875.00000 
 43692.65567		 305.27265			43387.38302		70.12000		324.00000 
 43692.65567		 942.55020			42750.10547		229.54400		875.00000 
 43692.65567		 305.27265			43387.38302		70.12000		324.00000 
 43692.65567		 942.55020			42750.10547		229.54400		875.00000 
 43692.65567		 305.27265			43387.38302		70.12000		324.00000 
 43692.65567		 942.55020			42750.10547		229.54400		875.00000 
 43692.65567		 305.27265			43387.38302		70.12000		324.00000 
 43692.65567		 942.55020			42750.10547		229.54400		875.00000 
 43692.65567		 305.27265			43387.38302		70.12000		324.00000 
 43692.65567		 942.55020			42750.10547		229.54400		875.00000 
 43692.65567		 305.27265			43387.38302		70.12000		324.00000 
 43692.65567		 942.55020			42750.10547		229.54400		875.00000 
 43692.65567		 305.27265			43387.38302		70.12000		324.00000 
 43692.65567		 942.55020			42750.10547		229.54400		875.00000 
 43692.65567		 305.27265			43387.38302		70.12000		324.00000 
 43692.65567		 942.55020			42750.10547		229.54400		875.00000 
 43692.65567		 305.27265			43387.38302		70.12000		324.00000 
 43692.65567		 942.55020			42750.10547		229.54400		875.00000 
 43692.65567		 305.27265			43387.38302		70.12000		324.00000 
 43692.65567		 942.55020			42750.10547		229.54400		875.00000 
 43692.65567		 305.27265			43387.38302		70.12000		324.00000 
 43692.65567		 942.55020			42750.10547		229.54400		875.00000 
 43692.65567		 305.27265			43387.38302		70.12000		324.00000 
 43692.65567		 942.55020			42750.10547		229.54400		875.00000 
 43692.65567		 305.27265			43387.38302		70.12000		324.00000 
 43692.65567		 942.55020			42750.10547		229.54400		875.00000 
 43692.65567		 305.27265			43387.38302		70.12000		324.00000 
 43692.65567		 942.55020			42750.10547		229.54400		875.00000 
 43692.65567		 305.27265			43387.38302		70.12000		324.00000 
 43692.65567		 942.55020			42750.10547		229.54400		875.00000 
 43692.65567		 305.27265			43387.38302		70.12000		324.00000 
 43692.65567		 942.55020			42750.10547		229.54400		875.00000 
 43692.65567		 305.27265			43387.38302		70.12000		324.00000 
 43692.65567		 942.55020			42750.10547		229.54400		875.00000 
 43692.65567		 305.27265			43387.38302		70.12000		324.00000 
 43692.65567		 942.55020			42750.10547		229.54400		875.00000 
 43692.65567		 305.27265			43387.38302		70.12000		324.00000 
 43692.65567		 942.55020			42750.10547		229.54400		875.00000 
 43692.65567		 305.27265			43387.38302		70.12000		324.00000 
 43692.65567		 942.55020			42750.10547		229.54400		875.00000 
 43692.65567		 305.27265			43387.38302		70.12000		324.00000 
 43692.65567		 942.55020			42750.10547		229.54400		875.00000 
 43692.65567		 305.27265			43387.38302		70.12000		324.00000 
 43692.65567		 942.55020			42750.10547		229.54400		875.00000 
 43692.65567		 305.27265			43387.38302		70.12000		324.00000 
 43692.65567		 942.55020			42750.10547		229.54400		875.00000 
 43692.65567		 305.27265			43387.38302		70.12000		324.00000 
 43692.65567		 942.55020			42750.10547		229.54400		875.00000 
 43692.65567		 305.27265			43387.38302		70.12000		324.00000 
 43692.65567		 942.55020			42750.10547		229.54400		875.00000 
 43692.65567		 305.27265			43387.38302		70.12000		324.00000 
 43692.65567		 942.55020			42750.10547		229.54400		875.00000 
 43692.65567		 305.27265			43387.38302		70.12000		324.00000 
 43692.65567		 942.55020			42750.10547		229.54400		875.00000 
 43692.65567		 305.27265			43387.38302		70.12000		324.00000 
 43692.65567		 942.55020			42750.10547		229.54400		875.00000 
 43692.65567		 305.27265			43387.38302		70.12000		324.00000 
 43692.65567		 942.55020			42750.10547		229.54400		875.00000 
 43692.65567		 305.27265			43387.38302		70.12000		324.00000 
 43692.65567		 942.55020			42750.10547		229.54400		875.00000 
 43692.65567		 305.27265			43387.38302		70.12000		324.00000 
 43692.65567		 942.55020			42750.10547		229.54400		875.00000 
 43692.65567		 305.27265			43387.38302		70.12000		324.00000 
 43692.65567		 942.55020			42750.10547		229.54400		875.00000 
 43692.65567		 305.27265			43387.38302		70.12000		324.00000 
 43692.65567		 942.55020			42750.10547		229.54400		875.00000 
 43692.65567		 305.27265			43387.38302		70.12000		324.00000 
 43692.65567		 942.55020			42750.10547		229.54400		875.00000 
 43692.65567		 305.27265			43387.38302		70.12000		324.00000 
 43692.65567		 942.55020			42750.10547		229.54400		875.00000 
 43692.65567		 305.27265			43387.38302		70.12000		324.00000 
 43692.65567		 942.55020			42750.10547		229.54400		875.00000 
 43692.65567		 305.27265			43387.38302		70.12000		324.00000 
 43692.65567		 942.55020			42750.10547		229.54400		875.00000 
 43692.65567		 305.27265			43387.38302		70.12000		324.00000 
 43692.65567		 942.55020			42750.10547		229.54400		875.00000 
 43692.65567		 305.27265			43387.38302		70.12000		324.00000 
 43692.65567		 942.55020			42750.10547		229.54400		875.00000 
 43692.65567		 305.27265			43387.38302		70.12000		324.00000 
 43692.65567		 942.55020			42750.10547		229.54400		875.00000 
 43692.65567		 305.27265			43387.38302		70.12000		324.00000 
 43692.65567		 942.55020			42750.10547		229.54400		875.00000 
 43692.65567		 305.27265			43387.38302		70.12000		324.00000 
 43692.65567		 942.55020			42750.10547		229.54400		875.00000 
 43692.65567		 305.27265			43387.38302		70.12000		324.00000 
 43692.65567		 942.55020			42750.10547		229.54400		875.00000 
 43692.65567		 305.27265			43387.38302		70.12000		324.00000 
 43692.65567		 942.55020			42750.10547		229.54400		875.00000 
 43692.65567		 305.27265			43387.38302		70.12000		324.00000 
 43692.65567		 942.55020			42750.10547		229.54400		875.00000 
 43692.65567		 305.27265			43387.38302		70.12000		324.00000 
 43692.65567		 942.55020			42750.10547		229.54400		875.00000 
 43692.65567		 305.27265			43387.38302		70.12000		324.00000 
 43692.65567		 942.55020			42750.10547		229.54400		875.00000 
 43692.65567		 305.27265			43387.38302		70.12000		324.00000 
 43692.65567		 942.55020			42750.10547		229.54400		875.00000 
 43692.65567		 305.27265			43387.38302		70.12000		324.00000 
 43692.65567		 942.55020			42750.10547		229.54400		875.00000 
 43692.65567		 305.27265			43387.38302		70.12000		324.00000 
 43692.65567		 942.55020			42750.10547		229.54400		875.00000 
 43692.65567		 305.27265			43387.38302		70.12000		324.00000 
 43692.65567		 942.55020			42750.10547		229.54400		875.00000 
 43692.65567		 305.27265			43387.38302		70.12000		324.00000 
 43692.65567		 942.55020			42750.10547		229.54400		875.00000 
 43692.65567		 305.27265			43387.38302		70.12000		324.00000 
 43692.65567		 942.55020			42750.10547		229.54400		875.00000 
 43692.65567		 305.27265			43387.38302		70.12000		324.00000 
 43692.65567		 942.55020			42750.10547		229.54400		875.00000 
 43692.65567		 305.27265			43387.38302		70.12000		324.00000 
 43692.65567		 942.55020			42750.10547		229.54400		875.00000 
 43692.65567		 305.27265			43387.38302		70.12000		324.00000 
 43692.65567		 942.55020			42750.10547		229.54400		875.00000 
 43692.65567		 305.27265			43387.38302		70.12000		324.00000 
 43692.65567		 942.55020			42750.10547		229.54400		875.00000 
 43692.65567		 305.27265			43387.38302		70.12000		324.00000 
 43692.65567		 942.55020			42750.10547		229.54400		875.00000 
 43692.65567		 305.27265			43387.38302		70.12000		324.00000 
 43692.65567		 942.55020			42750.10547		229.54400		875.00000 
 43692.65567		 305.27265			43387.38302		70.12000		324.00000 
 43692.65567		 942.55020			42750.10547		229.54400		875.00000 
 43692.65567		 305.27265			43387.38302		70.12000		324.00000 
 43692.65567		 942.55020			42750.10547		229.54400		875.00000 
 43692.65567		 305.27265			43387.38302		70.12000		324.00000 
 43692.65567		 942.55020			42750.10547		229.54400		875.00000 
 43692.65567		 305.27265			43387.38302		70.12000		324.00000 
 43692.65567		 942.55020			42750.10547		229.54400		875.00000 
 43692.65567		 305.27265			43387.38302		70.12000		324.00000 
 43692.65567		 942.55020			42750.10547		229.54400		875.00000 
 43692.65567		 305.27265			43387.38302		70.12000		324.00000 
 43692.65567		 942.55020			42750.10547		229.54400		875.00000 
 43692.65567		 305.27265			43387.38302		70.12000		324.00000 
 43692.65567		 942.55020			42750.10547		229.54400		875.00000 
 43692.65567		 305.27265			43387.38302		70.12000		324.00000 
 43692.65567		 942.55020			42750.10547		229.54400		875.00000 
 43692.65567		 305.27265			43387.38302		70.12000		324.00000 
 43692.65567		 942.55020			42750.10547		229.54400		875.00000 
 43692.65567		 305.27265			43387.38302		70.12000		324.00000 
 43692.65567		 942.55020			42750.10547		229.54400		875.00000 
 43692.65567		 305.27265			43387.38302		70.12000		324.00000 
 43692.65567		 942.55020			42750.10547		229.54400		875.00000 
 43692.65567		 305.27265			43387.38302		70.12000		324.00000 
 43692.65567		 942.55020			42750.10547		229.54400		875.00000 
 43692.65567		 305.27265			43387.38302		70.12000		324.00000 
 43692.65567		 942.55020			42750.10547		229.54400		875.00000 
 43692.65567		 305.27265			43387.38302		70.12000		324.00000 
 43692.65567		 942.55020			42750.10547		229.54400		875.00000 
 43692.65567		 305.27265			43387.38302		70.12000		324.00000 
 43692.65567		 942.55020			42750.10547		229.54400		875.00000 
 43692.65567		 305.27265			43387.38302		70.12000		324.00000 
 43692.65567		 942.55020			42750.10547		229.54400		875.00000 
 43692.65567		 305.27265			43387.38302		70.12000		324.00000 
 43692.65567		 942.55020			42750.10547		229.54400		875.00000 
 43692.65567		 305.27265			43387.38302		70.12000		324.00000 
 43692.65567		 942.55020			42750.10547		229.54400		875.00000 
 43692.65567		 305.27265			43387.38302		70.12000		324.00000 
 43692.65567		 942.55020			42750.10547		229.54400		875.00000 
 43692.65567		 305.27265			43387.38302		70.12000		324.00000 
 43692.65567		 942.55020			42750.10547		229.54400		875.00000 
 43692.65567		 305.27265			43387.38302		70.12000		324.00000 
 43692.65567		 942.55020			42750.10547		229.54400		875.00000 
 43692.65567		 305.27265			43387.38302		70.12000		324.00000 
 43692.65567		 942.55020			42750.10547		229.54400		875.00000 
 43692.65567		 305.27265			43387.38302		70.12000		324.00000 
 43692.65567		 942.55020			42750.10547		229.54400		875.00000 
 43692.65567		 305.27265			43387.38302		70.12000		324.00000 
 43692.65567		 942.55020			42750.10547		229.54400		875.00000 
 43692.65567		 305.27265			43387.38302		70.12000		324.00000 
 43692.65567		 942.55020			42750.10547		229.54400		875.00000 
 43692.65567		 305.27265			43387.38302		70.12000		324.00000 
 43692.65567		 942.55020			42750.10547		229.54400		875.00000 
 43692.65567		 305.27265			43387.38302		70.12000		324.00000 
 43692.65567		 942.55020			42750.10547		229.54400		875.00000 
 43692.65567		 305.27265			43387.38302		70.12000		324.00000 
 43692.65567		 942.55020			42750.10547		229.54400		875.00000 
 43692.65567		 305.27265			43387.38302		70.12000		324.00000 
 43692.65567		 942.55020			42750.10547		229.54400		875.00000 
 43692.65567		 305.27265			43387.38302		70.12000		324.00000 
 43692.65567		 942.55020			42750.10547		229.54400		875.00000 
 43692.65567		 305.27265			43387.38302		70.12000		324.00000 
 43692.65567		 942.55020			42750.10547		229.54400		875.00000 
 43692.65567		 305.27265			43387.38302		70.12000		324.00000 
 43692.65567		 942.55020			42750.10547		229.54400		875.00000 
 43692.65567		 305.27265			43387.38302		70.12000		324.00000 
 43692.65567		 942.55020			42750.10547		229.54400		875.00000 
 43692.65567		 305.27265			43387.38302		70.12000		324.00000 
 43692.65567		 942.55020			42750.10547		229.54400		875.00000 
 43692.65567		 305.27265			43387.38302		70.12000		324.00000 
 43692.65567		 942.55020			42750.10547		229.54400		875.00000 
 43692.65567		 305.27265			43387.38302		70.12000		324.00000 
 43692.65567		 942.55020			42750.10547		229.54400		875.00000 
 43692.65567		 305.27265			43387.38302		70.12000		324.00000 
 43692.65567		 942.55020			42750.10547		229.54400		875.00000 
 43692.65567		 305.27265			43387.38302		70.12000		324.00000 
 43692.65567		 942.55020			42750.10547		229.54400		875.00000 
 43692.65567		 305.27265			43387.38302		70.12000		324.00000 
 43692.65567		 942.55020			42750.10547		229.54400		875.00000 
 43692.65567		 305.27265			43387.38302		70.12000		324.00000 
 43692.65567		 942.55020			42750.10547		229.54400		875.00000 
 43692.65567		 305.27265			43387.38302		70.12000		324.00000 
 43692.65567		 942.55020			42750.10547		229.54400		875.00000 
 43692.65567		 305.27265			43387.38302		70.12000		324.00000 
 43692.65567		 942.55020			42750.10547		229.54400		875.00000 
 43692.65567		 305.27265			43387.38302		70.12000		324.00000 
 43692.65567		 942.55020			42750.10547		229.54400		875.00000 
 43692.65567		 305.27265			43387.38302		70.12000		324.00000 
 43692.65567		 942.55020			42750.10547		229.54400		875.00000 
 43692.65567		 305.27265			43387.38302		70.12000		324.00000 
 43692.65567		 942.55020			42750.10547		229.54400		875.00000 
 43692.65567		 305.27265			43387.38302		70.12000		324.00000 
 43692.65567		 942.55020			42750.10547		229.54400		875.00000 
 43692.65567		 305.27265			43387.38302		70.12000		324.00000 
 43692.65567		 942.55020			42750.10547		229.54400		875.00000 
 43692.65567		 305.27265			43387.38302		70.12000		324.00000 
 43692.65567		 942.55020			42750.10547		229.54400		875.00000 
 43692.65567		 305.27265			43387.38302		70.12000		324.00000 
 43692.65567		 942.55020			42750.10547		229.54400		875.00000 
 43692.65567		 305.27265			43387.38302		70.12000		324.00000 
 43692.65567		 942.55020			42750.10547		229.54400		875.00000 
 43692.65567		 305.27265			43387.38302		70.12000		324.00000 
 43692.65567		 942.55020			42750.10547		229.54400		875.00000 
 43692.65567		 305.27265			43387.38302		70.12000		324.00000 
 43692.65567		 942.55020			42750.10547		229.54400		875.00000 
 43692.65567		 305.27265			43387.38302		70.12000		324.00000 
 43692.65567		 942.55020			42750.10547		229.54400		875.00000 
 43692.65567		 305.27265			43387.38302		70.12000		324.00000 
 43692.65567		 942.55020			42750.10547		229.54400		875.00000 
 43692.65567		 305.27265			43387.38302		70.12000		324.00000 
 43692.65567		 942.55020			42750.10547		229.54400		875.00000 
 43692.65567		 305.27265			43387.38302		70.12000		324.00000 
 43692.65567		 942.55020			42750.10547		229.54400		875.00000 
 43692.65567		 305.27265			43387.38302		70.12000		324.00000 
 43692.65567		 942.55020			42750.10547		229.54400		875.00000 
 43692.65567		 305.27265			43387.38302		70.12000		324.00000 
 43692.65567		 942.55020			42750.10547		229.54400		875.00000 
 43692.65567		 305.27265			43387.38302		70.12000		324.00000 
 43692.65567		 942.55020			42750.10547		229.54400		875.00000 
 43692.65567		 305.27265			43387.38302		70.12000		324.00000 
 43692.65567		 942.55020			42750.10547		229.54400		875.00000 
 43692.65567		 305.27265			43387.38302		70.12000		324.00000 
 43692.65567		 942.55020			42750.10547		229.54400		875.00000 
 43692.65567		 305.27265			43387.38302		70.12000		324.00000 
 43692.65567		 942.55020			42750.10547		229.54400		875.00000 
 43692.65567		 305.27265			43387.38302		70.12000		324.00000 
 43692.65567		 942.55020			42750.10547		229.54400		875.00000 
 43692.65567		 305.27265			43387.38302		70.12000		324.00000 
 43692.65567		 942.55020			42750.10547		229.54400		875.00000 
 43692.65567		 305.27265			43387.38302		70.12000		324.00000 
 43692.65567		 942.55020			42750.10547		229.54400		875.00000 
 43692.65567		 305.27265			43387.38302		70.12000		324.00000 
 43692.65567		 942.55020			42750.10547		229.54400		875.00000 
 43692.65567		 305.27265			43387.38302		70.12000		324.00000 
 43692.65567		 942.55020			42750.10547		229.54400		875.00000 
 43692.65567		 305.27265			43387.38302		70.12000		324.00000 
 43692.65567		 942.55020			42750.10547		229.54400		875.00000 
 43692.65567		 305.27265			43387.38302		70.12000		324.00000 
 43692.65567		 942.55020			42750.10547		229.54400		875.00000 
 43692.65567		 305.27265			43387.38302		70.12000		324.00000 
 43692.65567		 942.55020			42750.10547		229.54400		875.00000 
 43692.65567		 305.27265			43387.38302		70.12000		324.00000 
 43692.65567		 942.55020			42750.10547		229.54400		875.00000 
 43692.65567		 305.27265			43387.38302		70.12000		324.00000 
 43692.65567		 942.55020			42750.10547		229.54400		875.00000 
 43692.65567		 305.27265			43387.38302		70.12000		324.00000 
 43692.65567		 942.55020			42750.10547		229.54400		875.00000 
 43692.65567		 305.27265			43387.38302		70.12000		324.00000 
 43692.65567		 942.55020			42750.10547		229.54400		875.00000 
 43692.65567		 305.27265			43387.38302		70.12000		324.00000 
 43692.65567		 942.55020			42750.10547		229.54400		875.00000 
 43692.65567		 305.27265			43387.38302		70.12000		324.00000 
 43692.65567		 942.55020			42750.10547		229.54400		875.00000 
 43692.65567		 305.27265			43387.38302		70.12000		324.00000 
 43692.65567		 942.55020			42750.10547		229.54400		875.00000 
 43692.65567		 305.27265			43387.38302		70.12000		324.00000 
 43692.65567		 942.55020			42750.10547		229.54400		875.00000 
 43692.65567		 305.27265			43387.38302		70.12000		324.00000 
 43692.65567		 942.55020			42750.10547		229.54400		875.00000 
 43692.65567		 305.27265			43387.38302		70.12000		324.00000 
 43692.65567		 942.55020			42750.10547		229.54400		875.00000 
 43692.65567		 305.27265			43387.38302		70.12000		324.00000 
 43692.65567		 942.55020			42750.10547		229.54400		875.00000 
 43692.65567		 305.27265			43387.38302		70.12000		324.00000 
 43692.65567		 942.55020			42750.10547		229.54400		875.00000 
 43692.65567		 305.27265			43387.38302		70.12000		324.00000 
 43692.65567		 942.55020			42750.10547		229.54400		875.00000 
 43692.65567		 305.27265			43387.38302		70.12000		324.00000 
 43692.65567		 942.55020			42750.10547		229.54400		875.00000 
 43692.65567		 305.27265			43387.38302		70.12000		324.00000 
 43692.65567		 942.55020			42750.10547		229.54400		875.00000 
 43692.65567		 305.27265			43387.38302		70.12000		324.00000 
 43692.65567		 942.55020			42750.10547		229.54400		875.00000 
 43692.65567		 305.27265			43387.38302		70.12000		324.00000 
 43692.65567		 942.55020			42750.10547		229.54400		875.00000 
 43692.65567		 305.27265			43387.38302		70.12000		324.00000 
 43692.65567		 942.55020			42750.10547		229.54400		875.00000 
 43692.65567		 305.27265			43387.38302		70.12000		324.00000 
 43692.65567		 942.55020			42750.10547		229.54400		875.00000 
 43692.65567		 305.27265			43387.38302		70.12000		324.00000 
 43692.65567		 942.55020			42750.10547		229.54400		875.00000 
 43692.65567		 305.27265			43387.38302		70.12000		324.00000 
 43692.65567		 942.55020			42750.10547		229.54400		875.00000 
 43692.65567		 305.27265			43387.38302		70.12000		324.00000 
 43692.65567		 942.55020			42750.10547		229.54400		875.00000 
 43692.65567		 305.27265			43387.38302		70.12000		324.00000 
 43692.65567		 942.55020			42750.10547		229.54400		875.00000 
 43692.65567		 305.27265			43387.38302		70.12000		324.00000 
 43692.65567		 942.55020			42750.10547		229.54400		875.00000 
 43692.65567		 305.27265			43387.38302		70.12000		324.00000 
 43692.65567		 942.55020			42750.10547		229.54400		875.00000 
 43692.65567		 305.27265			43387.38302		70.12000		324.00000 
 43692.65567		 942.55020			42750.10547		229.54400		875.00000 
 43692.65567		 305.27265			43387.38302		70.12000		324.00000 
 43692.65567		 942.55020			42750.10547		229.54400		875.00000 
 43692.65567		 305.27265			43387.38302		70.12000		324.00000 
 43692.65567		 942.55020			42750.10547		229.54400		875.00000 
 43692.65567		 305.27265			43387.38302		70.12000		324.00000 
 43692.65567		 942.55020			42750.10547		229.54400		875.00000 
 43692.65567		 305.27265			43387.38302		70.12000		324.00000 
 43692.65567		 942.55020			42750.10547		229.54400		875.00000 
 43692.65567		 305.27265			43387.38302		70.12000		324.00000 
 43692.65567		 942.55020			42750.10547		229.54400		875.00000 
 43692.65567		 305.27265			43387.38302		70.12000		324.00000 
 43692.65567		 942.55020			42750.10547		229.54400		875.00000 
 43692.65567		 305.27265			43387.38302		70.12000		324.00000 
 43692.65567		 942.55020			42750.10547		229.54400		875.00000 
 43692.65567		 305.27265			43387.38302		70.12000		324.00000 
 43692.65567		 942.55020			42750.10547		229.54400		875.00000 
 43692.65567		 305.27265			43387.38302		70.12000		324.00000 
 43692.65567		 942.55020			42750.10547		229.54400		875.00000 
 43692.65567		 305.27265			43387.38302		70.12000		324.00000 
 43692.65567		 942.55020			42750.10547		229.54400		875.00000 
 43692.65567		 305.27265			43387.38302		70.12000		324.00000 
 43692.65567		 942.55020			42750.10547		229.54400		875.00000 
 43692.65567		 305.27265			43387.38302		70.12000		324.00000 
 43692.65567		 942.55020			42750.10547		229.54400		875.00000 
 43692.65567		 305.27265			43387.38302		70.12000		324.00000 
 43692.65567		 942.55020			42750.10547		229.54400		875.00000 
 43692.65567		 305.27265			43387.38302		70.12000		324.00000 
 43692.65567		 942.55020			42750.10547		229.54400		875.00000 
 43692.65567		 305.27265			43387.38302		70.12000		324.00000 
 43692.65567		 942.55020			42750.10547		229.54400		875.00000 
 43692.65567		 305.27265			43387.38302		70.12000		324.00000 
 43692.65567		 942.55020			42750.10547		229.54400		875.00000 
 43692.65567		 305.27265			43387.38302		70.12000		324.00000 
 43692.65567		 942.55020			42750.10547		229.54400		875.00000 
 43692.65567		 305.27265			43387.38302		70.12000		324.00000 
 43692.65567		 942.55020			42750.10547		229.54400		875.00000 
 43692.65567		 305.27265			43387.38302		70.12000		324.00000 
 43692.65567		 942.55020			42750.10547		229.54400		875.00000 
 43692.65567		 305.27265			43387.38302		70.12000		324.00000 
 43692.65567		 942.55020			42750.10547		229.54400		875.00000 
 43692.65567		 305.27265			43387.38302		70.12000		324.00000 
 43692.65567		 942.55020			42750.10547		229.54400		875.00000 
 43692.65567		 305.27265			43387.38302		70.12000		324.00000 
 43692.65567		 942.55020			42750.10547		229.54400		875.00000 
 43692.65567		 305.27265			43387.38302		70.12000		324.00000 
 43692.65567		 942.55020			42750.10547		229.54400		875.00000 
 43692.65567		 305.27265			43387.38302		70.12000		324.00000 
 43692.65567		 942.55020			42750.10547		229.54400		875.00000 
 43692.65567		 305.27265			43387.38302		70.12000		324.00000 
 43692.65567		 942.55020			42750.10547		229.54400		875.00000 
 43692.65567		 305.27265			43387.38302		70.12000		324.00000 
 43692.65567		 942.55020			42750.10547		229.54400		875.00000 
 43692.65567		 305.27265			43387.38302		70.12000		324.00000 
 43692.65567		 942.55020			42750.10547		229.54400		875.00000 
 43692.65567		 305.27265			43387.38302		70.12000		324.00000 
 43692.65567		 942.55020			42750.10547		229.54400		875.00000 
 43692.65567		 305.27265			43387.38302		70.12000		324.00000 
 43692.65567		 942.55020			42750.10547		229.54400		875.00000 
 43692.65567		 305.27265			43387.38302		70.12000		324.00000 
 43692.65567		 942.55020			42750.10547		229.54400		875.00000 
 43692.65567		 305.27265			43387.38302		70.12000		324.00000 
 43692.65567		 942.55020			42750.10547		229.54400		875.00000 
 43692.65567		 305.27265			43387.38302		70.12000		324.00000 
 43692.65567		 942.55020			42750.10547		229.54400		875.00000 
 43692.65567		 305.27265			43387.38302		70.12000		324.00000 
 43692.65567		 942.55020			42750.10547		229.54400		875.00000 
 43692.65567		 305.27265			43387.38302		70.12000		324.00000 
 43692.65567		 942.55020			42750.10547		229.54400		875.00000 
 43692.65567		 305.27265			43387.38302		70.12000		324.00000 
 43692.65567		 942.55020			42750.10547		229.54400		875.00000 
 43692.65567		 305.27265			43387.38302		70.12000		324.00000 
 43692.65567		 942.55020			42750.10547		229.54400		875.00000 
 43692.65567		 305.27265			43387.38302		70.12000		324.00000 
 43692.65567		 942.55020			42750.10547		229.54400		875.00000 
 43692.65567		 305.27265			43387.38302		70.12000		324.00000 
 43692.65567		 942.55020			42750.10547		229.54400		875.00000 
 43692.65567		 305.27265			43387.38302		70.12000		324.00000 
 43692.65567		 942.55020			42750.10547		229.54400		875.00000 
 43692.65567		 305.27265			43387.38302		70.12000		324.00000 
 43692.65567		 942.55020			42750.10547		229.54400		875.00000 
 43692.65567		 305.27265			43387.38302		70.12000		324.00000 
 43692.65567		 942.55020			42750.10547		229.54400		875.00000 
 43692.65567		 305.27265			43387.38302		70.12000		324.00000 
 43692.65567		 942.55020			42750.10547		229.54400		875.00000 
 43692.65567		 305.27265			43387.38302		70.12000		324.00000 
 43692.65567		 942.55020			42750.10547		229.54400		875.00000 
 43692.65567		 305.27265			43387.38302		70.12000		324.00000 
 43692.65567		 942.55020			42750.10547		229.54400		875.00000 
 43692.65567		 305.27265			43387.38302		70.12000		324.00000 
 43692.65567		 942.55020			42750.10547		229.54400		875.00000 
 43692.65567		 305.27265			43387.38302		70.12000		324.00000 
 43692.65567		 942.55020			42750.10547		229.54400		875.00000 
 43692.65567		 305.27265			43387.38302		70.12000		324.00000 
 43692.65567		 942.55020			42750.10547		229.54400		875.00000 
 43692.65567		 305.27265			43387.38302		70.12000		324.00000 
 43692.65567		 942.55020			42750.10547		229.54400		875.00000 
 43692.65567		 305.27265			43387.38302		70.12000		324.00000 
 43692.65567		 942.55020			42750.10547		229.54400		875.00000 
 43692.65567		 305.27265			43387.38302		70.12000		324.00000 
 43692.65567		 942.55020			42750.10547		229.54400		875.00000 
 43692.65567		 305.27265			43387.38302		70.12000		324.00000 
 43692.65567		 942.55020			42750.10547		229.54400		875.00000 
 43692.65567		 305.27265			43387.38302		70.12000		324.00000 
 43692.65567		 942.55020			42750.10547		229.54400		875.00000 
 43692.65567		 305.27265			43387.38302		70.12000		324.00000 
 43692.65567		 942.55020			42750.10547		229.54400		875.00000 
 43692.65567		 305.27265			43387.38302		70.12000		324.00000 
 43692.65567		 942.55020			42750.10547		229.54400		875.00000 
 43692.65567		 305.27265			43387.38302		70.12000		324.00000 
 43692.65567		 942.55020			42750.10547		229.54400		875.00000 
 43692.65567		 305.27265			43387.38302		70.12000		324.00000 
 43692.65567		 942.55020			42750.10547		229.54400		875.00000 
 43692.65567		 305.27265			43387.38302		70.12000		324.00000 
 43692.65567		 942.55020			42750.10547		229.54400		875.00000 
 43692.65567		 305.27265			43387.38302		70.12000		324.00000 
 43692.65567		 942.55020			42750.10547		229.54400		875.00000 
 43692.65567		 305.27265			43387.38302		70.12000		324.00000 
 43692.65567		 942.55020			42750.10547		229.54400		875.00000 
 43692.65567		 305.27265			43387.38302		70.12000		324.00000 
 43692.65567		 942.55020			42750.10547		229.54400		875.00000 
 43692.65567		 305.27265			43387.38302		70.12000		324.00000 
 43692.65567		 942.55020			42750.10547		229.54400		875.00000 
 43692.65567		 305.27265			43387.38302		70.12000		324.00000 
 43692.65567		 942.55020			42750.10547		229.54400		875.00000 
 43692.65567		 305.27265			43387.38302		70.12000		324.00000 
 43692.65567		 942.55020			42750.10547		229.54400		875.00000 
 43692.65567		 305.27265			43387.38302		70.12000		324.00000 
 43692.65567		 942.55020			42750.10547		229.54400		875.00000 
 43692.65567		 305.27265			43387.38302		70.12000		324.00000 
 43692.65567		 942.55020			42750.10547		229.54400		875.00000 
 43692.65567		 305.27265			43387.38302		70.12000		324.00000 
 43692.65567		 942.55020			42750.10547		229.54400		875.00000 
 43692.65567		 305.27265			43387.38302		70.12000		324.00000 
 43692.65567		 942.55020			42750.10547		229.54400		875.00000 
 43692.65567		 305.27265			43387.38302		70.12000		324.00000 
 43692.65567		 942.55020			42750.10547		229.54400		875.00000 
 43692.65567		 305.27265			43387.38302		70.12000		324.00000 
 43692.65567		 942.55020			42750.10547		229.54400		875.00000 
 43692.65567		 305.27265			43387.38302		70.12000		324.00000 
 43692.65567		 942.55020			42750.10547		229.54400		875.00000 
 43692.65567		 305.27265			43387.38302		70.12000		324.00000 
 43692.65567		 942.55020			42750.10547		229.54400		875.00000 
 43692.65567		 305.27265			43387.38302		70.12000		324.00000 
 43692.65567		 942.55020			42750.10547		229.54400		875.00000 
 43692.65567		 305.27265			43387.38302		70.12000		324.00000 
 43692.65567		 942.55020			42750.10547		229.54400		875.00000 
 43692.65567		 305.27265			43387.38302		70.12000		324.00000 
 43692.65567		 942.55020			42750.10547		229.54400		875.00000 
 43692.65567		 305.27265			43387.38302		70.12000		324.00000 
 43692.65567		 942.55020			42750.10547		229.54400		875.00000 
 43692.65567		 305.27265			43387.38302		70.12000		324.00000 
 43692.65567		 942.55020			42750.10547		229.54400		875.00000 
 43692.65567		 305.27265			43387.38302		70.12000		324.00000 
 43692.65567		 942.55020			42750.10547		229.54400		875.00000 
 43692.65567		 305.27265			43387.38302		70.12000		324.00000 
 43692.65567		 942.55020			42750.10547		229.54400		875.00000 
 43692.65567		 305.27265			43387.38302		70.12000		324.00000 
 43692.65567		 942.55020			42750.10547		229.54400		875.00000 
 43692.65567		 305.27265			43387.38302		70.12000		324.00000 
 43692.65567		 942.55020			42750.10547		229.54400		875.00000 
 43692.65567		 305.27265			43387.38302		70.12000		324.00000 
 43692.65567		 942.55020			42750.10547		229.54400		875.00000 
 43692.65567		 305.27265			43387.38302		70.12000		324.00000 
 43692.65567		 942.55020			42750.10547		229.54400		875.00000 
 43692.65567		 305.27265			43387.38302		70.12000		324.00000 
 43692.65567		 942.55020			42750.10547		229.54400		875.00000 
 43692.65567		 305.27265			43387.38302		70.12000		324.00000 
 43692.65567		 942.55020			42750.10547		229.54400		875.00000 
 43692.65567		 305.27265			43387.38302		70.12000		324.00000 
 43692.65567		 942.55020			42750.10547		229.54400		875.00000 
 43692.65567		 305.27265			43387.38302		70.12000		324.00000 
 43692.65567		 942.55020			42750.10547		229.54400		875.00000 
 43692.65567		 305.27265			43387.38302		70.12000		324.00000 
 43692.65567		 942.55020			42750.10547		229.54400		875.00000 
 43692.65567		 305.27265			43387.38302		70.12000		324.00000 
 43692.65567		 942.55020			42750.10547		229.54400		875.00000 
 43692.65567		 305.27265			43387.38302		70.12000		324.00000 
 43692.65567		 942.55020			42750.10547		229.54400		875.00000 
 43692.65567		 305.27265			43387.38302		70.12000		324.00000 
 43692.65567		 942.55020			42750.10547		229.54400		875.00000 
 43692.65567		 305.27265			43387.38302		70.12000		324.00000 
 43692.65567		 942.55020			42750.10547		229.54400		875.00000 
 43692.65567		 305.27265			43387.38302		70.12000		324.00000 
 43692.65567		 942.55020			42750.10547		229.54400		875.00000 
 43692.65567		 305.27265			43387.38302		70.12000		324.00000 
 43692.65567		 942.55020			42750.10547		229.54400		875.00000 
 43692.65567		 305.27265			43387.38302		70.12000		324.00000 
 43692.65567		 942.55020			42750.10547		229.54400		875.00000 
 43692.65567		 305.27265			43387.38302		70.12000		324.00000 
 43692.65567		 942.55020			42750.10547		229.54400		875.00000 
 43692.65567		 305.27265			43387.38302		70.12000		324.00000 
 43692.65567		 942.55020			42750.10547		229.54400		875.00000 
 43692.65567		 305.27265			43387.38302		70.12000		324.00000 
 43692.65567		 942.55020			42750.10547		229.54400		875.00000 
 43692.65567		 305.27265			43387.38302		70.12000		324.00000 
 43692.65567		 942.55020			42750.10547		229.54400		875.00000 
 43692.65567		 305.27265			43387.38302		70.12000		324.00000 
 43692.65567		 942.55020			42750.10547		229.54400		875.00000 
 43692.65567		 305.27265			43387.38302		70.12000		324.00000 
 43692.65567		 942.55020			42750.10547		229.54400		875.00000 
 43692.65567		 305.27265			43387.38302		70.12000		324.00000 
 43692.65567		 942.55020			42750.10547		229.54400		875.00000 
 43692.65567		 305.27265			43387.38302		70.12000		324.00000 
 43692.65567		 942.55020			42750.10547		229.54400		875.00000 
 43692.65567		 305.27265			43387.38302		70.12000		324.00000 
 43692.65567		 942.55020			42750.10547		229.54400		875.00000 
 43692.65567		 305.27265			43387.38302		70.12000		324.00000 
 43692.65567		 942.55020			42750.10547		229.54400		875.00000 
 43692.65567		 305.27265			43387.38302		70.12000		324.00000 
 43692.65567		 942.55020			42750.10547		229.54400		875.00000 
 43692.65567		 305.27265			43387.38302		70.12000		324.00000 
 43692.65567		 942.55020			42750.10547		229.54400		875.00000 
 43692.65567		 305.27265			43387.38302		70.12000		324.00000 
 43692.65567		 942.55020			42750.10547		229.54400		875.00000 
 43692.65567		 305.27265			43387.38302		70.12000		324.00000 
 43692.65567		 942.55020			42750.10547		229.54400		875.00000 
 43692.65567		 305.27265			43387.38302		70.12000		324.00000 
 43692.65567		 942.55020			42750.10547		229.54400		875.00000 
 43692.65567		 305.27265			43387.38302		70.12000		324.00000 
 43692.65567		 942.55020			42750.10547		229.54400		875.00000 
 43692.65567		 305.27265			43387.38302		70.12000		324.00000 
 43692.65567		 942.55020			42750.10547		229.54400		875.00000 
 43692.65567		 305.27265			43387.38302		70.12000		324.00000 
 43692.65567		 942.55020			42750.10547		229.54400		875.00000 
 43692.65567		 305.27265			43387.38302		70.12000		324.00000 
 43692.65567		 942.55020			42750.10547		229.54400		875.00000 
 43692.65567		 305.27265			43387.38302		70.12000		324.00000 
 43692.65567		 942.55020			42750.10547		229.54400		875.00000 
 43692.65567		 305.27265			43387.38302		70.12000		324.00000 
 43692.65567		 942.55020			42750.10547		229.54400		875.00000 
 43692.65567		 305.27265			43387.38302		70.12000		324.00000 
 43692.65567		 942.55020			42750.10547		229.54400		875.00000 
 43692.65567		 305.27265			43387.38302		70.12000		324.00000 
 43692.65567		 942.55020			42750.10547		229.54400		875.00000 
 43692.65567		 305.27265			43387.38302		70.12000		324.00000 
 43692.65567		 942.55020			42750.10547		229.54400		875.00000 
 43692.65567		 305.27265			43387.38302		70.12000		324.00000 
 43692.65567		 942.55020			42750.10547		229.54400		875.00000 
 43692.65567		 305.27265			43387.38302		70.12000		324.00000 
 43692.65567		 942.55020			42750.10547		229.54400		875.00000 
 43692.65567		 305.27265			43387.38302		70.12000		324.00000 
 43692.65567		 942.55020			42750.10547		229.54400		875.00000 
 43692.65567		 305.27265			43387.38302		70.12000		324.00000 
 43692.65567		 942.55020			42750.10547		229.54400		875.00000 
 43692.65567		 305.27265			43387.38302		70.12000		324.00000 
 43692.65567		 942.55020			42750.10547		229.54400		875.00000 
 43692.65567		 305.27265			43387.38302		70.12000		324.00000 
 43692.65567		 942.55020			42750.10547		229.54400		875.00000 
 43692.65567		 305.27265			43387.38302		70.12000		324.00000 
 43692.65567		 942.55020			42750.10547		229.54400		875.00000 
 43692.65567		 305.27265			43387.38302		70.12000		324.00000 
 43692.65567		 942.55020			42750.10547		229.54400		875.00000 
 43692.65567		 305.27265			43387.38302		70.12000		324.00000 
 43692.65567		 942.55020			42750.10547		229.54400		875.00000 
 43692.65567		 305.27265			43387.38302		70.12000		324.00000 
 43692.65567		 942.55020			42750.10547		229.54400		875.00000 
 43692.65567		 305.27265			43387.38302		70.12000		324.00000 
 43692.65567		 942.55020			42750.10547		229.54400		875.00000 
 43692.65567		 305.27265			43387.38302		70.12000		324.00000 
 43692.65567		 942.55020			42750.10547		229.54400		875.00000 
 43692.65567		 305.27265			43387.38302		70.12000		324.00000 
 43692.65567		 942.55020			42750.10547		229.54400		875.00000 
 43692.65567		 305.27265			43387.38302		70.12000		324.00000 
 43692.65567		 942.55020			42750.10547		229.54400		875.00000 
 43692.65567		 305.27265			43387.38302		70.12000		324.00000 
 43692.65567		 942.55020			42750.10547		229.54400		875.00000 
 43692.65567		 305.27265			43387.38302		70.12000		324.00000 
 43692.65567		 942.55020			42750.10547		229.54400		875.00000 
 43692.65567		 305.27265			43387.38302		70.12000		324.00000 
 43692.65567		 942.55020			42750.10547		229.54400		875.00000 
 43692.65567		 305.27265			43387.38302		70.12000		324.00000 
 43692.65567		 942.55020			42750.10547		229.54400		875.00000 
 43692.65567		 305.27265			43387.38302		70.12000		324.00000 
 43692.65567		 942.55020			42750.10547		229.54400		875.00000 
 43692.65567		 305.27265			43387.38302		70.12000		324.00000 
 43692.65567		 942.55020			42750.10547		229.54400		875.00000 
 43692.65567		 305.27265			43387.38302		70.12000		324.00000 
 43692.65567		 942.55020			42750.10547		229.54400		875.00000 
 43692.65567		 305.27265			43387.38302		70.12000		324.00000 
 43692.65567		 942.55020			42750.10547		229.54400		875.00000 
 43692.65567		 305.27265			43387.38302		70.12000		324.00000 
 43692.65567		 942.55020			42750.10547		229.54400		875.00000 
 43692.65567		 305.27265			43387.38302		70.12000		324.00000 
 43692.65567		 942.55020			42750.10547		229.54400		875.00000 
 43692.65567		 305.27265			43387.38302		70.12000		324.00000 
 43692.65567		 942.55020			42750.10547		229.54400		875.00000 
 43692.65567		 305.27265			43387.38302		70.12000		324.00000 
 43692.65567		 942.55020			42750.10547		229.54400		875.00000 
 43692.65567		 305.27265			43387.38302		70.12000		324.00000 
 43692.65567		 942.55020			42750.10547		229.54400		875.00000 
 43692.65567		 305.27265			43387.38302		70.12000		324.00000 
 43692.65567		 942.55020			42750.10547		229.54400		875.00000 
 43692.65567		 305.27265			43387.38302		70.12000		324.00000 
 43692.65567		 942.55020			42750.10547		229.54400		875.00000 
 43692.65567		 305.27265			43387.38302		70.12000		324.00000 
 43692.65567		 942.55020			42750.10547		229.54400		875.00000 
 43692.65567		 305.27265			43387.38302		70.12000		324.00000 
 43692.65567		 942.55020			42750.10547		229.54400		875.00000 
 43692.65567		 305.27265			43387.38302		70.12000		324.00000 
 43692.65567		 942.55020			42750.10547		229.54400		875.00000 
 43692.65567		 305.27265			43387.38302		70.12000		324.00000 
 43692.65567		 942.55020			42750.10547		229.54400		875.00000 
 43692.65567		 305.27265			43387.38302		70.12000		324.00000 
 43692.65567		 942.55020			42750.10547		229.54400		875.00000 
 43692.65567		 305.27265			43387.38302		70.12000		324.00000 
 43692.65567		 942.55020			42750.10547		229.54400		875.00000 
 43692.65567		 305.27265			43387.38302		70.12000		324.00000 
 43692.65567		 942.55020			42750.10547		229.54400		875.00000 
 43692.65567		 305.27265			43387.38302		70.12000		324.00000 
 43692.65567		 942.55020			42750.10547		229.54400		875.00000 
 43692.65567		 305.27265			43387.38302		70.12000		324.00000 
 43692.65567		 942.55020			42750.10547		229.54400		875.00000 
 43692.65567		 305.27265			43387.38302		70.12000		324.00000 
 43692.65567		 942.55020			42750.10547		229.54400		875.00000 
 43692.65567		 305.27265			43387.38302		70.12000		324.00000 
 43692.65567		 942.55020			42750.10547		229.54400		875.00000 
 43692.65567		 305.27265			43387.38302		70.12000		324.00000 
 43692.65567		 942.55020			42750.10547		229.54400		875.00000 
 43692.65567		 305.27265			43387.38302		70.12000		324.00000 
 43692.65567		 942.55020			42750.10547		229.54400		875.00000 
 43692.65567		 305.27265			43387.38302		70.12000		324.00000 
 43692.65567		 942.55020			42750.10547		229.54400		875.00000 
 43692.65567		 305.27265			43387.38302		70.12000		324.00000 
 43692.65567		 942.55020			42750.10547		229.54400		875.00000 
 43692.65567		 305.27265			43387.38302		70.12000		324.00000 
 43692.65567		 942.55020			42750.10547		229.54400		875.00000 
 43692.65567		 305.27265			43387.38302		70.12000		324.00000 
 43692.65567		 942.55020			42750.10547		229.54400		875.00000 
 43692.65567		 305.27265			43387.38302		70.12000		324.00000 
 43692.65567		 942.55020			42750.10547		229.54400		875.00000 
 43692.65567		 305.27265			43387.38302		70.12000		324.00000 
 43692.65567		 942.55020			42750.10547		229.54400		875.00000 
 43692.65567		 305.27265			43387.38302		70.12000		324.00000 
 43692.65567		 942.55020			42750.10547		229.54400		875.00000 
 43692.65567		 305.27265			43387.38302		70.12000		324.00000 
 43692.65567		 942.55020			42750.10547		229.54400		875.00000 
 43692.65567		 305.27265			43387.38302		70.12000		324.00000 
 43692.65567		 942.55020			42750.10547		229.54400		875.00000 
 43692.65567		 305.27265			43387.38302		70.12000		324.00000 
 43692.65567		 942.55020			42750.10547		229.54400		875.00000 
 43692.65567		 305.27265			43387.38302		70.12000		324.00000 
 43692.65567		 942.55020			42750.10547		229.54400		875.00000 
 43692.65567		 305.27265			43387.38302		70.12000		324.00000 
 43692.65567		 942.55020			42750.10547		229.54400		875.00000 
 43692.65567		 305.27265			43387.38302		70.12000		324.00000 
 43692.65567		 942.55020			42750.10547		229.54400		875.00000 
 43692.65567		 305.27265			43387.38302		70.12000		324.00000 
 43692.65567		 942.55020			42750.10547		229.54400		875.00000 
 43692.65567		 305.27265			43387.38302		70.12000		324.00000 
 43692.65567		 942.55020			42750.10547		229.54400		875.00000 
 43692.65567		 305.27265			43387.38302		70.12000		324.00000 
 43692.65567		 942.55020			42750.10547		229.54400		875.00000 
 43692.65567		 305.27265			43387.38302		70.12000		324.00000 
 43692.65567		 942.55020			42750.10547		229.54400		875.00000 
 43692.65567		 305.27265			43387.38302		70.12000		324.00000 
 43692.65567		 942.55020			42750.10547		229.54400		875.00000 
 43692.65567		 305.27265			43387.38302		70.12000		324.00000 
 43692.65567		 942.55020			42750.10547		229.54400		875.00000 
 43692.65567		 305.27265			43387.38302		70.12000		324.00000 
 43692.65567		 942.55020			42750.10547		229.54400		875.00000 
 43692.65567		 305.27265			43387.38302		70.12000		324.00000 
 43692.65567		 942.55020			42750.10547		229.54400		875.00000 
 43692.65567		 305.27265			43387.38302		70.12000		324.00000 
 43692.65567		 942.55020			42750.10547		229.54400		875.00000 
 43692.65567		 305.27265			43387.38302		70.12000		324.00000 
 43692.65567		 942.55020			42750.10547		229.54400		875.00000 
 43692.65567		 305.27265			43387.38302		70.12000		324.00000 
 43692.65567		 942.55020			42750.10547		229.54400		875.00000 
 43692.65567		 305.27265			43387.38302		70.12000		324.00000 
 43692.65567		 942.55020			42750.10547		229.54400		875.00000 
 43692.65567		 305.27265			43387.38302		70.12000		324.00000 
 43692.65567		 942.55020			42750.10547		229.54400		875.00000 
 43692.65567		 305.27265			43387.38302		70.12000		324.00000 
 43692.65567		 942.55020			42750.10547		229.54400		875.00000 
 43692.65567		 305.27265			43387.38302		70.12000		324.00000 
 43692.65567		 942.55020			42750.10547		229.54400		875.00000 
 43692.65567		 305.27265			43387.38302		70.12000		324.00000 
 43692.65567		 942.55020			42750.10547		229.54400		875.00000 
 43692.65567		 305.27265			43387.38302		70.12000		324.00000 
 43692.65567		 942.55020			42750.10547		229.54400		875.00000 
 43692.65567		 305.27265			43387.38302		70.12000		324.00000 
 43692.65567		 942.55020			42750.10547		229.54400		875.00000 
 43692.65567		 305.27265			43387.38302		70.12000		324.00000 
 43692.65567		 942.55020			42750.10547		229.54400		875.00000 
 43692.65567		 305.27265			43387.38302		70.12000		324.00000 
 43692.65567		 942.55020			42750.10547		229.54400		875.00000 
 43692.65567		 305.27265			43387.38302		70.12000		324.00000 
 43692.65567		 942.55020			42750.10547		229.54400		875.00000 
 43692.65567		 305.27265			43387.38302		70.12000		324.00000 
 43692.65567		 942.55020			42750.10547		229.54400		875.00000 
 43692.65567		 305.27265			43387.38302		70.12000		324.00000 
 43692.65567		 942.55020			42750.10547		229.54400		875.00000 
 43692.65567		 305.27265			43387.38302		70.12000		324.00000 
 43692.65567		 942.55020			42750.10547		229.54400		875.00000 
 43692.65567		 305.27265			43387.38302		70.12000		324.00000 
 43692.65567		 942.55020			42750.10547		229.54400		875.00000 
 43692.65567		 305.27265			43387.38302		70.12000		324.00000 
 43692.65567		 942.55020			42750.10547		229.54400		875.00000 
 43692.65567		 305.27265			43387.38302		70.12000		324.00000 
 43692.65567		 942.55020			42750.10547		229.54400		875.00000 
 43692.65567		 305.27265			43387.38302		70.12000		324.00000 
 43692.65567		 942.55020			42750.10547		229.54400		875.00000 
 43692.65567		 305.27265			43387.38302		70.12000		324.00000 
 43692.65567		 942.55020			42750.10547		229.54400		875.00000 
 43692.65567		 305.27265			43387.38302		70.12000		324.00000 
 43692.65567		 942.55020			42750.10547		229.54400		875.00000 
 43692.65567		 305.27265			43387.38302		70.12000		324.00000 
 43692.65567		 942.55020			42750.10547		229.54400		875.00000 
 43692.65567		 305.27265			43387.38302		70.12000		324.00000 
 43692.65567		 942.55020			42750.10547		229.54400		875.00000 
 43692.65567		 305.27265			43387.38302		70.12000		324.00000 
 43692.65567		 942.55020			42750.10547		229.54400		875.00000 
 43692.65567		 305.27265			43387.38302		70.12000		324.00000 
 43692.65567		 942.55020			42750.10547		229.54400		875.00000 
 43692.65567		 305.27265			43387.38302		70.12000		324.00000 
 43692.65567		 942.55020			42750.10547		229.54400		875.00000 
 43692.65567		 305.27265			43387.38302		70.12000		324.00000 
 43692.65567		 942.55020			42750.10547		229.54400		875.00000 
 43692.65567		 305.27265			43387.38302		70.12000		324.00000 
 43692.65567		 942.55020			42750.10547		229.54400		875.00000 
 43692.65567		 305.27265			43387.38302		70.12000		324.00000 
 43692.65567		 942.55020			42750.10547		229.54400		875.00000 
 43692.65567		 305.27265			43387.38302		70.12000		324.00000 
 43692.65567		 942.55020			42750.10547		229.54400		875.00000 
 43692.65567		 305.27265			43387.38302		70.12000		324.00000 
 43692.65567		 942.55020			42750.10547		229.54400		875.00000 
 43692.65567		 305.27265			43387.38302		70.12000		324.00000 
 43692.65567		 942.55020			42750.10547		229.54400		875.00000 
 43692.65567		 305.27265			43387.38302		70.12000		324.00000 
 43692.65567		 942.55020			42750.10547		229.54400		875.00000 
 43692.65567		 305.27265			43387.38302		70.12000		324.00000 
 43692.65567		 942.55020			42750.10547		229.54400		875.00000 
 43692.65567		 305.27265			43387.38302		70.12000		324.00000 
 43692.65567		 942.55020			42750.10547		229.54400		875.00000 
 43692.65567		 305.27265			43387.38302		70.12000		324.00000 
 43692.65567		 942.55020			42750.10547		229.54400		875.00000 
 43692.65567		 305.27265			43387.38302		70.12000		324.00000 
 43692.65567		 942.55020			42750.10547		229.54400		875.00000 
 43692.65567		 305.27265			43387.38302		70.12000		324.00000 
 43692.65567		 942.55020			42750.10547		229.54400		875.00000 
 43692.65567		 305.27265			43387.38302		70.12000		324.00000 
 43692.65567		 942.55020			42750.10547		229.54400		875.00000 
 43692.65567		 305.27265			43387.38302		70.12000		324.00000 
 43692.65567		 942.55020			42750.10547		229.54400		875.00000 
 43692.65567		 305.27265			43387.38302		70.12000		324.00000 
 43692.65567		 942.55020			42750.10547		229.54400		875.00000 
 43692.65567		 305.27265			43387.38302		70.12000		324.00000 
 43692.65567		 942.55020			42750.10547		229.54400		875.00000 
 43692.65567		 305.27265			43387.38302		70.12000		324.00000 
 43692.65567		 942.55020			42750.10547		229.54400		875.00000 
 43692.65567		 305.27265			43387.38302		70.12000		324.00000 
 43692.65567		 942.55020			42750.10547		229.54400		875.00000 
 43692.65567		 305.27265			43387.38302		70.12000		324.00000 
 43692.65567		 942.55020			42750.10547		229.54400		875.00000 
 43692.65567		 305.27265			43387.38302		70.12000		324.00000 
 43692.65567		 942.55020			42750.10547		229.54400		875.00000 
 43692.65567		 305.27265			43387.38302		70.12000		324.00000 
 43692.65567		 942.55020			42750.10547		229.54400		875.00000 
 43692.65567		 305.27265			43387.38302		70.12000		324.00000 
 43692.65567		 942.55020			42750.10547		229.54400		875.00000 
 43692.65567		 305.27265			43387.38302		70.12000		324.00000 
 43692.65567		 942.55020			42750.10547		229.54400		875.00000 
 43692.65567		 305.27265			43387.38302		70.12000		324.00000 
 43692.65567		 942.55020			42750.10547		229.54400		875.00000 
 43692.65567		 305.27265			43387.38302		70.12000		324.00000 
 43692.65567		 942.55020			42750.10547		229.54400		875.00000 
 43692.65567		 305.27265			43387.38302		70.12000		324.00000 
 43692.65567		 942.55020			42750.10547		229.54400		875.00000 
 43692.65567		 305.27265			43387.38302		70.12000		324.00000 
 43692.65567		 942.55020			42750.10547		229.54400		875.00000 
 43692.65567		 305.27265			43387.38302		70.12000		324.00000 
 43692.65567		 942.55020			42750.10547		229.54400		875.00000 
 43692.65567		 305.27265			43387.38302		70.12000		324.00000 
 43692.65567		 942.55020			42750.10547		229.54400		875.00000 
 43692.65567		 305.27265			43387.38302		70.12000		324.00000 
 43692.65567		 942.55020			42750.10547		229.54400		875.00000 
 43692.65567		 305.27265			43387.38302		70.12000		324.00000 
 43692.65567		 942.55020			42750.10547		229.54400		875.00000 
 43692.65567		 305.27265			43387.38302		70.12000		324.00000 
 43692.65567		 942.55020			42750.10547		229.54400		875.00000 
 43692.65567		 305.27265			43387.38302		70.12000		324.00000 
 43692.65567		 942.55020			42750.10547		229.54400		875.00000 
 43692.65567		 305.27265			43387.38302		70.12000		324.00000 
 43692.65567		 942.55020			42750.10547		229.54400		875.00000 
 43692.65567		 305.27265			43387.38302		70.12000		324.00000 
 43692.65567		 942.55020			42750.10547		229.54400		875.00000 
 43692.65567		 305.27265			43387.38302		70.12000		324.00000 
 43692.65567		 942.55020			42750.10547		229.54400		875.00000 
 43692.65567		 305.27265			43387.38302		70.12000		324.00000 
 43692.65567		 942.55020			42750.10547		229.54400		875.00000 
 43692.65567		 305.27265			43387.38302		70.12000		324.00000 
 43692.65567		 942.55020			42750.10547		229.54400		875.00000 
 43692.65567		 305.27265			43387.38302		70.12000		324.00000 
 43692.65567		 942.55020			42750.10547		229.54400		875.00000 
 43692.65567		 305.27265			43387.38302		70.12000		324.00000 
 43692.65567		 942.55020			42750.10547		229.54400		875.00000 
 43692.65567		 305.27265			43387.38302		70.12000		324.00000 
 43692.65567		 942.55020			42750.10547		229.54400		875.00000 
 43692.65567		 305.27265			43387.38302		70.12000		324.00000 
 43692.65567		 942.55020			42750.10547		229.54400		875.00000 
 43692.65567		 305.27265			43387.38302		70.12000		324.00000 
 43692.65567		 942.55020			42750.10547		229.54400		875.00000 
 43692.65567		 305.27265			43387.38302		70.12000		324.00000 
 43692.65567		 942.55020			42750.10547		229.54400		875.00000 
 43692.65567		 305.27265			43387.38302		70.12000		324.00000 
 43692.65567		 942.55020			42750.10547		229.54400		875.00000 
 43692.65567		 305.27265			43387.38302		70.12000		324.00000 
 43692.65567		 942.55020			42750.10547		229.54400		875.00000 
 43692.65567		 305.27265			43387.38302		70.12000		324.00000 
 43692.65567		 942.55020			42750.10547		229.54400		875.00000 
 43692.65567		 305.27265			43387.38302		70.12000		324.00000 
 43692.65567		 942.55020			42750.10547		229.54400		875.00000 
 43692.65567		 305.27265			43387.38302		70.12000		324.00000 
 43692.65567		 942.55020			42750.10547		229.54400		875.00000 
 43692.65567		 305.27265			43387.38302		70.12000		324.00000 
 43692.65567		 942.55020			42750.10547		229.54400		875.00000 
 43692.65567		 305.27265			43387.38302		70.12000		324.00000 
 43692.65567		 942.55020			42750.10547		229.54400		875.00000 
 43692.65567		 305.27265			43387.38302		70.12000		324.00000 
 43692.65567		 942.55020			42750.10547		229.54400		875.00000 
 43692.65567		 305.27265			43387.38302		70.12000		324.00000 
 43692.65567		 942.55020			42750.10547		229.54400		875.00000 
 43692.65567		 305.27265			43387.38302		70.12000		324.00000 
 43692.65567		 942.55020			42750.10547		229.54400		875.00000 
 43692.65567		 305.27265			43387.38302		70.12000		324.00000 
 43692.65567		 942.55020			42750.10547		229.54400		875.00000 
 43692.65567		 305.27265			43387.38302		70.12000		324.00000 
 43692.65567		 942.55020			42750.10547		229.54400		875.00000 
 43692.65567		 305.27265			43387.38302		70.12000		324.00000 
 43692.65567		 942.55020			42750.10547		229.54400		875.00000 
 43692.65567		 305.27265			43387.38302		70.12000		324.00000 
 43692.65567		 942.55020			42750.10547		229.54400		875.00000 
 43692.65567		 305.27265			43387.38302		70.12000		324.00000 
 43692.65567		 942.55020			42750.10547		229.54400		875.00000 
 43692.65567		 305.27265			43387.38302		70.12000		324.00000 
 43692.65567		 942.55020			42750.10547		229.54400		875.00000 
 43692.65567		 305.27265			43387.38302		70.12000		324.00000 
 43692.65567		 942.55020			42750.10547		229.54400		875.00000 
 43692.65567		 305.27265			43387.38302		70.12000		324.00000 
 43692.65567		 942.55020			42750.10547		229.54400		875.00000 
 43692.65567		 305.27265			43387.38302		70.12000		324.00000 
 43692.65567		 942.55020			42750.10547		229.54400		875.00000 
 43692.65567		 305.27265			43387.38302		70.12000		324.00000 
 43692.65567		 942.55020			42750.10547		229.54400		875.00000 
 43692.65567		 305.27265			43387.38302		70.12000		324.00000 
 43692.65567		 942.55020			42750.10547		229.54400		875.00000 
 43692.65567		 305.27265			43387.38302		70.12000		324.00000 
 43692.65567		 942.55020			42750.10547		229.54400		875.00000 
 43692.65567		 305.27265			43387.38302		70.12000		324.00000 
 43692.65567		 942.55020			42750.10547		229.54400		875.00000 
 43692.65567		 305.27265			43387.38302		70.12000		324.00000 
 43692.65567		 942.55020			42750.10547		229.54400		875.00000 
 43692.65567		 305.27265			43387.38302		70.12000		324.00000 
 43692.65567		 942.55020			42750.10547		229.54400		875.00000 
 43692.65567		 305.27265			43387.38302		70.12000		324.00000 
 43692.65567		 942.55020			42750.10547		229.54400		875.00000 
 43692.65567		 305.27265			43387.38302		70.12000		324.00000 
 43692.65567		 942.55020			42750.10547		229.54400		875.00000 
 43692.65567		 305.27265			43387.38302		70.12000		324.00000 
 43692.65567		 942.55020			42750.10547		229.54400		875.00000 
 43692.65567		 305.27265			43387.38302		70.12000		324.00000 
 43692.65567		 942.55020			42750.10547		229.54400		875.00000 
 43692.65567		 305.27265			43387.38302		70.12000		324.00000 
 43692.65567		 942.55020			42750.10547		229.54400		875.00000 
 43692.65567		 305.27265			43387.38302		70.12000		324.00000 
 43692.65567		 942.55020			42750.10547		229.54400		875.00000 
 43692.65567		 305.27265			43387.38302		70.12000		324.00000 
 43692.65567		 942.55020			42750.10547		229.54400		875.00000 
 43692.65567		 305.27265			43387.38302		70.12000		324.00000 
 43692.65567		 942.55020			42750.10547		229.54400		875.00000 
 43692.65567		 305.27265			43387.38302		70.12000		324.00000 
 43692.65567		 942.55020			42750.10547		229.54400		875.00000 
 43692.65567		 305.27265			43387.38302		70.12000		324.00000 
 43692.65567		 942.55020			42750.10547		229.54400		875.00000 
 43692.65567		 305.27265			43387.38302		70.12000		324.00000 
 43692.65567		 942.55020			42750.10547		229.54400		875.00000 
 43692.65567		 305.27265			43387.38302		70.12000		324.00000 
 43692.65567		 942.55020			42750.10547		229.54400		875.00000 
 43692.65567		 305.27265			43387.38302		70.12000		324.00000 
 43692.65567		 942.55020			42750.10547		229.54400		875.00000 
 43692.65567		 305.27265			43387.38302		70.12000		324.00000 
 43692.65567		 942.55020			42750.10547		229.54400		875.00000 
 43692.65567		 305.27265			43387.38302		70.12000		324.00000 
 43692.65567		 942.55020			42750.10547		229.54400		875.00000 
 43692.65567		 305.27265			43387.38302		70.12000		324.00000 
 43692.65567		 942.55020			42750.10547		229.54400		875.00000 
 43692.65567		 305.27265			43387.38302		70.12000		324.00000 
 43692.65567		 942.55020			42750.10547		229.54400		875.00000 
 43692.65567		 305.27265			43387.38302		70.12000		324.00000 
 43692.65567		 942.55020			42750.10547		229.54400		875.00000 
 43692.65567		 305.27265			43387.38302		70.12000		324.00000 
 43692.65567		 942.55020			42750.10547		229.54400		875.00000 
 43692.65567		 305.27265			43387.38302		70.12000		324.00000 
 43692.65567		 942.55020			42750.10547		229.54400		875.00000 
 43692.65567		 305.27265			43387.38302		70.12000		324.00000 
 43692.65567		 942.55020			42750.10547		229.54400		875.00000 
 43692.65567		 305.27265			43387.38302		70.12000		324.00000 
 43692.65567		 942.55020			42750.10547		229.54400		875.00000 
 43692.65567		 305.27265			43387.38302		70.12000		324.00000 
 43692.65567		 942.55020			42750.10547		229.54400		875.00000 
 43692.65567		 305.27265			43387.38302		70.12000		324.00000 
 43692.65567		 942.55020			42750.10547		229.54400		875.00000 
 43692.65567		 305.27265			43387.38302		70.12000		324.00000 
 43692.65567		 942.55020			42750.10547		229.54400		875.00000 
 43692.65567		 305.27265			43387.38302		70.12000		324.00000 
 43692.65567		 942.55020			42750.10547		229.54400		875.00000 
 43692.65567		 305.27265			43387.38302		70.12000		324.00000 
 43692.65567		 942.55020			42750.10547		229.54400		875.00000 
 43692.65567		 305.27265			43387.38302		70.12000		324.00000 
 43692.65567		 942.55020			42750.10547		229.54400		875.00000 
 43692.65567		 305.27265			43387.38302		70.12000		324.00000 
 43692.65567		 942.55020			42750.10547		229.54400		875.00000 
 43692.65567		 305.27265			43387.38302		70.12000		324.00000 
 43692.65567		 942.55020			42750.10547		229.54400		875.00000 
 43692.65567		 305.27265			43387.38302		70.12000		324.00000 
 43692.65567		 942.55020			42750.10547		229.54400		875.00000 
 43692.65567		 305.27265			43387.38302		70.12000		324.00000 
 43692.65567		 942.55020			42750.10547		229.54400		875.00000 
 43692.65567		 305.27265			43387.38302		70.12000		324.00000 
 43692.65567		 942.55020			42750.10547		229.54400		875.00000 
 43692.65567		 305.27265			43387.38302		70.12000		324.00000 
 43692.65567		 942.55020			42750.10547		229.54400		875.00000 
 43692.65567		 305.27265			43387.38302		70.12000		324.00000 
 43692.65567		 942.55020			42750.10547		229.54400		875.00000 
 43692.65567		 305.27265			43387.38302		70.12000		324.00000 
 43692.65567		 942.55020			42750.10547		229.54400		875.00000 
 43692.65567		 305.27265			43387.38302		70.12000		324.00000 
 43692.65567		 942.55020			42750.10547		229.54400		875.00000 
 43692.65567		 305.27265			43387.38302		70.12000		324.00000 
 43692.65567		 942.55020			42750.10547		229.54400		875.00000 
 43692.65567		 305.27265			43387.38302		70.12000		324.00000 
 43692.65567		 942.55020			42750.10547		229.54400		875.00000 
 43692.65567		 305.27265			43387.38302		70.12000		324.00000 
 43692.65567		 942.55020			42750.10547		229.54400		875.00000 
 43692.65567		 305.27265			43387.38302		70.12000		324.00000 
 43692.65567		 942.55020			42750.10547		229.54400		875.00000 
 43692.65567		 305.27265			43387.38302		70.12000		324.00000 
 43692.65567		 942.55020			42750.10547		229.54400		875.00000 
 43692.65567		 305.27265			43387.38302		70.12000		324.00000 
 43692.65567		 942.55020			42750.10547		229.54400		875.00000 
 43692.65567		 305.27265			43387.38302		70.12000		324.00000 
 43692.65567		 942.55020			42750.10547		229.54400		875.00000 
 43692.65567		 305.27265			43387.38302		70.12000		324.00000 
 43692.65567		 942.55020			42750.10547		229.54400		875.00000 
 43692.65567		 305.27265			43387.38302		70.12000		324.00000 
 43692.65567		 942.55020			42750.10547		229.54400		875.00000 
 43692.65567		 305.27265			43387.38302		70.12000		324.00000 
 43692.65567		 942.55020			42750.10547		229.54400		875.00000 
 43692.65567		 305.27265			43387.38302		70.12000		324.00000 
 43692.65567		 942.55020			42750.10547		229.54400		875.00000 
 43692.65567		 305.27265			43387.38302		70.12000		324.00000 
 43692.65567		 942.55020			42750.10547		229.54400		875.00000 
 43692.65567		 305.27265			43387.38302		70.12000		324.00000 
 43692.65567		 942.55020			42750.10547		229.54400		875.00000 
 43692.65567		 305.27265			43387.38302		70.12000		324.00000 
 43692.65567		 942.55020			42750.10547		229.54400		875.00000 
 43692.65567		 305.27265			43387.38302		70.12000		324.00000 
 43692.65567		 942.55020			42750.10547		229.54400		875.00000 
 43692.65567		 305.27265			43387.38302		70.12000		324.00000 
 43692.65567		 942.55020			42750.10547		229.54400		875.00000 
 43692.65567		 305.27265			43387.38302		70.12000		324.00000 
 43692.65567		 942.55020			42750.10547		229.54400		875.00000 
 43692.65567		 305.27265			43387.38302		70.12000		324.00000 
 43692.65567		 942.55020			42750.10547		229.54400		875.00000 
 43692.65567		 305.27265			43387.38302		70.12000		324.00000 
 43692.65567		 942.55020			42750.10547		229.54400		875.00000 
 43692.65567		 305.27265			43387.38302		70.12000		324.00000 
 43692.65567		 942.55020			42750.10547		229.54400		875.00000 
 43692.65567		 305.27265			43387.38302		70.12000		324.00000 
 43692.65567		 942.55020			42750.10547		229.54400		875.00000 
 43692.65567		 305.27265			43387.38302		70.12000		324.00000 
 43692.65567		 942.55020			42750.10547		229.54400		875.00000 
 43692.65567		 305.27265			43387.38302		70.12000		324.00000 
 43692.65567		 942.55020			42750.10547		229.54400		875.00000 
 43692.65567		 305.27265			43387.38302		70.12000		324.00000 
 43692.65567		 942.55020			42750.10547		229.54400		875.00000 
 43692.65567		 305.27265			43387.38302		70.12000		324.00000 
 43692.65567		 942.55020			42750.10547		229.54400		875.00000 
 43692.65567		 305.27265			43387.38302		70.12000		324.00000 
 43692.65567		 942.55020			42750.10547		229.54400		875.00000 
 43692.65567		 305.27265			43387.38302		70.72000		324.00000 
 43692.65567		 942.55020			42750.10547		229.54400		875.00000 
 43692.65567		 305.27265			43387.38302		70.72000		324.00000 
 43692.65567		 942.55020			42750.10547		229.54400		875.00000 
 43692.65567		 305.27265			43387.38302		70.72000		324.00000 
 43692.65567		 942.55020			42750.10547		229.54400		875.00000 
 43692.65567		 305.27265			43387.38302		70.72000		324.00000 
 43692.65567		 942.55020			42750.10547		229.54400		875.00000 
 43692.65567		 305.27265			43387.38302		70.72000		324.00000 
 43692.65567		 942.55020			42750.10547		229.54400		875.00000 
 43692.65567		 305.27265			43387.38302		70.72000		324.00000 
 43692.65567		 942.55020			42750.10547		229.54400		875.00000 
 43692.65567		 305.27265			43387.38302		70.72000		324.00000 
 43692.65567		 942.55020			42750.10547		229.54400		875.00000 
 43692.65567		 305.27265			43387.38302		70.72000		324.00000 
 43692.65567		 942.55020			42750.10547		229.54400		875.00000 
 43692.65567		 305.27265			43387.38302		70.72000		324.00000 
 43692.65567		 942.55020			42750.10547		229.54400		875.00000 
 43692.65567		 305.27265			43387.38302		70.72000		324.00000 
 43692.65567		 942.55020			42750.10547		229.54400		875.00000 
 43692.65567		 305.27265			43387.38302		70.72000		324.00000 
 43692.65567		 942.55020			42750.10547		229.54400		875.00000 
 43692.65567		 305.27265			43387.38302		70.72000		324.00000 
 43692.65567		 942.55020			42750.10547		229.54400		875.00000 
 43692.65567		 305.27265			43387.38302		70.72000		324.00000 
 43692.65567		 942.55020			42750.10547		229.54400		875.00000 
 43692.65567		 305.27265			43387.38302		70.72000		324.00000 
 43692.65567		 942.55020			42750.10547		229.54400		875.00000 
 43692.65567		 305.27265			43387.38302		70.72000		324.00000 
 43692.65567		 942.55020			42750.10547		229.54400		875.00000 
 43692.65567		 305.27265			43387.38302		70.72000		324.00000 
 43692.65567		 942.55020			42750.10547		229.54400		875.00000 
 43692.65567		 305.27265			43387.38302		70.72000		324.00000 
 43692.65567		 942.55020			42750.10547		229.54400		875.00000 
 43692.65567		 305.27265			43387.38302		70.72000		324.00000 
 43692.65567		 942.55020			42750.10547		229.54400		875.00000 
 43692.65567		 305.27265			43387.38302		70.72000		324.00000 
 43692.65567		 942.55020			42750.10547		229.54400		875.00000 
 43692.65567		 305.27265			43387.38302		70.72000		324.00000 
 43692.65567		 942.55020			42750.10547		229.54400		875.00000 
 43692.65567		 305.27265			43387.38302		70.72000		324.00000 
 43692.65567		 942.55020			42750.10547		229.54400		875.00000 
 43692.65567		 305.27265			43387.38302		70.72000		324.00000 
 43692.65567		 942.55020			42750.10547		229.54400		875.00000 
 43692.65567		 305.27265			43387.38302		70.72000		324.00000 
 43692.65567		 942.55020			42750.10547		229.54400		875.00000 
 43692.65567		 305.27265			43387.38302		70.72000		324.00000 
 43692.65567		 942.55020			42750.10547		229.54400		875.00000 
 43692.65567		 305.27265			43387.38302		70.72000		324.00000 
 43692.65567		 942.55020			42750.10547		229.54400		875.00000 
 43692.65567		 305.27265			43387.38302		70.72000		324.00000 
 43692.65567		 942.55020			42750.10547		229.54400		875.00000 
 43692.65567		 305.27265			43387.38302		70.72000		324.00000 
 43692.65567		 942.55020			42750.10547		229.54400		875.00000 
 43692.65567		 305.27265			43387.38302		70.72000		324.00000 
 43692.65567		 942.55020			42750.10547		229.54400		875.00000 
 43692.65567		 305.27265			43387.38302		70.72000		324.00000 
 43692.65567		 942.55020			42750.10547		229.54400		875.00000 
 43692.65567		 305.27265			43387.38302		70.72000		324.00000 
 43692.65567		 942.55020			42750.10547		229.54400		875.00000 
 43692.65567		 305.27265			43387.38302		70.72000		324.00000 
 43692.65567		 942.55020			42750.10547		229.54400		875.00000 
 43692.65567		 305.27265			43387.38302		70.72000		324.00000 
 43692.65567		 942.55020			42750.10547		229.54400		875.00000 
 43692.65567		 305.27265			43387.38302		70.72000		324.00000 
 43692.65567		 942.55020			42750.10547		229.54400		875.00000 
 43692.65567		 305.27265			43387.38302		70.72000		324.00000 
 43692.65567		 942.55020			42750.10547		229.54400		875.00000 
 43692.65567		 305.27265			43387.38302		70.72000		324.00000 
 43692.65567		 942.55020			42750.10547		229.54400		875.00000 
 43692.65567		 305.27265			43387.38302		70.72000		324.00000 
 43692.65567		 942.55020			42750.10547		229.54400		875.00000 
 43692.65567		 305.27265			43387.38302		70.72000		324.00000 
 43692.65567		 942.55020			42750.10547		229.54400		875.00000 
 43692.65567		 305.27265			43387.38302		70.72000		324.00000 
 43692.65567		 942.55020			42750.10547		229.54400		875.00000 
 43692.65567		 305.27265			43387.38302		70.72000		324.00000 
 43692.65567		 942.55020			42750.10547		229.54400		875.00000 
 43692.65567		 305.27265			43387.38302		70.72000		324.00000 
 43692.65567		 942.55020			42750.10547		229.54400		875.00000 
 43692.65567		 305.27265			43387.38302		70.72000		324.00000 
 43692.65567		 942.55020			42750.10547		229.54400		875.00000 
 43692.65567		 305.27265			43387.38302		70.72000		324.00000 
 43692.65567		 942.55020			42750.10547		229.54400		875.00000 
 43692.65567		 305.27265			43387.38302		70.72000		324.00000 
 43692.65567		 942.55020			42750.10547		229.54400		875.00000 
 43692.65567		 305.27265			43387.38302		70.72000		324.00000 
 43692.65567		 942.55020			42750.10547		229.54400		875.00000 
 43692.65567		 305.27265			43387.38302		70.72000		324.00000 
 43692.65567		 942.55020			42750.10547		229.54400		875.00000 
 43692.65567		 305.27265			43387.38302		70.72000		324.00000 
 43692.65567		 942.55020			42750.10547		229.54400		875.00000 
 43692.65567		 305.27265			43387.38302		70.72000		324.00000 
 43692.65567		 942.55020			42750.10547		229.54400		875.00000 
 43692.65567		 305.27265			43387.38302		70.72000		324.00000 
 43692.65567		 942.55020			42750.10547		229.54400		875.00000 
 43692.65567		 305.27265			43387.38302		70.72000		324.00000 
 43692.65567		 942.55020			42750.10547		229.54400		875.00000 
 43692.65567		 305.27265			43387.38302		70.72000		324.00000 
 43692.65567		 942.55020			42750.10547		229.54400		875.00000 
 43692.65567		 305.27265			43387.38302		70.72000		324.00000 
 43692.65567		 942.55020			42750.10547		229.54400		875.00000 
 43692.65567		 305.27265			43387.38302		70.72000		324.00000 
 43692.65567		 942.55020			42750.10547		229.54400		875.00000 
 43692.65567		 305.27265			43387.38302		70.72000		324.00000 
 43692.65567		 942.55020			42750.10547		229.54400		875.00000 
 43692.65567		 305.27265			43387.38302		70.72000		324.00000 
 43692.65567		 942.55020			42750.10547		229.54400		875.00000 
 43692.65567		 305.27265			43387.38302		70.72000		324.00000 
 43692.65567		 942.55020			42750.10547		229.54400		875.00000 
 43692.65567		 305.27265			43387.38302		70.72000		324.00000 
 43692.65567		 942.55020			42750.10547		229.54400		875.00000 
 43692.65567		 305.27265			43387.38302		70.72000		324.00000 
 43692.65567		 942.55020			42750.10547		229.54400		875.00000 
 43692.65567		 305.27265			43387.38302		70.72000		324.00000 
 43692.65567		 942.55020			42750.10547		229.54400		875.00000 
 43692.65567		 305.27265			43387.38302		70.72000		324.00000 
 43692.65567		 942.55020			42750.10547		229.54400		875.00000 
 43692.65567		 305.27265			43387.38302		70.72000		324.00000 
 43692.65567		 942.55020			42750.10547		229.54400		875.00000 
 43692.65567		 305.27265			43387.38302		70.72000		324.00000 
 43692.65567		 942.55020			42750.10547		229.54400		875.00000 
 43692.65567		 305.27265			43387.38302		70.72000		324.00000 
 43692.65567		 942.55020			42750.10547		229.54400		875.00000 
 43692.65567		 305.27265			43387.38302		70.72000		324.00000 
 43692.65567		 942.55020			42750.10547		229.54400		875.00000 
 43692.65567		 305.27265			43387.38302		70.72000		324.00000 
 43692.65567		 942.55020			42750.10547		229.54400		875.00000 
 43692.65567		 305.27265			43387.38302		70.72000		324.00000 
 43692.65567		 942.55020			42750.10547		229.54400		875.00000 
 43692.65567		 305.27265			43387.38302		70.72000		324.00000 
 43692.65567		 942.55020			42750.10547		229.54400		875.00000 
 43692.65567		 305.27265			43387.38302		70.72000		324.00000 
 43692.65567		 942.55020			42750.10547		229.54400		875.00000 
 43692.65567		 305.27265			43387.38302		70.72000		324.00000 
 43692.65567		 942.55020			42750.10547		229.54400		875.00000 
 43692.65567		 305.27265			43387.38302		70.72000		324.00000 
 43692.65567		 942.55020			42750.10547		229.54400		875.00000 
 43692.65567		 305.27265			43387.38302		70.72000		324.00000 
 43692.65567		 942.55020			42750.10547		229.54400		875.00000 
 43692.65567		 305.27265			43387.38302		70.72000		324.00000 
 43692.65567		 942.55020			42750.10547		229.54400		875.00000 
 43692.65567		 305.27265			43387.38302		70.72000		324.00000 
 43692.65567		 942.55020			42750.10547		229.54400		875.00000 
 43692.65567		 305.27265			43387.38302		70.72000		324.00000 
 43692.65567		 942.55020			42750.10547		229.54400		875.00000 
 43692.65567		 305.27265			43387.38302		70.72000		324.00000 
 43692.65567		 942.55020			42750.10547		229.54400		875.00000 
 43692.65567		 305.27265			43387.38302		70.72000		324.00000 
 43692.65567		 942.55020			42750.10547		229.54400		875.00000 
 43692.65567		 305.27265			43387.38302		70.72000		324.00000 
 43692.65567		 942.55020			42750.10547		229.54400		875.00000 
 43692.65567		 305.27265			43387.38302		70.72000		324.00000 
 43692.65567		 942.55020			42750.10547		229.54400		875.00000 
 43692.65567		 305.27265			43387.38302		70.72000		324.00000 
 43692.65567		 942.55020			42750.10547		229.54400		875.00000 
 43692.65567		 305.27265			43387.38302		70.72000		324.00000 
 43692.65567		 942.55020			42750.10547		229.54400		875.00000 
 43692.65567		 305.27265			43387.38302		70.72000		324.00000 
 43692.65567		 942.55020			42750.10547		229.54400		875.00000 
 43692.65567		 305.27265			43387.38302		70.72000		324.00000 
 43692.65567		 942.55020			42750.10547		229.54400		875.00000 
 43692.65567		 305.27265			43387.38302		70.72000		324.00000 
 43692.65567		 942.55020			42750.10547		229.54400		875.00000 
 43692.65567		 305.27265			43387.38302		70.72000		324.00000 
 43692.65567		 942.55020			42750.10547		229.54400		875.00000 
 43692.65567		 305.27265			43387.38302		70.72000		324.00000 
 43692.65567		 942.55020			42750.10547		229.54400		875.00000 
 43692.65567		 305.27265			43387.38302		70.72000		324.00000 
 43692.65567		 942.55020			42750.10547		229.54400		875.00000 
 43692.65567		 305.27265			43387.38302		70.72000		324.00000 
 43692.65567		 942.55020			42750.10547		229.54400		875.00000 
 43692.65567		 305.27265			43387.38302		70.72000		324.00000 
 43692.65567		 942.55020			42750.10547		229.54400		875.00000 
 43692.65567		 305.27265			43387.38302		70.72000		324.00000 
 43692.65567		 942.55020			42750.10547		229.54400		875.00000 
 43692.65567		 305.27265			43387.38302		70.72000		324.00000 
 43692.65567		 942.55020			42750.10547		229.54400		875.00000 
 43692.65567		 305.27265			43387.38302		70.72000		324.00000 
 43692.65567		 942.55020			42750.10547		229.54400		875.00000 
 43692.65567		 305.27265			43387.38302		70.72000		324.00000 
 43692.65567		 942.55020			42750.10547		229.54400		875.00000 
 43692.65567		 305.27265			43387.38302		70.72000		324.00000 
 43692.65567		 942.55020			42750.10547		229.54400		875.00000 
 43692.65567		 305.27265			43387.38302		70.72000		324.00000 
 43692.65567		 942.55020			42750.10547		229.54400		875.00000 
 43692.65567		 305.27265			43387.38302		70.72000		324.00000 
 43692.65567		 942.55020			42750.10547		229.54400		875.00000 
 43692.65567		 305.27265			43387.38302		70.72000		324.00000 
 43692.65567		 942.55020			42750.10547		229.54400		875.00000 
 43692.65567		 305.27265			43387.38302		70.72000		324.00000 
 43692.65567		 942.55020			42750.10547		229.54400		875.00000 
 43692.65567		 305.27265			43387.38302		70.72000		324.00000 
 43692.65567		 942.55020			42750.10547		229.54400		875.00000 
 43692.65567		 305.27265			43387.38302		70.72000		324.00000 
 43692.65567		 942.55020			42750.10547		229.54400		875.00000 
 43692.65567		 305.27265			43387.38302		70.72000		324.00000 
 43692.65567		 942.55020			42750.10547		229.54400		875.00000 
 43692.65567		 305.27265			43387.38302		70.72000		324.00000 
 43692.65567		 942.55020			42750.10547		229.54400		875.00000 
 43692.65567		 305.27265			43387.38302		70.72000		324.00000 
 43692.65567		 942.55020			42750.10547		229.54400		875.00000 
 43692.65567		 305.27265			43387.38302		70.72000		324.00000 
 43692.65567		 942.55020			42750.10547		229.54400		875.00000 
 43692.65567		 305.27265			43387.38302		70.72000		324.00000 
 43692.65567		 942.55020			42750.10547		229.54400		875.00000 
 43692.65567		 305.27265			43387.38302		70.72000		324.00000 
 43692.65567		 942.55020			42750.10547		229.54400		875.00000 
 43692.65567		 305.27265			43387.38302		70.72000		324.00000 
 43692.65567		 942.55020			42750.10547		229.54400		875.00000 
 43692.65567		 305.27265			43387.38302		70.72000		324.00000 
 43692.65567		 942.55020			42750.10547		229.54400		875.00000 
 43692.65567		 305.27265			43387.38302		70.72000		324.00000 
 43692.65567		 942.55020			42750.10547		229.54400		875.00000 
 43692.65567		 305.27265			43387.38302		70.72000		324.00000 
 43692.65567		 942.55020			42750.10547		229.54400		875.00000 
 43692.65567		 305.27265			43387.38302		70.72000		324.00000 
 43692.65567		 942.55020			42750.10547		229.54400		875.00000 
 43692.65567		 305.27265			43387.38302		70.72000		324.00000 
 43692.65567		 942.55020			42750.10547		229.54400		875.00000 
 43692.65567		 305.27265			43387.38302		70.72000		324.00000 
 43692.65567		 942.55020			42750.10547		229.54400		875.00000 
 43692.65567		 305.27265			43387.38302		70.72000		324.00000 
 43692.65567		 942.55020			42750.10547		229.54400		875.00000 
 43692.65567		 305.27265			43387.38302		70.72000		324.00000 
 43692.65567		 942.55020			42750.10547		229.54400		875.00000 
 43692.65567		 305.27265			43387.38302		70.72000		324.00000 
 43692.65567		 942.55020			42750.10547		229.54400		875.00000 
 43692.65567		 305.27265			43387.38302		70.72000		324.00000 
 43692.65567		 942.55020			42750.10547		229.54400		875.00000 
 43692.65567		 305.27265			43387.38302		70.72000		324.00000 
 43692.65567		 942.55020			42750.10547		229.54400		875.00000 
 43692.65567		 305.27265			43387.38302		70.72000		324.00000 
 43692.65567		 942.55020			42750.10547		229.54400		875.00000 
 43692.65567		 305.27265			43387.38302		70.72000		324.00000 
 43692.65567		 942.55020			42750.10547		229.54400		875.00000 
 43692.65567		 305.27265			43387.38302		70.72000		324.00000 
 43692.65567		 942.55020			42750.10547		229.54400		875.00000 
 43692.65567		 305.27265			43387.38302		70.72000		324.00000 
 43692.65567		 942.55020			42750.10547		229.54400		875.00000 
 43692.65567		 305.27265			43387.38302		70.72000		324.00000 
 43692.65567		 942.55020			42750.10547		229.54400		875.00000 
 43692.65567		 305.27265			43387.38302		70.72000		324.00000 
 43692.65567		 942.55020			42750.10547		229.54400		875.00000 
 43692.65567		 305.27265			43387.38302		70.72000		324.00000 
 43692.65567		 942.55020			42750.10547		229.54400		875.00000 
 43692.65567		 305.27265			43387.38302		70.72000		324.00000 
 43692.65567		 942.55020			42750.10547		229.54400		875.00000 
 43692.65567		 305.27265			43387.38302		70.72000		324.00000 
 43692.65567		 942.55020			42750.10547		229.54400		875.00000 
 43692.65567		 305.27265			43387.38302		70.72000		324.00000 
 43692.65567		 942.55020			42750.10547		229.54400		875.00000 
 43692.65567		 305.27265			43387.38302		70.72000		324.00000 
 43692.65567		 942.55020			42750.10547		229.54400		875.00000 
 43692.65567		 305.27265			43387.38302		70.72000		324.00000 
 43692.65567		 942.55020			42750.10547		229.54400		875.00000 
 43692.65567		 305.27265			43387.38302		70.72000		324.00000 
 43692.65567		 942.55020			42750.10547		229.54400		875.00000 
 43692.65567		 305.27265			43387.38302		70.72000		324.00000 
 43692.65567		 942.55020			42750.10547		229.54400		875.00000 
 43692.65567		 305.27265			43387.38302		70.72000		324.00000 
 43692.65567		 942.55020			42750.10547		229.54400		875.00000 
 43692.65567		 305.27265			43387.38302		70.72000		324.00000 
 43692.65567		 942.55020			42750.10547		229.54400		875.00000 
 43692.65567		 305.27265			43387.38302		70.72000		324.00000 
 43692.65567		 942.55020			42750.10547		229.54400		875.00000 
 43692.65567		 305.27265			43387.38302		70.72000		324.00000 
 43692.65567		 942.55020			42750.10547		229.54400		875.00000 
 43692.65567		 305.27265			43387.38302		70.72000		324.00000 
 43692.65567		 942.55020			42750.10547		229.54400		875.00000 
 43692.65567		 305.27265			43387.38302		70.72000		324.00000 
 43692.65567		 942.55020			42750.10547		229.54400		875.00000 
 43692.65567		 305.27265			43387.38302		70.72000		324.00000 
 43692.65567		 942.55020			42750.10547		229.54400		875.00000 
 43692.65567		 305.27265			43387.38302		70.72000		324.00000 
 43692.65567		 942.55020			42750.10547		229.54400		875.00000 
 43692.65567		 305.27265			43387.38302		70.72000		324.00000 
 43692.65567		 942.55020			42750.10547		229.54400		875.00000 
 43692.65567		 305.27265			43387.38302		70.72000		324.00000 
 43692.65567		 942.55020			42750.10547		229.54400		875.00000 
 43692.65567		 305.27265			43387.38302		70.72000		324.00000 
 43692.65567		 942.55020			42750.10547		229.54400		875.00000 
 43692.65567		 305.27265			43387.38302		70.72000		324.00000 
 43692.65567		 942.55020			42750.10547		229.54400		875.00000 
 43692.65567		 305.27265			43387.38302		70.72000		324.00000 
 43692.65567		 942.55020			42750.10547		229.54400		875.00000 
 43692.65567		 305.27265			43387.38302		70.72000		324.00000 
 43692.65567		 942.55020			42750.10547		229.54400		875.00000 
 43692.65567		 305.27265			43387.38302		70.72000		324.00000 
 43692.65567		 942.55020			42750.10547		229.54400		875.00000 
 43692.65567		 305.27265			43387.38302		70.72000		324.00000 
 43692.65567		 942.55020			42750.10547		229.54400		875.00000 
 43692.65567		 305.27265			43387.38302		70.72000		324.00000 
 43692.65567		 942.55020			42750.10547		229.54400		875.00000 
 43692.65567		 305.27265			43387.38302		70.72000		324.00000 
 43692.65567		 942.55020			42750.10547		229.54400		875.00000 
 43692.65567		 305.27265			43387.38302		70.72000		324.00000 
 43692.65567		 942.55020			42750.10547		229.54400		875.00000 
 43692.65567		 305.27265			43387.38302		70.72000		324.00000 
 43692.65567		 942.55020			42750.10547		229.54400		875.00000 
 43692.65567		 305.27265			43387.38302		70.72000		324.00000 
 43692.65567		 942.55020			42750.10547		229.54400		875.00000 
 43692.65567		 305.27265			43387.38302		70.72000		324.00000 
 43692.65567		 942.55020			42750.10547		229.54400		875.00000 
 43692.65567		 305.27265			43387.38302		70.72000		324.00000 
 43692.65567		 942.55020			42750.10547		229.54400		875.00000 
 43692.65567		 305.27265			43387.38302		70.72000		324.00000 
 43692.65567		 942.55020			42750.10547		229.54400		875.00000 
 43692.65567		 305.27265			43387.38302		70.72000		324.00000 
 43692.65567		 942.55020			42750.10547		229.54400		875.00000 
 43692.65567		 305.27265			43387.38302		70.72000		324.00000 
 43692.65567		 942.55020			42750.10547		229.54400		875.00000 
 43692.65567		 305.27265			43387.38302		70.72000		324.00000 
 43692.65567		 942.55020			42750.10547		229.54400		875.00000 
 43692.65567		 305.27265			43387.38302		70.72000		324.00000 
 43692.65567		 942.55020			42750.10547		229.54400		875.00000 
 43692.65567		 305.27265			43387.38302		70.72000		324.00000 
 43692.65567		 942.55020			42750.10547		229.54400		875.00000 
 43692.65567		 305.27265			43387.38302		70.72000		324.00000 
 43692.65567		 942.55020			42750.10547		229.54400		875.00000 
 43692.65567		 305.27265			43387.38302		70.72000		324.00000 
 43692.65567		 942.55020			42750.10547		229.54400		875.00000 
 43692.65567		 305.27265			43387.38302		70.72000		324.00000 
 43692.65567		 942.55020			42750.10547		229.54400		875.00000 
 43692.65567		 305.27265			43387.38302		70.72000		324.00000 
 43692.65567		 942.55020			42750.10547		229.54400		875.00000 
 43692.65567		 305.27265			43387.38302		70.72000		324.00000 
 43692.65567		 942.55020			42750.10547		229.54400		875.00000 
 43692.65567		 305.27265			43387.38302		70.72000		324.00000 
 43692.65567		 942.55020			42750.10547		229.54400		875.00000 
 43692.65567		 305.27265			43387.38302		70.72000		324.00000 
 43692.65567		 942.55020			42750.10547		229.54400		875.00000 
 43692.65567		 305.27265			43387.38302		70.72000		324.00000 
 43692.65567		 942.55020			42750.10547		229.54400		875.00000 
 43692.65567		 305.27265			43387.38302		70.72000		324.00000 
 43692.65567		 942.55020			42750.10547		229.54400		875.00000 
 43692.65567		 305.27265			43387.38302		70.72000		324.00000 
 43692.65567		 942.55020			42750.10547		229.54400		875.00000 
 43692.65567		 305.27265			43387.38302		70.72000		324.00000 
 43692.65567		 942.55020			42750.10547		229.54400		875.00000 
 43692.65567		 305.27265			43387.38302		70.72000		324.00000 
 43692.65567		 942.55020			42750.10547		229.54400		875.00000 
 43692.65567		 305.27265			43387.38302		70.72000		324.00000 
 43692.65567		 942.55020			42750.10547		229.54400		875.00000 
 43692.65567		 305.27265			43387.38302		70.72000		324.00000 
 43692.65567		 942.55020			42750.10547		229.54400		875.00000 
 43692.65567		 305.27265			43387.38302		70.72000		324.00000 
 43692.65567		 942.55020			42750.10547		229.54400		875.00000 
 43692.65567		 305.27265			43387.38302		70.72000		324.00000 
 43692.65567		 942.55020			42750.10547		229.54400		875.00000 
 43692.65567		 305.27265			43387.38302		70.72000		324.00000 
 43692.65567		 942.55020			42750.10547		229.54400		875.00000 
 43692.65567		 305.27265			43387.38302		70.72000		324.00000 
 43692.65567		 942.55020			42750.10547		229.54400		875.00000 
 43692.65567		 305.27265			43387.38302		70.72000		324.00000 
 43692.65567		 942.55020			42750.10547		229.54400		875.00000 
 43692.65567		 305.27265			43387.38302		70.72000		324.00000 
 43692.65567		 942.55020			42750.10547		229.54400		875.00000 
 43692.65567		 305.27265			43387.38302		70.72000		324.00000 
 43692.65567		 942.55020			42750.10547		229.54400		875.00000 
 43692.65567		 305.27265			43387.38302		70.72000		324.00000 
 43692.65567		 942.55020			42750.10547		229.54400		875.00000 
 43692.65567		 305.27265			43387.38302		70.72000		324.00000 
 43692.65567		 942.55020			42750.10547		229.54400		875.00000 
 43692.65567		 305.27265			43387.38302		70.72000		324.00000 
 43692.65567		 942.55020			42750.10547		229.54400		875.00000 
 43692.65567		 305.27265			43387.38302		70.72000		324.00000 
 43692.65567		 942.55020			42750.10547		229.54400		875.00000 
 43692.65567		 305.27265			43387.38302		70.72000		324.00000 
 43692.65567		 942.55020			42750.10547		229.54400		875.00000 
 43692.65567		 305.27265			43387.38302		70.72000		324.00000 
 43692.65567		 942.55020			42750.10547		229.54400		875.00000 
 43692.65567		 305.27265			43387.38302		70.72000		324.00000 
 43692.65567		 942.55020			42750.10547		229.54400		875.00000 
 43692.65567		 305.27265			43387.38302		70.72000		324.00000 
 43692.65567		 942.55020			42750.10547		229.54400		875.00000 
 43692.65567		 305.27265			43387.38302		70.72000		324.00000 
 43692.65567		 942.55020			42750.10547		229.54400		875.00000 
 43692.65567		 305.27265			43387.38302		70.72000		324.00000 
 43692.65567		 942.55020			42750.10547		229.54400		875.00000 
 43692.65567		 305.27265			43387.38302		70.72000		324.00000 
 43692.65567		 942.55020			42750.10547		229.54400		875.00000 
 43692.65567		 305.27265			43387.38302		70.72000		324.00000 
 43692.65567		 942.55020			42750.10547		229.54400		875.00000 
 43692.65567		 305.27265			43387.38302		70.72000		324.00000 
 43692.65567		 942.55020			42750.10547		229.54400		875.00000 
 43692.65567		 305.27265			43387.38302		70.72000		324.00000 
 43692.65567		 942.55020			42750.10547		229.54400		875.00000 
 43692.65567		 305.27265			43387.38302		70.72000		324.00000 
 43692.65567		 942.55020			42750.10547		229.54400		875.00000 
 43692.65567		 305.27265			43387.38302		70.72000		324.00000 
 43692.65567		 942.55020			42750.10547		229.54400		875.00000 
 43692.65567		 305.27265			43387.38302		70.72000		324.00000 
 43692.65567		 942.55020			42750.10547		229.54400		875.00000 
 43692.65567		 305.27265			43387.38302		70.72000		324.00000 
 43692.65567		 942.55020			42750.10547		229.54400		875.00000 
 43692.65567		 305.27265			43387.38302		70.72000		324.00000 
 43692.65567		 942.55020			42750.10547		229.54400		875.00000 
 43692.65567		 305.27265			43387.38302		70.72000		324.00000 
 43692.65567		 942.55020			42750.10547		229.54400		875.00000 
 43692.65567		 305.27265			43387.38302		70.72000		324.00000 
 43692.65567		 942.55020			42750.10547		229.54400		875.00000 
 43692.65567		 305.27265			43387.38302		70.72000		324.00000 
 43692.65567		 942.55020			42750.10547		229.54400		875.00000 
 43692.65567		 305.27265			43387.38302		70.72000		324.00000 
 43692.65567		 942.55020			42750.10547		229.54400		875.00000 
 43692.65567		 305.27265			43387.38302		70.72000		324.00000 
 43692.65567		 942.55020			42750.10547		229.54400		875.00000 
 43692.65567		 305.27265			43387.38302		70.72000		324.00000 
 43692.65567		 942.55020			42750.10547		229.54400		875.00000 
 43692.65567		 305.27265			43387.38302		70.72000		324.00000 
 43692.65567		 942.55020			42750.10547		229.54400		875.00000 
 43692.65567		 305.27265			43387.38302		70.72000		324.00000 
 43692.65567		 942.55020			42750.10547		229.54400		875.00000 
 43692.65567		 305.27265			43387.38302		70.72000		324.00000 
 43692.65567		 942.55020			42750.10547		229.54400		875.00000 
 43692.65567		 305.27265			43387.38302		70.72000		324.00000 
 43692.65567		 942.55020			42750.10547		229.54400		875.00000 
 43692.65567		 305.27265			43387.38302		70.72000		324.00000 
 43692.65567		 942.55020			42750.10547		229.54400		875.00000 
 43692.65567		 305.27265			43387.38302		70.72000		324.00000 
 43692.65567		 942.55020			42750.10547		229.54400		875.00000 
 43692.65567		 305.27265			43387.38302		70.72000		324.00000 
 43692.65567		 942.55020			42750.10547		229.54400		875.00000 
 43692.65567		 305.27265			43387.38302		70.72000		324.00000 
 43692.65567		 942.55020			42750.10547		229.54400		875.00000 
 43692.65567		 305.27265			43387.38302		70.72000		324.00000 
 43692.65567		 942.55020			42750.10547		229.54400		875.00000 
 43692.65567		 305.27265			43387.38302		70.72000		324.00000 
 43692.65567		 942.55020			42750.10547		229.54400		875.00000 
 43692.65567		 305.27265			43387.38302		70.72000		324.00000 
 43692.65567		 942.55020			42750.10547		229.54400		875.00000 
 43692.65567		 305.27265			43387.38302		70.72000		324.00000 
 43692.65567		 942.55020			42750.10547		229.54400		875.00000 
 43692.65567		 305.27265			43387.38302		70.72000		324.00000 
 43692.65567		 942.55020			42750.10547		229.54400		875.00000 
 43692.65567		 305.27265			43387.38302		70.72000		324.00000 
 43692.65567		 942.55020			42750.10547		229.54400		875.00000 
 43692.65567		 305.27265			43387.38302		70.72000		324.00000 
 43692.65567		 942.55020			42750.10547		229.54400		875.00000 
 43692.65567		 305.27265			43387.38302		70.72000		324.00000 
 43692.65567		 942.55020			42750.10547		229.54400		875.00000 
 43692.65567		 305.27265			43387.38302		70.72000		324.00000 
 43692.65567		 942.55020			42750.10547		229.54400		875.00000 
 43692.65567		 305.27265			43387.38302		70.72000		324.00000 
 43692.65567		 942.55020			42750.10547		229.54400		875.00000 
 43692.65567		 305.27265			43387.38302		70.72000		324.00000 
 43692.65567		 942.55020			42750.10547		229.54400		875.00000 
 43692.65567		 305.27265			43387.38302		70.72000		324.00000 
 43692.65567		 942.55020			42750.10547		229.54400		875.00000 
 43692.65567		 305.27265			43387.38302		70.72000		324.00000 
 43692.65567		 942.55020			42750.10547		229.54400		875.00000 
 43692.65567		 305.27265			43387.38302		70.72000		324.00000 
 43692.65567		 942.55020			42750.10547		229.54400		875.00000 
 43692.65567		 305.27265			43387.38302		70.72000		324.00000 
 43692.65567		 942.55020			42750.10547		229.54400		875.00000 
 43692.65567		 305.27265			43387.38302		70.72000		324.00000 
 43692.65567		 942.55020			42750.10547		229.54400		875.00000 
 43692.65567		 305.27265			43387.38302		70.72000		324.00000 
 43692.65567		 942.55020			42750.10547		229.54400		875.00000 
 43692.65567		 305.27265			43387.38302		70.72000		324.00000 
 43692.65567		 942.55020			42750.10547		229.54400		875.00000 
 43692.65567		 305.27265			43387.38302		70.72000		324.00000 
 43692.65567		 942.55020			42750.10547		229.54400		875.00000 
 43692.65567		 305.27265			43387.38302		70.72000		324.00000 
 43692.65567		 942.55020			42750.10547		229.54400		875.00000 
 43692.65567		 305.27265			43387.38302		70.72000		324.00000 
 43692.65567		 942.55020			42750.10547		229.54400		875.00000 
 43692.65567		 305.27265			43387.38302		70.72000		324.00000 
 43692.65567		 942.55020			42750.10547		229.54400		875.00000 
 43692.65567		 305.27265			43387.38302		70.72000		324.00000 
 43692.65567		 942.55020			42750.10547		229.54400		875.00000 
 43692.65567		 305.27265			43387.38302		70.72000		324.00000 
 43692.65567		 942.55020			42750.10547		229.54400		875.00000 
 43692.65567		 305.27265			43387.38302		70.72000		324.00000 
 43692.65567		 942.55020			42750.10547		229.54400		875.00000 
 43692.65567		 305.27265			43387.38302		70.72000		324.00000 
 43692.65567		 942.55020			42750.10547		229.54400		875.00000 
 43692.65567		 305.27265			43387.38302		70.72000		324.00000 
 43692.65567		 942.55020			42750.10547		229.54400		875.00000 
 43692.65567		 305.27265			43387.38302		70.72000		324.00000 
 43692.65567		 942.55020			42750.10547		229.54400		875.00000 
 43692.65567		 305.27265			43387.38302		70.72000		324.00000 
 43692.65567		 942.55020			42750.10547		229.54400		875.00000 
 43692.65567		 305.27265			43387.38302		70.72000		324.00000 
 43692.65567		 942.55020			42750.10547		229.54400		875.00000 
 43692.65567		 305.27265			43387.38302		70.72000		324.00000 
 43692.65567		 942.55020			42750.10547		229.54400		875.00000 
 43692.65567		 305.27265			43387.38302		70.72000		324.00000 
 43692.65567		 942.55020			42750.10547		229.54400		875.00000 
 43692.65567		 305.27265			43387.38302		70.72000		324.00000 
 43692.65567		 942.55020			42750.10547		229.54400		875.00000 
 43692.65567		 305.27265			43387.38302		70.72000		324.00000 
 43692.65567		 942.55020			42750.10547		229.54400		875.00000 
 43692.65567		 305.27265			43387.38302		70.72000		324.00000 
 43692.65567		 942.55020			42750.10547		229.54400		875.00000 
 43692.65567		 305.27265			43387.38302		70.72000		324.00000 
 43692.65567		 942.55020			42750.10547		229.54400		875.00000 
 43692.65567		 305.27265			43387.38302		70.72000		324.00000 
 43692.65567		 942.55020			42750.10547		229.54400		875.00000 
 43692.65567		 305.27265			43387.38302		70.72000		324.00000 
 43692.65567		 942.55020			42750.10547		229.54400		875.00000 
 43692.65567		 305.27265			43387.38302		70.72000		324.00000 
 43692.65567		 942.55020			42750.10547		229.54400		875.00000 
 43692.65567		 305.27265			43387.38302		70.72000		324.00000 
 43692.65567		 942.55020			42750.10547		229.54400		875.00000 
 43692.65567		 305.27265			43387.38302		70.72000		324.00000 
 43692.65567		 942.55020			42750.10547		229.54400		875.00000 
 43692.65567		 305.27265			43387.38302		70.72000		324.00000 
 43692.65567		 942.55020			42750.10547		229.54400		875.00000 
 43692.65567		 305.27265			43387.38302		70.72000		324.00000 
 43692.65567		 942.55020			42750.10547		229.54400		875.00000 
 43692.65567		 305.27265			43387.38302		70.72000		324.00000 
 43692.65567		 942.55020			42750.10547		229.54400		875.00000 
 43692.65567		 305.27265			43387.38302		70.72000		324.00000 
 43692.65567		 942.55020			42750.10547		229.54400		875.00000 
 43692.65567		 305.27265			43387.38302		70.72000		324.00000 
 43692.65567		 942.55020			42750.10547		229.54400		875.00000 
 43692.65567		 305.27265			43387.38302		70.72000		324.00000 
 43692.65567		 942.55020			42750.10547		229.54400		875.00000 
 43692.65567		 305.27265			43387.38302		70.72000		324.00000 
 43692.65567		 942.55020			42750.10547		229.54400		875.00000 
 43692.65567		 305.27265			43387.38302		70.72000		324.00000 
 43692.65567		 942.55020			42750.10547		229.54400		875.00000 
 43692.65567		 305.27265			43387.38302		70.72000		324.00000 
 43692.65567		 942.55020			42750.10547		229.54400		875.00000 
 43692.65567		 305.27265			43387.38302		70.72000		324.00000 
 43692.65567		 942.55020			42750.10547		229.54400		875.00000 
 43692.65567		 305.27265			43387.38302		70.72000		324.00000 
 43692.65567		 942.55020			42750.10547		229.54400		875.00000 
 43692.65567		 305.27265			43387.38302		70.72000		324.00000 
 43692.65567		 942.55020			42750.10547		229.54400		875.00000 
 43692.65567		 305.27265			43387.38302		70.72000		324.00000 
 43692.65567		 942.55020			42750.10547		229.54400		875.00000 
 43692.65567		 305.27265			43387.38302		70.72000		324.00000 
 43692.65567		 942.55020			42750.10547		229.54400		875.00000 
 43692.65567		 305.27265			43387.38302		70.72000		324.00000 
 43692.65567		 942.55020			42750.10547		229.54400		875.00000 
 43692.65567		 305.27265			43387.38302		70.72000		324.00000 
 43692.65567		 942.55020			42750.10547		229.54400		875.00000 
 43692.65567		 305.27265			43387.38302		70.72000		324.00000 
 43692.65567		 942.55020			42750.10547		229.54400		875.00000 
 43692.65567		 305.27265			43387.38302		70.72000		324.00000 
 43692.65567		 942.55020			42750.10547		229.54400		875.00000 
 43692.65567		 305.27265			43387.38302		70.72000		324.00000 
 43692.65567		 942.55020			42750.10547		229.54400		875.00000 
 43692.65567		 305.27265			43387.38302		70.72000		324.00000 
 43692.65567		 942.55020			42750.10547		229.54400		875.00000 
 43692.65567		 305.27265			43387.38302		70.72000		324.00000 
 43692.65567		 942.55020			42750.10547		229.54400		875.00000 
 43692.65567		 305.27265			43387.38302		70.72000		324.00000 
 43692.65567		 942.55020			42750.10547		229.54400		875.00000 
 43692.65567		 305.27265			43387.38302		70.72000		324.00000 
 43692.65567		 942.55020			42750.10547		229.54400		875.00000 
 43692.65567		 305.27265			43387.38302		70.72000		324.00000 
 43692.65567		 942.55020			42750.10547		229.54400		875.00000 
 43692.65567		 305.27265			43387.38302		70.72000		324.00000 
 43692.65567		 942.55020			42750.10547		229.54400		875.00000 
 43692.65567		 305.27265			43387.38302		70.72000		324.00000 
 43692.65567		 942.55020			42750.10547		229.54400		875.00000 
 43692.65567		 305.27265			43387.38302		70.72000		324.00000 
 43692.65567		 942.55020			42750.10547		229.54400		875.00000 
 43692.65567		 305.27265			43387.38302		70.72000		324.00000 
 43692.65567		 942.55020			42750.10547		229.54400		875.00000 
 43692.65567		 305.27265			43387.38302		70.72000		324.00000 
 43692.65567		 942.55020			42750.10547		229.54400		875.00000 
 43692.65567		 305.27265			43387.38302		70.72000		324.00000 
 43692.65567		 942.55020			42750.10547		229.54400		875.00000 
 43692.65567		 305.27265			43387.38302		70.72000		324.00000 
 43692.65567		 942.55020			42750.10547		229.54400		875.00000 
 43692.65567		 305.27265			43387.38302		70.72000		324.00000 
 43692.65567		 942.55020			42750.10547		229.54400		875.00000 
 43692.65567		 305.27265			43387.38302		70.72000		324.00000 
 43692.65567		 942.55020			42750.10547		229.54400		875.00000 
 43692.65567		 305.27265			43387.38302		70.72000		324.00000 
 43692.65567		 942.55020			42750.10547		229.54400		875.00000 
 43692.65567		 305.27265			43387.38302		70.72000		324.00000 
 43692.65567		 942.55020			42750.10547		229.54400		875.00000 
 43692.65567		 305.27265			43387.38302		70.72000		324.00000 
 43692.65567		 942.55020			42750.10547		229.54400		875.00000 
 43692.65567		 305.27265			43387.38302		70.72000		324.00000 
 43692.65567		 942.55020			42750.10547		229.54400		875.00000 
 43692.65567		 305.27265			43387.38302		70.72000		324.00000 
 43692.65567		 942.55020			42750.10547		229.54400		875.00000 
 43692.65567		 305.27265			43387.38302		70.72000		324.00000 
 43692.65567		 942.55020			42750.10547		229.54400		875.00000 
 43692.65567		 305.27265			43387.38302		70.72000		324.00000 
 43692.65567		 942.55020			42750.10547		229.54400		875.00000 
 43692.65567		 305.27265			43387.38302		70.72000		324.00000 
 43692.65567		 942.55020			42750.10547		229.54400		875.00000 
 43692.65567		 305.27265			43387.38302		70.72000		324.00000 
 43692.65567		 942.55020			42750.10547		229.54400		875.00000 
 43692.65567		 305.27265			43387.38302		70.72000		324.00000 
 43692.65567		 942.55020			42750.10547		229.54400		875.00000 
 43692.65567		 305.27265			43387.38302		70.72000		324.00000 
 43692.65567		 942.55020			42750.10547		229.54400		875.00000 
 43692.65567		 305.27265			43387.38302		70.72000		324.00000 
 43692.65567		 942.55020			42750.10547		229.54400		875.00000 
 43692.65567		 305.27265			43387.38302		70.72000		324.00000 
 43692.65567		 942.55020			42750.10547		229.54400		875.00000 
 43692.65567		 305.27265			43387.38302		70.72000		324.00000 
 43692.65567		 942.55020			42750.10547		229.54400		875.00000 
 43692.65567		 305.27265			43387.38302		70.72000		324.00000 
 43692.65567		 942.55020			42750.10547		229.54400		875.00000 
 43692.65567		 305.27265			43387.38302		70.72000		324.00000 
 43692.65567		 942.55020			42750.10547		229.54400		875.00000 
 43692.65567		 305.27265			43387.38302		70.72000		324.00000 
 43692.65567		 942.55020			42750.10547		229.54400		875.00000 
 43692.65567		 305.27265			43387.38302		70.72000		324.00000 
 43692.65567		 942.55020			42750.10547		229.54400		875.00000 
 43692.65567		 305.27265			43387.38302		70.72000		324.00000 
 43692.65567		 942.55020			42750.10547		229.54400		875.00000 
 43692.65567		 305.27265			43387.38302		70.72000		324.00000 
 43692.65567		 942.55020			42750.10547		229.54400		875.00000 
 43692.65567		 305.27265			43387.38302		70.72000		324.00000 
 43692.65567		 942.55020			42750.10547		229.54400		875.00000 
 43692.65567		 305.27265			43387.38302		70.72000		324.00000 
 43692.65567		 942.55020			42750.10547		229.54400		875.00000 
 43692.65567		 305.27265			43387.38302		70.72000		324.00000 
 43692.65567		 942.55020			42750.10547		229.54400		875.00000 
 43692.65567		 305.27265			43387.38302		70.72000		324.00000 
 43692.65567		 942.55020			42750.10547		229.54400		875.00000 
 43692.65567		 305.27265			43387.38302		70.72000		324.00000 
 43692.65567		 942.55020			42750.10547		229.54400		875.00000 
 43692.65567		 305.27265			43387.38302		70.72000		324.00000 
 43692.65567		 942.55020			42750.10547		229.54400		875.00000 
 43692.65567		 305.27265			43387.38302		70.72000		324.00000 
 43692.65567		 942.55020			42750.10547		229.54400		875.00000 
 43692.65567		 305.27265			43387.38302		70.72000		324.00000 
 43692.65567		 942.55020			42750.10547		229.54400		875.00000 
 43692.65567		 305.27265			43387.38302		70.72000		324.00000 
 43692.65567		 942.55020			42750.10547		229.54400		875.00000 
 43692.65567		 305.27265			43387.38302		70.72000		324.00000 
 43692.65567		 942.55020			42750.10547		229.54400		875.00000 
 43692.65567		 305.27265			43387.38302		70.72000		324.00000 
 43692.65567		 942.55020			42750.10547		229.54400		875.00000 
 43692.65567		 305.27265			43387.38302		70.72000		324.00000 
 43692.65567		 942.55020			42750.10547		229.54400		875.00000 
 43692.65567		 305.27265			43387.38302		70.72000		324.00000 
 43692.65567		 942.55020			42750.10547		229.54400		875.00000 
 43692.65567		 305.27265			43387.38302		70.72000		324.00000 
 43692.65567		 942.55020			42750.10547		229.54400		875.00000 
 43692.65567		 305.27265			43387.38302		70.72000		324.00000 
 43692.65567		 942.55020			42750.10547		229.54400		875.00000 
 43692.65567		 305.27265			43387.38302		70.72000		324.00000 
 43692.65567		 942.55020			42750.10547		229.54400		875.00000 
 43692.65567		 305.27265			43387.38302		70.72000		324.00000 
 43692.65567		 942.55020			42750.10547		229.54400		875.00000 
 43692.65567		 305.27265			43387.38302		70.72000		324.00000 
 43692.65567		 942.55020			42750.10547		229.54400		875.00000 
 43692.65567		 305.27265			43387.38302		70.72000		324.00000 
 43692.65567		 942.55020			42750.10547		229.54400		875.00000 
 43692.65567		 305.27265			43387.38302		70.72000		324.00000 
 43692.65567		 942.55020			42750.10547		229.54400		875.00000 
 43692.65567		 305.27265			43387.38302		70.72000		324.00000 
 43692.65567		 942.55020			42750.10547		229.54400		875.00000 
 43692.65567		 305.27265			43387.38302		70.72000		324.00000 
 43692.65567		 942.55020			42750.10547		229.54400		875.00000 
 43692.65567		 305.27265			43387.38302		70.72000		324.00000 
 43692.65567		 942.55020			42750.10547		229.54400		875.00000 
 43692.65567		 305.27265			43387.38302		70.72000		324.00000 
 43692.65567		 942.55020			42750.10547		229.54400		875.00000 
 43692.65567		 305.27265			43387.38302		70.72000		324.00000 
 43692.65567		 942.55020			42750.10547		229.54400		875.00000 
 43692.65567		 305.27265			43387.38302		70.72000		324.00000 
 43692.65567		 942.55020			42750.10547		229.54400		875.00000 
 43692.65567		 305.27265			43387.38302		70.72000		324.00000 
 43692.65567		 942.55020			42750.10547		229.54400		875.00000 
 43692.65567		 305.27265			43387.38302		70.72000		324.00000 
 43692.65567		 942.55020			42750.10547		229.54400		875.00000 
 43692.65567		 305.27265			43387.38302		70.72000		324.00000 
 43692.65567		 942.55020			42750.10547		229.54400		875.00000 
 43692.65567		 305.27265			43387.38302		70.72000		324.00000 
 43692.65567		 942.55020			42750.10547		229.54400		875.00000 
 43692.65567		 305.27265			43387.38302		70.72000		324.00000 
 43692.65567		 942.55020			42750.10547		229.54400		875.00000 
 43692.65567		 305.27265			43387.38302		70.72000		324.00000 
 43692.65567		 942.55020			42750.10547		229.54400		875.00000 
 43692.65567		 305.27265			43387.38302		70.72000		324.00000 
 43692.65567		 942.55020			42750.10547		229.54400		875.00000 
 43692.65567		 305.27265			43387.38302		70.72000		324.00000 
 43692.65567		 942.55020			42750.10547		229.54400		875.00000 
 43692.65567		 305.27265			43387.38302		70.72000		324.00000 
 43692.65567		 942.55020			42750.10547		229.54400		875.00000 
 43692.65567		 305.27265			43387.38302		70.72000		324.00000 
 43692.65567		 942.55020			42750.10547		229.54400		875.00000 
 43692.65567		 305.27265			43387.38302		70.72000		324.00000 
 43692.65567		 942.55020			42750.10547		229.54400		875.00000 
 43692.65567		 305.27265			43387.38302		70.72000		324.00000 
 43692.65567		 942.55020			42750.10547		229.54400		875.00000 
 43692.65567		 305.27265			43387.38302		70.72000		324.00000 
 43692.65567		 942.55020			42750.10547		229.54400		875.00000 
 43692.65567		 305.27265			43387.38302		70.72000		324.00000 
 43692.65567		 942.55020			42750.10547		229.54400		875.00000 
 43692.65567		 305.27265			43387.38302		70.72000		324.00000 
 43692.65567		 942.55020			42750.10547		229.54400		875.00000 
 43692.65567		 305.27265			43387.38302		70.72000		324.00000 
 43692.65567		 942.55020			42750.10547		229.54400		875.00000 
 43692.65567		 305.27265			43387.38302		70.72000		324.00000 
 43692.65567		 942.55020			42750.10547		229.54400		875.00000 
 43692.65567		 305.27265			43387.38302		70.72000		324.00000 
 43692.65567		 942.55020			42750.10547		229.54400		875.00000 
 43692.65567		 305.27265			43387.38302		70.72000		324.00000 
 43692.65567		 942.55020			42750.10547		229.54400		875.00000 
 43692.65567		 305.27265			43387.38302		70.72000		324.00000 
 43692.65567		 942.55020			42750.10547		229.54400		875.00000 
 43692.65567		 305.27265			43387.38302		70.72000		324.00000 
 43692.65567		 942.55020			42750.10547		229.54400		875.00000 
 43692.65567		 305.27265			43387.38302		70.72000		324.00000 
 43692.65567		 942.55020			42750.10547		229.54400		875.00000 
 43692.65567		 305.27265			43387.38302		70.72000		324.00000 
 43692.65567		 942.55020			42750.10547		229.54400		875.00000 
 43692.65567		 305.27265			43387.38302		70.72000		324.00000 
 43692.65567		 942.55020			42750.10547		229.54400		875.00000 
 43692.65567		 305.27265			43387.38302		70.72000		324.00000 
 43692.65567		 942.55020			42750.10547		229.54400		875.00000 
 43692.65567		 305.27265			43387.38302		70.72000		324.00000 
 43692.65567		 942.55020			42750.10547		229.54400		875.00000 
 43692.65567		 305.27265			43387.38302		70.72000		324.00000 
 43692.65567		 942.55020			42750.10547		229.54400		875.00000 
 43692.65567		 305.27265			43387.38302		70.72000		324.00000 
 43692.65567		 942.55020			42750.10547		229.54400		875.00000 
 43692.65567		 305.27265			43387.38302		70.72000		324.00000 
 43692.65567		 942.55020			42750.10547		229.54400		875.00000 
 43692.65567		 305.27265			43387.38302		70.72000		324.00000 
 43692.65567		 942.55020			42750.10547		229.54400		875.00000 
 43692.65567		 305.27265			43387.38302		70.72000		324.00000 
 43692.65567		 942.55020			42750.10547		229.54400		875.00000 
 43692.65567		 305.27265			43387.38302		70.72000		324.00000 
 43692.65567		 942.55020			42750.10547		229.54400		875.00000 
 43692.65567		 305.27265			43387.38302		70.72000		324.00000 
 43692.65567		 942.55020			42750.10547		229.54400		875.00000 
 43692.65567		 305.27265			43387.38302		70.72000		324.00000 
 43692.65567		 942.55020			42750.10547		229.54400		875.00000 
 43692.65567		 305.27265			43387.38302		70.72000		324.00000 
 43692.65567		 942.55020			42750.10547		229.54400		875.00000 
 43692.65567		 305.27265			43387.38302		70.72000		324.00000 
 43692.65567		 942.55020			42750.10547		229.54400		875.00000 
 43692.65567		 305.27265			43387.38302		70.72000		324.00000 
 43692.65567		 942.55020			42750.10547		229.54400		875.00000 
 43692.65567		 305.27265			43387.38302		70.72000		324.00000 
 43692.65567		 942.55020			42750.10547		229.54400		875.00000 
 43692.65567		 305.27265			43387.38302		70.72000		324.00000 
 43692.65567		 942.55020			42750.10547		229.54400		875.00000 
 43692.65567		 305.27265			43387.38302		70.72000		324.00000 
 43692.65567		 942.55020			42750.10547		229.54400		875.00000 
 43692.65567		 305.27265			43387.38302		70.72000		324.00000 
 43692.65567		 942.55020			42750.10547		229.54400		875.00000 
 43692.65567		 305.27265			43387.38302		70.72000		324.00000 
 43692.65567		 942.55020			42750.10547		229.54400		875.00000 
 43692.65567		 305.27265			43387.38302		70.72000		324.00000 
 43692.65567		 942.55020			42750.10547		229.54400		875.00000 
 43692.65567		 305.27265			43387.38302		70.72000		324.00000 
 43692.65567		 942.55020			42750.10547		229.54400		875.00000 
 43692.65567		 305.27265			43387.38302		70.72000		324.00000 
 43692.65567		 942.55020			42750.10547		229.54400		875.00000 
 43692.65567		 305.27265			43387.38302		70.72000		324.00000 
 43692.65567		 942.55020			42750.10547		229.54400		875.00000 
 43692.65567		 305.27265			43387.38302		70.72000		324.00000 
 43692.65567		 942.55020			42750.10547		229.54400		875.00000 
 43692.65567		 305.27265			43387.38302		70.72000		324.00000 
 43692.65567		 942.55020			42750.10547		229.54400		875.00000 
 43692.65567		 305.27265			43387.38302		70.72000		324.00000 
 43692.65567		 942.55020			42750.10547		229.54400		875.00000 
 43692.65567		 305.27265			43387.38302		70.72000		324.00000 
 43692.65567		 942.55020			42750.10547		229.54400		875.00000 
 43692.65567		 305.27265			43387.38302		70.72000		324.00000 
 43692.65567		 942.55020			42750.10547		229.54400		875.00000 
 43692.65567		 305.27265			43387.38302		70.72000		324.00000 
 43692.65567		 942.55020			42750.10547		229.54400		875.00000 
 43692.65567		 305.27265			43387.38302		70.72000		324.00000 
 43692.65567		 942.55020			42750.10547		229.54400		875.00000 
 43692.65567		 305.27265			43387.38302		70.72000		324.00000 
 43692.65567		 942.55020			42750.10547		229.54400		875.00000 
 43692.65567		 305.27265			43387.38302		70.72000		324.00000 
 43692.65567		 942.55020			42750.10547		229.54400		875.00000 
 43692.65567		 305.27265			43387.38302		70.72000		324.00000 
 43692.65567		 942.55020			42750.10547		229.54400		875.00000 
 43692.65567		 305.27265			43387.38302		70.72000		324.00000 
 43692.65567		 942.55020			42750.10547		229.54400		875.00000 
 43692.65567		 305.27265			43387.38302		70.72000		324.00000 
 43692.65567		 942.55020			42750.10547		229.54400		875.00000 
 43692.65567		 305.27265			43387.38302		70.72000		324.00000 
 43692.65567		 942.55020			42750.10547		229.54400		875.00000 
 43692.65567		 305.27265			43387.38302		70.72000		324.00000 
 43692.65567		 942.55020			42750.10547		229.54400		875.00000 
 43692.65567		 305.27265			43387.38302		70.72000		324.00000 
 43692.65567		 942.55020			42750.10547		229.54400		875.00000 
 43692.65567		 305.27265			43387.38302		70.72000		324.00000 
 43692.65567		 807.45691			42885.19876		229.54400		875.00000 
 43692.65567		 305.27265			43387.38302		70.72000		324.00000 
 43692.65567		 807.45691			42885.19876		229.54400		875.00000 
 43692.65567		 305.27265			43387.38302		70.72000		324.00000 
 43692.65567		 672.36362			43020.29206		229.54400		875.00000 
 43692.65567		 305.27265			43387.38302		70.72000		324.00000 
 43692.65567		 672.36362			43020.29206		229.54400		875.00000 
 43692.65567		 305.27265			43387.38302		70.72000		324.00000 
 43692.65567		 537.27032			43155.38535		229.54400		875.00000 
 43692.65567		 305.27265			43387.38302		70.72000		324.00000 
 43692.65567		 537.27032			43155.38535		229.54400		875.00000 
 43692.65567		 305.27265			43387.38302		70.72000		324.00000 
 43692.65567		 537.27032			43155.38535		229.54400		875.00000 
 43692.65567		 305.27265			43387.38302		70.72000		324.00000 
 43692.65567		 537.27032			43155.38535		229.54400		875.00000 
 43692.65567		 305.27265			43387.38302		70.72000		324.00000 
 43692.65567		 537.27032			43155.38535		229.54400		875.00000 
 43692.65567		 305.27265			43387.38302		70.72000		324.00000 
 43692.65567		 537.27032			43155.38535		229.54400		875.00000 
 43692.65567		 305.27265			43387.38302		70.72000		324.00000 
 43692.65567		 537.27032			43155.38535		229.54400		875.00000 
 43692.65567		 305.27265			43387.38302		70.72000		324.00000 
 43692.65567		 537.27032			43155.38535		229.54400		875.00000 
 43692.65567		 305.27265			43387.38302		70.72000		324.00000 
 43692.65567		 537.27032			43155.38535		229.54400		875.00000 
 43692.65567		 305.27265			43387.38302		70.72000		324.00000 
 43692.65567		 537.27032			43155.38535		229.54400		875.00000 
 43692.65567		 305.27265			43387.38302		70.72000		324.00000 
 43692.65567		 537.27032			43155.38535		229.54400		875.00000 
 43692.65567		 305.27265			43387.38302		70.72000		324.00000 
 43692.65567		 537.27032			43155.38535		229.54400		875.00000 
 43692.65567		 305.27265			43387.38302		70.72000		324.00000 
 43692.65567		 537.27032			43155.38535		229.54400		875.00000 
 43692.65567		 305.27265			43387.38302		70.72000		324.00000 
 43692.65567		 537.27032			43155.38535		229.54400		875.00000 
 43692.65567		 305.27265			43387.38302		70.72000		324.00000 
 43692.65567		 537.27032			43155.38535		229.54400		875.00000 
 43692.65567		 305.27265			43387.38302		70.72000		324.00000 
 43692.65567		 537.27032			43155.38535		229.54400		875.00000 
 43692.65567		 305.27265			43387.38302		70.72000		324.00000 
 43692.65567		 537.27032			43155.38535		229.54400		875.00000 
 43692.65567		 305.27265			43387.38302		70.72000		324.00000 
 43692.65567		 537.27032			43155.38535		229.54400		875.00000 
 43692.65567		 305.27265			43387.38302		70.72000		324.00000 
 43692.65567		 537.27032			43155.38535		229.54400		875.00000 
 43692.65567		 305.27265			43387.38302		70.72000		324.00000 
 43692.65567		 537.27032			43155.38535		229.54400		875.00000 
 43692.65567		 305.27265			43387.38302		70.72000		324.00000 
 43692.65567		 537.27032			43155.38535		229.54400		875.00000 
 43692.65567		 305.27265			43387.38302		70.72000		324.00000 
 43692.65567		 537.27032			43155.38535		229.54400		875.00000 
 43692.65567		 305.27265			43387.38302		70.72000		324.00000 
 43692.65567		 529.63254			43163.02313		229.54400		875.00000 
 43692.65567		 305.27265			43387.38302		70.72000		324.00000 
 43692.65567		 525.81365			43166.84203		229.54400		875.00000 
 43692.65567		 293.81598			43398.83969		70.72000		324.00000 
 43692.65567		 261.35540			43431.30027		229.54400		875.00000 
 43692.65567		 261.35540			43431.30027		70.72000		324.00000 
