Memory Total (MiB) 	 Memory Used (MiB) 	    Memory Free (MiB) 	 Power Drawed (W) 	 Clocks (Mhz) 	 
 43692.65567		 261.35540			43431.30027		199.23000		875.00000 
 43692.65567		 261.35540			43431.30027		68.12000		324.00000 
 43692.65567		 261.35540			43431.30027		199.23000		875.00000 
 43692.65567		 261.35540			43431.30027		68.12000		324.00000 
 43692.65567		 261.35540			43431.30027		199.23000		875.00000 
 43692.65567		 261.35540			43431.30027		68.12000		324.00000 
 43692.65567		 261.35540			43431.30027		199.23000		875.00000 
 43692.65567		 261.35540			43431.30027		68.12000		324.00000 
 43692.65567		 261.35540			43431.30027		199.23000		875.00000 
 43692.65567		 261.35540			43431.30027		68.12000		324.00000 
 43692.65567		 261.35540			43431.30027		199.23000		875.00000 
 43692.65567		 261.35540			43431.30027		68.12000		324.00000 
 43692.65567		 261.35540			43431.30027		199.23000		875.00000 
 43692.65567		 261.35540			43431.30027		68.12000		324.00000 
 43692.65567		 261.35540			43431.30027		199.23000		875.00000 
 43692.65567		 261.35540			43431.30027		68.12000		324.00000 
 43692.65567		 261.35540			43431.30027		199.23000		875.00000 
 43692.65567		 261.35540			43431.30027		68.12000		324.00000 
 43692.65567		 261.35540			43431.30027		199.23000		875.00000 
 43692.65567		 261.35540			43431.30027		68.12000		324.00000 
 43692.65567		 261.35540			43431.30027		199.23000		875.00000 
 43692.65567		 261.35540			43431.30027		68.12000		324.00000 
 43692.65567		 261.35540			43431.30027		199.23000		875.00000 
 43692.65567		 261.35540			43431.30027		68.12000		324.00000 
 43692.65567		 261.35540			43431.30027		199.23000		875.00000 
 43692.65567		 261.35540			43431.30027		68.12000		324.00000 
 43692.65567		 261.35540			43431.30027		199.23000		875.00000 
 43692.65567		 261.35540			43431.30027		68.12000		324.00000 
 43692.65567		 261.35540			43431.30027		199.23000		875.00000 
 43692.65567		 261.35540			43431.30027		68.12000		324.00000 
 43692.65567		 261.35540			43431.30027		199.23000		875.00000 
 43692.65567		 261.35540			43431.30027		68.12000		324.00000 
 43692.65567		 261.35540			43431.30027		157.45800		875.00000 
 43692.65567		 261.35540			43431.30027		68.12000		324.00000 
 43692.65567		 261.35540			43431.30027		157.45800		875.00000 
 43692.65567		 261.35540			43431.30027		68.12000		324.00000 
 43692.65567		 265.17429			43427.48138		157.45800		875.00000 
 43692.65567		 261.35540			43431.30027		68.12000		324.00000 
 43692.65567		 272.81207			43419.84360		157.45800		875.00000 
 43692.65567		 261.35540			43431.30027		68.12000		324.00000 
 43692.65567		 272.81207			43419.84360		157.45800		875.00000 
 43692.65567		 261.35540			43431.30027		68.12000		324.00000 
 43692.65567		 272.81207			43419.84360		157.45800		875.00000 
 43692.65567		 265.17429			43427.48138		68.12000		324.00000 
 43692.65567		 272.81207			43419.84360		157.45800		875.00000 
 43692.65567		 265.17429			43427.48138		68.12000		324.00000 
 43692.65567		 272.81207			43419.84360		157.45800		875.00000 
 43692.65567		 265.17429			43427.48138		68.12000		324.00000 
 43692.65567		 272.81207			43419.84360		157.45800		875.00000 
 43692.65567		 272.81207			43419.84360		68.12000		324.00000 
 43692.65567		 272.81207			43419.84360		157.45800		875.00000 
 43692.65567		 272.81207			43419.84360		68.12000		324.00000 
 43692.65567		 272.81207			43419.84360		157.45800		875.00000 
 43692.65567		 272.81207			43419.84360		68.12000		324.00000 
 43692.65567		 305.27265			43387.38302		157.45800		875.00000 
 43692.65567		 305.27265			43387.38302		68.12000		324.00000 
 43692.65567		 305.27265			43387.38302		157.45800		875.00000 
 43692.65567		 305.27265			43387.38302		68.12000		324.00000 
 43692.65567		 305.27265			43387.38302		157.45800		875.00000 
 43692.65567		 305.27265			43387.38302		68.12000		324.00000 
 43692.65567		 305.27265			43387.38302		157.45800		875.00000 
 43692.65567		 305.27265			43387.38302		68.12000		324.00000 
 43692.65567		 305.27265			43387.38302		157.45800		875.00000 
 43692.65567		 305.27265			43387.38302		68.12000		324.00000 
 43692.65567		 309.09154			43383.56413		157.45800		875.00000 
 43692.65567		 305.27265			43387.38302		68.12000		324.00000 
 43692.65567		 310.52363			43382.13204		157.45800		875.00000 
 43692.65567		 305.27265			43387.38302		68.12000		324.00000 
 43692.65567		 311.00099			43381.65468		157.45800		875.00000 
 43692.65567		 305.27265			43387.38302		68.12000		324.00000 
 43692.65567		 311.00099			43381.65468		157.45800		875.00000 
 43692.65567		 305.27265			43387.38302		68.12000		324.00000 
 43692.65567		 311.00099			43381.65468		157.45800		875.00000 
 43692.65567		 305.27265			43387.38302		68.12000		324.00000 
 43692.65567		 311.00099			43381.65468		157.45800		875.00000 
 43692.65567		 305.27265			43387.38302		68.12000		324.00000 
 43692.65567		 311.00099			43381.65468		157.45800		875.00000 
 43692.65567		 305.27265			43387.38302		68.12000		324.00000 
 43692.65567		 311.00099			43381.65468		157.45800		875.00000 
 43692.65567		 305.27265			43387.38302		68.12000		324.00000 
 43692.65567		 311.00099			43381.65468		157.45800		875.00000 
 43692.65567		 305.27265			43387.38302		68.12000		324.00000 
 43692.65567		 311.00099			43381.65468		157.45800		875.00000 
 43692.65567		 305.27265			43387.38302		68.12000		324.00000 
 43692.65567		 311.00099			43381.65468		157.45800		875.00000 
 43692.65567		 305.27265			43387.38302		68.12000		324.00000 
 43692.65567		 311.00099			43381.65468		157.45800		875.00000 
 43692.65567		 305.27265			43387.38302		68.12000		324.00000 
 43692.65567		 311.00099			43381.65468		157.45800		875.00000 
 43692.65567		 305.27265			43387.38302		68.12000		324.00000 
 43692.65567		 311.00099			43381.65468		157.45800		875.00000 
 43692.65567		 305.27265			43387.38302		68.12000		324.00000 
 43692.65567		 311.00099			43381.65468		140.57400		875.00000 
 43692.65567		 305.27265			43387.38302		68.12000		324.00000 
 43692.65567		 311.00099			43381.65468		140.57400		875.00000 
 43692.65567		 305.27265			43387.38302		68.12000		324.00000 
 43692.65567		 311.00099			43381.65468		140.57400		875.00000 
 43692.65567		 305.27265			43387.38302		68.12000		324.00000 
 43692.65567		 311.00099			43381.65468		140.57400		875.00000 
 43692.65567		 305.27265			43387.38302		68.12000		324.00000 
 43692.65567		 311.00099			43381.65468		140.57400		875.00000 
 43692.65567		 305.27265			43387.38302		68.12000		324.00000 
 43692.65567		 311.00099			43381.65468		140.57400		875.00000 
 43692.65567		 305.27265			43387.38302		68.12000		324.00000 
 43692.65567		 311.00099			43381.65468		140.57400		875.00000 
 43692.65567		 305.27265			43387.38302		68.12000		324.00000 
 43692.65567		 311.00099			43381.65468		140.57400		875.00000 
 43692.65567		 305.27265			43387.38302		68.12000		324.00000 
 43692.65567		 311.00099			43381.65468		140.57400		875.00000 
 43692.65567		 305.27265			43387.38302		68.12000		324.00000 
 43692.65567		 311.00099			43381.65468		140.57400		875.00000 
 43692.65567		 305.27265			43387.38302		68.12000		324.00000 
 43692.65567		 311.00099			43381.65468		140.57400		875.00000 
 43692.65567		 305.27265			43387.38302		68.12000		324.00000 
 43692.65567		 311.00099			43381.65468		140.57400		875.00000 
 43692.65567		 305.27265			43387.38302		68.12000		324.00000 
 43692.65567		 311.00099			43381.65468		140.57400		875.00000 
 43692.65567		 305.27265			43387.38302		68.12000		324.00000 
 43692.65567		 311.00099			43381.65468		140.57400		875.00000 
 43692.65567		 305.27265			43387.38302		68.12000		324.00000 
 43692.65567		 311.00099			43381.65468		140.57400		875.00000 
 43692.65567		 305.27265			43387.38302		68.12000		324.00000 
 43692.65567		 311.00099			43381.65468		140.57400		875.00000 
 43692.65567		 305.27265			43387.38302		68.12000		324.00000 
 43692.65567		 311.00099			43381.65468		140.57400		875.00000 
 43692.65567		 305.27265			43387.38302		68.12000		324.00000 
 43692.65567		 311.00099			43381.65468		140.57400		875.00000 
 43692.65567		 305.27265			43387.38302		68.12000		324.00000 
 43692.65567		 311.00099			43381.65468		140.57400		875.00000 
 43692.65567		 305.27265			43387.38302		68.12000		324.00000 
 43692.65567		 311.00099			43381.65468		140.57400		875.00000 
 43692.65567		 305.27265			43387.38302		68.12000		324.00000 
 43692.65567		 311.00099			43381.65468		140.57400		875.00000 
 43692.65567		 305.27265			43387.38302		68.12000		324.00000 
 43692.65567		 311.00099			43381.65468		140.57400		875.00000 
 43692.65567		 305.27265			43387.38302		68.12000		324.00000 
 43692.65567		 311.00099			43381.65468		140.57400		875.00000 
 43692.65567		 305.27265			43387.38302		68.12000		324.00000 
 43692.65567		 311.00099			43381.65468		140.57400		875.00000 
 43692.65567		 305.27265			43387.38302		68.12000		324.00000 
 43692.65567		 311.00099			43381.65468		140.57400		875.00000 
 43692.65567		 305.27265			43387.38302		68.12000		324.00000 
 43692.65567		 311.00099			43381.65468		140.57400		875.00000 
 43692.65567		 305.27265			43387.38302		68.12000		324.00000 
 43692.65567		 311.00099			43381.65468		140.57400		875.00000 
 43692.65567		 305.27265			43387.38302		68.12000		324.00000 
 43692.65567		 311.00099			43381.65468		140.57400		875.00000 
 43692.65567		 305.27265			43387.38302		68.12000		324.00000 
 43692.65567		 311.00099			43381.65468		140.57400		875.00000 
 43692.65567		 305.27265			43387.38302		68.12000		324.00000 
 43692.65567		 311.00099			43381.65468		140.57400		875.00000 
 43692.65567		 305.27265			43387.38302		68.12000		324.00000 
 43692.65567		 311.00099			43381.65468		140.57400		875.00000 
 43692.65567		 305.27265			43387.38302		68.12000		324.00000 
 43692.65567		 311.00099			43381.65468		140.57400		875.00000 
 43692.65567		 305.27265			43387.38302		68.12000		324.00000 
 43692.65567		 311.00099			43381.65468		134.63600		875.00000 
 43692.65567		 305.27265			43387.38302		68.12000		324.00000 
 43692.65567		 311.00099			43381.65468		134.63600		875.00000 
 43692.65567		 305.27265			43387.38302		68.12000		324.00000 
 43692.65567		 311.00099			43381.65468		134.63600		875.00000 
 43692.65567		 305.27265			43387.38302		68.12000		324.00000 
 43692.65567		 311.00099			43381.65468		134.63600		875.00000 
 43692.65567		 305.27265			43387.38302		68.12000		324.00000 
 43692.65567		 311.00099			43381.65468		134.63600		875.00000 
 43692.65567		 305.27265			43387.38302		68.12000		324.00000 
 43692.65567		 311.00099			43381.65468		134.63600		875.00000 
 43692.65567		 305.27265			43387.38302		68.12000		324.00000 
 43692.65567		 314.81988			43377.83579		134.63600		875.00000 
 43692.65567		 305.27265			43387.38302		68.12000		324.00000 
 43692.65567		 314.81988			43377.83579		134.63600		875.00000 
 43692.65567		 305.27265			43387.38302		68.12000		324.00000 
 43692.65567		 314.81988			43377.83579		134.63600		875.00000 
 43692.65567		 305.27265			43387.38302		68.12000		324.00000 
 43692.65567		 318.63877			43374.01690		134.63600		875.00000 
 43692.65567		 305.27265			43387.38302		68.12000		324.00000 
 43692.65567		 322.45767			43370.19801		134.63600		875.00000 
 43692.65567		 305.27265			43387.38302		68.12000		324.00000 
 43692.65567		 326.27656			43366.37912		134.63600		875.00000 
 43692.65567		 305.27265			43387.38302		68.12000		324.00000 
 43692.65567		 326.27656			43366.37912		134.63600		875.00000 
 43692.65567		 305.27265			43387.38302		68.12000		324.00000 
 43692.65567		 326.27656			43366.37912		134.63600		875.00000 
 43692.65567		 305.27265			43387.38302		68.12000		324.00000 
 43692.65567		 537.27032			43155.38535		134.63600		875.00000 
 43692.65567		 305.27265			43387.38302		68.12000		324.00000 
 43692.65567		 586.91591			43105.73976		134.63600		875.00000 
 43692.65567		 305.27265			43387.38302		68.12000		324.00000 
 43692.65567		 611.73871			43080.91696		134.63600		875.00000 
 43692.65567		 305.27265			43387.38302		68.12000		324.00000 
 43692.65567		 611.73871			43080.91696		134.63600		875.00000 
 43692.65567		 305.27265			43387.38302		68.12000		324.00000 
 43692.65567		 611.73871			43080.91696		134.63600		875.00000 
 43692.65567		 305.27265			43387.38302		68.12000		324.00000 
 43692.65567		 611.73871			43080.91696		134.63600		875.00000 
 43692.65567		 305.27265			43387.38302		68.12000		324.00000 
 43692.65567		 611.73871			43080.91696		134.63600		875.00000 
 43692.65567		 305.27265			43387.38302		68.12000		324.00000 
 43692.65567		 611.73871			43080.91696		134.63600		875.00000 
 43692.65567		 305.27265			43387.38302		68.12000		324.00000 
 43692.65567		 611.73871			43080.91696		134.63600		875.00000 
 43692.65567		 305.27265			43387.38302		68.12000		324.00000 
 43692.65567		 611.73871			43080.91696		134.63600		875.00000 
 43692.65567		 305.27265			43387.38302		68.12000		324.00000 
 43692.65567		 611.73871			43080.91696		134.63600		875.00000 
 43692.65567		 305.27265			43387.38302		68.12000		324.00000 
 43692.65567		 611.73871			43080.91696		134.63600		875.00000 
 43692.65567		 305.27265			43387.38302		68.12000		324.00000 
 43692.65567		 611.73871			43080.91696		134.63600		875.00000 
 43692.65567		 305.27265			43387.38302		68.12000		324.00000 
 43692.65567		 611.73871			43080.91696		134.63600		875.00000 
 43692.65567		 305.27265			43387.38302		68.12000		324.00000 
 43692.65567		 611.73871			43080.91696		134.63600		875.00000 
 43692.65567		 305.27265			43387.38302		68.12000		324.00000 
 43692.65567		 611.73871			43080.91696		134.63600		875.00000 
 43692.65567		 305.27265			43387.38302		68.12000		324.00000 
 43692.65567		 611.73871			43080.91696		134.63600		875.00000 
 43692.65567		 305.27265			43387.38302		68.12000		324.00000 
 43692.65567		 611.73871			43080.91696		134.63600		875.00000 
 43692.65567		 305.27265			43387.38302		68.12000		324.00000 
 43692.65567		 611.73871			43080.91696		134.63600		875.00000 
 43692.65567		 305.27265			43387.38302		68.12000		324.00000 
 43692.65567		 611.73871			43080.91696		134.63600		875.00000 
 43692.65567		 305.27265			43387.38302		68.12000		324.00000 
 43692.65567		 611.73871			43080.91696		134.63600		875.00000 
 43692.65567		 305.27265			43387.38302		68.12000		324.00000 
 43692.65567		 611.73871			43080.91696		134.63600		875.00000 
 43692.65567		 305.27265			43387.38302		68.12000		324.00000 
 43692.65567		 611.73871			43080.91696		134.63600		875.00000 
 43692.65567		 305.27265			43387.38302		68.12000		324.00000 
 43692.65567		 611.73871			43080.91696		134.63600		875.00000 
 43692.65567		 305.27265			43387.38302		68.12000		324.00000 
 43692.65567		 611.73871			43080.91696		134.63600		875.00000 
 43692.65567		 305.27265			43387.38302		68.12000		324.00000 
 43692.65567		 611.73871			43080.91696		134.63600		875.00000 
 43692.65567		 305.27265			43387.38302		68.12000		324.00000 
 43692.65567		 611.73871			43080.91696		134.63600		875.00000 
 43692.65567		 305.27265			43387.38302		68.12000		324.00000 
 43692.65567		 611.73871			43080.91696		134.63600		875.00000 
 43692.65567		 305.27265			43387.38302		68.12000		324.00000 
 43692.65567		 611.73871			43080.91696		134.63600		875.00000 
 43692.65567		 305.27265			43387.38302		68.12000		324.00000 
 43692.65567		 611.73871			43080.91696		134.63600		875.00000 
 43692.65567		 305.27265			43387.38302		68.12000		324.00000 
 43692.65567		 611.73871			43080.91696		134.63600		875.00000 
 43692.65567		 305.27265			43387.38302		68.12000		324.00000 
 43692.65567		 611.73871			43080.91696		134.63600		875.00000 
 43692.65567		 305.27265			43387.38302		68.12000		324.00000 
 43692.65567		 611.73871			43080.91696		134.63600		875.00000 
 43692.65567		 305.27265			43387.38302		68.12000		324.00000 
 43692.65567		 611.73871			43080.91696		134.63600		875.00000 
 43692.65567		 305.27265			43387.38302		68.12000		324.00000 
 43692.65567		 611.73871			43080.91696		134.63600		875.00000 
 43692.65567		 305.27265			43387.38302		68.12000		324.00000 
 43692.65567		 611.73871			43080.91696		134.63600		875.00000 
 43692.65567		 305.27265			43387.38302		68.12000		324.00000 
 43692.65567		 611.73871			43080.91696		134.63600		875.00000 
 43692.65567		 305.27265			43387.38302		68.12000		324.00000 
 43692.65567		 611.73871			43080.91696		134.63600		875.00000 
 43692.65567		 305.27265			43387.38302		68.12000		324.00000 
 43692.65567		 611.73871			43080.91696		134.63600		875.00000 
 43692.65567		 305.27265			43387.38302		68.12000		324.00000 
 43692.65567		 611.73871			43080.91696		134.63600		875.00000 
 43692.65567		 305.27265			43387.38302		68.12000		324.00000 
 43692.65567		 611.73871			43080.91696		172.01400		875.00000 
 43692.65567		 305.27265			43387.38302		68.12000		324.00000 
 43692.65567		 611.73871			43080.91696		172.01400		875.00000 
 43692.65567		 305.27265			43387.38302		68.12000		324.00000 
 43692.65567		 611.73871			43080.91696		172.01400		875.00000 
 43692.65567		 305.27265			43387.38302		68.12000		324.00000 
 43692.65567		 611.73871			43080.91696		172.01400		875.00000 
 43692.65567		 305.27265			43387.38302		68.12000		324.00000 
 43692.65567		 611.73871			43080.91696		172.01400		875.00000 
 43692.65567		 305.27265			43387.38302		68.12000		324.00000 
 43692.65567		 611.73871			43080.91696		172.01400		875.00000 
 43692.65567		 305.27265			43387.38302		68.12000		324.00000 
 43692.65567		 611.73871			43080.91696		172.01400		875.00000 
 43692.65567		 305.27265			43387.38302		68.12000		324.00000 
 43692.65567		 611.73871			43080.91696		172.01400		875.00000 
 43692.65567		 305.27265			43387.38302		68.12000		324.00000 
 43692.65567		 611.73871			43080.91696		172.01400		875.00000 
 43692.65567		 305.27265			43387.38302		68.12000		324.00000 
 43692.65567		 611.73871			43080.91696		172.01400		875.00000 
 43692.65567		 305.27265			43387.38302		68.12000		324.00000 
 43692.65567		 611.73871			43080.91696		172.01400		875.00000 
 43692.65567		 305.27265			43387.38302		68.12000		324.00000 
 43692.65567		 611.73871			43080.91696		172.01400		875.00000 
 43692.65567		 305.27265			43387.38302		68.12000		324.00000 
 43692.65567		 611.73871			43080.91696		172.01400		875.00000 
 43692.65567		 305.27265			43387.38302		68.12000		324.00000 
 43692.65567		 611.73871			43080.91696		172.01400		875.00000 
 43692.65567		 305.27265			43387.38302		68.12000		324.00000 
 43692.65567		 611.73871			43080.91696		172.01400		875.00000 
 43692.65567		 305.27265			43387.38302		68.12000		324.00000 
 43692.65567		 611.73871			43080.91696		172.01400		875.00000 
 43692.65567		 305.27265			43387.38302		68.12000		324.00000 
 43692.65567		 611.73871			43080.91696		172.01400		875.00000 
 43692.65567		 305.27265			43387.38302		68.12000		324.00000 
 43692.65567		 611.73871			43080.91696		172.01400		875.00000 
 43692.65567		 305.27265			43387.38302		68.12000		324.00000 
 43692.65567		 611.73871			43080.91696		172.01400		875.00000 
 43692.65567		 305.27265			43387.38302		68.12000		324.00000 
 43692.65567		 611.73871			43080.91696		172.01400		875.00000 
 43692.65567		 305.27265			43387.38302		68.12000		324.00000 
 43692.65567		 611.73871			43080.91696		172.01400		875.00000 
 43692.65567		 305.27265			43387.38302		68.12000		324.00000 
 43692.65567		 611.73871			43080.91696		172.01400		875.00000 
 43692.65567		 305.27265			43387.38302		68.12000		324.00000 
 43692.65567		 611.73871			43080.91696		172.01400		875.00000 
 43692.65567		 305.27265			43387.38302		68.12000		324.00000 
 43692.65567		 611.73871			43080.91696		172.01400		875.00000 
 43692.65567		 305.27265			43387.38302		68.12000		324.00000 
 43692.65567		 611.73871			43080.91696		172.01400		875.00000 
 43692.65567		 305.27265			43387.38302		68.12000		324.00000 
 43692.65567		 611.73871			43080.91696		172.01400		875.00000 
 43692.65567		 305.27265			43387.38302		68.12000		324.00000 
 43692.65567		 611.73871			43080.91696		172.01400		875.00000 
 43692.65567		 305.27265			43387.38302		68.12000		324.00000 
 43692.65567		 611.73871			43080.91696		172.01400		875.00000 
 43692.65567		 305.27265			43387.38302		68.12000		324.00000 
 43692.65567		 611.73871			43080.91696		172.01400		875.00000 
 43692.65567		 305.27265			43387.38302		68.12000		324.00000 
 43692.65567		 611.73871			43080.91696		172.01400		875.00000 
 43692.65567		 305.27265			43387.38302		68.12000		324.00000 
 43692.65567		 611.73871			43080.91696		172.01400		875.00000 
 43692.65567		 305.27265			43387.38302		68.12000		324.00000 
 43692.65567		 611.73871			43080.91696		172.01400		875.00000 
 43692.65567		 305.27265			43387.38302		68.12000		324.00000 
 43692.65567		 611.73871			43080.91696		172.01400		875.00000 
 43692.65567		 305.27265			43387.38302		68.12000		324.00000 
 43692.65567		 611.73871			43080.91696		172.01400		875.00000 
 43692.65567		 305.27265			43387.38302		68.12000		324.00000 
 43692.65567		 611.73871			43080.91696		172.01400		875.00000 
 43692.65567		 305.27265			43387.38302		68.12000		324.00000 
 43692.65567		 611.73871			43080.91696		172.01400		875.00000 
 43692.65567		 305.27265			43387.38302		68.12000		324.00000 
 43692.65567		 611.73871			43080.91696		172.01400		875.00000 
 43692.65567		 305.27265			43387.38302		68.12000		324.00000 
 43692.65567		 611.73871			43080.91696		172.01400		875.00000 
 43692.65567		 305.27265			43387.38302		68.12000		324.00000 
 43692.65567		 611.73871			43080.91696		172.01400		875.00000 
 43692.65567		 305.27265			43387.38302		68.12000		324.00000 
 43692.65567		 611.73871			43080.91696		172.01400		875.00000 
 43692.65567		 305.27265			43387.38302		68.12000		324.00000 
 43692.65567		 611.73871			43080.91696		172.01400		875.00000 
 43692.65567		 305.27265			43387.38302		68.12000		324.00000 
 43692.65567		 611.73871			43080.91696		172.01400		875.00000 
 43692.65567		 305.27265			43387.38302		68.12000		324.00000 
 43692.65567		 611.73871			43080.91696		172.01400		875.00000 
 43692.65567		 305.27265			43387.38302		68.12000		324.00000 
 43692.65567		 611.73871			43080.91696		172.01400		875.00000 
 43692.65567		 305.27265			43387.38302		68.12000		324.00000 
 43692.65567		 611.73871			43080.91696		172.01400		875.00000 
 43692.65567		 305.27265			43387.38302		68.12000		324.00000 
 43692.65567		 611.73871			43080.91696		172.01400		875.00000 
 43692.65567		 305.27265			43387.38302		68.12000		324.00000 
 43692.65567		 611.73871			43080.91696		172.01400		875.00000 
 43692.65567		 305.27265			43387.38302		68.12000		324.00000 
 43692.65567		 611.73871			43080.91696		172.01400		875.00000 
 43692.65567		 305.27265			43387.38302		68.12000		324.00000 
 43692.65567		 611.73871			43080.91696		172.01400		875.00000 
 43692.65567		 305.27265			43387.38302		68.12000		324.00000 
 43692.65567		 611.73871			43080.91696		172.01400		875.00000 
 43692.65567		 305.27265			43387.38302		68.12000		324.00000 
 43692.65567		 611.73871			43080.91696		172.01400		875.00000 
 43692.65567		 305.27265			43387.38302		68.12000		324.00000 
 43692.65567		 611.73871			43080.91696		172.01400		875.00000 
 43692.65567		 305.27265			43387.38302		68.12000		324.00000 
 43692.65567		 611.73871			43080.91696		172.01400		875.00000 
 43692.65567		 305.27265			43387.38302		68.12000		324.00000 
 43692.65567		 611.73871			43080.91696		172.01400		875.00000 
 43692.65567		 305.27265			43387.38302		68.12000		324.00000 
 43692.65567		 611.73871			43080.91696		172.01400		875.00000 
 43692.65567		 305.27265			43387.38302		68.12000		324.00000 
 43692.65567		 611.73871			43080.91696		172.01400		875.00000 
 43692.65567		 305.27265			43387.38302		68.12000		324.00000 
 43692.65567		 611.73871			43080.91696		172.01400		875.00000 
 43692.65567		 305.27265			43387.38302		68.12000		324.00000 
 43692.65567		 611.73871			43080.91696		172.01400		875.00000 
 43692.65567		 305.27265			43387.38302		68.12000		324.00000 
 43692.65567		 611.73871			43080.91696		172.01400		875.00000 
 43692.65567		 305.27265			43387.38302		68.12000		324.00000 
 43692.65567		 611.73871			43080.91696		172.01400		875.00000 
 43692.65567		 305.27265			43387.38302		68.12000		324.00000 
 43692.65567		 611.73871			43080.91696		172.01400		875.00000 
 43692.65567		 305.27265			43387.38302		68.12000		324.00000 
 43692.65567		 611.73871			43080.91696		172.01400		875.00000 
 43692.65567		 305.27265			43387.38302		68.12000		324.00000 
 43692.65567		 611.73871			43080.91696		172.01400		875.00000 
 43692.65567		 305.27265			43387.38302		68.12000		324.00000 
 43692.65567		 611.73871			43080.91696		172.01400		875.00000 
 43692.65567		 305.27265			43387.38302		68.12000		324.00000 
 43692.65567		 611.73871			43080.91696		202.47800		875.00000 
 43692.65567		 305.27265			43387.38302		68.12000		324.00000 
 43692.65567		 611.73871			43080.91696		202.47800		875.00000 
 43692.65567		 305.27265			43387.38302		68.12000		324.00000 
 43692.65567		 611.73871			43080.91696		202.47800		875.00000 
 43692.65567		 305.27265			43387.38302		68.12000		324.00000 
 43692.65567		 611.73871			43080.91696		202.47800		875.00000 
 43692.65567		 305.27265			43387.38302		68.12000		324.00000 
 43692.65567		 611.73871			43080.91696		202.47800		875.00000 
 43692.65567		 305.27265			43387.38302		68.12000		324.00000 
 43692.65567		 611.73871			43080.91696		202.47800		875.00000 
 43692.65567		 305.27265			43387.38302		68.12000		324.00000 
 43692.65567		 611.73871			43080.91696		202.47800		875.00000 
 43692.65567		 305.27265			43387.38302		68.12000		324.00000 
 43692.65567		 611.73871			43080.91696		202.47800		875.00000 
 43692.65567		 305.27265			43387.38302		68.12000		324.00000 
 43692.65567		 611.73871			43080.91696		202.47800		875.00000 
 43692.65567		 305.27265			43387.38302		68.12000		324.00000 
 43692.65567		 611.73871			43080.91696		202.47800		875.00000 
 43692.65567		 305.27265			43387.38302		68.12000		324.00000 
 43692.65567		 611.73871			43080.91696		202.47800		875.00000 
 43692.65567		 305.27265			43387.38302		68.12000		324.00000 
 43692.65567		 611.73871			43080.91696		202.47800		875.00000 
 43692.65567		 305.27265			43387.38302		68.12000		324.00000 
 43692.65567		 611.73871			43080.91696		202.47800		875.00000 
 43692.65567		 305.27265			43387.38302		68.12000		324.00000 
 43692.65567		 611.73871			43080.91696		202.47800		875.00000 
 43692.65567		 305.27265			43387.38302		68.12000		324.00000 
 43692.65567		 611.73871			43080.91696		202.47800		875.00000 
 43692.65567		 305.27265			43387.38302		68.12000		324.00000 
 43692.65567		 611.73871			43080.91696		202.47800		875.00000 
 43692.65567		 305.27265			43387.38302		68.12000		324.00000 
 43692.65567		 611.73871			43080.91696		202.47800		875.00000 
 43692.65567		 305.27265			43387.38302		68.12000		324.00000 
 43692.65567		 611.73871			43080.91696		202.47800		875.00000 
 43692.65567		 305.27265			43387.38302		68.12000		324.00000 
 43692.65567		 611.73871			43080.91696		202.47800		875.00000 
 43692.65567		 305.27265			43387.38302		68.12000		324.00000 
 43692.65567		 611.73871			43080.91696		202.47800		875.00000 
 43692.65567		 305.27265			43387.38302		68.12000		324.00000 
 43692.65567		 611.73871			43080.91696		202.47800		875.00000 
 43692.65567		 305.27265			43387.38302		68.12000		324.00000 
 43692.65567		 611.73871			43080.91696		202.47800		875.00000 
 43692.65567		 305.27265			43387.38302		68.12000		324.00000 
 43692.65567		 611.73871			43080.91696		202.47800		875.00000 
 43692.65567		 305.27265			43387.38302		68.12000		324.00000 
 43692.65567		 611.73871			43080.91696		202.47800		875.00000 
 43692.65567		 305.27265			43387.38302		68.12000		324.00000 
 43692.65567		 611.73871			43080.91696		202.47800		875.00000 
 43692.65567		 305.27265			43387.38302		68.12000		324.00000 
 43692.65567		 611.73871			43080.91696		202.47800		875.00000 
 43692.65567		 305.27265			43387.38302		68.12000		324.00000 
 43692.65567		 611.73871			43080.91696		202.47800		875.00000 
 43692.65567		 305.27265			43387.38302		68.12000		324.00000 
 43692.65567		 611.73871			43080.91696		202.47800		875.00000 
 43692.65567		 305.27265			43387.38302		68.12000		324.00000 
 43692.65567		 611.73871			43080.91696		202.47800		875.00000 
 43692.65567		 305.27265			43387.38302		68.12000		324.00000 
 43692.65567		 611.73871			43080.91696		202.47800		875.00000 
 43692.65567		 305.27265			43387.38302		68.12000		324.00000 
 43692.65567		 611.73871			43080.91696		202.47800		875.00000 
 43692.65567		 305.27265			43387.38302		68.12000		324.00000 
 43692.65567		 611.73871			43080.91696		202.47800		875.00000 
 43692.65567		 305.27265			43387.38302		68.12000		324.00000 
 43692.65567		 611.73871			43080.91696		202.47800		875.00000 
 43692.65567		 305.27265			43387.38302		68.12000		324.00000 
 43692.65567		 611.73871			43080.91696		202.47800		875.00000 
 43692.65567		 305.27265			43387.38302		68.12000		324.00000 
 43692.65567		 611.73871			43080.91696		202.47800		875.00000 
 43692.65567		 305.27265			43387.38302		68.12000		324.00000 
 43692.65567		 611.73871			43080.91696		202.47800		875.00000 
 43692.65567		 305.27265			43387.38302		68.12000		324.00000 
 43692.65567		 611.73871			43080.91696		202.47800		875.00000 
 43692.65567		 305.27265			43387.38302		68.12000		324.00000 
 43692.65567		 611.73871			43080.91696		202.47800		875.00000 
 43692.65567		 305.27265			43387.38302		68.12000		324.00000 
 43692.65567		 611.73871			43080.91696		202.47800		875.00000 
 43692.65567		 305.27265			43387.38302		68.12000		324.00000 
 43692.65567		 611.73871			43080.91696		202.47800		875.00000 
 43692.65567		 305.27265			43387.38302		68.12000		324.00000 
 43692.65567		 611.73871			43080.91696		202.47800		875.00000 
 43692.65567		 305.27265			43387.38302		68.12000		324.00000 
 43692.65567		 611.73871			43080.91696		202.47800		875.00000 
 43692.65567		 305.27265			43387.38302		68.12000		324.00000 
 43692.65567		 611.73871			43080.91696		202.47800		875.00000 
 43692.65567		 305.27265			43387.38302		68.12000		324.00000 
 43692.65567		 611.73871			43080.91696		202.47800		875.00000 
 43692.65567		 305.27265			43387.38302		68.12000		324.00000 
 43692.65567		 611.73871			43080.91696		202.47800		875.00000 
 43692.65567		 305.27265			43387.38302		68.12000		324.00000 
 43692.65567		 611.73871			43080.91696		202.47800		875.00000 
 43692.65567		 305.27265			43387.38302		68.12000		324.00000 
 43692.65567		 611.73871			43080.91696		202.47800		875.00000 
 43692.65567		 305.27265			43387.38302		68.12000		324.00000 
 43692.65567		 611.73871			43080.91696		202.47800		875.00000 
 43692.65567		 305.27265			43387.38302		68.12000		324.00000 
 43692.65567		 611.73871			43080.91696		202.47800		875.00000 
 43692.65567		 305.27265			43387.38302		68.12000		324.00000 
 43692.65567		 611.73871			43080.91696		202.47800		875.00000 
 43692.65567		 305.27265			43387.38302		68.12000		324.00000 
 43692.65567		 611.73871			43080.91696		202.47800		875.00000 
 43692.65567		 305.27265			43387.38302		68.12000		324.00000 
 43692.65567		 611.73871			43080.91696		202.47800		875.00000 
 43692.65567		 305.27265			43387.38302		68.12000		324.00000 
 43692.65567		 611.73871			43080.91696		202.47800		875.00000 
 43692.65567		 305.27265			43387.38302		68.12000		324.00000 
 43692.65567		 611.73871			43080.91696		202.47800		875.00000 
 43692.65567		 305.27265			43387.38302		68.12000		324.00000 
 43692.65567		 611.73871			43080.91696		202.47800		875.00000 
 43692.65567		 305.27265			43387.38302		68.12000		324.00000 
 43692.65567		 611.73871			43080.91696		202.47800		875.00000 
 43692.65567		 305.27265			43387.38302		68.12000		324.00000 
 43692.65567		 611.73871			43080.91696		202.47800		875.00000 
 43692.65567		 305.27265			43387.38302		68.12000		324.00000 
 43692.65567		 611.73871			43080.91696		202.47800		875.00000 
 43692.65567		 305.27265			43387.38302		68.12000		324.00000 
 43692.65567		 611.73871			43080.91696		202.47800		875.00000 
 43692.65567		 305.27265			43387.38302		68.12000		324.00000 
 43692.65567		 611.73871			43080.91696		202.47800		875.00000 
 43692.65567		 305.27265			43387.38302		68.12000		324.00000 
 43692.65567		 611.73871			43080.91696		202.47800		875.00000 
 43692.65567		 305.27265			43387.38302		68.12000		324.00000 
 43692.65567		 611.73871			43080.91696		202.47800		875.00000 
 43692.65567		 305.27265			43387.38302		68.12000		324.00000 
 43692.65567		 611.73871			43080.91696		202.47800		875.00000 
 43692.65567		 305.27265			43387.38302		68.12000		324.00000 
 43692.65567		 611.73871			43080.91696		202.47800		875.00000 
 43692.65567		 305.27265			43387.38302		68.12000		324.00000 
 43692.65567		 611.73871			43080.91696		213.93600		875.00000 
 43692.65567		 305.27265			43387.38302		68.12000		324.00000 
 43692.65567		 611.73871			43080.91696		213.93600		875.00000 
 43692.65567		 305.27265			43387.38302		68.12000		324.00000 
 43692.65567		 611.73871			43080.91696		213.93600		875.00000 
 43692.65567		 305.27265			43387.38302		68.12000		324.00000 
 43692.65567		 611.73871			43080.91696		213.93600		875.00000 
 43692.65567		 305.27265			43387.38302		68.12000		324.00000 
 43692.65567		 611.73871			43080.91696		213.93600		875.00000 
 43692.65567		 305.27265			43387.38302		68.12000		324.00000 
 43692.65567		 611.73871			43080.91696		213.93600		875.00000 
 43692.65567		 305.27265			43387.38302		68.12000		324.00000 
 43692.65567		 611.73871			43080.91696		213.93600		875.00000 
 43692.65567		 305.27265			43387.38302		68.12000		324.00000 
 43692.65567		 611.73871			43080.91696		213.93600		875.00000 
 43692.65567		 305.27265			43387.38302		68.12000		324.00000 
 43692.65567		 611.73871			43080.91696		213.93600		875.00000 
 43692.65567		 305.27265			43387.38302		68.12000		324.00000 
 43692.65567		 611.73871			43080.91696		213.93600		875.00000 
 43692.65567		 305.27265			43387.38302		68.12000		324.00000 
 43692.65567		 611.73871			43080.91696		213.93600		875.00000 
 43692.65567		 305.27265			43387.38302		68.12000		324.00000 
 43692.65567		 611.73871			43080.91696		213.93600		875.00000 
 43692.65567		 305.27265			43387.38302		68.12000		324.00000 
 43692.65567		 611.73871			43080.91696		213.93600		875.00000 
 43692.65567		 305.27265			43387.38302		68.12000		324.00000 
 43692.65567		 611.73871			43080.91696		213.93600		875.00000 
 43692.65567		 305.27265			43387.38302		68.12000		324.00000 
 43692.65567		 611.73871			43080.91696		213.93600		875.00000 
 43692.65567		 305.27265			43387.38302		68.12000		324.00000 
 43692.65567		 611.73871			43080.91696		213.93600		875.00000 
 43692.65567		 305.27265			43387.38302		68.12000		324.00000 
 43692.65567		 611.73871			43080.91696		213.93600		875.00000 
 43692.65567		 305.27265			43387.38302		68.12000		324.00000 
 43692.65567		 611.73871			43080.91696		213.93600		875.00000 
 43692.65567		 305.27265			43387.38302		68.12000		324.00000 
 43692.65567		 611.73871			43080.91696		213.93600		875.00000 
 43692.65567		 305.27265			43387.38302		68.12000		324.00000 
 43692.65567		 611.73871			43080.91696		213.93600		875.00000 
 43692.65567		 305.27265			43387.38302		68.12000		324.00000 
 43692.65567		 611.73871			43080.91696		213.93600		875.00000 
 43692.65567		 305.27265			43387.38302		68.12000		324.00000 
 43692.65567		 611.73871			43080.91696		213.93600		875.00000 
 43692.65567		 305.27265			43387.38302		68.12000		324.00000 
 43692.65567		 611.73871			43080.91696		213.93600		875.00000 
 43692.65567		 305.27265			43387.38302		68.12000		324.00000 
 43692.65567		 611.73871			43080.91696		213.93600		875.00000 
 43692.65567		 305.27265			43387.38302		68.12000		324.00000 
 43692.65567		 611.73871			43080.91696		213.93600		875.00000 
 43692.65567		 305.27265			43387.38302		68.12000		324.00000 
 43692.65567		 611.73871			43080.91696		213.93600		875.00000 
 43692.65567		 305.27265			43387.38302		68.12000		324.00000 
 43692.65567		 611.73871			43080.91696		213.93600		875.00000 
 43692.65567		 305.27265			43387.38302		68.12000		324.00000 
 43692.65567		 611.73871			43080.91696		213.93600		875.00000 
 43692.65567		 305.27265			43387.38302		68.12000		324.00000 
 43692.65567		 611.73871			43080.91696		213.93600		875.00000 
 43692.65567		 305.27265			43387.38302		68.12000		324.00000 
 43692.65567		 611.73871			43080.91696		213.93600		875.00000 
 43692.65567		 305.27265			43387.38302		68.12000		324.00000 
 43692.65567		 611.73871			43080.91696		213.93600		875.00000 
 43692.65567		 305.27265			43387.38302		68.12000		324.00000 
 43692.65567		 611.73871			43080.91696		213.93600		875.00000 
 43692.65567		 305.27265			43387.38302		68.12000		324.00000 
 43692.65567		 611.73871			43080.91696		213.93600		875.00000 
 43692.65567		 305.27265			43387.38302		68.12000		324.00000 
 43692.65567		 611.73871			43080.91696		213.93600		875.00000 
 43692.65567		 305.27265			43387.38302		68.12000		324.00000 
 43692.65567		 611.73871			43080.91696		213.93600		875.00000 
 43692.65567		 305.27265			43387.38302		68.12000		324.00000 
 43692.65567		 611.73871			43080.91696		213.93600		875.00000 
 43692.65567		 305.27265			43387.38302		68.12000		324.00000 
 43692.65567		 611.73871			43080.91696		213.93600		875.00000 
 43692.65567		 305.27265			43387.38302		68.12000		324.00000 
 43692.65567		 611.73871			43080.91696		213.93600		875.00000 
 43692.65567		 305.27265			43387.38302		68.12000		324.00000 
 43692.65567		 611.73871			43080.91696		213.93600		875.00000 
 43692.65567		 305.27265			43387.38302		68.12000		324.00000 
 43692.65567		 611.73871			43080.91696		213.93600		875.00000 
 43692.65567		 305.27265			43387.38302		68.12000		324.00000 
 43692.65567		 611.73871			43080.91696		213.93600		875.00000 
 43692.65567		 305.27265			43387.38302		68.12000		324.00000 
 43692.65567		 611.73871			43080.91696		213.93600		875.00000 
 43692.65567		 305.27265			43387.38302		68.12000		324.00000 
 43692.65567		 611.73871			43080.91696		213.93600		875.00000 
 43692.65567		 305.27265			43387.38302		68.12000		324.00000 
 43692.65567		 611.73871			43080.91696		213.93600		875.00000 
 43692.65567		 305.27265			43387.38302		68.12000		324.00000 
 43692.65567		 611.73871			43080.91696		213.93600		875.00000 
 43692.65567		 305.27265			43387.38302		68.12000		324.00000 
 43692.65567		 611.73871			43080.91696		213.93600		875.00000 
 43692.65567		 305.27265			43387.38302		68.12000		324.00000 
 43692.65567		 611.73871			43080.91696		213.93600		875.00000 
 43692.65567		 305.27265			43387.38302		68.12000		324.00000 
 43692.65567		 611.73871			43080.91696		213.93600		875.00000 
 43692.65567		 305.27265			43387.38302		68.12000		324.00000 
 43692.65567		 611.73871			43080.91696		213.93600		875.00000 
 43692.65567		 305.27265			43387.38302		68.12000		324.00000 
 43692.65567		 611.73871			43080.91696		213.93600		875.00000 
 43692.65567		 305.27265			43387.38302		68.12000		324.00000 
 43692.65567		 611.73871			43080.91696		213.93600		875.00000 
 43692.65567		 305.27265			43387.38302		68.12000		324.00000 
 43692.65567		 611.73871			43080.91696		213.93600		875.00000 
 43692.65567		 305.27265			43387.38302		68.12000		324.00000 
 43692.65567		 611.73871			43080.91696		213.93600		875.00000 
 43692.65567		 305.27265			43387.38302		68.12000		324.00000 
 43692.65567		 611.73871			43080.91696		213.93600		875.00000 
 43692.65567		 305.27265			43387.38302		68.12000		324.00000 
 43692.65567		 611.73871			43080.91696		213.93600		875.00000 
 43692.65567		 305.27265			43387.38302		68.12000		324.00000 
 43692.65567		 611.73871			43080.91696		213.93600		875.00000 
 43692.65567		 305.27265			43387.38302		68.12000		324.00000 
 43692.65567		 611.73871			43080.91696		213.93600		875.00000 
 43692.65567		 305.27265			43387.38302		68.12000		324.00000 
 43692.65567		 611.73871			43080.91696		213.93600		875.00000 
 43692.65567		 305.27265			43387.38302		68.12000		324.00000 
 43692.65567		 611.73871			43080.91696		213.93600		875.00000 
 43692.65567		 305.27265			43387.38302		68.12000		324.00000 
 43692.65567		 611.73871			43080.91696		213.93600		875.00000 
 43692.65567		 305.27265			43387.38302		68.12000		324.00000 
 43692.65567		 611.73871			43080.91696		213.93600		875.00000 
 43692.65567		 305.27265			43387.38302		68.12000		324.00000 
 43692.65567		 611.73871			43080.91696		213.93600		875.00000 
 43692.65567		 305.27265			43387.38302		68.12000		324.00000 
 43692.65567		 611.73871			43080.91696		213.93600		875.00000 
 43692.65567		 305.27265			43387.38302		68.12000		324.00000 
 43692.65567		 611.73871			43080.91696		213.93600		875.00000 
 43692.65567		 305.27265			43387.38302		68.12000		324.00000 
 43692.65567		 611.73871			43080.91696		219.05200		875.00000 
 43692.65567		 305.27265			43387.38302		68.12000		324.00000 
 43692.65567		 611.73871			43080.91696		219.05200		875.00000 
 43692.65567		 305.27265			43387.38302		68.12000		324.00000 
 43692.65567		 611.73871			43080.91696		219.05200		875.00000 
 43692.65567		 305.27265			43387.38302		68.12000		324.00000 
 43692.65567		 611.73871			43080.91696		219.05200		875.00000 
 43692.65567		 305.27265			43387.38302		68.12000		324.00000 
 43692.65567		 611.73871			43080.91696		219.05200		875.00000 
 43692.65567		 305.27265			43387.38302		68.12000		324.00000 
 43692.65567		 611.73871			43080.91696		219.05200		875.00000 
 43692.65567		 305.27265			43387.38302		68.12000		324.00000 
 43692.65567		 611.73871			43080.91696		219.05200		875.00000 
 43692.65567		 305.27265			43387.38302		68.12000		324.00000 
 43692.65567		 611.73871			43080.91696		219.05200		875.00000 
 43692.65567		 305.27265			43387.38302		68.12000		324.00000 
 43692.65567		 611.73871			43080.91696		219.05200		875.00000 
 43692.65567		 305.27265			43387.38302		68.12000		324.00000 
 43692.65567		 611.73871			43080.91696		219.05200		875.00000 
 43692.65567		 305.27265			43387.38302		68.12000		324.00000 
 43692.65567		 611.73871			43080.91696		219.05200		875.00000 
 43692.65567		 305.27265			43387.38302		68.12000		324.00000 
 43692.65567		 611.73871			43080.91696		219.05200		875.00000 
 43692.65567		 305.27265			43387.38302		68.12000		324.00000 
 43692.65567		 611.73871			43080.91696		219.05200		875.00000 
 43692.65567		 305.27265			43387.38302		68.12000		324.00000 
 43692.65567		 611.73871			43080.91696		219.05200		875.00000 
 43692.65567		 305.27265			43387.38302		68.12000		324.00000 
 43692.65567		 611.73871			43080.91696		219.05200		875.00000 
 43692.65567		 305.27265			43387.38302		68.12000		324.00000 
 43692.65567		 611.73871			43080.91696		219.05200		875.00000 
 43692.65567		 305.27265			43387.38302		68.12000		324.00000 
 43692.65567		 611.73871			43080.91696		219.05200		875.00000 
 43692.65567		 305.27265			43387.38302		68.12000		324.00000 
 43692.65567		 611.73871			43080.91696		219.05200		875.00000 
 43692.65567		 305.27265			43387.38302		68.12000		324.00000 
 43692.65567		 611.73871			43080.91696		219.05200		875.00000 
 43692.65567		 305.27265			43387.38302		68.12000		324.00000 
 43692.65567		 611.73871			43080.91696		219.05200		875.00000 
 43692.65567		 305.27265			43387.38302		68.12000		324.00000 
 43692.65567		 611.73871			43080.91696		219.05200		875.00000 
 43692.65567		 305.27265			43387.38302		68.12000		324.00000 
 43692.65567		 611.73871			43080.91696		219.05200		875.00000 
 43692.65567		 305.27265			43387.38302		68.12000		324.00000 
 43692.65567		 611.73871			43080.91696		219.05200		875.00000 
 43692.65567		 305.27265			43387.38302		68.12000		324.00000 
 43692.65567		 611.73871			43080.91696		219.05200		875.00000 
 43692.65567		 305.27265			43387.38302		68.12000		324.00000 
 43692.65567		 611.73871			43080.91696		219.05200		875.00000 
 43692.65567		 305.27265			43387.38302		68.12000		324.00000 
 43692.65567		 611.73871			43080.91696		219.05200		875.00000 
 43692.65567		 305.27265			43387.38302		68.12000		324.00000 
 43692.65567		 611.73871			43080.91696		219.05200		875.00000 
 43692.65567		 305.27265			43387.38302		68.12000		324.00000 
 43692.65567		 611.73871			43080.91696		219.05200		875.00000 
 43692.65567		 305.27265			43387.38302		68.12000		324.00000 
 43692.65567		 611.73871			43080.91696		219.05200		875.00000 
 43692.65567		 305.27265			43387.38302		68.12000		324.00000 
 43692.65567		 611.73871			43080.91696		219.05200		875.00000 
 43692.65567		 305.27265			43387.38302		68.12000		324.00000 
 43692.65567		 611.73871			43080.91696		219.05200		875.00000 
 43692.65567		 305.27265			43387.38302		68.12000		324.00000 
 43692.65567		 611.73871			43080.91696		219.05200		875.00000 
 43692.65567		 305.27265			43387.38302		68.12000		324.00000 
 43692.65567		 611.73871			43080.91696		219.05200		875.00000 
 43692.65567		 305.27265			43387.38302		68.12000		324.00000 
 43692.65567		 611.73871			43080.91696		219.05200		875.00000 
 43692.65567		 305.27265			43387.38302		68.12000		324.00000 
 43692.65567		 611.73871			43080.91696		219.05200		875.00000 
 43692.65567		 305.27265			43387.38302		68.12000		324.00000 
 43692.65567		 611.73871			43080.91696		219.05200		875.00000 
 43692.65567		 305.27265			43387.38302		68.12000		324.00000 
 43692.65567		 611.73871			43080.91696		219.05200		875.00000 
 43692.65567		 305.27265			43387.38302		68.12000		324.00000 
 43692.65567		 611.73871			43080.91696		219.05200		875.00000 
 43692.65567		 305.27265			43387.38302		68.12000		324.00000 
 43692.65567		 611.73871			43080.91696		219.05200		875.00000 
 43692.65567		 305.27265			43387.38302		68.12000		324.00000 
 43692.65567		 611.73871			43080.91696		219.05200		875.00000 
 43692.65567		 305.27265			43387.38302		68.12000		324.00000 
 43692.65567		 611.73871			43080.91696		219.05200		875.00000 
 43692.65567		 305.27265			43387.38302		68.12000		324.00000 
 43692.65567		 611.73871			43080.91696		219.05200		875.00000 
 43692.65567		 305.27265			43387.38302		68.12000		324.00000 
 43692.65567		 611.73871			43080.91696		219.05200		875.00000 
 43692.65567		 305.27265			43387.38302		68.12000		324.00000 
 43692.65567		 611.73871			43080.91696		219.05200		875.00000 
 43692.65567		 305.27265			43387.38302		68.12000		324.00000 
 43692.65567		 611.73871			43080.91696		219.05200		875.00000 
 43692.65567		 305.27265			43387.38302		68.12000		324.00000 
 43692.65567		 611.73871			43080.91696		219.05200		875.00000 
 43692.65567		 305.27265			43387.38302		68.12000		324.00000 
 43692.65567		 611.73871			43080.91696		219.05200		875.00000 
 43692.65567		 305.27265			43387.38302		68.12000		324.00000 
 43692.65567		 611.73871			43080.91696		219.05200		875.00000 
 43692.65567		 305.27265			43387.38302		68.12000		324.00000 
 43692.65567		 611.73871			43080.91696		219.05200		875.00000 
 43692.65567		 305.27265			43387.38302		68.12000		324.00000 
 43692.65567		 611.73871			43080.91696		219.05200		875.00000 
 43692.65567		 305.27265			43387.38302		68.12000		324.00000 
 43692.65567		 611.73871			43080.91696		219.05200		875.00000 
 43692.65567		 305.27265			43387.38302		68.12000		324.00000 
 43692.65567		 611.73871			43080.91696		219.05200		875.00000 
 43692.65567		 305.27265			43387.38302		68.12000		324.00000 
 43692.65567		 537.27032			43155.38535		219.05200		875.00000 
 43692.65567		 305.27265			43387.38302		68.12000		324.00000 
 43692.65567		 537.27032			43155.38535		219.05200		875.00000 
 43692.65567		 305.27265			43387.38302		68.12000		324.00000 
 43692.65567		 537.27032			43155.38535		219.05200		875.00000 
 43692.65567		 305.27265			43387.38302		68.12000		324.00000 
 43692.65567		 537.27032			43155.38535		219.05200		875.00000 
 43692.65567		 305.27265			43387.38302		68.12000		324.00000 
 43692.65567		 537.27032			43155.38535		219.05200		875.00000 
 43692.65567		 305.27265			43387.38302		68.12000		324.00000 
 43692.65567		 537.27032			43155.38535		219.05200		875.00000 
 43692.65567		 305.27265			43387.38302		68.12000		324.00000 
 43692.65567		 537.27032			43155.38535		219.05200		875.00000 
 43692.65567		 305.27265			43387.38302		68.12000		324.00000 
 43692.65567		 537.27032			43155.38535		219.05200		875.00000 
 43692.65567		 305.27265			43387.38302		68.12000		324.00000 
 43692.65567		 537.27032			43155.38535		219.05200		875.00000 
 43692.65567		 305.27265			43387.38302		68.12000		324.00000 
 43692.65567		 537.27032			43155.38535		204.49800		875.00000 
 43692.65567		 305.27265			43387.38302		68.12000		324.00000 
 43692.65567		 537.27032			43155.38535		204.49800		875.00000 
 43692.65567		 305.27265			43387.38302		68.12000		324.00000 
 43692.65567		 537.27032			43155.38535		204.49800		875.00000 
 43692.65567		 305.27265			43387.38302		68.12000		324.00000 
 43692.65567		 537.27032			43155.38535		204.49800		875.00000 
 43692.65567		 305.27265			43387.38302		68.12000		324.00000 
 43692.65567		 537.27032			43155.38535		204.49800		875.00000 
 43692.65567		 305.27265			43387.38302		68.12000		324.00000 
 43692.65567		 537.27032			43155.38535		204.49800		875.00000 
 43692.65567		 305.27265			43387.38302		68.12000		324.00000 
 43692.65567		 537.27032			43155.38535		204.49800		875.00000 
 43692.65567		 305.27265			43387.38302		68.12000		324.00000 
 43692.65567		 537.27032			43155.38535		204.49800		875.00000 
 43692.65567		 305.27265			43387.38302		68.12000		324.00000 
 43692.65567		 537.27032			43155.38535		204.49800		875.00000 
 43692.65567		 305.27265			43387.38302		68.12000		324.00000 
 43692.65567		 537.27032			43155.38535		204.49800		875.00000 
 43692.65567		 305.27265			43387.38302		68.12000		324.00000 
 43692.65567		 537.27032			43155.38535		204.49800		875.00000 
 43692.65567		 305.27265			43387.38302		68.12000		324.00000 
 43692.65567		 537.27032			43155.38535		204.49800		875.00000 
 43692.65567		 305.27265			43387.38302		68.12000		324.00000 
 43692.65567		 525.81365			43166.84203		204.49800		875.00000 
 43692.65567		 305.27265			43387.38302		68.12000		324.00000 
 43692.65567		 525.81365			43166.84203		204.49800		875.00000 
 43692.65567		 261.35540			43431.30027		68.12000		324.00000 
 43692.65567		 261.35540			43431.30027		204.49800		875.00000 
 43692.65567		 261.35540			43431.30027		68.12000		324.00000 
