Memory Total (MiB) 	 Memory Used (MiB) 	    Memory Free (MiB) 	 Power Drawed (W) 	 Clocks (Mhz) 	 
 43692.65567		 261.35540			43431.30027		183.63800		875.00000 
 43692.65567		 261.35540			43431.30027		69.64400		324.00000 
 43692.65567		 261.35540			43431.30027		183.63800		875.00000 
 43692.65567		 261.35540			43431.30027		69.64400		324.00000 
 43692.65567		 261.35540			43431.30027		183.63800		875.00000 
 43692.65567		 261.35540			43431.30027		69.64400		324.00000 
 43692.65567		 261.35540			43431.30027		183.63800		875.00000 
 43692.65567		 261.35540			43431.30027		69.64400		324.00000 
 43692.65567		 261.35540			43431.30027		183.63800		875.00000 
 43692.65567		 261.35540			43431.30027		69.64400		324.00000 
 43692.65567		 261.35540			43431.30027		183.63800		875.00000 
 43692.65567		 261.35540			43431.30027		69.64400		324.00000 
 43692.65567		 261.35540			43431.30027		183.63800		875.00000 
 43692.65567		 261.35540			43431.30027		69.64400		324.00000 
 43692.65567		 261.35540			43431.30027		183.63800		875.00000 
 43692.65567		 261.35540			43431.30027		69.64400		324.00000 
 43692.65567		 261.35540			43431.30027		183.63800		875.00000 
 43692.65567		 261.35540			43431.30027		69.64400		324.00000 
 43692.65567		 261.35540			43431.30027		183.63800		875.00000 
 43692.65567		 261.35540			43431.30027		69.64400		324.00000 
 43692.65567		 261.35540			43431.30027		183.63800		875.00000 
 43692.65567		 261.35540			43431.30027		69.64400		324.00000 
 43692.65567		 261.35540			43431.30027		183.63800		875.00000 
 43692.65567		 261.35540			43431.30027		69.64400		324.00000 
 43692.65567		 261.35540			43431.30027		183.63800		875.00000 
 43692.65567		 261.35540			43431.30027		69.64400		324.00000 
 43692.65567		 261.35540			43431.30027		183.63800		875.00000 
 43692.65567		 261.35540			43431.30027		69.64400		324.00000 
 43692.65567		 261.35540			43431.30027		183.63800		875.00000 
 43692.65567		 261.35540			43431.30027		69.64400		324.00000 
 43692.65567		 261.35540			43431.30027		183.63800		875.00000 
 43692.65567		 261.35540			43431.30027		69.64400		324.00000 
 43692.65567		 261.35540			43431.30027		183.63800		875.00000 
 43692.65567		 261.35540			43431.30027		69.64400		324.00000 
 43692.65567		 261.35540			43431.30027		183.63800		875.00000 
 43692.65567		 261.35540			43431.30027		69.64400		324.00000 
 43692.65567		 265.17429			43427.48138		183.63800		875.00000 
 43692.65567		 261.35540			43431.30027		69.64400		324.00000 
 43692.65567		 265.17429			43427.48138		183.63800		875.00000 
 43692.65567		 261.35540			43431.30027		69.64400		324.00000 
 43692.65567		 272.81207			43419.84360		183.63800		875.00000 
 43692.65567		 261.35540			43431.30027		69.64400		324.00000 
 43692.65567		 272.81207			43419.84360		183.63800		875.00000 
 43692.65567		 261.35540			43431.30027		69.64400		324.00000 
 43692.65567		 272.81207			43419.84360		183.63800		875.00000 
 43692.65567		 265.17429			43427.48138		69.64400		324.00000 
 43692.65567		 272.81207			43419.84360		183.63800		875.00000 
 43692.65567		 265.17429			43427.48138		69.64400		324.00000 
 43692.65567		 272.81207			43419.84360		183.63800		875.00000 
 43692.65567		 265.17429			43427.48138		69.64400		324.00000 
 43692.65567		 272.81207			43419.84360		151.41800		875.00000 
 43692.65567		 272.81207			43419.84360		69.64400		324.00000 
 43692.65567		 272.81207			43419.84360		151.41800		875.00000 
 43692.65567		 272.81207			43419.84360		69.64400		324.00000 
 43692.65567		 272.81207			43419.84360		151.41800		875.00000 
 43692.65567		 272.81207			43419.84360		69.64400		324.00000 
 43692.65567		 305.27265			43387.38302		151.41800		875.00000 
 43692.65567		 305.27265			43387.38302		69.64400		324.00000 
 43692.65567		 305.27265			43387.38302		151.41800		875.00000 
 43692.65567		 305.27265			43387.38302		69.64400		324.00000 
 43692.65567		 305.27265			43387.38302		151.41800		875.00000 
 43692.65567		 305.27265			43387.38302		69.64400		324.00000 
 43692.65567		 305.27265			43387.38302		151.41800		875.00000 
 43692.65567		 305.27265			43387.38302		69.64400		324.00000 
 43692.65567		 305.27265			43387.38302		151.41800		875.00000 
 43692.65567		 305.27265			43387.38302		69.64400		324.00000 
 43692.65567		 310.04627			43382.60941		151.41800		875.00000 
 43692.65567		 305.27265			43387.38302		69.64400		324.00000 
 43692.65567		 311.00099			43381.65468		151.41800		875.00000 
 43692.65567		 305.27265			43387.38302		69.64400		324.00000 
 43692.65567		 311.00099			43381.65468		151.41800		875.00000 
 43692.65567		 305.27265			43387.38302		69.64400		324.00000 
 43692.65567		 311.00099			43381.65468		151.41800		875.00000 
 43692.65567		 305.27265			43387.38302		69.64400		324.00000 
 43692.65567		 311.00099			43381.65468		151.41800		875.00000 
 43692.65567		 305.27265			43387.38302		69.64400		324.00000 
 43692.65567		 311.00099			43381.65468		151.41800		875.00000 
 43692.65567		 305.27265			43387.38302		69.64400		324.00000 
 43692.65567		 311.00099			43381.65468		151.41800		875.00000 
 43692.65567		 305.27265			43387.38302		69.64400		324.00000 
 43692.65567		 311.00099			43381.65468		151.41800		875.00000 
 43692.65567		 305.27265			43387.38302		67.17200		324.00000 
 43692.65567		 311.00099			43381.65468		151.41800		875.00000 
 43692.65567		 305.27265			43387.38302		67.17200		324.00000 
 43692.65567		 311.00099			43381.65468		151.41800		875.00000 
 43692.65567		 305.27265			43387.38302		67.17200		324.00000 
 43692.65567		 311.00099			43381.65468		151.41800		875.00000 
 43692.65567		 305.27265			43387.38302		67.17200		324.00000 
 43692.65567		 311.00099			43381.65468		151.41800		875.00000 
 43692.65567		 305.27265			43387.38302		67.17200		324.00000 
 43692.65567		 311.00099			43381.65468		151.41800		875.00000 
 43692.65567		 305.27265			43387.38302		67.17200		324.00000 
 43692.65567		 311.00099			43381.65468		151.41800		875.00000 
 43692.65567		 305.27265			43387.38302		67.17200		324.00000 
 43692.65567		 311.00099			43381.65468		151.41800		875.00000 
 43692.65567		 305.27265			43387.38302		67.17200		324.00000 
 43692.65567		 311.00099			43381.65468		151.41800		875.00000 
 43692.65567		 305.27265			43387.38302		67.17200		324.00000 
 43692.65567		 311.00099			43381.65468		151.41800		875.00000 
 43692.65567		 305.27265			43387.38302		67.17200		324.00000 
 43692.65567		 311.00099			43381.65468		151.41800		875.00000 
 43692.65567		 305.27265			43387.38302		67.17200		324.00000 
 43692.65567		 311.00099			43381.65468		151.41800		875.00000 
 43692.65567		 305.27265			43387.38302		67.17200		324.00000 
 43692.65567		 311.00099			43381.65468		151.41800		875.00000 
 43692.65567		 305.27265			43387.38302		67.17200		324.00000 
 43692.65567		 311.00099			43381.65468		151.41800		875.00000 
 43692.65567		 305.27265			43387.38302		67.17200		324.00000 
 43692.65567		 311.00099			43381.65468		151.41800		875.00000 
 43692.65567		 305.27265			43387.38302		67.17200		324.00000 
 43692.65567		 311.00099			43381.65468		151.41800		875.00000 
 43692.65567		 305.27265			43387.38302		67.17200		324.00000 
 43692.65567		 311.00099			43381.65468		151.41800		875.00000 
 43692.65567		 305.27265			43387.38302		67.17200		324.00000 
 43692.65567		 311.00099			43381.65468		151.41800		875.00000 
 43692.65567		 305.27265			43387.38302		67.17200		324.00000 
 43692.65567		 311.00099			43381.65468		139.28000		875.00000 
 43692.65567		 305.27265			43387.38302		67.17200		324.00000 
 43692.65567		 311.00099			43381.65468		139.28000		875.00000 
 43692.65567		 305.27265			43387.38302		67.17200		324.00000 
 43692.65567		 311.00099			43381.65468		139.28000		875.00000 
 43692.65567		 305.27265			43387.38302		67.17200		324.00000 
 43692.65567		 311.00099			43381.65468		139.28000		875.00000 
 43692.65567		 305.27265			43387.38302		67.17200		324.00000 
 43692.65567		 311.00099			43381.65468		139.28000		875.00000 
 43692.65567		 305.27265			43387.38302		67.17200		324.00000 
 43692.65567		 311.00099			43381.65468		139.28000		875.00000 
 43692.65567		 305.27265			43387.38302		67.17200		324.00000 
 43692.65567		 311.00099			43381.65468		139.28000		875.00000 
 43692.65567		 305.27265			43387.38302		67.17200		324.00000 
 43692.65567		 311.00099			43381.65468		139.28000		875.00000 
 43692.65567		 305.27265			43387.38302		67.17200		324.00000 
 43692.65567		 311.00099			43381.65468		139.28000		875.00000 
 43692.65567		 305.27265			43387.38302		67.17200		324.00000 
 43692.65567		 311.00099			43381.65468		139.28000		875.00000 
 43692.65567		 305.27265			43387.38302		67.17200		324.00000 
 43692.65567		 311.00099			43381.65468		139.28000		875.00000 
 43692.65567		 305.27265			43387.38302		67.17200		324.00000 
 43692.65567		 311.00099			43381.65468		139.28000		875.00000 
 43692.65567		 305.27265			43387.38302		67.17200		324.00000 
 43692.65567		 311.00099			43381.65468		139.28000		875.00000 
 43692.65567		 305.27265			43387.38302		67.17200		324.00000 
 43692.65567		 311.00099			43381.65468		139.28000		875.00000 
 43692.65567		 305.27265			43387.38302		67.17200		324.00000 
 43692.65567		 311.00099			43381.65468		139.28000		875.00000 
 43692.65567		 305.27265			43387.38302		67.17200		324.00000 
 43692.65567		 311.00099			43381.65468		139.28000		875.00000 
 43692.65567		 305.27265			43387.38302		67.17200		324.00000 
 43692.65567		 311.00099			43381.65468		139.28000		875.00000 
 43692.65567		 305.27265			43387.38302		67.17200		324.00000 
 43692.65567		 311.00099			43381.65468		139.28000		875.00000 
 43692.65567		 305.27265			43387.38302		67.17200		324.00000 
 43692.65567		 311.00099			43381.65468		139.28000		875.00000 
 43692.65567		 305.27265			43387.38302		67.17200		324.00000 
 43692.65567		 311.00099			43381.65468		139.28000		875.00000 
 43692.65567		 305.27265			43387.38302		67.17200		324.00000 
 43692.65567		 311.00099			43381.65468		139.28000		875.00000 
 43692.65567		 305.27265			43387.38302		67.17200		324.00000 
 43692.65567		 311.00099			43381.65468		139.28000		875.00000 
 43692.65567		 305.27265			43387.38302		67.17200		324.00000 
 43692.65567		 311.00099			43381.65468		139.28000		875.00000 
 43692.65567		 305.27265			43387.38302		67.17200		324.00000 
 43692.65567		 311.00099			43381.65468		139.28000		875.00000 
 43692.65567		 305.27265			43387.38302		67.17200		324.00000 
 43692.65567		 311.00099			43381.65468		139.28000		875.00000 
 43692.65567		 305.27265			43387.38302		67.17200		324.00000 
 43692.65567		 311.00099			43381.65468		139.28000		875.00000 
 43692.65567		 305.27265			43387.38302		67.17200		324.00000 
 43692.65567		 311.00099			43381.65468		139.28000		875.00000 
 43692.65567		 305.27265			43387.38302		67.17200		324.00000 
 43692.65567		 314.81988			43377.83579		139.28000		875.00000 
 43692.65567		 305.27265			43387.38302		67.17200		324.00000 
 43692.65567		 314.81988			43377.83579		139.28000		875.00000 
 43692.65567		 305.27265			43387.38302		67.17200		324.00000 
 43692.65567		 314.81988			43377.83579		139.28000		875.00000 
 43692.65567		 305.27265			43387.38302		67.17200		324.00000 
 43692.65567		 318.63877			43374.01690		139.28000		875.00000 
 43692.65567		 305.27265			43387.38302		67.17200		324.00000 
 43692.65567		 322.45767			43370.19801		139.28000		875.00000 
 43692.65567		 305.27265			43387.38302		67.17200		324.00000 
 43692.65567		 326.27656			43366.37912		135.03600		875.00000 
 43692.65567		 305.27265			43387.38302		67.17200		324.00000 
 43692.65567		 537.27032			43155.38535		135.03600		875.00000 
 43692.65567		 305.27265			43387.38302		67.17200		324.00000 
 43692.65567		 605.05565			43087.60002		135.03600		875.00000 
 43692.65567		 305.27265			43387.38302		67.17200		324.00000 
 43692.65567		 740.62630			42952.02937		135.03600		875.00000 
 43692.65567		 305.27265			43387.38302		67.17200		324.00000 
 43692.65567		 740.62630			42952.02937		135.03600		875.00000 
 43692.65567		 305.27265			43387.38302		67.17200		324.00000 
 43692.65567		 740.62630			42952.02937		135.03600		875.00000 
 43692.65567		 305.27265			43387.38302		67.17200		324.00000 
 43692.65567		 740.62630			42952.02937		135.03600		875.00000 
 43692.65567		 305.27265			43387.38302		67.17200		324.00000 
 43692.65567		 740.62630			42952.02937		135.03600		875.00000 
 43692.65567		 305.27265			43387.38302		67.17200		324.00000 
 43692.65567		 740.62630			42952.02937		135.03600		875.00000 
 43692.65567		 305.27265			43387.38302		67.17200		324.00000 
 43692.65567		 740.62630			42952.02937		135.03600		875.00000 
 43692.65567		 305.27265			43387.38302		67.17200		324.00000 
 43692.65567		 740.62630			42952.02937		135.03600		875.00000 
 43692.65567		 305.27265			43387.38302		67.17200		324.00000 
 43692.65567		 740.62630			42952.02937		135.03600		875.00000 
 43692.65567		 305.27265			43387.38302		67.17200		324.00000 
 43692.65567		 740.62630			42952.02937		135.03600		875.00000 
 43692.65567		 305.27265			43387.38302		67.17200		324.00000 
 43692.65567		 740.62630			42952.02937		135.03600		875.00000 
 43692.65567		 305.27265			43387.38302		67.17200		324.00000 
 43692.65567		 740.62630			42952.02937		135.03600		875.00000 
 43692.65567		 305.27265			43387.38302		67.17200		324.00000 
 43692.65567		 740.62630			42952.02937		135.03600		875.00000 
 43692.65567		 305.27265			43387.38302		67.17200		324.00000 
 43692.65567		 740.62630			42952.02937		135.03600		875.00000 
 43692.65567		 305.27265			43387.38302		67.17200		324.00000 
 43692.65567		 740.62630			42952.02937		135.03600		875.00000 
 43692.65567		 305.27265			43387.38302		67.17200		324.00000 
 43692.65567		 740.62630			42952.02937		135.03600		875.00000 
 43692.65567		 305.27265			43387.38302		67.17200		324.00000 
 43692.65567		 740.62630			42952.02937		135.03600		875.00000 
 43692.65567		 305.27265			43387.38302		67.17200		324.00000 
 43692.65567		 740.62630			42952.02937		135.03600		875.00000 
 43692.65567		 305.27265			43387.38302		67.17200		324.00000 
 43692.65567		 740.62630			42952.02937		135.03600		875.00000 
 43692.65567		 305.27265			43387.38302		67.17200		324.00000 
 43692.65567		 740.62630			42952.02937		135.03600		875.00000 
 43692.65567		 305.27265			43387.38302		67.17200		324.00000 
 43692.65567		 740.62630			42952.02937		135.03600		875.00000 
 43692.65567		 305.27265			43387.38302		67.17200		324.00000 
 43692.65567		 740.62630			42952.02937		135.03600		875.00000 
 43692.65567		 305.27265			43387.38302		67.17200		324.00000 
 43692.65567		 740.62630			42952.02937		135.03600		875.00000 
 43692.65567		 305.27265			43387.38302		67.17200		324.00000 
 43692.65567		 740.62630			42952.02937		135.03600		875.00000 
 43692.65567		 305.27265			43387.38302		67.17200		324.00000 
 43692.65567		 740.62630			42952.02937		135.03600		875.00000 
 43692.65567		 305.27265			43387.38302		67.17200		324.00000 
 43692.65567		 740.62630			42952.02937		135.03600		875.00000 
 43692.65567		 305.27265			43387.38302		67.17200		324.00000 
 43692.65567		 740.62630			42952.02937		135.03600		875.00000 
 43692.65567		 305.27265			43387.38302		67.17200		324.00000 
 43692.65567		 740.62630			42952.02937		135.03600		875.00000 
 43692.65567		 305.27265			43387.38302		67.17200		324.00000 
 43692.65567		 740.62630			42952.02937		135.03600		875.00000 
 43692.65567		 305.27265			43387.38302		67.17200		324.00000 
 43692.65567		 740.62630			42952.02937		135.03600		875.00000 
 43692.65567		 305.27265			43387.38302		67.17200		324.00000 
 43692.65567		 740.62630			42952.02937		135.03600		875.00000 
 43692.65567		 305.27265			43387.38302		67.17200		324.00000 
 43692.65567		 740.62630			42952.02937		135.03600		875.00000 
 43692.65567		 305.27265			43387.38302		67.17200		324.00000 
 43692.65567		 740.62630			42952.02937		135.03600		875.00000 
 43692.65567		 305.27265			43387.38302		67.17200		324.00000 
 43692.65567		 740.62630			42952.02937		135.03600		875.00000 
 43692.65567		 305.27265			43387.38302		67.17200		324.00000 
 43692.65567		 740.62630			42952.02937		135.03600		875.00000 
 43692.65567		 305.27265			43387.38302		67.17200		324.00000 
 43692.65567		 740.62630			42952.02937		135.03600		875.00000 
 43692.65567		 305.27265			43387.38302		67.17200		324.00000 
 43692.65567		 740.62630			42952.02937		135.03600		875.00000 
 43692.65567		 305.27265			43387.38302		67.17200		324.00000 
 43692.65567		 740.62630			42952.02937		135.03600		875.00000 
 43692.65567		 305.27265			43387.38302		67.17200		324.00000 
 43692.65567		 740.62630			42952.02937		135.03600		875.00000 
 43692.65567		 305.27265			43387.38302		67.17200		324.00000 
 43692.65567		 740.62630			42952.02937		135.03600		875.00000 
 43692.65567		 305.27265			43387.38302		67.17200		324.00000 
 43692.65567		 740.62630			42952.02937		135.03600		875.00000 
 43692.65567		 305.27265			43387.38302		67.17200		324.00000 
 43692.65567		 740.62630			42952.02937		135.03600		875.00000 
 43692.65567		 305.27265			43387.38302		67.17200		324.00000 
 43692.65567		 740.62630			42952.02937		135.03600		875.00000 
 43692.65567		 305.27265			43387.38302		67.17200		324.00000 
 43692.65567		 740.62630			42952.02937		135.03600		875.00000 
 43692.65567		 305.27265			43387.38302		67.17200		324.00000 
 43692.65567		 740.62630			42952.02937		135.03600		875.00000 
 43692.65567		 305.27265			43387.38302		67.17200		324.00000 
 43692.65567		 740.62630			42952.02937		135.03600		875.00000 
 43692.65567		 305.27265			43387.38302		67.17200		324.00000 
 43692.65567		 740.62630			42952.02937		135.03600		875.00000 
 43692.65567		 305.27265			43387.38302		67.17200		324.00000 
 43692.65567		 740.62630			42952.02937		135.03600		875.00000 
 43692.65567		 305.27265			43387.38302		67.17200		324.00000 
 43692.65567		 740.62630			42952.02937		135.03600		875.00000 
 43692.65567		 305.27265			43387.38302		67.17200		324.00000 
 43692.65567		 740.62630			42952.02937		135.03600		875.00000 
 43692.65567		 305.27265			43387.38302		67.17200		324.00000 
 43692.65567		 740.62630			42952.02937		135.03600		875.00000 
 43692.65567		 305.27265			43387.38302		67.17200		324.00000 
 43692.65567		 740.62630			42952.02937		135.03600		875.00000 
 43692.65567		 305.27265			43387.38302		67.17200		324.00000 
 43692.65567		 740.62630			42952.02937		135.03600		875.00000 
 43692.65567		 305.27265			43387.38302		67.17200		324.00000 
 43692.65567		 740.62630			42952.02937		135.03600		875.00000 
 43692.65567		 305.27265			43387.38302		67.17200		324.00000 
 43692.65567		 740.62630			42952.02937		135.03600		875.00000 
 43692.65567		 305.27265			43387.38302		67.17200		324.00000 
 43692.65567		 740.62630			42952.02937		135.03600		875.00000 
 43692.65567		 305.27265			43387.38302		67.17200		324.00000 
 43692.65567		 740.62630			42952.02937		135.03600		875.00000 
 43692.65567		 305.27265			43387.38302		67.17200		324.00000 
 43692.65567		 740.62630			42952.02937		135.03600		875.00000 
 43692.65567		 305.27265			43387.38302		67.17200		324.00000 
 43692.65567		 740.62630			42952.02937		135.03600		875.00000 
 43692.65567		 305.27265			43387.38302		67.17200		324.00000 
 43692.65567		 740.62630			42952.02937		187.58000		875.00000 
 43692.65567		 305.27265			43387.38302		67.17200		324.00000 
 43692.65567		 740.62630			42952.02937		187.58000		875.00000 
 43692.65567		 305.27265			43387.38302		67.17200		324.00000 
 43692.65567		 740.62630			42952.02937		187.58000		875.00000 
 43692.65567		 305.27265			43387.38302		67.17200		324.00000 
 43692.65567		 740.62630			42952.02937		187.58000		875.00000 
 43692.65567		 305.27265			43387.38302		67.17200		324.00000 
 43692.65567		 740.62630			42952.02937		187.58000		875.00000 
 43692.65567		 305.27265			43387.38302		67.17200		324.00000 
 43692.65567		 740.62630			42952.02937		187.58000		875.00000 
 43692.65567		 305.27265			43387.38302		67.17200		324.00000 
 43692.65567		 740.62630			42952.02937		187.58000		875.00000 
 43692.65567		 305.27265			43387.38302		67.17200		324.00000 
 43692.65567		 740.62630			42952.02937		187.58000		875.00000 
 43692.65567		 305.27265			43387.38302		67.17200		324.00000 
 43692.65567		 740.62630			42952.02937		187.58000		875.00000 
 43692.65567		 305.27265			43387.38302		67.17200		324.00000 
 43692.65567		 740.62630			42952.02937		187.58000		875.00000 
 43692.65567		 305.27265			43387.38302		67.17200		324.00000 
 43692.65567		 740.62630			42952.02937		187.58000		875.00000 
 43692.65567		 305.27265			43387.38302		67.17200		324.00000 
 43692.65567		 740.62630			42952.02937		187.58000		875.00000 
 43692.65567		 305.27265			43387.38302		67.17200		324.00000 
 43692.65567		 740.62630			42952.02937		187.58000		875.00000 
 43692.65567		 305.27265			43387.38302		67.17200		324.00000 
 43692.65567		 740.62630			42952.02937		187.58000		875.00000 
 43692.65567		 305.27265			43387.38302		67.17200		324.00000 
 43692.65567		 740.62630			42952.02937		187.58000		875.00000 
 43692.65567		 305.27265			43387.38302		67.17200		324.00000 
 43692.65567		 740.62630			42952.02937		187.58000		875.00000 
 43692.65567		 305.27265			43387.38302		67.17200		324.00000 
 43692.65567		 740.62630			42952.02937		187.58000		875.00000 
 43692.65567		 305.27265			43387.38302		67.17200		324.00000 
 43692.65567		 740.62630			42952.02937		187.58000		875.00000 
 43692.65567		 305.27265			43387.38302		67.17200		324.00000 
 43692.65567		 740.62630			42952.02937		187.58000		875.00000 
 43692.65567		 305.27265			43387.38302		67.17200		324.00000 
 43692.65567		 740.62630			42952.02937		187.58000		875.00000 
 43692.65567		 305.27265			43387.38302		67.17200		324.00000 
 43692.65567		 740.62630			42952.02937		187.58000		875.00000 
 43692.65567		 305.27265			43387.38302		67.17200		324.00000 
 43692.65567		 740.62630			42952.02937		187.58000		875.00000 
 43692.65567		 305.27265			43387.38302		67.17200		324.00000 
 43692.65567		 740.62630			42952.02937		187.58000		875.00000 
 43692.65567		 305.27265			43387.38302		67.17200		324.00000 
 43692.65567		 740.62630			42952.02937		187.58000		875.00000 
 43692.65567		 305.27265			43387.38302		67.17200		324.00000 
 43692.65567		 740.62630			42952.02937		187.58000		875.00000 
 43692.65567		 305.27265			43387.38302		67.17200		324.00000 
 43692.65567		 740.62630			42952.02937		187.58000		875.00000 
 43692.65567		 305.27265			43387.38302		67.17200		324.00000 
 43692.65567		 740.62630			42952.02937		187.58000		875.00000 
 43692.65567		 305.27265			43387.38302		67.17200		324.00000 
 43692.65567		 740.62630			42952.02937		187.58000		875.00000 
 43692.65567		 305.27265			43387.38302		67.17200		324.00000 
 43692.65567		 740.62630			42952.02937		187.58000		875.00000 
 43692.65567		 305.27265			43387.38302		67.17200		324.00000 
 43692.65567		 740.62630			42952.02937		187.58000		875.00000 
 43692.65567		 305.27265			43387.38302		67.17200		324.00000 
 43692.65567		 740.62630			42952.02937		187.58000		875.00000 
 43692.65567		 305.27265			43387.38302		67.17200		324.00000 
 43692.65567		 740.62630			42952.02937		187.58000		875.00000 
 43692.65567		 305.27265			43387.38302		67.17200		324.00000 
 43692.65567		 740.62630			42952.02937		187.58000		875.00000 
 43692.65567		 305.27265			43387.38302		67.17200		324.00000 
 43692.65567		 740.62630			42952.02937		187.58000		875.00000 
 43692.65567		 305.27265			43387.38302		67.17200		324.00000 
 43692.65567		 740.62630			42952.02937		187.58000		875.00000 
 43692.65567		 305.27265			43387.38302		67.17200		324.00000 
 43692.65567		 740.62630			42952.02937		187.58000		875.00000 
 43692.65567		 305.27265			43387.38302		67.17200		324.00000 
 43692.65567		 740.62630			42952.02937		187.58000		875.00000 
 43692.65567		 305.27265			43387.38302		67.17200		324.00000 
 43692.65567		 740.62630			42952.02937		187.58000		875.00000 
 43692.65567		 305.27265			43387.38302		67.17200		324.00000 
 43692.65567		 740.62630			42952.02937		187.58000		875.00000 
 43692.65567		 305.27265			43387.38302		67.17200		324.00000 
 43692.65567		 740.62630			42952.02937		187.58000		875.00000 
 43692.65567		 305.27265			43387.38302		67.17200		324.00000 
 43692.65567		 740.62630			42952.02937		187.58000		875.00000 
 43692.65567		 305.27265			43387.38302		67.17200		324.00000 
 43692.65567		 740.62630			42952.02937		187.58000		875.00000 
 43692.65567		 305.27265			43387.38302		67.17200		324.00000 
 43692.65567		 740.62630			42952.02937		187.58000		875.00000 
 43692.65567		 305.27265			43387.38302		67.17200		324.00000 
 43692.65567		 740.62630			42952.02937		187.58000		875.00000 
 43692.65567		 305.27265			43387.38302		67.17200		324.00000 
 43692.65567		 740.62630			42952.02937		187.58000		875.00000 
 43692.65567		 305.27265			43387.38302		67.17200		324.00000 
 43692.65567		 740.62630			42952.02937		187.58000		875.00000 
 43692.65567		 305.27265			43387.38302		67.17200		324.00000 
 43692.65567		 740.62630			42952.02937		187.58000		875.00000 
 43692.65567		 305.27265			43387.38302		67.17200		324.00000 
 43692.65567		 740.62630			42952.02937		187.58000		875.00000 
 43692.65567		 305.27265			43387.38302		67.17200		324.00000 
 43692.65567		 740.62630			42952.02937		187.58000		875.00000 
 43692.65567		 305.27265			43387.38302		67.17200		324.00000 
 43692.65567		 740.62630			42952.02937		187.58000		875.00000 
 43692.65567		 305.27265			43387.38302		67.17200		324.00000 
 43692.65567		 740.62630			42952.02937		187.58000		875.00000 
 43692.65567		 305.27265			43387.38302		67.17200		324.00000 
 43692.65567		 740.62630			42952.02937		187.58000		875.00000 
 43692.65567		 305.27265			43387.38302		67.17200		324.00000 
 43692.65567		 740.62630			42952.02937		187.58000		875.00000 
 43692.65567		 305.27265			43387.38302		67.17200		324.00000 
 43692.65567		 740.62630			42952.02937		187.58000		875.00000 
 43692.65567		 305.27265			43387.38302		67.17200		324.00000 
 43692.65567		 740.62630			42952.02937		187.58000		875.00000 
 43692.65567		 305.27265			43387.38302		67.17200		324.00000 
 43692.65567		 740.62630			42952.02937		187.58000		875.00000 
 43692.65567		 305.27265			43387.38302		67.17200		324.00000 
 43692.65567		 740.62630			42952.02937		187.58000		875.00000 
 43692.65567		 305.27265			43387.38302		67.17200		324.00000 
 43692.65567		 740.62630			42952.02937		187.58000		875.00000 
 43692.65567		 305.27265			43387.38302		67.17200		324.00000 
 43692.65567		 740.62630			42952.02937		187.58000		875.00000 
 43692.65567		 305.27265			43387.38302		67.17200		324.00000 
 43692.65567		 740.62630			42952.02937		187.58000		875.00000 
 43692.65567		 305.27265			43387.38302		67.17200		324.00000 
 43692.65567		 740.62630			42952.02937		187.58000		875.00000 
 43692.65567		 305.27265			43387.38302		67.17200		324.00000 
 43692.65567		 740.62630			42952.02937		210.59400		875.00000 
 43692.65567		 305.27265			43387.38302		67.17200		324.00000 
 43692.65567		 740.62630			42952.02937		210.59400		875.00000 
 43692.65567		 305.27265			43387.38302		67.17200		324.00000 
 43692.65567		 740.62630			42952.02937		210.59400		875.00000 
 43692.65567		 305.27265			43387.38302		67.17200		324.00000 
 43692.65567		 740.62630			42952.02937		210.59400		875.00000 
 43692.65567		 305.27265			43387.38302		67.17200		324.00000 
 43692.65567		 740.62630			42952.02937		210.59400		875.00000 
 43692.65567		 305.27265			43387.38302		67.17200		324.00000 
 43692.65567		 740.62630			42952.02937		210.59400		875.00000 
 43692.65567		 305.27265			43387.38302		67.17200		324.00000 
 43692.65567		 740.62630			42952.02937		210.59400		875.00000 
 43692.65567		 305.27265			43387.38302		67.17200		324.00000 
 43692.65567		 740.62630			42952.02937		210.59400		875.00000 
 43692.65567		 305.27265			43387.38302		67.17200		324.00000 
 43692.65567		 740.62630			42952.02937		210.59400		875.00000 
 43692.65567		 305.27265			43387.38302		67.17200		324.00000 
 43692.65567		 740.62630			42952.02937		210.59400		875.00000 
 43692.65567		 305.27265			43387.38302		67.17200		324.00000 
 43692.65567		 740.62630			42952.02937		210.59400		875.00000 
 43692.65567		 305.27265			43387.38302		67.17200		324.00000 
 43692.65567		 740.62630			42952.02937		210.59400		875.00000 
 43692.65567		 305.27265			43387.38302		67.17200		324.00000 
 43692.65567		 740.62630			42952.02937		210.59400		875.00000 
 43692.65567		 305.27265			43387.38302		67.17200		324.00000 
 43692.65567		 740.62630			42952.02937		210.59400		875.00000 
 43692.65567		 305.27265			43387.38302		67.17200		324.00000 
 43692.65567		 740.62630			42952.02937		210.59400		875.00000 
 43692.65567		 305.27265			43387.38302		67.17200		324.00000 
 43692.65567		 740.62630			42952.02937		210.59400		875.00000 
 43692.65567		 305.27265			43387.38302		67.17200		324.00000 
 43692.65567		 740.62630			42952.02937		210.59400		875.00000 
 43692.65567		 305.27265			43387.38302		67.17200		324.00000 
 43692.65567		 740.62630			42952.02937		210.59400		875.00000 
 43692.65567		 305.27265			43387.38302		67.17200		324.00000 
 43692.65567		 740.62630			42952.02937		210.59400		875.00000 
 43692.65567		 305.27265			43387.38302		67.17200		324.00000 
 43692.65567		 740.62630			42952.02937		210.59400		875.00000 
 43692.65567		 305.27265			43387.38302		67.17200		324.00000 
 43692.65567		 740.62630			42952.02937		210.59400		875.00000 
 43692.65567		 305.27265			43387.38302		67.17200		324.00000 
 43692.65567		 740.62630			42952.02937		210.59400		875.00000 
 43692.65567		 305.27265			43387.38302		67.17200		324.00000 
 43692.65567		 740.62630			42952.02937		210.59400		875.00000 
 43692.65567		 305.27265			43387.38302		67.17200		324.00000 
 43692.65567		 740.62630			42952.02937		210.59400		875.00000 
 43692.65567		 305.27265			43387.38302		67.17200		324.00000 
 43692.65567		 740.62630			42952.02937		210.59400		875.00000 
 43692.65567		 305.27265			43387.38302		67.17200		324.00000 
 43692.65567		 740.62630			42952.02937		210.59400		875.00000 
 43692.65567		 305.27265			43387.38302		67.17200		324.00000 
 43692.65567		 740.62630			42952.02937		210.59400		875.00000 
 43692.65567		 305.27265			43387.38302		67.17200		324.00000 
 43692.65567		 740.62630			42952.02937		210.59400		875.00000 
 43692.65567		 305.27265			43387.38302		67.17200		324.00000 
 43692.65567		 740.62630			42952.02937		210.59400		875.00000 
 43692.65567		 305.27265			43387.38302		67.17200		324.00000 
 43692.65567		 740.62630			42952.02937		210.59400		875.00000 
 43692.65567		 305.27265			43387.38302		67.17200		324.00000 
 43692.65567		 740.62630			42952.02937		210.59400		875.00000 
 43692.65567		 305.27265			43387.38302		67.17200		324.00000 
 43692.65567		 740.62630			42952.02937		210.59400		875.00000 
 43692.65567		 305.27265			43387.38302		67.17200		324.00000 
 43692.65567		 740.62630			42952.02937		210.59400		875.00000 
 43692.65567		 305.27265			43387.38302		67.17200		324.00000 
 43692.65567		 740.62630			42952.02937		210.59400		875.00000 
 43692.65567		 305.27265			43387.38302		67.17200		324.00000 
 43692.65567		 740.62630			42952.02937		210.59400		875.00000 
 43692.65567		 305.27265			43387.38302		67.17200		324.00000 
 43692.65567		 740.62630			42952.02937		210.59400		875.00000 
 43692.65567		 305.27265			43387.38302		67.17200		324.00000 
 43692.65567		 740.62630			42952.02937		210.59400		875.00000 
 43692.65567		 305.27265			43387.38302		67.17200		324.00000 
 43692.65567		 740.62630			42952.02937		210.59400		875.00000 
 43692.65567		 305.27265			43387.38302		67.17200		324.00000 
 43692.65567		 740.62630			42952.02937		210.59400		875.00000 
 43692.65567		 305.27265			43387.38302		67.17200		324.00000 
 43692.65567		 740.62630			42952.02937		210.59400		875.00000 
 43692.65567		 305.27265			43387.38302		67.17200		324.00000 
 43692.65567		 740.62630			42952.02937		210.59400		875.00000 
 43692.65567		 305.27265			43387.38302		67.17200		324.00000 
 43692.65567		 740.62630			42952.02937		210.59400		875.00000 
 43692.65567		 305.27265			43387.38302		67.17200		324.00000 
 43692.65567		 740.62630			42952.02937		210.59400		875.00000 
 43692.65567		 305.27265			43387.38302		67.17200		324.00000 
 43692.65567		 740.62630			42952.02937		210.59400		875.00000 
 43692.65567		 305.27265			43387.38302		67.17200		324.00000 
 43692.65567		 740.62630			42952.02937		210.59400		875.00000 
 43692.65567		 305.27265			43387.38302		67.17200		324.00000 
 43692.65567		 740.62630			42952.02937		210.59400		875.00000 
 43692.65567		 305.27265			43387.38302		67.17200		324.00000 
 43692.65567		 740.62630			42952.02937		210.59400		875.00000 
 43692.65567		 305.27265			43387.38302		67.17200		324.00000 
 43692.65567		 740.62630			42952.02937		210.59400		875.00000 
 43692.65567		 305.27265			43387.38302		67.17200		324.00000 
 43692.65567		 740.62630			42952.02937		210.59400		875.00000 
 43692.65567		 305.27265			43387.38302		67.17200		324.00000 
 43692.65567		 740.62630			42952.02937		210.59400		875.00000 
 43692.65567		 305.27265			43387.38302		67.17200		324.00000 
 43692.65567		 740.62630			42952.02937		210.59400		875.00000 
 43692.65567		 305.27265			43387.38302		67.17200		324.00000 
 43692.65567		 740.62630			42952.02937		210.59400		875.00000 
 43692.65567		 305.27265			43387.38302		67.17200		324.00000 
 43692.65567		 740.62630			42952.02937		210.59400		875.00000 
 43692.65567		 305.27265			43387.38302		67.17200		324.00000 
 43692.65567		 740.62630			42952.02937		210.59400		875.00000 
 43692.65567		 305.27265			43387.38302		67.17200		324.00000 
 43692.65567		 740.62630			42952.02937		210.59400		875.00000 
 43692.65567		 305.27265			43387.38302		67.17200		324.00000 
 43692.65567		 740.62630			42952.02937		210.59400		875.00000 
 43692.65567		 305.27265			43387.38302		67.17200		324.00000 
 43692.65567		 740.62630			42952.02937		210.59400		875.00000 
 43692.65567		 305.27265			43387.38302		67.17200		324.00000 
 43692.65567		 740.62630			42952.02937		210.59400		875.00000 
 43692.65567		 305.27265			43387.38302		67.17200		324.00000 
 43692.65567		 740.62630			42952.02937		210.59400		875.00000 
 43692.65567		 305.27265			43387.38302		67.17200		324.00000 
 43692.65567		 740.62630			42952.02937		210.59400		875.00000 
 43692.65567		 305.27265			43387.38302		67.17200		324.00000 
 43692.65567		 740.62630			42952.02937		210.59400		875.00000 
 43692.65567		 305.27265			43387.38302		67.17200		324.00000 
 43692.65567		 740.62630			42952.02937		210.59400		875.00000 
 43692.65567		 305.27265			43387.38302		67.17200		324.00000 
 43692.65567		 740.62630			42952.02937		210.59400		875.00000 
 43692.65567		 305.27265			43387.38302		67.17200		324.00000 
 43692.65567		 740.62630			42952.02937		210.59400		875.00000 
 43692.65567		 305.27265			43387.38302		67.17200		324.00000 
 43692.65567		 740.62630			42952.02937		220.11600		875.00000 
 43692.65567		 305.27265			43387.38302		67.17200		324.00000 
 43692.65567		 740.62630			42952.02937		220.11600		875.00000 
 43692.65567		 305.27265			43387.38302		67.17200		324.00000 
 43692.65567		 740.62630			42952.02937		220.11600		875.00000 
 43692.65567		 305.27265			43387.38302		67.17200		324.00000 
 43692.65567		 740.62630			42952.02937		220.11600		875.00000 
 43692.65567		 305.27265			43387.38302		67.17200		324.00000 
 43692.65567		 740.62630			42952.02937		220.11600		875.00000 
 43692.65567		 305.27265			43387.38302		67.17200		324.00000 
 43692.65567		 740.62630			42952.02937		220.11600		875.00000 
 43692.65567		 305.27265			43387.38302		67.17200		324.00000 
 43692.65567		 740.62630			42952.02937		220.11600		875.00000 
 43692.65567		 305.27265			43387.38302		67.17200		324.00000 
 43692.65567		 740.62630			42952.02937		220.11600		875.00000 
 43692.65567		 305.27265			43387.38302		67.17200		324.00000 
 43692.65567		 740.62630			42952.02937		220.11600		875.00000 
 43692.65567		 305.27265			43387.38302		67.17200		324.00000 
 43692.65567		 740.62630			42952.02937		220.11600		875.00000 
 43692.65567		 305.27265			43387.38302		67.17200		324.00000 
 43692.65567		 740.62630			42952.02937		220.11600		875.00000 
 43692.65567		 305.27265			43387.38302		67.17200		324.00000 
 43692.65567		 740.62630			42952.02937		220.11600		875.00000 
 43692.65567		 305.27265			43387.38302		67.17200		324.00000 
 43692.65567		 740.62630			42952.02937		220.11600		875.00000 
 43692.65567		 305.27265			43387.38302		67.17200		324.00000 
 43692.65567		 740.62630			42952.02937		220.11600		875.00000 
 43692.65567		 305.27265			43387.38302		67.17200		324.00000 
 43692.65567		 740.62630			42952.02937		220.11600		875.00000 
 43692.65567		 305.27265			43387.38302		67.17200		324.00000 
 43692.65567		 740.62630			42952.02937		220.11600		875.00000 
 43692.65567		 305.27265			43387.38302		67.17200		324.00000 
 43692.65567		 740.62630			42952.02937		220.11600		875.00000 
 43692.65567		 305.27265			43387.38302		67.17200		324.00000 
 43692.65567		 740.62630			42952.02937		220.11600		875.00000 
 43692.65567		 305.27265			43387.38302		67.17200		324.00000 
 43692.65567		 740.62630			42952.02937		220.11600		875.00000 
 43692.65567		 305.27265			43387.38302		67.17200		324.00000 
 43692.65567		 740.62630			42952.02937		220.11600		875.00000 
 43692.65567		 305.27265			43387.38302		67.17200		324.00000 
 43692.65567		 740.62630			42952.02937		220.11600		875.00000 
 43692.65567		 305.27265			43387.38302		67.17200		324.00000 
 43692.65567		 740.62630			42952.02937		220.11600		875.00000 
 43692.65567		 305.27265			43387.38302		67.17200		324.00000 
 43692.65567		 740.62630			42952.02937		220.11600		875.00000 
 43692.65567		 305.27265			43387.38302		67.17200		324.00000 
 43692.65567		 740.62630			42952.02937		220.11600		875.00000 
 43692.65567		 305.27265			43387.38302		67.17200		324.00000 
 43692.65567		 740.62630			42952.02937		220.11600		875.00000 
 43692.65567		 305.27265			43387.38302		67.17200		324.00000 
 43692.65567		 740.62630			42952.02937		220.11600		875.00000 
 43692.65567		 305.27265			43387.38302		67.17200		324.00000 
 43692.65567		 740.62630			42952.02937		220.11600		875.00000 
 43692.65567		 305.27265			43387.38302		67.17200		324.00000 
 43692.65567		 740.62630			42952.02937		220.11600		875.00000 
 43692.65567		 305.27265			43387.38302		67.17200		324.00000 
 43692.65567		 740.62630			42952.02937		220.11600		875.00000 
 43692.65567		 305.27265			43387.38302		67.17200		324.00000 
 43692.65567		 740.62630			42952.02937		220.11600		875.00000 
 43692.65567		 305.27265			43387.38302		67.17200		324.00000 
 43692.65567		 740.62630			42952.02937		220.11600		875.00000 
 43692.65567		 305.27265			43387.38302		67.17200		324.00000 
 43692.65567		 740.62630			42952.02937		220.11600		875.00000 
 43692.65567		 305.27265			43387.38302		67.17200		324.00000 
 43692.65567		 740.62630			42952.02937		220.11600		875.00000 
 43692.65567		 305.27265			43387.38302		67.17200		324.00000 
 43692.65567		 740.62630			42952.02937		220.11600		875.00000 
 43692.65567		 305.27265			43387.38302		67.17200		324.00000 
 43692.65567		 740.62630			42952.02937		220.11600		875.00000 
 43692.65567		 305.27265			43387.38302		67.17200		324.00000 
 43692.65567		 740.62630			42952.02937		220.11600		875.00000 
 43692.65567		 305.27265			43387.38302		67.17200		324.00000 
 43692.65567		 740.62630			42952.02937		220.11600		875.00000 
 43692.65567		 305.27265			43387.38302		67.17200		324.00000 
 43692.65567		 740.62630			42952.02937		220.11600		875.00000 
 43692.65567		 305.27265			43387.38302		67.17200		324.00000 
 43692.65567		 740.62630			42952.02937		220.11600		875.00000 
 43692.65567		 305.27265			43387.38302		67.17200		324.00000 
 43692.65567		 740.62630			42952.02937		220.11600		875.00000 
 43692.65567		 305.27265			43387.38302		67.17200		324.00000 
 43692.65567		 740.62630			42952.02937		220.11600		875.00000 
 43692.65567		 305.27265			43387.38302		67.17200		324.00000 
 43692.65567		 740.62630			42952.02937		220.11600		875.00000 
 43692.65567		 305.27265			43387.38302		67.17200		324.00000 
 43692.65567		 740.62630			42952.02937		220.11600		875.00000 
 43692.65567		 305.27265			43387.38302		67.17200		324.00000 
 43692.65567		 740.62630			42952.02937		220.11600		875.00000 
 43692.65567		 305.27265			43387.38302		67.17200		324.00000 
 43692.65567		 740.62630			42952.02937		220.11600		875.00000 
 43692.65567		 305.27265			43387.38302		67.17200		324.00000 
 43692.65567		 740.62630			42952.02937		220.11600		875.00000 
 43692.65567		 305.27265			43387.38302		67.17200		324.00000 
 43692.65567		 740.62630			42952.02937		220.11600		875.00000 
 43692.65567		 305.27265			43387.38302		67.17200		324.00000 
 43692.65567		 740.62630			42952.02937		220.11600		875.00000 
 43692.65567		 305.27265			43387.38302		67.17200		324.00000 
 43692.65567		 740.62630			42952.02937		220.11600		875.00000 
 43692.65567		 305.27265			43387.38302		67.17200		324.00000 
 43692.65567		 740.62630			42952.02937		220.11600		875.00000 
 43692.65567		 305.27265			43387.38302		67.17200		324.00000 
 43692.65567		 740.62630			42952.02937		220.11600		875.00000 
 43692.65567		 305.27265			43387.38302		67.17200		324.00000 
 43692.65567		 740.62630			42952.02937		220.11600		875.00000 
 43692.65567		 305.27265			43387.38302		67.17200		324.00000 
 43692.65567		 740.62630			42952.02937		220.11600		875.00000 
 43692.65567		 305.27265			43387.38302		67.17200		324.00000 
 43692.65567		 740.62630			42952.02937		220.11600		875.00000 
 43692.65567		 305.27265			43387.38302		67.17200		324.00000 
 43692.65567		 740.62630			42952.02937		220.11600		875.00000 
 43692.65567		 305.27265			43387.38302		67.17200		324.00000 
 43692.65567		 740.62630			42952.02937		220.11600		875.00000 
 43692.65567		 305.27265			43387.38302		67.17200		324.00000 
 43692.65567		 740.62630			42952.02937		220.11600		875.00000 
 43692.65567		 305.27265			43387.38302		67.17200		324.00000 
 43692.65567		 740.62630			42952.02937		220.11600		875.00000 
 43692.65567		 305.27265			43387.38302		67.17200		324.00000 
 43692.65567		 740.62630			42952.02937		220.11600		875.00000 
 43692.65567		 305.27265			43387.38302		67.17200		324.00000 
 43692.65567		 740.62630			42952.02937		220.11600		875.00000 
 43692.65567		 305.27265			43387.38302		67.17200		324.00000 
 43692.65567		 740.62630			42952.02937		220.11600		875.00000 
 43692.65567		 305.27265			43387.38302		67.17200		324.00000 
 43692.65567		 740.62630			42952.02937		220.11600		875.00000 
 43692.65567		 305.27265			43387.38302		67.17200		324.00000 
 43692.65567		 740.62630			42952.02937		220.11600		875.00000 
 43692.65567		 305.27265			43387.38302		67.17200		324.00000 
 43692.65567		 740.62630			42952.02937		220.11600		875.00000 
 43692.65567		 305.27265			43387.38302		67.17200		324.00000 
 43692.65567		 740.62630			42952.02937		223.58200		875.00000 
 43692.65567		 305.27265			43387.38302		67.17200		324.00000 
 43692.65567		 740.62630			42952.02937		223.58200		875.00000 
 43692.65567		 305.27265			43387.38302		67.17200		324.00000 
 43692.65567		 740.62630			42952.02937		223.58200		875.00000 
 43692.65567		 305.27265			43387.38302		67.17200		324.00000 
 43692.65567		 740.62630			42952.02937		223.58200		875.00000 
 43692.65567		 305.27265			43387.38302		67.17200		324.00000 
 43692.65567		 740.62630			42952.02937		223.58200		875.00000 
 43692.65567		 305.27265			43387.38302		67.17200		324.00000 
 43692.65567		 740.62630			42952.02937		223.58200		875.00000 
 43692.65567		 305.27265			43387.38302		67.17200		324.00000 
 43692.65567		 740.62630			42952.02937		223.58200		875.00000 
 43692.65567		 305.27265			43387.38302		67.17200		324.00000 
 43692.65567		 740.62630			42952.02937		223.58200		875.00000 
 43692.65567		 305.27265			43387.38302		67.17200		324.00000 
 43692.65567		 740.62630			42952.02937		223.58200		875.00000 
 43692.65567		 305.27265			43387.38302		67.17200		324.00000 
 43692.65567		 740.62630			42952.02937		223.58200		875.00000 
 43692.65567		 305.27265			43387.38302		67.17200		324.00000 
 43692.65567		 740.62630			42952.02937		223.58200		875.00000 
 43692.65567		 305.27265			43387.38302		67.17200		324.00000 
 43692.65567		 740.62630			42952.02937		223.58200		875.00000 
 43692.65567		 305.27265			43387.38302		67.17200		324.00000 
 43692.65567		 740.62630			42952.02937		223.58200		875.00000 
 43692.65567		 305.27265			43387.38302		67.17200		324.00000 
 43692.65567		 740.62630			42952.02937		223.58200		875.00000 
 43692.65567		 305.27265			43387.38302		67.17200		324.00000 
 43692.65567		 740.62630			42952.02937		223.58200		875.00000 
 43692.65567		 305.27265			43387.38302		67.17200		324.00000 
 43692.65567		 740.62630			42952.02937		223.58200		875.00000 
 43692.65567		 305.27265			43387.38302		67.17200		324.00000 
 43692.65567		 740.62630			42952.02937		223.58200		875.00000 
 43692.65567		 305.27265			43387.38302		67.17200		324.00000 
 43692.65567		 740.62630			42952.02937		223.58200		875.00000 
 43692.65567		 305.27265			43387.38302		67.17200		324.00000 
 43692.65567		 740.62630			42952.02937		223.58200		875.00000 
 43692.65567		 305.27265			43387.38302		67.17200		324.00000 
 43692.65567		 740.62630			42952.02937		223.58200		875.00000 
 43692.65567		 305.27265			43387.38302		67.17200		324.00000 
 43692.65567		 740.62630			42952.02937		223.58200		875.00000 
 43692.65567		 305.27265			43387.38302		67.17200		324.00000 
 43692.65567		 740.62630			42952.02937		223.58200		875.00000 
 43692.65567		 305.27265			43387.38302		67.17200		324.00000 
 43692.65567		 740.62630			42952.02937		223.58200		875.00000 
 43692.65567		 305.27265			43387.38302		67.17200		324.00000 
 43692.65567		 740.62630			42952.02937		223.58200		875.00000 
 43692.65567		 305.27265			43387.38302		67.17200		324.00000 
 43692.65567		 740.62630			42952.02937		223.58200		875.00000 
 43692.65567		 305.27265			43387.38302		67.17200		324.00000 
 43692.65567		 740.62630			42952.02937		223.58200		875.00000 
 43692.65567		 305.27265			43387.38302		67.17200		324.00000 
 43692.65567		 740.62630			42952.02937		223.58200		875.00000 
 43692.65567		 305.27265			43387.38302		67.17200		324.00000 
 43692.65567		 740.62630			42952.02937		223.58200		875.00000 
 43692.65567		 305.27265			43387.38302		67.17200		324.00000 
 43692.65567		 740.62630			42952.02937		223.58200		875.00000 
 43692.65567		 305.27265			43387.38302		67.17200		324.00000 
 43692.65567		 740.62630			42952.02937		223.58200		875.00000 
 43692.65567		 305.27265			43387.38302		67.17200		324.00000 
 43692.65567		 740.62630			42952.02937		223.58200		875.00000 
 43692.65567		 305.27265			43387.38302		67.17200		324.00000 
 43692.65567		 740.62630			42952.02937		223.58200		875.00000 
 43692.65567		 305.27265			43387.38302		67.17200		324.00000 
 43692.65567		 740.62630			42952.02937		223.58200		875.00000 
 43692.65567		 305.27265			43387.38302		67.17200		324.00000 
 43692.65567		 740.62630			42952.02937		223.58200		875.00000 
 43692.65567		 305.27265			43387.38302		67.17200		324.00000 
 43692.65567		 740.62630			42952.02937		223.58200		875.00000 
 43692.65567		 305.27265			43387.38302		67.17200		324.00000 
 43692.65567		 740.62630			42952.02937		223.58200		875.00000 
 43692.65567		 305.27265			43387.38302		67.17200		324.00000 
 43692.65567		 740.62630			42952.02937		223.58200		875.00000 
 43692.65567		 305.27265			43387.38302		67.17200		324.00000 
 43692.65567		 740.62630			42952.02937		223.58200		875.00000 
 43692.65567		 305.27265			43387.38302		67.17200		324.00000 
 43692.65567		 740.62630			42952.02937		223.58200		875.00000 
 43692.65567		 305.27265			43387.38302		67.17200		324.00000 
 43692.65567		 740.62630			42952.02937		223.58200		875.00000 
 43692.65567		 305.27265			43387.38302		67.17200		324.00000 
 43692.65567		 740.62630			42952.02937		223.58200		875.00000 
 43692.65567		 305.27265			43387.38302		67.17200		324.00000 
 43692.65567		 740.62630			42952.02937		223.58200		875.00000 
 43692.65567		 305.27265			43387.38302		67.17200		324.00000 
 43692.65567		 740.62630			42952.02937		223.58200		875.00000 
 43692.65567		 305.27265			43387.38302		67.17200		324.00000 
 43692.65567		 740.62630			42952.02937		223.58200		875.00000 
 43692.65567		 305.27265			43387.38302		67.17200		324.00000 
 43692.65567		 740.62630			42952.02937		223.58200		875.00000 
 43692.65567		 305.27265			43387.38302		67.17200		324.00000 
 43692.65567		 740.62630			42952.02937		223.58200		875.00000 
 43692.65567		 305.27265			43387.38302		67.17200		324.00000 
 43692.65567		 740.62630			42952.02937		223.58200		875.00000 
 43692.65567		 305.27265			43387.38302		67.17200		324.00000 
 43692.65567		 740.62630			42952.02937		223.58200		875.00000 
 43692.65567		 305.27265			43387.38302		67.17200		324.00000 
 43692.65567		 740.62630			42952.02937		223.58200		875.00000 
 43692.65567		 305.27265			43387.38302		67.17200		324.00000 
 43692.65567		 740.62630			42952.02937		223.58200		875.00000 
 43692.65567		 305.27265			43387.38302		67.17200		324.00000 
 43692.65567		 740.62630			42952.02937		223.58200		875.00000 
 43692.65567		 305.27265			43387.38302		67.17200		324.00000 
 43692.65567		 740.62630			42952.02937		223.58200		875.00000 
 43692.65567		 305.27265			43387.38302		67.17200		324.00000 
 43692.65567		 740.62630			42952.02937		223.58200		875.00000 
 43692.65567		 305.27265			43387.38302		67.17200		324.00000 
 43692.65567		 740.62630			42952.02937		223.58200		875.00000 
 43692.65567		 305.27265			43387.38302		67.17200		324.00000 
 43692.65567		 740.62630			42952.02937		223.58200		875.00000 
 43692.65567		 305.27265			43387.38302		67.17200		324.00000 
 43692.65567		 740.62630			42952.02937		223.58200		875.00000 
 43692.65567		 305.27265			43387.38302		67.17200		324.00000 
 43692.65567		 740.62630			42952.02937		223.58200		875.00000 
 43692.65567		 305.27265			43387.38302		67.17200		324.00000 
 43692.65567		 740.62630			42952.02937		223.58200		875.00000 
 43692.65567		 305.27265			43387.38302		67.17200		324.00000 
 43692.65567		 740.62630			42952.02937		223.58200		875.00000 
 43692.65567		 305.27265			43387.38302		67.17200		324.00000 
 43692.65567		 740.62630			42952.02937		223.58200		875.00000 
 43692.65567		 305.27265			43387.38302		67.17200		324.00000 
 43692.65567		 740.62630			42952.02937		223.58200		875.00000 
 43692.65567		 305.27265			43387.38302		67.17200		324.00000 
 43692.65567		 740.62630			42952.02937		223.58200		875.00000 
 43692.65567		 305.27265			43387.38302		67.17200		324.00000 
 43692.65567		 740.62630			42952.02937		223.58200		875.00000 
 43692.65567		 305.27265			43387.38302		67.17200		324.00000 
 43692.65567		 740.62630			42952.02937		223.58200		875.00000 
 43692.65567		 305.27265			43387.38302		67.17200		324.00000 
 43692.65567		 740.62630			42952.02937		223.78800		875.00000 
 43692.65567		 305.27265			43387.38302		67.17200		324.00000 
 43692.65567		 740.62630			42952.02937		223.78800		875.00000 
 43692.65567		 305.27265			43387.38302		67.17200		324.00000 
 43692.65567		 740.62630			42952.02937		223.78800		875.00000 
 43692.65567		 305.27265			43387.38302		67.17200		324.00000 
 43692.65567		 740.62630			42952.02937		223.78800		875.00000 
 43692.65567		 305.27265			43387.38302		67.17200		324.00000 
 43692.65567		 740.62630			42952.02937		223.78800		875.00000 
 43692.65567		 305.27265			43387.38302		67.17200		324.00000 
 43692.65567		 740.62630			42952.02937		223.78800		875.00000 
 43692.65567		 305.27265			43387.38302		67.17200		324.00000 
 43692.65567		 740.62630			42952.02937		223.78800		875.00000 
 43692.65567		 305.27265			43387.38302		67.17200		324.00000 
 43692.65567		 740.62630			42952.02937		223.78800		875.00000 
 43692.65567		 305.27265			43387.38302		67.17200		324.00000 
 43692.65567		 740.62630			42952.02937		223.78800		875.00000 
 43692.65567		 305.27265			43387.38302		67.17200		324.00000 
 43692.65567		 740.62630			42952.02937		223.78800		875.00000 
 43692.65567		 305.27265			43387.38302		67.17200		324.00000 
 43692.65567		 740.62630			42952.02937		223.78800		875.00000 
 43692.65567		 305.27265			43387.38302		67.17200		324.00000 
 43692.65567		 740.62630			42952.02937		223.78800		875.00000 
 43692.65567		 305.27265			43387.38302		67.17200		324.00000 
 43692.65567		 740.62630			42952.02937		223.78800		875.00000 
 43692.65567		 305.27265			43387.38302		67.17200		324.00000 
 43692.65567		 740.62630			42952.02937		223.78800		875.00000 
 43692.65567		 305.27265			43387.38302		67.17200		324.00000 
 43692.65567		 740.62630			42952.02937		223.78800		875.00000 
 43692.65567		 305.27265			43387.38302		67.17200		324.00000 
 43692.65567		 740.62630			42952.02937		223.78800		875.00000 
 43692.65567		 305.27265			43387.38302		67.17200		324.00000 
 43692.65567		 740.62630			42952.02937		223.78800		875.00000 
 43692.65567		 305.27265			43387.38302		67.17200		324.00000 
 43692.65567		 740.62630			42952.02937		223.78800		875.00000 
 43692.65567		 305.27265			43387.38302		67.17200		324.00000 
 43692.65567		 740.62630			42952.02937		223.78800		875.00000 
 43692.65567		 305.27265			43387.38302		67.17200		324.00000 
 43692.65567		 740.62630			42952.02937		223.78800		875.00000 
 43692.65567		 305.27265			43387.38302		67.17200		324.00000 
 43692.65567		 740.62630			42952.02937		223.78800		875.00000 
 43692.65567		 305.27265			43387.38302		67.17200		324.00000 
 43692.65567		 740.62630			42952.02937		223.78800		875.00000 
 43692.65567		 305.27265			43387.38302		67.17200		324.00000 
 43692.65567		 740.62630			42952.02937		223.78800		875.00000 
 43692.65567		 305.27265			43387.38302		67.17200		324.00000 
 43692.65567		 740.62630			42952.02937		223.78800		875.00000 
 43692.65567		 305.27265			43387.38302		67.17200		324.00000 
 43692.65567		 740.62630			42952.02937		223.78800		875.00000 
 43692.65567		 305.27265			43387.38302		67.17200		324.00000 
 43692.65567		 740.62630			42952.02937		223.78800		875.00000 
 43692.65567		 305.27265			43387.38302		67.17200		324.00000 
 43692.65567		 740.62630			42952.02937		223.78800		875.00000 
 43692.65567		 305.27265			43387.38302		67.17200		324.00000 
 43692.65567		 740.62630			42952.02937		223.78800		875.00000 
 43692.65567		 305.27265			43387.38302		67.17200		324.00000 
 43692.65567		 740.62630			42952.02937		223.78800		875.00000 
 43692.65567		 305.27265			43387.38302		67.17200		324.00000 
 43692.65567		 740.62630			42952.02937		223.78800		875.00000 
 43692.65567		 305.27265			43387.38302		67.17200		324.00000 
 43692.65567		 740.62630			42952.02937		223.78800		875.00000 
 43692.65567		 305.27265			43387.38302		67.17200		324.00000 
 43692.65567		 740.62630			42952.02937		223.78800		875.00000 
 43692.65567		 305.27265			43387.38302		67.17200		324.00000 
 43692.65567		 740.62630			42952.02937		223.78800		875.00000 
 43692.65567		 305.27265			43387.38302		67.17200		324.00000 
 43692.65567		 740.62630			42952.02937		223.78800		875.00000 
 43692.65567		 305.27265			43387.38302		67.17200		324.00000 
 43692.65567		 740.62630			42952.02937		223.78800		875.00000 
 43692.65567		 305.27265			43387.38302		67.17200		324.00000 
 43692.65567		 740.62630			42952.02937		223.78800		875.00000 
 43692.65567		 305.27265			43387.38302		67.17200		324.00000 
 43692.65567		 740.62630			42952.02937		223.78800		875.00000 
 43692.65567		 305.27265			43387.38302		67.17200		324.00000 
 43692.65567		 740.62630			42952.02937		223.78800		875.00000 
 43692.65567		 305.27265			43387.38302		67.17200		324.00000 
 43692.65567		 740.62630			42952.02937		223.78800		875.00000 
 43692.65567		 305.27265			43387.38302		67.17200		324.00000 
 43692.65567		 740.62630			42952.02937		223.78800		875.00000 
 43692.65567		 305.27265			43387.38302		67.17200		324.00000 
 43692.65567		 740.62630			42952.02937		223.78800		875.00000 
 43692.65567		 305.27265			43387.38302		67.17200		324.00000 
 43692.65567		 740.62630			42952.02937		223.78800		875.00000 
 43692.65567		 305.27265			43387.38302		67.17200		324.00000 
 43692.65567		 740.62630			42952.02937		223.78800		875.00000 
 43692.65567		 305.27265			43387.38302		67.17200		324.00000 
 43692.65567		 740.62630			42952.02937		223.78800		875.00000 
 43692.65567		 305.27265			43387.38302		67.17200		324.00000 
 43692.65567		 740.62630			42952.02937		223.78800		875.00000 
 43692.65567		 305.27265			43387.38302		67.17200		324.00000 
 43692.65567		 740.62630			42952.02937		223.78800		875.00000 
 43692.65567		 305.27265			43387.38302		67.17200		324.00000 
 43692.65567		 740.62630			42952.02937		223.78800		875.00000 
 43692.65567		 305.27265			43387.38302		67.17200		324.00000 
 43692.65567		 740.62630			42952.02937		223.78800		875.00000 
 43692.65567		 305.27265			43387.38302		67.17200		324.00000 
 43692.65567		 740.62630			42952.02937		223.78800		875.00000 
 43692.65567		 305.27265			43387.38302		67.17200		324.00000 
 43692.65567		 740.62630			42952.02937		223.78800		875.00000 
 43692.65567		 305.27265			43387.38302		67.17200		324.00000 
 43692.65567		 740.62630			42952.02937		223.78800		875.00000 
 43692.65567		 305.27265			43387.38302		67.17200		324.00000 
 43692.65567		 740.62630			42952.02937		223.78800		875.00000 
 43692.65567		 305.27265			43387.38302		67.17200		324.00000 
 43692.65567		 740.62630			42952.02937		223.78800		875.00000 
 43692.65567		 305.27265			43387.38302		67.17200		324.00000 
 43692.65567		 740.62630			42952.02937		223.78800		875.00000 
 43692.65567		 305.27265			43387.38302		67.17200		324.00000 
 43692.65567		 740.62630			42952.02937		223.78800		875.00000 
 43692.65567		 305.27265			43387.38302		67.17200		324.00000 
 43692.65567		 740.62630			42952.02937		223.78800		875.00000 
 43692.65567		 305.27265			43387.38302		67.17200		324.00000 
 43692.65567		 740.62630			42952.02937		223.78800		875.00000 
 43692.65567		 305.27265			43387.38302		67.17200		324.00000 
 43692.65567		 740.62630			42952.02937		223.78800		875.00000 
 43692.65567		 305.27265			43387.38302		67.17200		324.00000 
 43692.65567		 740.62630			42952.02937		223.78800		875.00000 
 43692.65567		 305.27265			43387.38302		67.17200		324.00000 
 43692.65567		 740.62630			42952.02937		223.78800		875.00000 
 43692.65567		 305.27265			43387.38302		67.17200		324.00000 
 43692.65567		 740.62630			42952.02937		223.78800		875.00000 
 43692.65567		 305.27265			43387.38302		67.17200		324.00000 
 43692.65567		 740.62630			42952.02937		223.78800		875.00000 
 43692.65567		 305.27265			43387.38302		67.17200		324.00000 
 43692.65567		 740.62630			42952.02937		223.78800		875.00000 
 43692.65567		 305.27265			43387.38302		67.17200		324.00000 
 43692.65567		 740.62630			42952.02937		223.78800		875.00000 
 43692.65567		 305.27265			43387.38302		67.17200		324.00000 
 43692.65567		 740.62630			42952.02937		223.78800		875.00000 
 43692.65567		 305.27265			43387.38302		67.17200		324.00000 
 43692.65567		 740.62630			42952.02937		223.78800		875.00000 
 43692.65567		 305.27265			43387.38302		67.17200		324.00000 
 43692.65567		 740.62630			42952.02937		223.78800		875.00000 
 43692.65567		 305.27265			43387.38302		67.17200		324.00000 
 43692.65567		 740.62630			42952.02937		223.78800		875.00000 
 43692.65567		 305.27265			43387.38302		67.17200		324.00000 
 43692.65567		 740.62630			42952.02937		223.78800		875.00000 
 43692.65567		 305.27265			43387.38302		67.17200		324.00000 
 43692.65567		 740.62630			42952.02937		223.78800		875.00000 
 43692.65567		 305.27265			43387.38302		67.17200		324.00000 
 43692.65567		 740.62630			42952.02937		223.78800		875.00000 
 43692.65567		 305.27265			43387.38302		67.17200		324.00000 
 43692.65567		 740.62630			42952.02937		223.78800		875.00000 
 43692.65567		 305.27265			43387.38302		67.17200		324.00000 
 43692.65567		 740.62630			42952.02937		223.78800		875.00000 
 43692.65567		 305.27265			43387.38302		67.17200		324.00000 
 43692.65567		 740.62630			42952.02937		223.78800		875.00000 
 43692.65567		 305.27265			43387.38302		67.17200		324.00000 
 43692.65567		 740.62630			42952.02937		223.78800		875.00000 
 43692.65567		 305.27265			43387.38302		67.17200		324.00000 
 43692.65567		 740.62630			42952.02937		223.78800		875.00000 
 43692.65567		 305.27265			43387.38302		67.17200		324.00000 
 43692.65567		 740.62630			42952.02937		223.78800		875.00000 
 43692.65567		 305.27265			43387.38302		67.17200		324.00000 
 43692.65567		 740.62630			42952.02937		223.78800		875.00000 
 43692.65567		 305.27265			43387.38302		67.17200		324.00000 
 43692.65567		 740.62630			42952.02937		223.78800		875.00000 
 43692.65567		 305.27265			43387.38302		67.17200		324.00000 
 43692.65567		 740.62630			42952.02937		223.78800		875.00000 
 43692.65567		 305.27265			43387.38302		67.17200		324.00000 
 43692.65567		 740.62630			42952.02937		223.78800		875.00000 
 43692.65567		 305.27265			43387.38302		67.17200		324.00000 
 43692.65567		 740.62630			42952.02937		223.78800		875.00000 
 43692.65567		 305.27265			43387.38302		67.17200		324.00000 
 43692.65567		 740.62630			42952.02937		223.78800		875.00000 
 43692.65567		 305.27265			43387.38302		67.17200		324.00000 
 43692.65567		 740.62630			42952.02937		223.78800		875.00000 
 43692.65567		 305.27265			43387.38302		67.17200		324.00000 
 43692.65567		 740.62630			42952.02937		223.78800		875.00000 
 43692.65567		 305.27265			43387.38302		67.17200		324.00000 
 43692.65567		 740.62630			42952.02937		223.78800		875.00000 
 43692.65567		 305.27265			43387.38302		67.17200		324.00000 
 43692.65567		 740.62630			42952.02937		223.78800		875.00000 
 43692.65567		 305.27265			43387.38302		67.17200		324.00000 
 43692.65567		 740.62630			42952.02937		223.78800		875.00000 
 43692.65567		 305.27265			43387.38302		67.17200		324.00000 
 43692.65567		 740.62630			42952.02937		223.78800		875.00000 
 43692.65567		 305.27265			43387.38302		67.17200		324.00000 
 43692.65567		 740.62630			42952.02937		223.78800		875.00000 
 43692.65567		 305.27265			43387.38302		67.17200		324.00000 
 43692.65567		 740.62630			42952.02937		223.78800		875.00000 
 43692.65567		 305.27265			43387.38302		67.17200		324.00000 
 43692.65567		 740.62630			42952.02937		223.78800		875.00000 
 43692.65567		 305.27265			43387.38302		67.17200		324.00000 
 43692.65567		 740.62630			42952.02937		223.78800		875.00000 
 43692.65567		 305.27265			43387.38302		67.17200		324.00000 
 43692.65567		 740.62630			42952.02937		223.78800		875.00000 
 43692.65567		 305.27265			43387.38302		67.17200		324.00000 
 43692.65567		 740.62630			42952.02937		223.78800		875.00000 
 43692.65567		 305.27265			43387.38302		67.17200		324.00000 
 43692.65567		 740.62630			42952.02937		223.78800		875.00000 
 43692.65567		 305.27265			43387.38302		67.17200		324.00000 
 43692.65567		 740.62630			42952.02937		223.78800		875.00000 
 43692.65567		 305.27265			43387.38302		67.17200		324.00000 
 43692.65567		 740.62630			42952.02937		223.78800		875.00000 
 43692.65567		 305.27265			43387.38302		67.17200		324.00000 
 43692.65567		 740.62630			42952.02937		223.78800		875.00000 
 43692.65567		 305.27265			43387.38302		67.17200		324.00000 
 43692.65567		 740.62630			42952.02937		223.78800		875.00000 
 43692.65567		 305.27265			43387.38302		67.17200		324.00000 
 43692.65567		 740.62630			42952.02937		223.78800		875.00000 
 43692.65567		 305.27265			43387.38302		67.17200		324.00000 
 43692.65567		 740.62630			42952.02937		223.78800		875.00000 
 43692.65567		 305.27265			43387.38302		67.17200		324.00000 
 43692.65567		 740.62630			42952.02937		223.78800		875.00000 
 43692.65567		 305.27265			43387.38302		67.17200		324.00000 
 43692.65567		 740.62630			42952.02937		223.78800		875.00000 
 43692.65567		 305.27265			43387.38302		67.17200		324.00000 
 43692.65567		 740.62630			42952.02937		223.78800		875.00000 
 43692.65567		 305.27265			43387.38302		67.17200		324.00000 
 43692.65567		 740.62630			42952.02937		223.78800		875.00000 
 43692.65567		 305.27265			43387.38302		67.17200		324.00000 
 43692.65567		 740.62630			42952.02937		223.78800		875.00000 
 43692.65567		 305.27265			43387.38302		67.17200		324.00000 
 43692.65567		 740.62630			42952.02937		223.78800		875.00000 
 43692.65567		 305.27265			43387.38302		67.17200		324.00000 
 43692.65567		 740.62630			42952.02937		223.78800		875.00000 
 43692.65567		 305.27265			43387.38302		67.17200		324.00000 
 43692.65567		 740.62630			42952.02937		223.78800		875.00000 
 43692.65567		 305.27265			43387.38302		67.17200		324.00000 
 43692.65567		 740.62630			42952.02937		223.78800		875.00000 
 43692.65567		 305.27265			43387.38302		67.17200		324.00000 
 43692.65567		 740.62630			42952.02937		223.78800		875.00000 
 43692.65567		 305.27265			43387.38302		67.17200		324.00000 
 43692.65567		 740.62630			42952.02937		223.78800		875.00000 
 43692.65567		 305.27265			43387.38302		67.17200		324.00000 
 43692.65567		 740.62630			42952.02937		223.78800		875.00000 
 43692.65567		 305.27265			43387.38302		67.17200		324.00000 
 43692.65567		 740.62630			42952.02937		223.78800		875.00000 
 43692.65567		 305.27265			43387.38302		67.17200		324.00000 
 43692.65567		 740.62630			42952.02937		223.78800		875.00000 
 43692.65567		 305.27265			43387.38302		67.17200		324.00000 
 43692.65567		 740.62630			42952.02937		223.78800		875.00000 
 43692.65567		 305.27265			43387.38302		67.17200		324.00000 
 43692.65567		 740.62630			42952.02937		223.78800		875.00000 
 43692.65567		 305.27265			43387.38302		67.17200		324.00000 
 43692.65567		 740.62630			42952.02937		223.78800		875.00000 
 43692.65567		 305.27265			43387.38302		67.17200		324.00000 
 43692.65567		 740.62630			42952.02937		223.78800		875.00000 
 43692.65567		 305.27265			43387.38302		67.17200		324.00000 
 43692.65567		 740.62630			42952.02937		223.78800		875.00000 
 43692.65567		 305.27265			43387.38302		67.17200		324.00000 
 43692.65567		 740.62630			42952.02937		223.78800		875.00000 
 43692.65567		 305.27265			43387.38302		67.17200		324.00000 
 43692.65567		 740.62630			42952.02937		223.78800		875.00000 
 43692.65567		 305.27265			43387.38302		67.17200		324.00000 
 43692.65567		 740.62630			42952.02937		223.78800		875.00000 
 43692.65567		 305.27265			43387.38302		67.17200		324.00000 
 43692.65567		 740.62630			42952.02937		223.78800		875.00000 
 43692.65567		 305.27265			43387.38302		67.17200		324.00000 
 43692.65567		 740.62630			42952.02937		223.78800		875.00000 
 43692.65567		 305.27265			43387.38302		67.17200		324.00000 
 43692.65567		 740.62630			42952.02937		223.78800		875.00000 
 43692.65567		 305.27265			43387.38302		67.17200		324.00000 
 43692.65567		 740.62630			42952.02937		223.78800		875.00000 
 43692.65567		 305.27265			43387.38302		67.17200		324.00000 
 43692.65567		 740.62630			42952.02937		223.78800		875.00000 
 43692.65567		 305.27265			43387.38302		67.17200		324.00000 
 43692.65567		 740.62630			42952.02937		223.78800		875.00000 
 43692.65567		 305.27265			43387.38302		67.17200		324.00000 
 43692.65567		 740.62630			42952.02937		223.78800		875.00000 
 43692.65567		 305.27265			43387.38302		67.17200		324.00000 
 43692.65567		 740.62630			42952.02937		223.78800		875.00000 
 43692.65567		 305.27265			43387.38302		67.17200		324.00000 
 43692.65567		 740.62630			42952.02937		223.78800		875.00000 
 43692.65567		 305.27265			43387.38302		67.17200		324.00000 
 43692.65567		 740.62630			42952.02937		223.78800		875.00000 
 43692.65567		 305.27265			43387.38302		67.17200		324.00000 
 43692.65567		 740.62630			42952.02937		223.78800		875.00000 
 43692.65567		 305.27265			43387.38302		67.17200		324.00000 
 43692.65567		 740.62630			42952.02937		223.78800		875.00000 
 43692.65567		 305.27265			43387.38302		67.17200		324.00000 
 43692.65567		 740.62630			42952.02937		223.78800		875.00000 
 43692.65567		 305.27265			43387.38302		67.17200		324.00000 
 43692.65567		 740.62630			42952.02937		223.78800		875.00000 
 43692.65567		 305.27265			43387.38302		67.17200		324.00000 
 43692.65567		 740.62630			42952.02937		223.78800		875.00000 
 43692.65567		 305.27265			43387.38302		67.17200		324.00000 
 43692.65567		 740.62630			42952.02937		223.78800		875.00000 
 43692.65567		 305.27265			43387.38302		67.17200		324.00000 
 43692.65567		 740.62630			42952.02937		223.78800		875.00000 
 43692.65567		 305.27265			43387.38302		67.17200		324.00000 
 43692.65567		 740.62630			42952.02937		223.78800		875.00000 
 43692.65567		 305.27265			43387.38302		67.17200		324.00000 
 43692.65567		 740.62630			42952.02937		223.78800		875.00000 
 43692.65567		 305.27265			43387.38302		67.17200		324.00000 
 43692.65567		 740.62630			42952.02937		223.78800		875.00000 
 43692.65567		 305.27265			43387.38302		67.17200		324.00000 
 43692.65567		 740.62630			42952.02937		223.78800		875.00000 
 43692.65567		 305.27265			43387.38302		67.17200		324.00000 
 43692.65567		 740.62630			42952.02937		223.78800		875.00000 
 43692.65567		 305.27265			43387.38302		67.17200		324.00000 
 43692.65567		 740.62630			42952.02937		223.78800		875.00000 
 43692.65567		 305.27265			43387.38302		67.17200		324.00000 
 43692.65567		 740.62630			42952.02937		223.78800		875.00000 
 43692.65567		 305.27265			43387.38302		67.17200		324.00000 
 43692.65567		 740.62630			42952.02937		223.78800		875.00000 
 43692.65567		 305.27265			43387.38302		67.17200		324.00000 
 43692.65567		 740.62630			42952.02937		223.78800		875.00000 
 43692.65567		 305.27265			43387.38302		67.17200		324.00000 
 43692.65567		 740.62630			42952.02937		223.78800		875.00000 
 43692.65567		 305.27265			43387.38302		67.17200		324.00000 
 43692.65567		 740.62630			42952.02937		223.78800		875.00000 
 43692.65567		 305.27265			43387.38302		67.17200		324.00000 
 43692.65567		 740.62630			42952.02937		223.78800		875.00000 
 43692.65567		 305.27265			43387.38302		67.17200		324.00000 
 43692.65567		 740.62630			42952.02937		223.78800		875.00000 
 43692.65567		 305.27265			43387.38302		67.17200		324.00000 
 43692.65567		 740.62630			42952.02937		223.78800		875.00000 
 43692.65567		 305.27265			43387.38302		67.17200		324.00000 
 43692.65567		 740.62630			42952.02937		223.78800		875.00000 
 43692.65567		 305.27265			43387.38302		67.17200		324.00000 
 43692.65567		 740.62630			42952.02937		223.78800		875.00000 
 43692.65567		 305.27265			43387.38302		67.17200		324.00000 
 43692.65567		 740.62630			42952.02937		223.78800		875.00000 
 43692.65567		 305.27265			43387.38302		67.17200		324.00000 
 43692.65567		 740.62630			42952.02937		223.78800		875.00000 
 43692.65567		 305.27265			43387.38302		67.17200		324.00000 
 43692.65567		 740.62630			42952.02937		223.78800		875.00000 
 43692.65567		 305.27265			43387.38302		67.17200		324.00000 
 43692.65567		 740.62630			42952.02937		223.78800		875.00000 
 43692.65567		 305.27265			43387.38302		67.17200		324.00000 
 43692.65567		 740.62630			42952.02937		223.78800		875.00000 
 43692.65567		 305.27265			43387.38302		67.17200		324.00000 
 43692.65567		 740.62630			42952.02937		223.78800		875.00000 
 43692.65567		 305.27265			43387.38302		67.17200		324.00000 
 43692.65567		 740.62630			42952.02937		223.78800		875.00000 
 43692.65567		 305.27265			43387.38302		67.17200		324.00000 
 43692.65567		 740.62630			42952.02937		223.78800		875.00000 
 43692.65567		 305.27265			43387.38302		67.17200		324.00000 
 43692.65567		 740.62630			42952.02937		223.78800		875.00000 
 43692.65567		 305.27265			43387.38302		67.17200		324.00000 
 43692.65567		 740.62630			42952.02937		223.78800		875.00000 
 43692.65567		 305.27265			43387.38302		67.17200		324.00000 
 43692.65567		 740.62630			42952.02937		223.78800		875.00000 
 43692.65567		 305.27265			43387.38302		67.17200		324.00000 
 43692.65567		 740.62630			42952.02937		223.78800		875.00000 
 43692.65567		 305.27265			43387.38302		67.17200		324.00000 
 43692.65567		 740.62630			42952.02937		223.78800		875.00000 
 43692.65567		 305.27265			43387.38302		67.17200		324.00000 
 43692.65567		 740.62630			42952.02937		223.78800		875.00000 
 43692.65567		 305.27265			43387.38302		67.17200		324.00000 
 43692.65567		 740.62630			42952.02937		223.78800		875.00000 
 43692.65567		 305.27265			43387.38302		67.17200		324.00000 
 43692.65567		 740.62630			42952.02937		223.78800		875.00000 
 43692.65567		 305.27265			43387.38302		67.17200		324.00000 
 43692.65567		 740.62630			42952.02937		223.78800		875.00000 
 43692.65567		 305.27265			43387.38302		67.17200		324.00000 
 43692.65567		 740.62630			42952.02937		223.78800		875.00000 
 43692.65567		 305.27265			43387.38302		67.17200		324.00000 
 43692.65567		 740.62630			42952.02937		223.78800		875.00000 
 43692.65567		 305.27265			43387.38302		67.17200		324.00000 
 43692.65567		 740.62630			42952.02937		223.78800		875.00000 
 43692.65567		 305.27265			43387.38302		67.17200		324.00000 
 43692.65567		 740.62630			42952.02937		223.78800		875.00000 
 43692.65567		 305.27265			43387.38302		67.17200		324.00000 
 43692.65567		 740.62630			42952.02937		223.78800		875.00000 
 43692.65567		 305.27265			43387.38302		67.17200		324.00000 
 43692.65567		 740.62630			42952.02937		223.78800		875.00000 
 43692.65567		 305.27265			43387.38302		67.17200		324.00000 
 43692.65567		 740.62630			42952.02937		223.78800		875.00000 
 43692.65567		 305.27265			43387.38302		67.17200		324.00000 
 43692.65567		 740.62630			42952.02937		223.78800		875.00000 
 43692.65567		 305.27265			43387.38302		67.17200		324.00000 
 43692.65567		 740.62630			42952.02937		223.78800		875.00000 
 43692.65567		 305.27265			43387.38302		67.17200		324.00000 
 43692.65567		 740.62630			42952.02937		223.78800		875.00000 
 43692.65567		 305.27265			43387.38302		67.17200		324.00000 
 43692.65567		 740.62630			42952.02937		223.78800		875.00000 
 43692.65567		 305.27265			43387.38302		67.17200		324.00000 
 43692.65567		 740.62630			42952.02937		223.78800		875.00000 
 43692.65567		 305.27265			43387.38302		67.17200		324.00000 
 43692.65567		 740.62630			42952.02937		223.78800		875.00000 
 43692.65567		 305.27265			43387.38302		67.17200		324.00000 
 43692.65567		 740.62630			42952.02937		223.78800		875.00000 
 43692.65567		 305.27265			43387.38302		67.17200		324.00000 
 43692.65567		 740.62630			42952.02937		223.78800		875.00000 
 43692.65567		 305.27265			43387.38302		67.17200		324.00000 
 43692.65567		 740.62630			42952.02937		223.78800		875.00000 
 43692.65567		 305.27265			43387.38302		67.17200		324.00000 
 43692.65567		 740.62630			42952.02937		223.78800		875.00000 
 43692.65567		 305.27265			43387.38302		67.17200		324.00000 
 43692.65567		 740.62630			42952.02937		223.78800		875.00000 
 43692.65567		 305.27265			43387.38302		67.17200		324.00000 
 43692.65567		 740.62630			42952.02937		223.78800		875.00000 
 43692.65567		 305.27265			43387.38302		67.17200		324.00000 
 43692.65567		 740.62630			42952.02937		223.78800		875.00000 
 43692.65567		 305.27265			43387.38302		67.17200		324.00000 
 43692.65567		 740.62630			42952.02937		223.78800		875.00000 
 43692.65567		 305.27265			43387.38302		67.17200		324.00000 
 43692.65567		 740.62630			42952.02937		223.78800		875.00000 
 43692.65567		 305.27265			43387.38302		67.17200		324.00000 
 43692.65567		 740.62630			42952.02937		223.78800		875.00000 
 43692.65567		 305.27265			43387.38302		67.17200		324.00000 
 43692.65567		 740.62630			42952.02937		223.78800		875.00000 
 43692.65567		 305.27265			43387.38302		67.17200		324.00000 
 43692.65567		 740.62630			42952.02937		223.78800		875.00000 
 43692.65567		 305.27265			43387.38302		67.17200		324.00000 
 43692.65567		 740.62630			42952.02937		223.78800		875.00000 
 43692.65567		 305.27265			43387.38302		67.17200		324.00000 
 43692.65567		 740.62630			42952.02937		223.78800		875.00000 
 43692.65567		 305.27265			43387.38302		67.17200		324.00000 
 43692.65567		 740.62630			42952.02937		223.78800		875.00000 
 43692.65567		 305.27265			43387.38302		67.17200		324.00000 
 43692.65567		 740.62630			42952.02937		223.78800		875.00000 
 43692.65567		 305.27265			43387.38302		67.17200		324.00000 
 43692.65567		 740.62630			42952.02937		223.78800		875.00000 
 43692.65567		 305.27265			43387.38302		67.17200		324.00000 
 43692.65567		 740.62630			42952.02937		223.78800		875.00000 
 43692.65567		 305.27265			43387.38302		67.17200		324.00000 
 43692.65567		 740.62630			42952.02937		223.78800		875.00000 
 43692.65567		 305.27265			43387.38302		67.17200		324.00000 
 43692.65567		 740.62630			42952.02937		223.78800		875.00000 
 43692.65567		 305.27265			43387.38302		67.17200		324.00000 
 43692.65567		 740.62630			42952.02937		223.78800		875.00000 
 43692.65567		 305.27265			43387.38302		67.17200		324.00000 
 43692.65567		 740.62630			42952.02937		223.78800		875.00000 
 43692.65567		 305.27265			43387.38302		67.17200		324.00000 
 43692.65567		 740.62630			42952.02937		223.78800		875.00000 
 43692.65567		 305.27265			43387.38302		67.17200		324.00000 
 43692.65567		 740.62630			42952.02937		223.78800		875.00000 
 43692.65567		 305.27265			43387.38302		67.17200		324.00000 
 43692.65567		 740.62630			42952.02937		223.78800		875.00000 
 43692.65567		 305.27265			43387.38302		67.17200		324.00000 
 43692.65567		 740.62630			42952.02937		223.78800		875.00000 
 43692.65567		 305.27265			43387.38302		67.17200		324.00000 
 43692.65567		 740.62630			42952.02937		223.78800		875.00000 
 43692.65567		 305.27265			43387.38302		67.17200		324.00000 
 43692.65567		 740.62630			42952.02937		223.78800		875.00000 
 43692.65567		 305.27265			43387.38302		67.17200		324.00000 
 43692.65567		 740.62630			42952.02937		223.78800		875.00000 
 43692.65567		 305.27265			43387.38302		67.17200		324.00000 
 43692.65567		 740.62630			42952.02937		223.78800		875.00000 
 43692.65567		 305.27265			43387.38302		67.17200		324.00000 
 43692.65567		 740.62630			42952.02937		223.78800		875.00000 
 43692.65567		 305.27265			43387.38302		67.17200		324.00000 
 43692.65567		 740.62630			42952.02937		223.78800		875.00000 
 43692.65567		 305.27265			43387.38302		67.17200		324.00000 
 43692.65567		 740.62630			42952.02937		223.78800		875.00000 
 43692.65567		 305.27265			43387.38302		67.17200		324.00000 
 43692.65567		 740.62630			42952.02937		223.78800		875.00000 
 43692.65567		 305.27265			43387.38302		67.17200		324.00000 
 43692.65567		 740.62630			42952.02937		223.78800		875.00000 
 43692.65567		 305.27265			43387.38302		67.17200		324.00000 
 43692.65567		 740.62630			42952.02937		223.78800		875.00000 
 43692.65567		 305.27265			43387.38302		67.17200		324.00000 
 43692.65567		 740.62630			42952.02937		223.78800		875.00000 
 43692.65567		 305.27265			43387.38302		67.17200		324.00000 
 43692.65567		 740.62630			42952.02937		223.78800		875.00000 
 43692.65567		 305.27265			43387.38302		67.17200		324.00000 
 43692.65567		 740.62630			42952.02937		223.78800		875.00000 
 43692.65567		 305.27265			43387.38302		67.17200		324.00000 
 43692.65567		 740.62630			42952.02937		223.78800		875.00000 
 43692.65567		 305.27265			43387.38302		67.17200		324.00000 
 43692.65567		 740.62630			42952.02937		223.78800		875.00000 
 43692.65567		 305.27265			43387.38302		67.17200		324.00000 
 43692.65567		 740.62630			42952.02937		223.78800		875.00000 
 43692.65567		 305.27265			43387.38302		67.17200		324.00000 
 43692.65567		 740.62630			42952.02937		223.78800		875.00000 
 43692.65567		 305.27265			43387.38302		67.17200		324.00000 
 43692.65567		 740.62630			42952.02937		223.78800		875.00000 
 43692.65567		 305.27265			43387.38302		67.17200		324.00000 
 43692.65567		 740.62630			42952.02937		223.78800		875.00000 
 43692.65567		 305.27265			43387.38302		67.17200		324.00000 
 43692.65567		 740.62630			42952.02937		223.78800		875.00000 
 43692.65567		 305.27265			43387.38302		67.17200		324.00000 
 43692.65567		 740.62630			42952.02937		223.78800		875.00000 
 43692.65567		 305.27265			43387.38302		67.17200		324.00000 
 43692.65567		 740.62630			42952.02937		223.78800		875.00000 
 43692.65567		 305.27265			43387.38302		67.17200		324.00000 
 43692.65567		 740.62630			42952.02937		223.78800		875.00000 
 43692.65567		 305.27265			43387.38302		67.17200		324.00000 
 43692.65567		 740.62630			42952.02937		223.78800		875.00000 
 43692.65567		 305.27265			43387.38302		67.17200		324.00000 
 43692.65567		 740.62630			42952.02937		223.78800		875.00000 
 43692.65567		 305.27265			43387.38302		69.64400		324.00000 
 43692.65567		 740.62630			42952.02937		223.78800		875.00000 
 43692.65567		 305.27265			43387.38302		69.64400		324.00000 
 43692.65567		 740.62630			42952.02937		223.78800		875.00000 
 43692.65567		 305.27265			43387.38302		69.64400		324.00000 
 43692.65567		 740.62630			42952.02937		223.78800		875.00000 
 43692.65567		 305.27265			43387.38302		69.64400		324.00000 
 43692.65567		 740.62630			42952.02937		223.78800		875.00000 
 43692.65567		 305.27265			43387.38302		69.64400		324.00000 
 43692.65567		 740.62630			42952.02937		223.78800		875.00000 
 43692.65567		 305.27265			43387.38302		69.64400		324.00000 
 43692.65567		 740.62630			42952.02937		223.78800		875.00000 
 43692.65567		 305.27265			43387.38302		69.64400		324.00000 
 43692.65567		 740.62630			42952.02937		223.78800		875.00000 
 43692.65567		 305.27265			43387.38302		69.64400		324.00000 
 43692.65567		 740.62630			42952.02937		223.78800		875.00000 
 43692.65567		 305.27265			43387.38302		69.64400		324.00000 
 43692.65567		 740.62630			42952.02937		223.78800		875.00000 
 43692.65567		 305.27265			43387.38302		69.64400		324.00000 
 43692.65567		 740.62630			42952.02937		223.78800		875.00000 
 43692.65567		 305.27265			43387.38302		69.64400		324.00000 
 43692.65567		 740.62630			42952.02937		223.78800		875.00000 
 43692.65567		 305.27265			43387.38302		69.64400		324.00000 
 43692.65567		 740.62630			42952.02937		223.78800		875.00000 
 43692.65567		 305.27265			43387.38302		69.64400		324.00000 
 43692.65567		 740.62630			42952.02937		223.78800		875.00000 
 43692.65567		 305.27265			43387.38302		69.64400		324.00000 
 43692.65567		 740.62630			42952.02937		223.78800		875.00000 
 43692.65567		 305.27265			43387.38302		69.64400		324.00000 
 43692.65567		 740.62630			42952.02937		223.78800		875.00000 
 43692.65567		 305.27265			43387.38302		69.64400		324.00000 
 43692.65567		 740.62630			42952.02937		223.78800		875.00000 
 43692.65567		 305.27265			43387.38302		69.64400		324.00000 
 43692.65567		 740.62630			42952.02937		223.78800		875.00000 
 43692.65567		 305.27265			43387.38302		69.64400		324.00000 
 43692.65567		 740.62630			42952.02937		223.78800		875.00000 
 43692.65567		 305.27265			43387.38302		69.64400		324.00000 
 43692.65567		 740.62630			42952.02937		223.78800		875.00000 
 43692.65567		 305.27265			43387.38302		69.64400		324.00000 
 43692.65567		 740.62630			42952.02937		223.78800		875.00000 
 43692.65567		 305.27265			43387.38302		69.64400		324.00000 
 43692.65567		 740.62630			42952.02937		223.78800		875.00000 
 43692.65567		 305.27265			43387.38302		69.64400		324.00000 
 43692.65567		 740.62630			42952.02937		223.78800		875.00000 
 43692.65567		 305.27265			43387.38302		69.64400		324.00000 
 43692.65567		 740.62630			42952.02937		223.78800		875.00000 
 43692.65567		 305.27265			43387.38302		69.64400		324.00000 
 43692.65567		 740.62630			42952.02937		223.78800		875.00000 
 43692.65567		 305.27265			43387.38302		69.64400		324.00000 
 43692.65567		 740.62630			42952.02937		223.78800		875.00000 
 43692.65567		 305.27265			43387.38302		69.64400		324.00000 
 43692.65567		 740.62630			42952.02937		223.78800		875.00000 
 43692.65567		 305.27265			43387.38302		69.64400		324.00000 
 43692.65567		 740.62630			42952.02937		223.78800		875.00000 
 43692.65567		 305.27265			43387.38302		69.64400		324.00000 
 43692.65567		 740.62630			42952.02937		223.78800		875.00000 
 43692.65567		 305.27265			43387.38302		69.64400		324.00000 
 43692.65567		 740.62630			42952.02937		223.78800		875.00000 
 43692.65567		 305.27265			43387.38302		69.64400		324.00000 
 43692.65567		 740.62630			42952.02937		223.78800		875.00000 
 43692.65567		 305.27265			43387.38302		69.64400		324.00000 
 43692.65567		 740.62630			42952.02937		223.78800		875.00000 
 43692.65567		 305.27265			43387.38302		69.64400		324.00000 
 43692.65567		 740.62630			42952.02937		223.78800		875.00000 
 43692.65567		 305.27265			43387.38302		69.64400		324.00000 
 43692.65567		 740.62630			42952.02937		223.78800		875.00000 
 43692.65567		 305.27265			43387.38302		69.64400		324.00000 
 43692.65567		 740.62630			42952.02937		223.78800		875.00000 
 43692.65567		 305.27265			43387.38302		69.64400		324.00000 
 43692.65567		 740.62630			42952.02937		223.78800		875.00000 
 43692.65567		 305.27265			43387.38302		69.64400		324.00000 
 43692.65567		 740.62630			42952.02937		223.78800		875.00000 
 43692.65567		 305.27265			43387.38302		69.64400		324.00000 
 43692.65567		 740.62630			42952.02937		223.78800		875.00000 
 43692.65567		 305.27265			43387.38302		69.64400		324.00000 
 43692.65567		 740.62630			42952.02937		223.78800		875.00000 
 43692.65567		 305.27265			43387.38302		69.64400		324.00000 
 43692.65567		 740.62630			42952.02937		223.78800		875.00000 
 43692.65567		 305.27265			43387.38302		69.64400		324.00000 
 43692.65567		 740.62630			42952.02937		223.78800		875.00000 
 43692.65567		 305.27265			43387.38302		69.64400		324.00000 
 43692.65567		 740.62630			42952.02937		223.78800		875.00000 
 43692.65567		 305.27265			43387.38302		69.64400		324.00000 
 43692.65567		 740.62630			42952.02937		223.78800		875.00000 
 43692.65567		 305.27265			43387.38302		69.64400		324.00000 
 43692.65567		 740.62630			42952.02937		223.78800		875.00000 
 43692.65567		 305.27265			43387.38302		69.64400		324.00000 
 43692.65567		 740.62630			42952.02937		223.78800		875.00000 
 43692.65567		 305.27265			43387.38302		69.64400		324.00000 
 43692.65567		 740.62630			42952.02937		223.78800		875.00000 
 43692.65567		 305.27265			43387.38302		69.64400		324.00000 
 43692.65567		 740.62630			42952.02937		223.78800		875.00000 
 43692.65567		 305.27265			43387.38302		69.64400		324.00000 
 43692.65567		 740.62630			42952.02937		223.78800		875.00000 
 43692.65567		 305.27265			43387.38302		69.64400		324.00000 
 43692.65567		 740.62630			42952.02937		223.78800		875.00000 
 43692.65567		 305.27265			43387.38302		69.64400		324.00000 
 43692.65567		 740.62630			42952.02937		223.78800		875.00000 
 43692.65567		 305.27265			43387.38302		69.64400		324.00000 
 43692.65567		 740.62630			42952.02937		223.78800		875.00000 
 43692.65567		 305.27265			43387.38302		69.64400		324.00000 
 43692.65567		 740.62630			42952.02937		223.78800		875.00000 
 43692.65567		 305.27265			43387.38302		69.64400		324.00000 
 43692.65567		 740.62630			42952.02937		223.78800		875.00000 
 43692.65567		 305.27265			43387.38302		69.64400		324.00000 
 43692.65567		 740.62630			42952.02937		223.78800		875.00000 
 43692.65567		 305.27265			43387.38302		69.64400		324.00000 
 43692.65567		 740.62630			42952.02937		223.78800		875.00000 
 43692.65567		 305.27265			43387.38302		69.64400		324.00000 
 43692.65567		 740.62630			42952.02937		223.78800		875.00000 
 43692.65567		 305.27265			43387.38302		69.64400		324.00000 
 43692.65567		 740.62630			42952.02937		223.78800		875.00000 
 43692.65567		 305.27265			43387.38302		69.64400		324.00000 
 43692.65567		 740.62630			42952.02937		223.78800		875.00000 
 43692.65567		 305.27265			43387.38302		69.64400		324.00000 
 43692.65567		 740.62630			42952.02937		223.78800		875.00000 
 43692.65567		 305.27265			43387.38302		69.64400		324.00000 
 43692.65567		 740.62630			42952.02937		223.78800		875.00000 
 43692.65567		 305.27265			43387.38302		69.64400		324.00000 
 43692.65567		 740.62630			42952.02937		223.78800		875.00000 
 43692.65567		 305.27265			43387.38302		69.64400		324.00000 
 43692.65567		 740.62630			42952.02937		223.78800		875.00000 
 43692.65567		 305.27265			43387.38302		69.64400		324.00000 
 43692.65567		 740.62630			42952.02937		223.78800		875.00000 
 43692.65567		 305.27265			43387.38302		69.64400		324.00000 
 43692.65567		 740.62630			42952.02937		223.78800		875.00000 
 43692.65567		 305.27265			43387.38302		69.64400		324.00000 
 43692.65567		 740.62630			42952.02937		223.78800		875.00000 
 43692.65567		 305.27265			43387.38302		69.64400		324.00000 
 43692.65567		 740.62630			42952.02937		223.78800		875.00000 
 43692.65567		 305.27265			43387.38302		69.64400		324.00000 
 43692.65567		 740.62630			42952.02937		223.78800		875.00000 
 43692.65567		 305.27265			43387.38302		69.64400		324.00000 
 43692.65567		 740.62630			42952.02937		223.78800		875.00000 
 43692.65567		 305.27265			43387.38302		69.64400		324.00000 
 43692.65567		 740.62630			42952.02937		223.78800		875.00000 
 43692.65567		 305.27265			43387.38302		69.64400		324.00000 
 43692.65567		 740.62630			42952.02937		223.78800		875.00000 
 43692.65567		 305.27265			43387.38302		69.64400		324.00000 
 43692.65567		 740.62630			42952.02937		223.78800		875.00000 
 43692.65567		 305.27265			43387.38302		69.64400		324.00000 
 43692.65567		 740.62630			42952.02937		223.78800		875.00000 
 43692.65567		 305.27265			43387.38302		69.64400		324.00000 
 43692.65567		 740.62630			42952.02937		223.78800		875.00000 
 43692.65567		 305.27265			43387.38302		69.64400		324.00000 
 43692.65567		 740.62630			42952.02937		223.78800		875.00000 
 43692.65567		 305.27265			43387.38302		69.64400		324.00000 
 43692.65567		 740.62630			42952.02937		223.78800		875.00000 
 43692.65567		 305.27265			43387.38302		69.64400		324.00000 
 43692.65567		 740.62630			42952.02937		223.78800		875.00000 
 43692.65567		 305.27265			43387.38302		69.64400		324.00000 
 43692.65567		 740.62630			42952.02937		223.78800		875.00000 
 43692.65567		 305.27265			43387.38302		69.64400		324.00000 
 43692.65567		 740.62630			42952.02937		223.78800		875.00000 
 43692.65567		 305.27265			43387.38302		69.64400		324.00000 
 43692.65567		 740.62630			42952.02937		223.78800		875.00000 
 43692.65567		 305.27265			43387.38302		69.64400		324.00000 
 43692.65567		 740.62630			42952.02937		223.78800		875.00000 
 43692.65567		 305.27265			43387.38302		69.64400		324.00000 
 43692.65567		 740.62630			42952.02937		223.78800		875.00000 
 43692.65567		 305.27265			43387.38302		69.64400		324.00000 
 43692.65567		 740.62630			42952.02937		223.78800		875.00000 
 43692.65567		 305.27265			43387.38302		69.64400		324.00000 
 43692.65567		 740.62630			42952.02937		223.78800		875.00000 
 43692.65567		 305.27265			43387.38302		69.64400		324.00000 
 43692.65567		 740.62630			42952.02937		223.78800		875.00000 
 43692.65567		 305.27265			43387.38302		69.64400		324.00000 
 43692.65567		 740.62630			42952.02937		223.78800		875.00000 
 43692.65567		 305.27265			43387.38302		69.64400		324.00000 
 43692.65567		 740.62630			42952.02937		223.78800		875.00000 
 43692.65567		 305.27265			43387.38302		69.64400		324.00000 
 43692.65567		 740.62630			42952.02937		223.78800		875.00000 
 43692.65567		 305.27265			43387.38302		69.64400		324.00000 
 43692.65567		 740.62630			42952.02937		223.78800		875.00000 
 43692.65567		 305.27265			43387.38302		69.64400		324.00000 
 43692.65567		 740.62630			42952.02937		223.78800		875.00000 
 43692.65567		 305.27265			43387.38302		69.64400		324.00000 
 43692.65567		 740.62630			42952.02937		223.78800		875.00000 
 43692.65567		 305.27265			43387.38302		69.64400		324.00000 
 43692.65567		 740.62630			42952.02937		223.78800		875.00000 
 43692.65567		 305.27265			43387.38302		69.64400		324.00000 
 43692.65567		 740.62630			42952.02937		223.78800		875.00000 
 43692.65567		 305.27265			43387.38302		69.64400		324.00000 
 43692.65567		 740.62630			42952.02937		223.78800		875.00000 
 43692.65567		 305.27265			43387.38302		69.64400		324.00000 
 43692.65567		 740.62630			42952.02937		223.78800		875.00000 
 43692.65567		 305.27265			43387.38302		69.64400		324.00000 
 43692.65567		 740.62630			42952.02937		223.78800		875.00000 
 43692.65567		 305.27265			43387.38302		69.64400		324.00000 
 43692.65567		 740.62630			42952.02937		223.78800		875.00000 
 43692.65567		 305.27265			43387.38302		69.64400		324.00000 
 43692.65567		 740.62630			42952.02937		223.78800		875.00000 
 43692.65567		 305.27265			43387.38302		69.64400		324.00000 
 43692.65567		 740.62630			42952.02937		223.78800		875.00000 
 43692.65567		 305.27265			43387.38302		69.64400		324.00000 
 43692.65567		 740.62630			42952.02937		223.78800		875.00000 
 43692.65567		 305.27265			43387.38302		69.64400		324.00000 
 43692.65567		 740.62630			42952.02937		223.78800		875.00000 
 43692.65567		 305.27265			43387.38302		69.64400		324.00000 
 43692.65567		 740.62630			42952.02937		223.78800		875.00000 
 43692.65567		 305.27265			43387.38302		69.64400		324.00000 
 43692.65567		 740.62630			42952.02937		223.78800		875.00000 
 43692.65567		 305.27265			43387.38302		69.64400		324.00000 
 43692.65567		 740.62630			42952.02937		223.78800		875.00000 
 43692.65567		 305.27265			43387.38302		69.64400		324.00000 
 43692.65567		 740.62630			42952.02937		223.78800		875.00000 
 43692.65567		 305.27265			43387.38302		69.64400		324.00000 
 43692.65567		 740.62630			42952.02937		223.78800		875.00000 
 43692.65567		 305.27265			43387.38302		69.64400		324.00000 
 43692.65567		 740.62630			42952.02937		223.78800		875.00000 
 43692.65567		 305.27265			43387.38302		69.64400		324.00000 
 43692.65567		 740.62630			42952.02937		223.78800		875.00000 
 43692.65567		 305.27265			43387.38302		69.64400		324.00000 
 43692.65567		 740.62630			42952.02937		223.78800		875.00000 
 43692.65567		 305.27265			43387.38302		69.64400		324.00000 
 43692.65567		 740.62630			42952.02937		223.78800		875.00000 
 43692.65567		 305.27265			43387.38302		69.64400		324.00000 
 43692.65567		 740.62630			42952.02937		223.78800		875.00000 
 43692.65567		 305.27265			43387.38302		69.64400		324.00000 
 43692.65567		 740.62630			42952.02937		223.78800		875.00000 
 43692.65567		 305.27265			43387.38302		69.64400		324.00000 
 43692.65567		 740.62630			42952.02937		223.78800		875.00000 
 43692.65567		 305.27265			43387.38302		69.64400		324.00000 
 43692.65567		 740.62630			42952.02937		223.78800		875.00000 
 43692.65567		 305.27265			43387.38302		69.64400		324.00000 
 43692.65567		 740.62630			42952.02937		223.78800		875.00000 
 43692.65567		 305.27265			43387.38302		69.64400		324.00000 
 43692.65567		 740.62630			42952.02937		223.78800		875.00000 
 43692.65567		 305.27265			43387.38302		69.64400		324.00000 
 43692.65567		 740.62630			42952.02937		223.78800		875.00000 
 43692.65567		 305.27265			43387.38302		69.64400		324.00000 
 43692.65567		 740.62630			42952.02937		223.78800		875.00000 
 43692.65567		 305.27265			43387.38302		69.64400		324.00000 
 43692.65567		 740.62630			42952.02937		223.78800		875.00000 
 43692.65567		 305.27265			43387.38302		69.64400		324.00000 
 43692.65567		 740.62630			42952.02937		223.78800		875.00000 
 43692.65567		 305.27265			43387.38302		69.64400		324.00000 
 43692.65567		 740.62630			42952.02937		223.78800		875.00000 
 43692.65567		 305.27265			43387.38302		69.64400		324.00000 
 43692.65567		 740.62630			42952.02937		223.78800		875.00000 
 43692.65567		 305.27265			43387.38302		69.64400		324.00000 
 43692.65567		 740.62630			42952.02937		223.78800		875.00000 
 43692.65567		 305.27265			43387.38302		69.64400		324.00000 
 43692.65567		 740.62630			42952.02937		223.78800		875.00000 
 43692.65567		 305.27265			43387.38302		69.64400		324.00000 
 43692.65567		 740.62630			42952.02937		223.78800		875.00000 
 43692.65567		 305.27265			43387.38302		69.64400		324.00000 
 43692.65567		 740.62630			42952.02937		223.78800		875.00000 
 43692.65567		 305.27265			43387.38302		69.64400		324.00000 
 43692.65567		 740.62630			42952.02937		223.78800		875.00000 
 43692.65567		 305.27265			43387.38302		69.64400		324.00000 
 43692.65567		 740.62630			42952.02937		223.78800		875.00000 
 43692.65567		 305.27265			43387.38302		69.64400		324.00000 
 43692.65567		 740.62630			42952.02937		223.78800		875.00000 
 43692.65567		 305.27265			43387.38302		69.64400		324.00000 
 43692.65567		 740.62630			42952.02937		223.78800		875.00000 
 43692.65567		 305.27265			43387.38302		69.64400		324.00000 
 43692.65567		 740.62630			42952.02937		223.78800		875.00000 
 43692.65567		 305.27265			43387.38302		69.64400		324.00000 
 43692.65567		 740.62630			42952.02937		223.78800		875.00000 
 43692.65567		 305.27265			43387.38302		69.64400		324.00000 
 43692.65567		 740.62630			42952.02937		223.78800		875.00000 
 43692.65567		 305.27265			43387.38302		69.64400		324.00000 
 43692.65567		 740.62630			42952.02937		223.78800		875.00000 
 43692.65567		 305.27265			43387.38302		69.64400		324.00000 
 43692.65567		 740.62630			42952.02937		223.78800		875.00000 
 43692.65567		 305.27265			43387.38302		69.64400		324.00000 
 43692.65567		 740.62630			42952.02937		223.78800		875.00000 
 43692.65567		 305.27265			43387.38302		69.64400		324.00000 
 43692.65567		 740.62630			42952.02937		223.78800		875.00000 
 43692.65567		 305.27265			43387.38302		69.64400		324.00000 
 43692.65567		 740.62630			42952.02937		223.78800		875.00000 
 43692.65567		 305.27265			43387.38302		69.64400		324.00000 
 43692.65567		 740.62630			42952.02937		223.78800		875.00000 
 43692.65567		 305.27265			43387.38302		69.64400		324.00000 
 43692.65567		 740.62630			42952.02937		223.78800		875.00000 
 43692.65567		 305.27265			43387.38302		69.64400		324.00000 
 43692.65567		 740.62630			42952.02937		223.78800		875.00000 
 43692.65567		 305.27265			43387.38302		69.64400		324.00000 
 43692.65567		 740.62630			42952.02937		223.78800		875.00000 
 43692.65567		 305.27265			43387.38302		69.64400		324.00000 
 43692.65567		 740.62630			42952.02937		223.78800		875.00000 
 43692.65567		 305.27265			43387.38302		69.64400		324.00000 
 43692.65567		 740.62630			42952.02937		223.78800		875.00000 
 43692.65567		 305.27265			43387.38302		69.64400		324.00000 
 43692.65567		 740.62630			42952.02937		223.78800		875.00000 
 43692.65567		 305.27265			43387.38302		69.64400		324.00000 
 43692.65567		 740.62630			42952.02937		223.78800		875.00000 
 43692.65567		 305.27265			43387.38302		69.64400		324.00000 
 43692.65567		 740.62630			42952.02937		223.78800		875.00000 
 43692.65567		 305.27265			43387.38302		69.64400		324.00000 
 43692.65567		 740.62630			42952.02937		223.78800		875.00000 
 43692.65567		 305.27265			43387.38302		69.64400		324.00000 
 43692.65567		 740.62630			42952.02937		223.78800		875.00000 
 43692.65567		 305.27265			43387.38302		69.64400		324.00000 
 43692.65567		 740.62630			42952.02937		223.78800		875.00000 
 43692.65567		 305.27265			43387.38302		69.64400		324.00000 
 43692.65567		 740.62630			42952.02937		223.78800		875.00000 
 43692.65567		 305.27265			43387.38302		69.64400		324.00000 
 43692.65567		 740.62630			42952.02937		223.78800		875.00000 
 43692.65567		 305.27265			43387.38302		69.64400		324.00000 
 43692.65567		 740.62630			42952.02937		223.78800		875.00000 
 43692.65567		 305.27265			43387.38302		69.64400		324.00000 
 43692.65567		 740.62630			42952.02937		223.78800		875.00000 
 43692.65567		 305.27265			43387.38302		69.64400		324.00000 
 43692.65567		 740.62630			42952.02937		223.78800		875.00000 
 43692.65567		 305.27265			43387.38302		69.64400		324.00000 
 43692.65567		 740.62630			42952.02937		223.78800		875.00000 
 43692.65567		 305.27265			43387.38302		69.64400		324.00000 
 43692.65567		 740.62630			42952.02937		223.78800		875.00000 
 43692.65567		 305.27265			43387.38302		69.64400		324.00000 
 43692.65567		 740.62630			42952.02937		223.78800		875.00000 
 43692.65567		 305.27265			43387.38302		69.64400		324.00000 
 43692.65567		 740.62630			42952.02937		223.78800		875.00000 
 43692.65567		 305.27265			43387.38302		69.64400		324.00000 
 43692.65567		 740.62630			42952.02937		223.78800		875.00000 
 43692.65567		 305.27265			43387.38302		69.64400		324.00000 
 43692.65567		 740.62630			42952.02937		223.78800		875.00000 
 43692.65567		 305.27265			43387.38302		69.64400		324.00000 
 43692.65567		 740.62630			42952.02937		223.78800		875.00000 
 43692.65567		 305.27265			43387.38302		69.64400		324.00000 
 43692.65567		 740.62630			42952.02937		223.78800		875.00000 
 43692.65567		 305.27265			43387.38302		69.64400		324.00000 
 43692.65567		 740.62630			42952.02937		223.78800		875.00000 
 43692.65567		 305.27265			43387.38302		69.64400		324.00000 
 43692.65567		 740.62630			42952.02937		223.78800		875.00000 
 43692.65567		 305.27265			43387.38302		69.64400		324.00000 
 43692.65567		 740.62630			42952.02937		223.78800		875.00000 
 43692.65567		 305.27265			43387.38302		69.64400		324.00000 
 43692.65567		 740.62630			42952.02937		223.78800		875.00000 
 43692.65567		 305.27265			43387.38302		69.64400		324.00000 
 43692.65567		 740.62630			42952.02937		223.78800		875.00000 
 43692.65567		 305.27265			43387.38302		69.64400		324.00000 
 43692.65567		 740.62630			42952.02937		223.78800		875.00000 
 43692.65567		 305.27265			43387.38302		69.64400		324.00000 
 43692.65567		 740.62630			42952.02937		223.78800		875.00000 
 43692.65567		 305.27265			43387.38302		69.64400		324.00000 
 43692.65567		 740.62630			42952.02937		223.78800		875.00000 
 43692.65567		 305.27265			43387.38302		69.64400		324.00000 
 43692.65567		 740.62630			42952.02937		223.78800		875.00000 
 43692.65567		 305.27265			43387.38302		69.64400		324.00000 
 43692.65567		 740.62630			42952.02937		223.78800		875.00000 
 43692.65567		 305.27265			43387.38302		69.64400		324.00000 
 43692.65567		 740.62630			42952.02937		223.78800		875.00000 
 43692.65567		 305.27265			43387.38302		69.64400		324.00000 
 43692.65567		 740.62630			42952.02937		223.78800		875.00000 
 43692.65567		 305.27265			43387.38302		69.64400		324.00000 
 43692.65567		 740.62630			42952.02937		223.78800		875.00000 
 43692.65567		 305.27265			43387.38302		69.64400		324.00000 
 43692.65567		 740.62630			42952.02937		223.78800		875.00000 
 43692.65567		 305.27265			43387.38302		69.64400		324.00000 
 43692.65567		 740.62630			42952.02937		223.78800		875.00000 
 43692.65567		 305.27265			43387.38302		69.64400		324.00000 
 43692.65567		 672.84098			43019.81470		223.78800		875.00000 
 43692.65567		 305.27265			43387.38302		69.64400		324.00000 
 43692.65567		 605.05565			43087.60002		223.78800		875.00000 
 43692.65567		 305.27265			43387.38302		69.64400		324.00000 
 43692.65567		 537.27032			43155.38535		223.78800		875.00000 
 43692.65567		 305.27265			43387.38302		69.64400		324.00000 
 43692.65567		 537.27032			43155.38535		223.78800		875.00000 
 43692.65567		 305.27265			43387.38302		69.64400		324.00000 
 43692.65567		 537.27032			43155.38535		223.78800		875.00000 
 43692.65567		 305.27265			43387.38302		69.64400		324.00000 
 43692.65567		 537.27032			43155.38535		223.78800		875.00000 
 43692.65567		 305.27265			43387.38302		69.64400		324.00000 
 43692.65567		 537.27032			43155.38535		223.78800		875.00000 
 43692.65567		 305.27265			43387.38302		69.64400		324.00000 
 43692.65567		 537.27032			43155.38535		223.78800		875.00000 
 43692.65567		 305.27265			43387.38302		69.64400		324.00000 
 43692.65567		 537.27032			43155.38535		223.78800		875.00000 
 43692.65567		 305.27265			43387.38302		69.64400		324.00000 
 43692.65567		 537.27032			43155.38535		223.78800		875.00000 
 43692.65567		 305.27265			43387.38302		69.64400		324.00000 
 43692.65567		 537.27032			43155.38535		223.78800		875.00000 
 43692.65567		 305.27265			43387.38302		69.64400		324.00000 
 43692.65567		 537.27032			43155.38535		223.78800		875.00000 
 43692.65567		 305.27265			43387.38302		69.64400		324.00000 
 43692.65567		 537.27032			43155.38535		223.78800		875.00000 
 43692.65567		 305.27265			43387.38302		69.64400		324.00000 
 43692.65567		 537.27032			43155.38535		223.78800		875.00000 
 43692.65567		 305.27265			43387.38302		69.64400		324.00000 
 43692.65567		 537.27032			43155.38535		223.78800		875.00000 
 43692.65567		 305.27265			43387.38302		69.64400		324.00000 
 43692.65567		 537.27032			43155.38535		223.78800		875.00000 
 43692.65567		 305.27265			43387.38302		69.64400		324.00000 
 43692.65567		 537.27032			43155.38535		223.78800		875.00000 
 43692.65567		 305.27265			43387.38302		69.64400		324.00000 
 43692.65567		 537.27032			43155.38535		223.78800		875.00000 
 43692.65567		 305.27265			43387.38302		69.64400		324.00000 
 43692.65567		 537.27032			43155.38535		223.78800		875.00000 
 43692.65567		 305.27265			43387.38302		69.64400		324.00000 
 43692.65567		 537.27032			43155.38535		223.78800		875.00000 
 43692.65567		 305.27265			43387.38302		69.64400		324.00000 
 43692.65567		 537.27032			43155.38535		223.78800		875.00000 
 43692.65567		 305.27265			43387.38302		69.64400		324.00000 
 43692.65567		 537.27032			43155.38535		223.78800		875.00000 
 43692.65567		 305.27265			43387.38302		69.64400		324.00000 
 43692.65567		 529.63254			43163.02313		223.78800		875.00000 
 43692.65567		 305.27265			43387.38302		69.64400		324.00000 
 43692.65567		 525.81365			43166.84203		223.78800		875.00000 
 43692.65567		 305.27265			43387.38302		69.64400		324.00000 
 43692.65567		 525.81365			43166.84203		186.40600		875.00000 
 43692.65567		 261.35540			43431.30027		69.64400		324.00000 
 43692.65567		 261.35540			43431.30027		186.40600		875.00000 
 43692.65567		 261.35540			43431.30027		69.64400		324.00000 
