Memory Total (MiB) 	 Memory Used (MiB) 	    Memory Free (MiB) 	 Power Drawed (W) 	 Clocks (Mhz) 	 
 43692.65567		 261.35540			43431.30027		170.72000		875.00000 
 43692.65567		 261.35540			43431.30027		69.65600		324.00000 
 43692.65567		 261.35540			43431.30027		170.72000		875.00000 
 43692.65567		 261.35540			43431.30027		69.65600		324.00000 
 43692.65567		 261.35540			43431.30027		170.72000		875.00000 
 43692.65567		 261.35540			43431.30027		69.65600		324.00000 
 43692.65567		 261.35540			43431.30027		170.72000		875.00000 
 43692.65567		 261.35540			43431.30027		69.65600		324.00000 
 43692.65567		 261.35540			43431.30027		170.72000		875.00000 
 43692.65567		 261.35540			43431.30027		69.65600		324.00000 
 43692.65567		 261.35540			43431.30027		170.72000		875.00000 
 43692.65567		 261.35540			43431.30027		69.65600		324.00000 
 43692.65567		 261.35540			43431.30027		170.72000		875.00000 
 43692.65567		 261.35540			43431.30027		69.65600		324.00000 
 43692.65567		 261.35540			43431.30027		170.72000		875.00000 
 43692.65567		 261.35540			43431.30027		69.65600		324.00000 
 43692.65567		 261.35540			43431.30027		170.72000		875.00000 
 43692.65567		 261.35540			43431.30027		69.65600		324.00000 
 43692.65567		 261.35540			43431.30027		170.72000		875.00000 
 43692.65567		 261.35540			43431.30027		69.65600		324.00000 
 43692.65567		 261.35540			43431.30027		170.72000		875.00000 
 43692.65567		 261.35540			43431.30027		69.65600		324.00000 
 43692.65567		 261.35540			43431.30027		170.72000		875.00000 
 43692.65567		 261.35540			43431.30027		69.65600		324.00000 
 43692.65567		 261.35540			43431.30027		170.72000		875.00000 
 43692.65567		 261.35540			43431.30027		69.65600		324.00000 
 43692.65567		 261.35540			43431.30027		170.72000		875.00000 
 43692.65567		 261.35540			43431.30027		69.65600		324.00000 
 43692.65567		 261.35540			43431.30027		170.72000		875.00000 
 43692.65567		 261.35540			43431.30027		69.65600		324.00000 
 43692.65567		 261.35540			43431.30027		170.72000		875.00000 
 43692.65567		 261.35540			43431.30027		69.65600		324.00000 
 43692.65567		 261.35540			43431.30027		170.72000		875.00000 
 43692.65567		 261.35540			43431.30027		69.65600		324.00000 
 43692.65567		 261.35540			43431.30027		170.72000		875.00000 
 43692.65567		 261.35540			43431.30027		69.65600		324.00000 
 43692.65567		 265.17429			43427.48138		170.72000		875.00000 
 43692.65567		 261.35540			43431.30027		69.65600		324.00000 
 43692.65567		 265.17429			43427.48138		170.72000		875.00000 
 43692.65567		 261.35540			43431.30027		69.65600		324.00000 
 43692.65567		 272.81207			43419.84360		170.72000		875.00000 
 43692.65567		 261.35540			43431.30027		69.65600		324.00000 
 43692.65567		 272.81207			43419.84360		170.72000		875.00000 
 43692.65567		 261.35540			43431.30027		69.65600		324.00000 
 43692.65567		 272.81207			43419.84360		170.72000		875.00000 
 43692.65567		 265.17429			43427.48138		69.65600		324.00000 
 43692.65567		 272.81207			43419.84360		170.72000		875.00000 
 43692.65567		 265.17429			43427.48138		69.65600		324.00000 
 43692.65567		 272.81207			43419.84360		170.72000		875.00000 
 43692.65567		 265.17429			43427.48138		69.65600		324.00000 
 43692.65567		 272.81207			43419.84360		170.72000		875.00000 
 43692.65567		 272.81207			43419.84360		69.65600		324.00000 
 43692.65567		 272.81207			43419.84360		170.72000		875.00000 
 43692.65567		 272.81207			43419.84360		69.65600		324.00000 
 43692.65567		 272.81207			43419.84360		170.72000		875.00000 
 43692.65567		 272.81207			43419.84360		69.65600		324.00000 
 43692.65567		 305.27265			43387.38302		170.72000		875.00000 
 43692.65567		 305.27265			43387.38302		69.65600		324.00000 
 43692.65567		 305.27265			43387.38302		170.72000		875.00000 
 43692.65567		 305.27265			43387.38302		69.65600		324.00000 
 43692.65567		 305.27265			43387.38302		170.72000		875.00000 
 43692.65567		 305.27265			43387.38302		69.65600		324.00000 
 43692.65567		 305.27265			43387.38302		170.72000		875.00000 
 43692.65567		 305.27265			43387.38302		69.65600		324.00000 
 43692.65567		 305.27265			43387.38302		170.72000		875.00000 
 43692.65567		 305.27265			43387.38302		69.65600		324.00000 
 43692.65567		 310.04627			43382.60941		170.72000		875.00000 
 43692.65567		 305.27265			43387.38302		69.65600		324.00000 
 43692.65567		 311.00099			43381.65468		170.72000		875.00000 
 43692.65567		 305.27265			43387.38302		69.65600		324.00000 
 43692.65567		 311.00099			43381.65468		146.30400		875.00000 
 43692.65567		 305.27265			43387.38302		69.65600		324.00000 
 43692.65567		 311.00099			43381.65468		146.30400		875.00000 
 43692.65567		 305.27265			43387.38302		69.65600		324.00000 
 43692.65567		 311.00099			43381.65468		146.30400		875.00000 
 43692.65567		 305.27265			43387.38302		69.65600		324.00000 
 43692.65567		 311.00099			43381.65468		146.30400		875.00000 
 43692.65567		 305.27265			43387.38302		69.65600		324.00000 
 43692.65567		 311.00099			43381.65468		146.30400		875.00000 
 43692.65567		 305.27265			43387.38302		69.65600		324.00000 
 43692.65567		 311.00099			43381.65468		146.30400		875.00000 
 43692.65567		 305.27265			43387.38302		69.65600		324.00000 
 43692.65567		 311.00099			43381.65468		146.30400		875.00000 
 43692.65567		 305.27265			43387.38302		69.65600		324.00000 
 43692.65567		 311.00099			43381.65468		146.30400		875.00000 
 43692.65567		 305.27265			43387.38302		69.65600		324.00000 
 43692.65567		 311.00099			43381.65468		146.30400		875.00000 
 43692.65567		 305.27265			43387.38302		69.65600		324.00000 
 43692.65567		 311.00099			43381.65468		146.30400		875.00000 
 43692.65567		 305.27265			43387.38302		69.65600		324.00000 
 43692.65567		 311.00099			43381.65468		146.30400		875.00000 
 43692.65567		 305.27265			43387.38302		69.65600		324.00000 
 43692.65567		 311.00099			43381.65468		146.30400		875.00000 
 43692.65567		 305.27265			43387.38302		69.65600		324.00000 
 43692.65567		 311.00099			43381.65468		146.30400		875.00000 
 43692.65567		 305.27265			43387.38302		69.65600		324.00000 
 43692.65567		 311.00099			43381.65468		146.30400		875.00000 
 43692.65567		 305.27265			43387.38302		69.65600		324.00000 
 43692.65567		 311.00099			43381.65468		146.30400		875.00000 
 43692.65567		 305.27265			43387.38302		69.65600		324.00000 
 43692.65567		 311.00099			43381.65468		146.30400		875.00000 
 43692.65567		 305.27265			43387.38302		69.65600		324.00000 
 43692.65567		 311.00099			43381.65468		146.30400		875.00000 
 43692.65567		 305.27265			43387.38302		69.65600		324.00000 
 43692.65567		 311.00099			43381.65468		146.30400		875.00000 
 43692.65567		 305.27265			43387.38302		69.65600		324.00000 
 43692.65567		 311.00099			43381.65468		146.30400		875.00000 
 43692.65567		 305.27265			43387.38302		69.65600		324.00000 
 43692.65567		 311.00099			43381.65468		146.30400		875.00000 
 43692.65567		 305.27265			43387.38302		69.65600		324.00000 
 43692.65567		 311.00099			43381.65468		146.30400		875.00000 
 43692.65567		 305.27265			43387.38302		69.65600		324.00000 
 43692.65567		 311.00099			43381.65468		146.30400		875.00000 
 43692.65567		 305.27265			43387.38302		69.65600		324.00000 
 43692.65567		 311.00099			43381.65468		146.30400		875.00000 
 43692.65567		 305.27265			43387.38302		69.65600		324.00000 
 43692.65567		 311.00099			43381.65468		146.30400		875.00000 
 43692.65567		 305.27265			43387.38302		69.65600		324.00000 
 43692.65567		 311.00099			43381.65468		146.30400		875.00000 
 43692.65567		 305.27265			43387.38302		69.65600		324.00000 
 43692.65567		 311.00099			43381.65468		146.30400		875.00000 
 43692.65567		 305.27265			43387.38302		69.65600		324.00000 
 43692.65567		 311.00099			43381.65468		146.30400		875.00000 
 43692.65567		 305.27265			43387.38302		69.65600		324.00000 
 43692.65567		 311.00099			43381.65468		146.30400		875.00000 
 43692.65567		 305.27265			43387.38302		69.65600		324.00000 
 43692.65567		 311.00099			43381.65468		146.30400		875.00000 
 43692.65567		 305.27265			43387.38302		69.65600		324.00000 
 43692.65567		 311.00099			43381.65468		146.30400		875.00000 
 43692.65567		 305.27265			43387.38302		69.65600		324.00000 
 43692.65567		 311.00099			43381.65468		146.30400		875.00000 
 43692.65567		 305.27265			43387.38302		69.65600		324.00000 
 43692.65567		 311.00099			43381.65468		136.53400		875.00000 
 43692.65567		 305.27265			43387.38302		69.65600		324.00000 
 43692.65567		 311.00099			43381.65468		136.53400		875.00000 
 43692.65567		 305.27265			43387.38302		69.65600		324.00000 
 43692.65567		 311.00099			43381.65468		136.53400		875.00000 
 43692.65567		 305.27265			43387.38302		69.65600		324.00000 
 43692.65567		 311.00099			43381.65468		136.53400		875.00000 
 43692.65567		 305.27265			43387.38302		69.65600		324.00000 
 43692.65567		 311.00099			43381.65468		136.53400		875.00000 
 43692.65567		 305.27265			43387.38302		69.65600		324.00000 
 43692.65567		 311.00099			43381.65468		136.53400		875.00000 
 43692.65567		 305.27265			43387.38302		69.65600		324.00000 
 43692.65567		 311.00099			43381.65468		136.53400		875.00000 
 43692.65567		 305.27265			43387.38302		69.65600		324.00000 
 43692.65567		 311.00099			43381.65468		136.53400		875.00000 
 43692.65567		 305.27265			43387.38302		69.65600		324.00000 
 43692.65567		 311.00099			43381.65468		136.53400		875.00000 
 43692.65567		 305.27265			43387.38302		69.65600		324.00000 
 43692.65567		 311.00099			43381.65468		136.53400		875.00000 
 43692.65567		 305.27265			43387.38302		69.65600		324.00000 
 43692.65567		 311.00099			43381.65468		136.53400		875.00000 
 43692.65567		 305.27265			43387.38302		69.65600		324.00000 
 43692.65567		 311.00099			43381.65468		136.53400		875.00000 
 43692.65567		 305.27265			43387.38302		69.65600		324.00000 
 43692.65567		 311.00099			43381.65468		136.53400		875.00000 
 43692.65567		 305.27265			43387.38302		69.65600		324.00000 
 43692.65567		 311.00099			43381.65468		136.53400		875.00000 
 43692.65567		 305.27265			43387.38302		69.65600		324.00000 
 43692.65567		 311.00099			43381.65468		136.53400		875.00000 
 43692.65567		 305.27265			43387.38302		69.65600		324.00000 
 43692.65567		 311.00099			43381.65468		136.53400		875.00000 
 43692.65567		 305.27265			43387.38302		69.65600		324.00000 
 43692.65567		 311.00099			43381.65468		136.53400		875.00000 
 43692.65567		 305.27265			43387.38302		69.65600		324.00000 
 43692.65567		 311.00099			43381.65468		136.53400		875.00000 
 43692.65567		 305.27265			43387.38302		69.65600		324.00000 
 43692.65567		 314.81988			43377.83579		136.53400		875.00000 
 43692.65567		 305.27265			43387.38302		69.65600		324.00000 
 43692.65567		 314.81988			43377.83579		136.53400		875.00000 
 43692.65567		 305.27265			43387.38302		69.65600		324.00000 
 43692.65567		 314.81988			43377.83579		136.53400		875.00000 
 43692.65567		 305.27265			43387.38302		69.65600		324.00000 
 43692.65567		 318.63877			43374.01690		136.53400		875.00000 
 43692.65567		 305.27265			43387.38302		69.65600		324.00000 
 43692.65567		 322.45767			43370.19801		136.53400		875.00000 
 43692.65567		 305.27265			43387.38302		69.65600		324.00000 
 43692.65567		 326.27656			43366.37912		136.53400		875.00000 
 43692.65567		 305.27265			43387.38302		69.65600		324.00000 
 43692.65567		 326.27656			43366.37912		136.53400		875.00000 
 43692.65567		 305.27265			43387.38302		69.65600		324.00000 
 43692.65567		 326.27656			43366.37912		136.53400		875.00000 
 43692.65567		 305.27265			43387.38302		69.65600		324.00000 
 43692.65567		 537.27032			43155.38535		136.53400		875.00000 
 43692.65567		 305.27265			43387.38302		69.65600		324.00000 
 43692.65567		 633.69734			43058.95834		136.53400		875.00000 
 43692.65567		 305.27265			43387.38302		69.65600		324.00000 
 43692.65567		 681.91084			43010.74483		136.53400		875.00000 
 43692.65567		 305.27265			43387.38302		69.65600		324.00000 
 43692.65567		 681.91084			43010.74483		136.53400		875.00000 
 43692.65567		 305.27265			43387.38302		69.65600		324.00000 
 43692.65567		 681.91084			43010.74483		136.53400		875.00000 
 43692.65567		 305.27265			43387.38302		69.65600		324.00000 
 43692.65567		 681.91084			43010.74483		136.53400		875.00000 
 43692.65567		 305.27265			43387.38302		69.65600		324.00000 
 43692.65567		 681.91084			43010.74483		136.53400		875.00000 
 43692.65567		 305.27265			43387.38302		69.65600		324.00000 
 43692.65567		 681.91084			43010.74483		136.53400		875.00000 
 43692.65567		 305.27265			43387.38302		69.65600		324.00000 
 43692.65567		 681.91084			43010.74483		136.53400		875.00000 
 43692.65567		 305.27265			43387.38302		69.65600		324.00000 
 43692.65567		 681.91084			43010.74483		136.53400		875.00000 
 43692.65567		 305.27265			43387.38302		69.65600		324.00000 
 43692.65567		 681.91084			43010.74483		136.53400		875.00000 
 43692.65567		 305.27265			43387.38302		69.65600		324.00000 
 43692.65567		 681.91084			43010.74483		136.53400		875.00000 
 43692.65567		 305.27265			43387.38302		69.65600		324.00000 
 43692.65567		 681.91084			43010.74483		147.33000		875.00000 
 43692.65567		 305.27265			43387.38302		69.65600		324.00000 
 43692.65567		 681.91084			43010.74483		147.33000		875.00000 
 43692.65567		 305.27265			43387.38302		69.65600		324.00000 
 43692.65567		 681.91084			43010.74483		147.33000		875.00000 
 43692.65567		 305.27265			43387.38302		69.65600		324.00000 
 43692.65567		 681.91084			43010.74483		147.33000		875.00000 
 43692.65567		 305.27265			43387.38302		69.65600		324.00000 
 43692.65567		 681.91084			43010.74483		147.33000		875.00000 
 43692.65567		 305.27265			43387.38302		69.65600		324.00000 
 43692.65567		 681.91084			43010.74483		147.33000		875.00000 
 43692.65567		 305.27265			43387.38302		69.65600		324.00000 
 43692.65567		 681.91084			43010.74483		147.33000		875.00000 
 43692.65567		 305.27265			43387.38302		69.65600		324.00000 
 43692.65567		 681.91084			43010.74483		147.33000		875.00000 
 43692.65567		 305.27265			43387.38302		69.65600		324.00000 
 43692.65567		 681.91084			43010.74483		147.33000		875.00000 
 43692.65567		 305.27265			43387.38302		69.65600		324.00000 
 43692.65567		 681.91084			43010.74483		147.33000		875.00000 
 43692.65567		 305.27265			43387.38302		69.65600		324.00000 
 43692.65567		 681.91084			43010.74483		147.33000		875.00000 
 43692.65567		 305.27265			43387.38302		69.65600		324.00000 
 43692.65567		 681.91084			43010.74483		147.33000		875.00000 
 43692.65567		 305.27265			43387.38302		69.65600		324.00000 
 43692.65567		 681.91084			43010.74483		147.33000		875.00000 
 43692.65567		 305.27265			43387.38302		69.65600		324.00000 
 43692.65567		 681.91084			43010.74483		147.33000		875.00000 
 43692.65567		 305.27265			43387.38302		69.65600		324.00000 
 43692.65567		 681.91084			43010.74483		147.33000		875.00000 
 43692.65567		 305.27265			43387.38302		69.65600		324.00000 
 43692.65567		 681.91084			43010.74483		147.33000		875.00000 
 43692.65567		 305.27265			43387.38302		69.65600		324.00000 
 43692.65567		 681.91084			43010.74483		147.33000		875.00000 
 43692.65567		 305.27265			43387.38302		69.65600		324.00000 
 43692.65567		 681.91084			43010.74483		147.33000		875.00000 
 43692.65567		 305.27265			43387.38302		69.65600		324.00000 
 43692.65567		 681.91084			43010.74483		147.33000		875.00000 
 43692.65567		 305.27265			43387.38302		69.65600		324.00000 
 43692.65567		 681.91084			43010.74483		147.33000		875.00000 
 43692.65567		 305.27265			43387.38302		69.65600		324.00000 
 43692.65567		 681.91084			43010.74483		147.33000		875.00000 
 43692.65567		 305.27265			43387.38302		69.65600		324.00000 
 43692.65567		 681.91084			43010.74483		147.33000		875.00000 
 43692.65567		 305.27265			43387.38302		69.65600		324.00000 
 43692.65567		 681.91084			43010.74483		147.33000		875.00000 
 43692.65567		 305.27265			43387.38302		69.65600		324.00000 
 43692.65567		 681.91084			43010.74483		147.33000		875.00000 
 43692.65567		 305.27265			43387.38302		69.65600		324.00000 
 43692.65567		 681.91084			43010.74483		147.33000		875.00000 
 43692.65567		 305.27265			43387.38302		69.65600		324.00000 
 43692.65567		 681.91084			43010.74483		147.33000		875.00000 
 43692.65567		 305.27265			43387.38302		69.65600		324.00000 
 43692.65567		 681.91084			43010.74483		147.33000		875.00000 
 43692.65567		 305.27265			43387.38302		69.65600		324.00000 
 43692.65567		 681.91084			43010.74483		147.33000		875.00000 
 43692.65567		 305.27265			43387.38302		69.65600		324.00000 
 43692.65567		 681.91084			43010.74483		147.33000		875.00000 
 43692.65567		 305.27265			43387.38302		69.65600		324.00000 
 43692.65567		 681.91084			43010.74483		147.33000		875.00000 
 43692.65567		 305.27265			43387.38302		69.65600		324.00000 
 43692.65567		 681.91084			43010.74483		147.33000		875.00000 
 43692.65567		 305.27265			43387.38302		69.65600		324.00000 
 43692.65567		 681.91084			43010.74483		147.33000		875.00000 
 43692.65567		 305.27265			43387.38302		69.65600		324.00000 
 43692.65567		 681.91084			43010.74483		147.33000		875.00000 
 43692.65567		 305.27265			43387.38302		69.65600		324.00000 
 43692.65567		 681.91084			43010.74483		147.33000		875.00000 
 43692.65567		 305.27265			43387.38302		69.65600		324.00000 
 43692.65567		 681.91084			43010.74483		147.33000		875.00000 
 43692.65567		 305.27265			43387.38302		69.65600		324.00000 
 43692.65567		 681.91084			43010.74483		147.33000		875.00000 
 43692.65567		 305.27265			43387.38302		69.65600		324.00000 
 43692.65567		 681.91084			43010.74483		147.33000		875.00000 
 43692.65567		 305.27265			43387.38302		69.65600		324.00000 
 43692.65567		 681.91084			43010.74483		147.33000		875.00000 
 43692.65567		 305.27265			43387.38302		69.65600		324.00000 
 43692.65567		 681.91084			43010.74483		147.33000		875.00000 
 43692.65567		 305.27265			43387.38302		69.65600		324.00000 
 43692.65567		 681.91084			43010.74483		147.33000		875.00000 
 43692.65567		 305.27265			43387.38302		69.65600		324.00000 
 43692.65567		 681.91084			43010.74483		147.33000		875.00000 
 43692.65567		 305.27265			43387.38302		69.65600		324.00000 
 43692.65567		 681.91084			43010.74483		147.33000		875.00000 
 43692.65567		 305.27265			43387.38302		69.65600		324.00000 
 43692.65567		 681.91084			43010.74483		147.33000		875.00000 
 43692.65567		 305.27265			43387.38302		69.65600		324.00000 
 43692.65567		 681.91084			43010.74483		147.33000		875.00000 
 43692.65567		 305.27265			43387.38302		69.65600		324.00000 
 43692.65567		 681.91084			43010.74483		147.33000		875.00000 
 43692.65567		 305.27265			43387.38302		69.65600		324.00000 
 43692.65567		 681.91084			43010.74483		147.33000		875.00000 
 43692.65567		 305.27265			43387.38302		69.65600		324.00000 
 43692.65567		 681.91084			43010.74483		147.33000		875.00000 
 43692.65567		 305.27265			43387.38302		69.65600		324.00000 
 43692.65567		 681.91084			43010.74483		147.33000		875.00000 
 43692.65567		 305.27265			43387.38302		69.65600		324.00000 
 43692.65567		 681.91084			43010.74483		147.33000		875.00000 
 43692.65567		 305.27265			43387.38302		69.65600		324.00000 
 43692.65567		 681.91084			43010.74483		147.33000		875.00000 
 43692.65567		 305.27265			43387.38302		69.65600		324.00000 
 43692.65567		 681.91084			43010.74483		147.33000		875.00000 
 43692.65567		 305.27265			43387.38302		69.65600		324.00000 
 43692.65567		 681.91084			43010.74483		147.33000		875.00000 
 43692.65567		 305.27265			43387.38302		69.65600		324.00000 
 43692.65567		 681.91084			43010.74483		147.33000		875.00000 
 43692.65567		 305.27265			43387.38302		69.65600		324.00000 
 43692.65567		 681.91084			43010.74483		147.33000		875.00000 
 43692.65567		 305.27265			43387.38302		69.65600		324.00000 
 43692.65567		 681.91084			43010.74483		147.33000		875.00000 
 43692.65567		 305.27265			43387.38302		69.65600		324.00000 
 43692.65567		 681.91084			43010.74483		147.33000		875.00000 
 43692.65567		 305.27265			43387.38302		69.65600		324.00000 
 43692.65567		 681.91084			43010.74483		147.33000		875.00000 
 43692.65567		 305.27265			43387.38302		69.65600		324.00000 
 43692.65567		 681.91084			43010.74483		147.33000		875.00000 
 43692.65567		 305.27265			43387.38302		69.65600		324.00000 
 43692.65567		 681.91084			43010.74483		147.33000		875.00000 
 43692.65567		 305.27265			43387.38302		69.65600		324.00000 
 43692.65567		 681.91084			43010.74483		147.33000		875.00000 
 43692.65567		 305.27265			43387.38302		69.65600		324.00000 
 43692.65567		 681.91084			43010.74483		147.33000		875.00000 
 43692.65567		 305.27265			43387.38302		69.65600		324.00000 
 43692.65567		 681.91084			43010.74483		147.33000		875.00000 
 43692.65567		 305.27265			43387.38302		69.65600		324.00000 
 43692.65567		 681.91084			43010.74483		147.33000		875.00000 
 43692.65567		 305.27265			43387.38302		69.65600		324.00000 
 43692.65567		 681.91084			43010.74483		196.35400		875.00000 
 43692.65567		 305.27265			43387.38302		69.65600		324.00000 
 43692.65567		 681.91084			43010.74483		196.35400		875.00000 
 43692.65567		 305.27265			43387.38302		69.65600		324.00000 
 43692.65567		 681.91084			43010.74483		196.35400		875.00000 
 43692.65567		 305.27265			43387.38302		69.65600		324.00000 
 43692.65567		 681.91084			43010.74483		196.35400		875.00000 
 43692.65567		 305.27265			43387.38302		69.65600		324.00000 
 43692.65567		 681.91084			43010.74483		196.35400		875.00000 
 43692.65567		 305.27265			43387.38302		69.65600		324.00000 
 43692.65567		 681.91084			43010.74483		196.35400		875.00000 
 43692.65567		 305.27265			43387.38302		69.65600		324.00000 
 43692.65567		 681.91084			43010.74483		196.35400		875.00000 
 43692.65567		 305.27265			43387.38302		69.65600		324.00000 
 43692.65567		 681.91084			43010.74483		196.35400		875.00000 
 43692.65567		 305.27265			43387.38302		68.21400		324.00000 
 43692.65567		 681.91084			43010.74483		196.35400		875.00000 
 43692.65567		 305.27265			43387.38302		68.21400		324.00000 
 43692.65567		 681.91084			43010.74483		196.35400		875.00000 
 43692.65567		 305.27265			43387.38302		68.21400		324.00000 
 43692.65567		 681.91084			43010.74483		196.35400		875.00000 
 43692.65567		 305.27265			43387.38302		68.21400		324.00000 
 43692.65567		 681.91084			43010.74483		196.35400		875.00000 
 43692.65567		 305.27265			43387.38302		68.21400		324.00000 
 43692.65567		 681.91084			43010.74483		196.35400		875.00000 
 43692.65567		 305.27265			43387.38302		68.21400		324.00000 
 43692.65567		 681.91084			43010.74483		196.35400		875.00000 
 43692.65567		 305.27265			43387.38302		68.21400		324.00000 
 43692.65567		 681.91084			43010.74483		196.35400		875.00000 
 43692.65567		 305.27265			43387.38302		68.21400		324.00000 
 43692.65567		 681.91084			43010.74483		196.35400		875.00000 
 43692.65567		 305.27265			43387.38302		68.21400		324.00000 
 43692.65567		 681.91084			43010.74483		196.35400		875.00000 
 43692.65567		 305.27265			43387.38302		68.21400		324.00000 
 43692.65567		 681.91084			43010.74483		196.35400		875.00000 
 43692.65567		 305.27265			43387.38302		68.21400		324.00000 
 43692.65567		 681.91084			43010.74483		196.35400		875.00000 
 43692.65567		 305.27265			43387.38302		68.21400		324.00000 
 43692.65567		 681.91084			43010.74483		196.35400		875.00000 
 43692.65567		 305.27265			43387.38302		68.21400		324.00000 
 43692.65567		 681.91084			43010.74483		196.35400		875.00000 
 43692.65567		 305.27265			43387.38302		68.21400		324.00000 
 43692.65567		 681.91084			43010.74483		196.35400		875.00000 
 43692.65567		 305.27265			43387.38302		68.21400		324.00000 
 43692.65567		 681.91084			43010.74483		196.35400		875.00000 
 43692.65567		 305.27265			43387.38302		68.21400		324.00000 
 43692.65567		 681.91084			43010.74483		196.35400		875.00000 
 43692.65567		 305.27265			43387.38302		68.21400		324.00000 
 43692.65567		 681.91084			43010.74483		196.35400		875.00000 
 43692.65567		 305.27265			43387.38302		68.21400		324.00000 
 43692.65567		 681.91084			43010.74483		196.35400		875.00000 
 43692.65567		 305.27265			43387.38302		68.21400		324.00000 
 43692.65567		 681.91084			43010.74483		196.35400		875.00000 
 43692.65567		 305.27265			43387.38302		68.21400		324.00000 
 43692.65567		 681.91084			43010.74483		196.35400		875.00000 
 43692.65567		 305.27265			43387.38302		68.21400		324.00000 
 43692.65567		 681.91084			43010.74483		196.35400		875.00000 
 43692.65567		 305.27265			43387.38302		68.21400		324.00000 
 43692.65567		 681.91084			43010.74483		196.35400		875.00000 
 43692.65567		 305.27265			43387.38302		68.21400		324.00000 
 43692.65567		 681.91084			43010.74483		196.35400		875.00000 
 43692.65567		 305.27265			43387.38302		68.21400		324.00000 
 43692.65567		 681.91084			43010.74483		196.35400		875.00000 
 43692.65567		 305.27265			43387.38302		68.21400		324.00000 
 43692.65567		 681.91084			43010.74483		196.35400		875.00000 
 43692.65567		 305.27265			43387.38302		68.21400		324.00000 
 43692.65567		 681.91084			43010.74483		196.35400		875.00000 
 43692.65567		 305.27265			43387.38302		68.21400		324.00000 
 43692.65567		 681.91084			43010.74483		196.35400		875.00000 
 43692.65567		 305.27265			43387.38302		68.21400		324.00000 
 43692.65567		 681.91084			43010.74483		196.35400		875.00000 
 43692.65567		 305.27265			43387.38302		68.21400		324.00000 
 43692.65567		 681.91084			43010.74483		196.35400		875.00000 
 43692.65567		 305.27265			43387.38302		68.21400		324.00000 
 43692.65567		 681.91084			43010.74483		196.35400		875.00000 
 43692.65567		 305.27265			43387.38302		68.21400		324.00000 
 43692.65567		 681.91084			43010.74483		196.35400		875.00000 
 43692.65567		 305.27265			43387.38302		68.21400		324.00000 
 43692.65567		 681.91084			43010.74483		196.35400		875.00000 
 43692.65567		 305.27265			43387.38302		68.21400		324.00000 
 43692.65567		 681.91084			43010.74483		196.35400		875.00000 
 43692.65567		 305.27265			43387.38302		68.21400		324.00000 
 43692.65567		 681.91084			43010.74483		196.35400		875.00000 
 43692.65567		 305.27265			43387.38302		68.21400		324.00000 
 43692.65567		 681.91084			43010.74483		196.35400		875.00000 
 43692.65567		 305.27265			43387.38302		68.21400		324.00000 
 43692.65567		 681.91084			43010.74483		196.35400		875.00000 
 43692.65567		 305.27265			43387.38302		68.21400		324.00000 
 43692.65567		 681.91084			43010.74483		196.35400		875.00000 
 43692.65567		 305.27265			43387.38302		68.21400		324.00000 
 43692.65567		 681.91084			43010.74483		196.35400		875.00000 
 43692.65567		 305.27265			43387.38302		68.21400		324.00000 
 43692.65567		 681.91084			43010.74483		196.35400		875.00000 
 43692.65567		 305.27265			43387.38302		68.21400		324.00000 
 43692.65567		 681.91084			43010.74483		196.35400		875.00000 
 43692.65567		 305.27265			43387.38302		68.21400		324.00000 
 43692.65567		 681.91084			43010.74483		196.35400		875.00000 
 43692.65567		 305.27265			43387.38302		68.21400		324.00000 
 43692.65567		 681.91084			43010.74483		196.35400		875.00000 
 43692.65567		 305.27265			43387.38302		68.21400		324.00000 
 43692.65567		 681.91084			43010.74483		196.35400		875.00000 
 43692.65567		 305.27265			43387.38302		68.21400		324.00000 
 43692.65567		 681.91084			43010.74483		196.35400		875.00000 
 43692.65567		 305.27265			43387.38302		68.21400		324.00000 
 43692.65567		 681.91084			43010.74483		196.35400		875.00000 
 43692.65567		 305.27265			43387.38302		68.21400		324.00000 
 43692.65567		 681.91084			43010.74483		196.35400		875.00000 
 43692.65567		 305.27265			43387.38302		68.21400		324.00000 
 43692.65567		 681.91084			43010.74483		196.35400		875.00000 
 43692.65567		 305.27265			43387.38302		68.21400		324.00000 
 43692.65567		 681.91084			43010.74483		196.35400		875.00000 
 43692.65567		 305.27265			43387.38302		68.21400		324.00000 
 43692.65567		 681.91084			43010.74483		196.35400		875.00000 
 43692.65567		 305.27265			43387.38302		68.21400		324.00000 
 43692.65567		 681.91084			43010.74483		196.35400		875.00000 
 43692.65567		 305.27265			43387.38302		68.21400		324.00000 
 43692.65567		 681.91084			43010.74483		196.35400		875.00000 
 43692.65567		 305.27265			43387.38302		68.21400		324.00000 
 43692.65567		 681.91084			43010.74483		196.35400		875.00000 
 43692.65567		 305.27265			43387.38302		68.21400		324.00000 
 43692.65567		 681.91084			43010.74483		196.35400		875.00000 
 43692.65567		 305.27265			43387.38302		68.21400		324.00000 
 43692.65567		 681.91084			43010.74483		214.48400		875.00000 
 43692.65567		 305.27265			43387.38302		68.21400		324.00000 
 43692.65567		 681.91084			43010.74483		214.48400		875.00000 
 43692.65567		 305.27265			43387.38302		68.21400		324.00000 
 43692.65567		 681.91084			43010.74483		214.48400		875.00000 
 43692.65567		 305.27265			43387.38302		68.21400		324.00000 
 43692.65567		 681.91084			43010.74483		214.48400		875.00000 
 43692.65567		 305.27265			43387.38302		68.21400		324.00000 
 43692.65567		 681.91084			43010.74483		214.48400		875.00000 
 43692.65567		 305.27265			43387.38302		68.21400		324.00000 
 43692.65567		 681.91084			43010.74483		214.48400		875.00000 
 43692.65567		 305.27265			43387.38302		68.21400		324.00000 
 43692.65567		 681.91084			43010.74483		214.48400		875.00000 
 43692.65567		 305.27265			43387.38302		68.21400		324.00000 
 43692.65567		 681.91084			43010.74483		214.48400		875.00000 
 43692.65567		 305.27265			43387.38302		68.21400		324.00000 
 43692.65567		 681.91084			43010.74483		214.48400		875.00000 
 43692.65567		 305.27265			43387.38302		68.21400		324.00000 
 43692.65567		 681.91084			43010.74483		214.48400		875.00000 
 43692.65567		 305.27265			43387.38302		68.21400		324.00000 
 43692.65567		 681.91084			43010.74483		214.48400		875.00000 
 43692.65567		 305.27265			43387.38302		68.21400		324.00000 
 43692.65567		 681.91084			43010.74483		214.48400		875.00000 
 43692.65567		 305.27265			43387.38302		68.21400		324.00000 
 43692.65567		 681.91084			43010.74483		214.48400		875.00000 
 43692.65567		 305.27265			43387.38302		68.21400		324.00000 
 43692.65567		 681.91084			43010.74483		214.48400		875.00000 
 43692.65567		 305.27265			43387.38302		68.21400		324.00000 
 43692.65567		 681.91084			43010.74483		214.48400		875.00000 
 43692.65567		 305.27265			43387.38302		68.21400		324.00000 
 43692.65567		 681.91084			43010.74483		214.48400		875.00000 
 43692.65567		 305.27265			43387.38302		68.21400		324.00000 
 43692.65567		 681.91084			43010.74483		214.48400		875.00000 
 43692.65567		 305.27265			43387.38302		68.21400		324.00000 
 43692.65567		 681.91084			43010.74483		214.48400		875.00000 
 43692.65567		 305.27265			43387.38302		68.21400		324.00000 
 43692.65567		 681.91084			43010.74483		214.48400		875.00000 
 43692.65567		 305.27265			43387.38302		68.21400		324.00000 
 43692.65567		 681.91084			43010.74483		214.48400		875.00000 
 43692.65567		 305.27265			43387.38302		68.21400		324.00000 
 43692.65567		 681.91084			43010.74483		214.48400		875.00000 
 43692.65567		 305.27265			43387.38302		68.21400		324.00000 
 43692.65567		 681.91084			43010.74483		214.48400		875.00000 
 43692.65567		 305.27265			43387.38302		68.21400		324.00000 
 43692.65567		 681.91084			43010.74483		214.48400		875.00000 
 43692.65567		 305.27265			43387.38302		68.21400		324.00000 
 43692.65567		 681.91084			43010.74483		214.48400		875.00000 
 43692.65567		 305.27265			43387.38302		68.21400		324.00000 
 43692.65567		 681.91084			43010.74483		214.48400		875.00000 
 43692.65567		 305.27265			43387.38302		68.21400		324.00000 
 43692.65567		 681.91084			43010.74483		214.48400		875.00000 
 43692.65567		 305.27265			43387.38302		68.21400		324.00000 
 43692.65567		 681.91084			43010.74483		214.48400		875.00000 
 43692.65567		 305.27265			43387.38302		68.21400		324.00000 
 43692.65567		 681.91084			43010.74483		214.48400		875.00000 
 43692.65567		 305.27265			43387.38302		68.21400		324.00000 
 43692.65567		 681.91084			43010.74483		214.48400		875.00000 
 43692.65567		 305.27265			43387.38302		68.21400		324.00000 
 43692.65567		 681.91084			43010.74483		214.48400		875.00000 
 43692.65567		 305.27265			43387.38302		68.21400		324.00000 
 43692.65567		 681.91084			43010.74483		214.48400		875.00000 
 43692.65567		 305.27265			43387.38302		68.21400		324.00000 
 43692.65567		 681.91084			43010.74483		214.48400		875.00000 
 43692.65567		 305.27265			43387.38302		68.21400		324.00000 
 43692.65567		 681.91084			43010.74483		214.48400		875.00000 
 43692.65567		 305.27265			43387.38302		68.21400		324.00000 
 43692.65567		 681.91084			43010.74483		214.48400		875.00000 
 43692.65567		 305.27265			43387.38302		68.21400		324.00000 
 43692.65567		 681.91084			43010.74483		214.48400		875.00000 
 43692.65567		 305.27265			43387.38302		68.21400		324.00000 
 43692.65567		 681.91084			43010.74483		214.48400		875.00000 
 43692.65567		 305.27265			43387.38302		68.21400		324.00000 
 43692.65567		 681.91084			43010.74483		214.48400		875.00000 
 43692.65567		 305.27265			43387.38302		68.21400		324.00000 
 43692.65567		 681.91084			43010.74483		214.48400		875.00000 
 43692.65567		 305.27265			43387.38302		68.21400		324.00000 
 43692.65567		 681.91084			43010.74483		214.48400		875.00000 
 43692.65567		 305.27265			43387.38302		68.21400		324.00000 
 43692.65567		 681.91084			43010.74483		214.48400		875.00000 
 43692.65567		 305.27265			43387.38302		68.21400		324.00000 
 43692.65567		 681.91084			43010.74483		214.48400		875.00000 
 43692.65567		 305.27265			43387.38302		68.21400		324.00000 
 43692.65567		 681.91084			43010.74483		214.48400		875.00000 
 43692.65567		 305.27265			43387.38302		68.21400		324.00000 
 43692.65567		 681.91084			43010.74483		214.48400		875.00000 
 43692.65567		 305.27265			43387.38302		68.21400		324.00000 
 43692.65567		 681.91084			43010.74483		214.48400		875.00000 
 43692.65567		 305.27265			43387.38302		68.21400		324.00000 
 43692.65567		 681.91084			43010.74483		214.48400		875.00000 
 43692.65567		 305.27265			43387.38302		68.21400		324.00000 
 43692.65567		 681.91084			43010.74483		214.48400		875.00000 
 43692.65567		 305.27265			43387.38302		68.21400		324.00000 
 43692.65567		 681.91084			43010.74483		214.48400		875.00000 
 43692.65567		 305.27265			43387.38302		68.21400		324.00000 
 43692.65567		 681.91084			43010.74483		214.48400		875.00000 
 43692.65567		 305.27265			43387.38302		68.21400		324.00000 
 43692.65567		 681.91084			43010.74483		214.48400		875.00000 
 43692.65567		 305.27265			43387.38302		68.21400		324.00000 
 43692.65567		 681.91084			43010.74483		214.48400		875.00000 
 43692.65567		 305.27265			43387.38302		68.21400		324.00000 
 43692.65567		 681.91084			43010.74483		214.48400		875.00000 
 43692.65567		 305.27265			43387.38302		68.21400		324.00000 
 43692.65567		 681.91084			43010.74483		214.48400		875.00000 
 43692.65567		 305.27265			43387.38302		68.21400		324.00000 
 43692.65567		 681.91084			43010.74483		214.48400		875.00000 
 43692.65567		 305.27265			43387.38302		68.21400		324.00000 
 43692.65567		 681.91084			43010.74483		214.48400		875.00000 
 43692.65567		 305.27265			43387.38302		68.21400		324.00000 
 43692.65567		 681.91084			43010.74483		214.48400		875.00000 
 43692.65567		 305.27265			43387.38302		68.21400		324.00000 
 43692.65567		 681.91084			43010.74483		214.48400		875.00000 
 43692.65567		 305.27265			43387.38302		68.21400		324.00000 
 43692.65567		 681.91084			43010.74483		214.48400		875.00000 
 43692.65567		 305.27265			43387.38302		68.21400		324.00000 
 43692.65567		 681.91084			43010.74483		214.48400		875.00000 
 43692.65567		 305.27265			43387.38302		68.21400		324.00000 
 43692.65567		 681.91084			43010.74483		214.48400		875.00000 
 43692.65567		 305.27265			43387.38302		68.21400		324.00000 
 43692.65567		 681.91084			43010.74483		214.48400		875.00000 
 43692.65567		 305.27265			43387.38302		68.21400		324.00000 
 43692.65567		 681.91084			43010.74483		214.48400		875.00000 
 43692.65567		 305.27265			43387.38302		68.21400		324.00000 
 43692.65567		 681.91084			43010.74483		214.48400		875.00000 
 43692.65567		 305.27265			43387.38302		68.21400		324.00000 
 43692.65567		 681.91084			43010.74483		214.48400		875.00000 
 43692.65567		 305.27265			43387.38302		68.21400		324.00000 
 43692.65567		 681.91084			43010.74483		214.48400		875.00000 
 43692.65567		 305.27265			43387.38302		68.21400		324.00000 
 43692.65567		 681.91084			43010.74483		221.81800		875.00000 
 43692.65567		 305.27265			43387.38302		68.21400		324.00000 
 43692.65567		 681.91084			43010.74483		221.81800		875.00000 
 43692.65567		 305.27265			43387.38302		68.21400		324.00000 
 43692.65567		 681.91084			43010.74483		221.81800		875.00000 
 43692.65567		 305.27265			43387.38302		68.21400		324.00000 
 43692.65567		 681.91084			43010.74483		221.81800		875.00000 
 43692.65567		 305.27265			43387.38302		68.21400		324.00000 
 43692.65567		 681.91084			43010.74483		221.81800		875.00000 
 43692.65567		 305.27265			43387.38302		68.21400		324.00000 
 43692.65567		 681.91084			43010.74483		221.81800		875.00000 
 43692.65567		 305.27265			43387.38302		68.21400		324.00000 
 43692.65567		 681.91084			43010.74483		221.81800		875.00000 
 43692.65567		 305.27265			43387.38302		68.21400		324.00000 
 43692.65567		 681.91084			43010.74483		221.81800		875.00000 
 43692.65567		 305.27265			43387.38302		68.21400		324.00000 
 43692.65567		 681.91084			43010.74483		221.81800		875.00000 
 43692.65567		 305.27265			43387.38302		68.21400		324.00000 
 43692.65567		 681.91084			43010.74483		221.81800		875.00000 
 43692.65567		 305.27265			43387.38302		68.21400		324.00000 
 43692.65567		 681.91084			43010.74483		221.81800		875.00000 
 43692.65567		 305.27265			43387.38302		68.21400		324.00000 
 43692.65567		 681.91084			43010.74483		221.81800		875.00000 
 43692.65567		 305.27265			43387.38302		68.21400		324.00000 
 43692.65567		 681.91084			43010.74483		221.81800		875.00000 
 43692.65567		 305.27265			43387.38302		68.21400		324.00000 
 43692.65567		 681.91084			43010.74483		221.81800		875.00000 
 43692.65567		 305.27265			43387.38302		68.21400		324.00000 
 43692.65567		 681.91084			43010.74483		221.81800		875.00000 
 43692.65567		 305.27265			43387.38302		68.21400		324.00000 
 43692.65567		 681.91084			43010.74483		221.81800		875.00000 
 43692.65567		 305.27265			43387.38302		68.21400		324.00000 
 43692.65567		 681.91084			43010.74483		221.81800		875.00000 
 43692.65567		 305.27265			43387.38302		68.21400		324.00000 
 43692.65567		 681.91084			43010.74483		221.81800		875.00000 
 43692.65567		 305.27265			43387.38302		68.21400		324.00000 
 43692.65567		 681.91084			43010.74483		221.81800		875.00000 
 43692.65567		 305.27265			43387.38302		68.21400		324.00000 
 43692.65567		 681.91084			43010.74483		221.81800		875.00000 
 43692.65567		 305.27265			43387.38302		68.21400		324.00000 
 43692.65567		 681.91084			43010.74483		221.81800		875.00000 
 43692.65567		 305.27265			43387.38302		68.21400		324.00000 
 43692.65567		 681.91084			43010.74483		221.81800		875.00000 
 43692.65567		 305.27265			43387.38302		68.21400		324.00000 
 43692.65567		 681.91084			43010.74483		221.81800		875.00000 
 43692.65567		 305.27265			43387.38302		68.21400		324.00000 
 43692.65567		 681.91084			43010.74483		221.81800		875.00000 
 43692.65567		 305.27265			43387.38302		68.21400		324.00000 
 43692.65567		 681.91084			43010.74483		221.81800		875.00000 
 43692.65567		 305.27265			43387.38302		68.21400		324.00000 
 43692.65567		 681.91084			43010.74483		221.81800		875.00000 
 43692.65567		 305.27265			43387.38302		68.21400		324.00000 
 43692.65567		 681.91084			43010.74483		221.81800		875.00000 
 43692.65567		 305.27265			43387.38302		68.21400		324.00000 
 43692.65567		 681.91084			43010.74483		221.81800		875.00000 
 43692.65567		 305.27265			43387.38302		68.21400		324.00000 
 43692.65567		 681.91084			43010.74483		221.81800		875.00000 
 43692.65567		 305.27265			43387.38302		68.21400		324.00000 
 43692.65567		 681.91084			43010.74483		221.81800		875.00000 
 43692.65567		 305.27265			43387.38302		68.21400		324.00000 
 43692.65567		 681.91084			43010.74483		221.81800		875.00000 
 43692.65567		 305.27265			43387.38302		68.21400		324.00000 
 43692.65567		 681.91084			43010.74483		221.81800		875.00000 
 43692.65567		 305.27265			43387.38302		68.21400		324.00000 
 43692.65567		 681.91084			43010.74483		221.81800		875.00000 
 43692.65567		 305.27265			43387.38302		68.21400		324.00000 
 43692.65567		 681.91084			43010.74483		221.81800		875.00000 
 43692.65567		 305.27265			43387.38302		68.21400		324.00000 
 43692.65567		 681.91084			43010.74483		221.81800		875.00000 
 43692.65567		 305.27265			43387.38302		68.21400		324.00000 
 43692.65567		 681.91084			43010.74483		221.81800		875.00000 
 43692.65567		 305.27265			43387.38302		68.21400		324.00000 
 43692.65567		 681.91084			43010.74483		221.81800		875.00000 
 43692.65567		 305.27265			43387.38302		68.21400		324.00000 
 43692.65567		 681.91084			43010.74483		221.81800		875.00000 
 43692.65567		 305.27265			43387.38302		68.21400		324.00000 
 43692.65567		 681.91084			43010.74483		221.81800		875.00000 
 43692.65567		 305.27265			43387.38302		68.21400		324.00000 
 43692.65567		 681.91084			43010.74483		221.81800		875.00000 
 43692.65567		 305.27265			43387.38302		68.21400		324.00000 
 43692.65567		 681.91084			43010.74483		221.81800		875.00000 
 43692.65567		 305.27265			43387.38302		68.21400		324.00000 
 43692.65567		 681.91084			43010.74483		221.81800		875.00000 
 43692.65567		 305.27265			43387.38302		68.21400		324.00000 
 43692.65567		 681.91084			43010.74483		221.81800		875.00000 
 43692.65567		 305.27265			43387.38302		68.21400		324.00000 
 43692.65567		 681.91084			43010.74483		221.81800		875.00000 
 43692.65567		 305.27265			43387.38302		68.21400		324.00000 
 43692.65567		 681.91084			43010.74483		221.81800		875.00000 
 43692.65567		 305.27265			43387.38302		68.21400		324.00000 
 43692.65567		 681.91084			43010.74483		221.81800		875.00000 
 43692.65567		 305.27265			43387.38302		68.21400		324.00000 
 43692.65567		 681.91084			43010.74483		221.81800		875.00000 
 43692.65567		 305.27265			43387.38302		68.21400		324.00000 
 43692.65567		 681.91084			43010.74483		221.81800		875.00000 
 43692.65567		 305.27265			43387.38302		68.21400		324.00000 
 43692.65567		 681.91084			43010.74483		221.81800		875.00000 
 43692.65567		 305.27265			43387.38302		68.21400		324.00000 
 43692.65567		 681.91084			43010.74483		221.81800		875.00000 
 43692.65567		 305.27265			43387.38302		68.21400		324.00000 
 43692.65567		 681.91084			43010.74483		221.81800		875.00000 
 43692.65567		 305.27265			43387.38302		68.21400		324.00000 
 43692.65567		 681.91084			43010.74483		221.81800		875.00000 
 43692.65567		 305.27265			43387.38302		68.21400		324.00000 
 43692.65567		 681.91084			43010.74483		221.81800		875.00000 
 43692.65567		 305.27265			43387.38302		68.21400		324.00000 
 43692.65567		 681.91084			43010.74483		221.81800		875.00000 
 43692.65567		 305.27265			43387.38302		68.21400		324.00000 
 43692.65567		 681.91084			43010.74483		221.81800		875.00000 
 43692.65567		 305.27265			43387.38302		68.21400		324.00000 
 43692.65567		 681.91084			43010.74483		221.81800		875.00000 
 43692.65567		 305.27265			43387.38302		68.21400		324.00000 
 43692.65567		 681.91084			43010.74483		221.81800		875.00000 
 43692.65567		 305.27265			43387.38302		68.21400		324.00000 
 43692.65567		 681.91084			43010.74483		221.81800		875.00000 
 43692.65567		 305.27265			43387.38302		68.21400		324.00000 
 43692.65567		 681.91084			43010.74483		221.81800		875.00000 
 43692.65567		 305.27265			43387.38302		68.21400		324.00000 
 43692.65567		 681.91084			43010.74483		221.81800		875.00000 
 43692.65567		 305.27265			43387.38302		68.21400		324.00000 
 43692.65567		 681.91084			43010.74483		221.81800		875.00000 
 43692.65567		 305.27265			43387.38302		68.21400		324.00000 
 43692.65567		 681.91084			43010.74483		221.81800		875.00000 
 43692.65567		 305.27265			43387.38302		68.21400		324.00000 
 43692.65567		 681.91084			43010.74483		221.81800		875.00000 
 43692.65567		 305.27265			43387.38302		68.21400		324.00000 
 43692.65567		 681.91084			43010.74483		221.81800		875.00000 
 43692.65567		 305.27265			43387.38302		68.21400		324.00000 
 43692.65567		 681.91084			43010.74483		223.81000		875.00000 
 43692.65567		 305.27265			43387.38302		68.21400		324.00000 
 43692.65567		 681.91084			43010.74483		223.81000		875.00000 
 43692.65567		 305.27265			43387.38302		68.21400		324.00000 
 43692.65567		 681.91084			43010.74483		223.81000		875.00000 
 43692.65567		 305.27265			43387.38302		68.21400		324.00000 
 43692.65567		 681.91084			43010.74483		223.81000		875.00000 
 43692.65567		 305.27265			43387.38302		68.21400		324.00000 
 43692.65567		 681.91084			43010.74483		223.81000		875.00000 
 43692.65567		 305.27265			43387.38302		68.21400		324.00000 
 43692.65567		 681.91084			43010.74483		223.81000		875.00000 
 43692.65567		 305.27265			43387.38302		68.21400		324.00000 
 43692.65567		 681.91084			43010.74483		223.81000		875.00000 
 43692.65567		 305.27265			43387.38302		68.21400		324.00000 
 43692.65567		 681.91084			43010.74483		223.81000		875.00000 
 43692.65567		 305.27265			43387.38302		68.21400		324.00000 
 43692.65567		 681.91084			43010.74483		223.81000		875.00000 
 43692.65567		 305.27265			43387.38302		68.21400		324.00000 
 43692.65567		 681.91084			43010.74483		223.81000		875.00000 
 43692.65567		 305.27265			43387.38302		68.21400		324.00000 
 43692.65567		 681.91084			43010.74483		223.81000		875.00000 
 43692.65567		 305.27265			43387.38302		68.21400		324.00000 
 43692.65567		 681.91084			43010.74483		223.81000		875.00000 
 43692.65567		 305.27265			43387.38302		68.21400		324.00000 
 43692.65567		 681.91084			43010.74483		223.81000		875.00000 
 43692.65567		 305.27265			43387.38302		68.21400		324.00000 
 43692.65567		 681.91084			43010.74483		223.81000		875.00000 
 43692.65567		 305.27265			43387.38302		68.21400		324.00000 
 43692.65567		 681.91084			43010.74483		223.81000		875.00000 
 43692.65567		 305.27265			43387.38302		68.21400		324.00000 
 43692.65567		 681.91084			43010.74483		223.81000		875.00000 
 43692.65567		 305.27265			43387.38302		68.21400		324.00000 
 43692.65567		 681.91084			43010.74483		223.81000		875.00000 
 43692.65567		 305.27265			43387.38302		68.21400		324.00000 
 43692.65567		 681.91084			43010.74483		223.81000		875.00000 
 43692.65567		 305.27265			43387.38302		68.21400		324.00000 
 43692.65567		 681.91084			43010.74483		223.81000		875.00000 
 43692.65567		 305.27265			43387.38302		68.21400		324.00000 
 43692.65567		 681.91084			43010.74483		223.81000		875.00000 
 43692.65567		 305.27265			43387.38302		68.21400		324.00000 
 43692.65567		 681.91084			43010.74483		223.81000		875.00000 
 43692.65567		 305.27265			43387.38302		68.21400		324.00000 
 43692.65567		 681.91084			43010.74483		223.81000		875.00000 
 43692.65567		 305.27265			43387.38302		68.21400		324.00000 
 43692.65567		 681.91084			43010.74483		223.81000		875.00000 
 43692.65567		 305.27265			43387.38302		68.21400		324.00000 
 43692.65567		 681.91084			43010.74483		223.81000		875.00000 
 43692.65567		 305.27265			43387.38302		68.21400		324.00000 
 43692.65567		 681.91084			43010.74483		223.81000		875.00000 
 43692.65567		 305.27265			43387.38302		68.21400		324.00000 
 43692.65567		 681.91084			43010.74483		223.81000		875.00000 
 43692.65567		 305.27265			43387.38302		68.21400		324.00000 
 43692.65567		 681.91084			43010.74483		223.81000		875.00000 
 43692.65567		 305.27265			43387.38302		68.21400		324.00000 
 43692.65567		 681.91084			43010.74483		223.81000		875.00000 
 43692.65567		 305.27265			43387.38302		68.21400		324.00000 
 43692.65567		 681.91084			43010.74483		223.81000		875.00000 
 43692.65567		 305.27265			43387.38302		68.21400		324.00000 
 43692.65567		 681.91084			43010.74483		223.81000		875.00000 
 43692.65567		 305.27265			43387.38302		68.21400		324.00000 
 43692.65567		 681.91084			43010.74483		223.81000		875.00000 
 43692.65567		 305.27265			43387.38302		68.21400		324.00000 
 43692.65567		 681.91084			43010.74483		223.81000		875.00000 
 43692.65567		 305.27265			43387.38302		68.21400		324.00000 
 43692.65567		 681.91084			43010.74483		223.81000		875.00000 
 43692.65567		 305.27265			43387.38302		68.21400		324.00000 
 43692.65567		 681.91084			43010.74483		223.81000		875.00000 
 43692.65567		 305.27265			43387.38302		68.21400		324.00000 
 43692.65567		 681.91084			43010.74483		223.81000		875.00000 
 43692.65567		 305.27265			43387.38302		68.21400		324.00000 
 43692.65567		 681.91084			43010.74483		223.81000		875.00000 
 43692.65567		 305.27265			43387.38302		68.21400		324.00000 
 43692.65567		 681.91084			43010.74483		223.81000		875.00000 
 43692.65567		 305.27265			43387.38302		68.21400		324.00000 
 43692.65567		 681.91084			43010.74483		223.81000		875.00000 
 43692.65567		 305.27265			43387.38302		68.21400		324.00000 
 43692.65567		 681.91084			43010.74483		223.81000		875.00000 
 43692.65567		 305.27265			43387.38302		68.21400		324.00000 
 43692.65567		 681.91084			43010.74483		223.81000		875.00000 
 43692.65567		 305.27265			43387.38302		68.21400		324.00000 
 43692.65567		 681.91084			43010.74483		223.81000		875.00000 
 43692.65567		 305.27265			43387.38302		68.21400		324.00000 
 43692.65567		 681.91084			43010.74483		223.81000		875.00000 
 43692.65567		 305.27265			43387.38302		68.21400		324.00000 
 43692.65567		 681.91084			43010.74483		223.81000		875.00000 
 43692.65567		 305.27265			43387.38302		68.21400		324.00000 
 43692.65567		 681.91084			43010.74483		223.81000		875.00000 
 43692.65567		 305.27265			43387.38302		68.21400		324.00000 
 43692.65567		 681.91084			43010.74483		223.81000		875.00000 
 43692.65567		 305.27265			43387.38302		68.21400		324.00000 
 43692.65567		 681.91084			43010.74483		223.81000		875.00000 
 43692.65567		 305.27265			43387.38302		68.21400		324.00000 
 43692.65567		 681.91084			43010.74483		223.81000		875.00000 
 43692.65567		 305.27265			43387.38302		68.21400		324.00000 
 43692.65567		 681.91084			43010.74483		223.81000		875.00000 
 43692.65567		 305.27265			43387.38302		68.21400		324.00000 
 43692.65567		 681.91084			43010.74483		223.81000		875.00000 
 43692.65567		 305.27265			43387.38302		68.21400		324.00000 
 43692.65567		 681.91084			43010.74483		223.81000		875.00000 
 43692.65567		 305.27265			43387.38302		68.21400		324.00000 
 43692.65567		 681.91084			43010.74483		223.81000		875.00000 
 43692.65567		 305.27265			43387.38302		68.21400		324.00000 
 43692.65567		 681.91084			43010.74483		223.81000		875.00000 
 43692.65567		 305.27265			43387.38302		68.21400		324.00000 
 43692.65567		 681.91084			43010.74483		223.81000		875.00000 
 43692.65567		 305.27265			43387.38302		68.21400		324.00000 
 43692.65567		 681.91084			43010.74483		223.81000		875.00000 
 43692.65567		 305.27265			43387.38302		68.21400		324.00000 
 43692.65567		 681.91084			43010.74483		223.81000		875.00000 
 43692.65567		 305.27265			43387.38302		68.21400		324.00000 
 43692.65567		 681.91084			43010.74483		223.81000		875.00000 
 43692.65567		 305.27265			43387.38302		68.21400		324.00000 
 43692.65567		 681.91084			43010.74483		223.81000		875.00000 
 43692.65567		 305.27265			43387.38302		68.21400		324.00000 
 43692.65567		 681.91084			43010.74483		223.81000		875.00000 
 43692.65567		 305.27265			43387.38302		68.21400		324.00000 
 43692.65567		 681.91084			43010.74483		223.81000		875.00000 
 43692.65567		 305.27265			43387.38302		68.21400		324.00000 
 43692.65567		 681.91084			43010.74483		223.81000		875.00000 
 43692.65567		 305.27265			43387.38302		68.21400		324.00000 
 43692.65567		 681.91084			43010.74483		223.81000		875.00000 
 43692.65567		 305.27265			43387.38302		68.21400		324.00000 
 43692.65567		 681.91084			43010.74483		223.81000		875.00000 
 43692.65567		 305.27265			43387.38302		68.21400		324.00000 
 43692.65567		 681.91084			43010.74483		223.81000		875.00000 
 43692.65567		 305.27265			43387.38302		68.21400		324.00000 
 43692.65567		 681.91084			43010.74483		223.81000		875.00000 
 43692.65567		 305.27265			43387.38302		68.21400		324.00000 
 43692.65567		 681.91084			43010.74483		223.81000		875.00000 
 43692.65567		 305.27265			43387.38302		68.21400		324.00000 
 43692.65567		 681.91084			43010.74483		223.81000		875.00000 
 43692.65567		 305.27265			43387.38302		68.21400		324.00000 
 43692.65567		 681.91084			43010.74483		224.98400		875.00000 
 43692.65567		 305.27265			43387.38302		68.21400		324.00000 
 43692.65567		 681.91084			43010.74483		224.98400		875.00000 
 43692.65567		 305.27265			43387.38302		68.21400		324.00000 
 43692.65567		 681.91084			43010.74483		224.98400		875.00000 
 43692.65567		 305.27265			43387.38302		68.21400		324.00000 
 43692.65567		 681.91084			43010.74483		224.98400		875.00000 
 43692.65567		 305.27265			43387.38302		68.21400		324.00000 
 43692.65567		 681.91084			43010.74483		224.98400		875.00000 
 43692.65567		 305.27265			43387.38302		68.21400		324.00000 
 43692.65567		 681.91084			43010.74483		224.98400		875.00000 
 43692.65567		 305.27265			43387.38302		68.21400		324.00000 
 43692.65567		 681.91084			43010.74483		224.98400		875.00000 
 43692.65567		 305.27265			43387.38302		68.21400		324.00000 
 43692.65567		 681.91084			43010.74483		224.98400		875.00000 
 43692.65567		 305.27265			43387.38302		68.21400		324.00000 
 43692.65567		 681.91084			43010.74483		224.98400		875.00000 
 43692.65567		 305.27265			43387.38302		68.21400		324.00000 
 43692.65567		 681.91084			43010.74483		224.98400		875.00000 
 43692.65567		 305.27265			43387.38302		68.21400		324.00000 
 43692.65567		 681.91084			43010.74483		224.98400		875.00000 
 43692.65567		 305.27265			43387.38302		68.21400		324.00000 
 43692.65567		 681.91084			43010.74483		224.98400		875.00000 
 43692.65567		 305.27265			43387.38302		68.21400		324.00000 
 43692.65567		 681.91084			43010.74483		224.98400		875.00000 
 43692.65567		 305.27265			43387.38302		68.21400		324.00000 
 43692.65567		 681.91084			43010.74483		224.98400		875.00000 
 43692.65567		 305.27265			43387.38302		68.21400		324.00000 
 43692.65567		 681.91084			43010.74483		224.98400		875.00000 
 43692.65567		 305.27265			43387.38302		68.21400		324.00000 
 43692.65567		 681.91084			43010.74483		224.98400		875.00000 
 43692.65567		 305.27265			43387.38302		68.21400		324.00000 
 43692.65567		 681.91084			43010.74483		224.98400		875.00000 
 43692.65567		 305.27265			43387.38302		68.21400		324.00000 
 43692.65567		 681.91084			43010.74483		224.98400		875.00000 
 43692.65567		 305.27265			43387.38302		68.21400		324.00000 
 43692.65567		 681.91084			43010.74483		224.98400		875.00000 
 43692.65567		 305.27265			43387.38302		68.21400		324.00000 
 43692.65567		 681.91084			43010.74483		224.98400		875.00000 
 43692.65567		 305.27265			43387.38302		68.21400		324.00000 
 43692.65567		 681.91084			43010.74483		224.98400		875.00000 
 43692.65567		 305.27265			43387.38302		68.21400		324.00000 
 43692.65567		 681.91084			43010.74483		224.98400		875.00000 
 43692.65567		 305.27265			43387.38302		68.21400		324.00000 
 43692.65567		 681.91084			43010.74483		224.98400		875.00000 
 43692.65567		 305.27265			43387.38302		68.21400		324.00000 
 43692.65567		 681.91084			43010.74483		224.98400		875.00000 
 43692.65567		 305.27265			43387.38302		68.21400		324.00000 
 43692.65567		 681.91084			43010.74483		224.98400		875.00000 
 43692.65567		 305.27265			43387.38302		68.21400		324.00000 
 43692.65567		 681.91084			43010.74483		224.98400		875.00000 
 43692.65567		 305.27265			43387.38302		68.21400		324.00000 
 43692.65567		 681.91084			43010.74483		224.98400		875.00000 
 43692.65567		 305.27265			43387.38302		68.21400		324.00000 
 43692.65567		 681.91084			43010.74483		224.98400		875.00000 
 43692.65567		 305.27265			43387.38302		68.21400		324.00000 
 43692.65567		 681.91084			43010.74483		224.98400		875.00000 
 43692.65567		 305.27265			43387.38302		68.21400		324.00000 
 43692.65567		 681.91084			43010.74483		224.98400		875.00000 
 43692.65567		 305.27265			43387.38302		68.21400		324.00000 
 43692.65567		 681.91084			43010.74483		224.98400		875.00000 
 43692.65567		 305.27265			43387.38302		68.21400		324.00000 
 43692.65567		 681.91084			43010.74483		224.98400		875.00000 
 43692.65567		 305.27265			43387.38302		68.21400		324.00000 
 43692.65567		 681.91084			43010.74483		224.98400		875.00000 
 43692.65567		 305.27265			43387.38302		68.21400		324.00000 
 43692.65567		 681.91084			43010.74483		224.98400		875.00000 
 43692.65567		 305.27265			43387.38302		68.21400		324.00000 
 43692.65567		 681.91084			43010.74483		224.98400		875.00000 
 43692.65567		 305.27265			43387.38302		68.21400		324.00000 
 43692.65567		 681.91084			43010.74483		224.98400		875.00000 
 43692.65567		 305.27265			43387.38302		68.21400		324.00000 
 43692.65567		 681.91084			43010.74483		224.98400		875.00000 
 43692.65567		 305.27265			43387.38302		68.21400		324.00000 
 43692.65567		 681.91084			43010.74483		224.98400		875.00000 
 43692.65567		 305.27265			43387.38302		68.21400		324.00000 
 43692.65567		 681.91084			43010.74483		224.98400		875.00000 
 43692.65567		 305.27265			43387.38302		68.21400		324.00000 
 43692.65567		 681.91084			43010.74483		224.98400		875.00000 
 43692.65567		 305.27265			43387.38302		68.21400		324.00000 
 43692.65567		 681.91084			43010.74483		224.98400		875.00000 
 43692.65567		 305.27265			43387.38302		68.21400		324.00000 
 43692.65567		 681.91084			43010.74483		224.98400		875.00000 
 43692.65567		 305.27265			43387.38302		68.21400		324.00000 
 43692.65567		 681.91084			43010.74483		224.98400		875.00000 
 43692.65567		 305.27265			43387.38302		68.21400		324.00000 
 43692.65567		 681.91084			43010.74483		224.98400		875.00000 
 43692.65567		 305.27265			43387.38302		68.21400		324.00000 
 43692.65567		 681.91084			43010.74483		224.98400		875.00000 
 43692.65567		 305.27265			43387.38302		68.21400		324.00000 
 43692.65567		 681.91084			43010.74483		224.98400		875.00000 
 43692.65567		 305.27265			43387.38302		68.21400		324.00000 
 43692.65567		 681.91084			43010.74483		224.98400		875.00000 
 43692.65567		 305.27265			43387.38302		68.21400		324.00000 
 43692.65567		 681.91084			43010.74483		224.98400		875.00000 
 43692.65567		 305.27265			43387.38302		68.21400		324.00000 
 43692.65567		 681.91084			43010.74483		224.98400		875.00000 
 43692.65567		 305.27265			43387.38302		68.21400		324.00000 
 43692.65567		 681.91084			43010.74483		224.98400		875.00000 
 43692.65567		 305.27265			43387.38302		68.21400		324.00000 
 43692.65567		 681.91084			43010.74483		224.98400		875.00000 
 43692.65567		 305.27265			43387.38302		68.21400		324.00000 
 43692.65567		 681.91084			43010.74483		224.98400		875.00000 
 43692.65567		 305.27265			43387.38302		68.21400		324.00000 
 43692.65567		 681.91084			43010.74483		224.98400		875.00000 
 43692.65567		 305.27265			43387.38302		68.21400		324.00000 
 43692.65567		 681.91084			43010.74483		224.98400		875.00000 
 43692.65567		 305.27265			43387.38302		68.21400		324.00000 
 43692.65567		 681.91084			43010.74483		224.98400		875.00000 
 43692.65567		 305.27265			43387.38302		68.21400		324.00000 
 43692.65567		 681.91084			43010.74483		224.98400		875.00000 
 43692.65567		 305.27265			43387.38302		68.21400		324.00000 
 43692.65567		 681.91084			43010.74483		224.98400		875.00000 
 43692.65567		 305.27265			43387.38302		68.21400		324.00000 
 43692.65567		 681.91084			43010.74483		224.98400		875.00000 
 43692.65567		 305.27265			43387.38302		68.21400		324.00000 
 43692.65567		 681.91084			43010.74483		224.98400		875.00000 
 43692.65567		 305.27265			43387.38302		68.21400		324.00000 
 43692.65567		 681.91084			43010.74483		224.98400		875.00000 
 43692.65567		 305.27265			43387.38302		68.21400		324.00000 
 43692.65567		 681.91084			43010.74483		224.98400		875.00000 
 43692.65567		 305.27265			43387.38302		68.21400		324.00000 
 43692.65567		 681.91084			43010.74483		224.98400		875.00000 
 43692.65567		 305.27265			43387.38302		68.21400		324.00000 
 43692.65567		 681.91084			43010.74483		224.98400		875.00000 
 43692.65567		 305.27265			43387.38302		68.21400		324.00000 
 43692.65567		 681.91084			43010.74483		224.98400		875.00000 
 43692.65567		 305.27265			43387.38302		68.21400		324.00000 
 43692.65567		 681.91084			43010.74483		224.98400		875.00000 
 43692.65567		 305.27265			43387.38302		68.21400		324.00000 
 43692.65567		 681.91084			43010.74483		224.98400		875.00000 
 43692.65567		 305.27265			43387.38302		68.21400		324.00000 
 43692.65567		 681.91084			43010.74483		224.98400		875.00000 
 43692.65567		 305.27265			43387.38302		68.21400		324.00000 
 43692.65567		 681.91084			43010.74483		224.98400		875.00000 
 43692.65567		 305.27265			43387.38302		68.21400		324.00000 
 43692.65567		 681.91084			43010.74483		224.98400		875.00000 
 43692.65567		 305.27265			43387.38302		68.21400		324.00000 
 43692.65567		 681.91084			43010.74483		224.98400		875.00000 
 43692.65567		 305.27265			43387.38302		68.21400		324.00000 
 43692.65567		 681.91084			43010.74483		224.98400		875.00000 
 43692.65567		 305.27265			43387.38302		68.21400		324.00000 
 43692.65567		 681.91084			43010.74483		224.98400		875.00000 
 43692.65567		 305.27265			43387.38302		68.21400		324.00000 
 43692.65567		 681.91084			43010.74483		224.98400		875.00000 
 43692.65567		 305.27265			43387.38302		68.21400		324.00000 
 43692.65567		 681.91084			43010.74483		224.98400		875.00000 
 43692.65567		 305.27265			43387.38302		68.21400		324.00000 
 43692.65567		 681.91084			43010.74483		224.98400		875.00000 
 43692.65567		 305.27265			43387.38302		68.21400		324.00000 
 43692.65567		 681.91084			43010.74483		224.98400		875.00000 
 43692.65567		 305.27265			43387.38302		68.21400		324.00000 
 43692.65567		 681.91084			43010.74483		224.98400		875.00000 
 43692.65567		 305.27265			43387.38302		68.21400		324.00000 
 43692.65567		 681.91084			43010.74483		224.98400		875.00000 
 43692.65567		 305.27265			43387.38302		68.21400		324.00000 
 43692.65567		 681.91084			43010.74483		224.98400		875.00000 
 43692.65567		 305.27265			43387.38302		68.21400		324.00000 
 43692.65567		 681.91084			43010.74483		224.98400		875.00000 
 43692.65567		 305.27265			43387.38302		68.21400		324.00000 
 43692.65567		 681.91084			43010.74483		224.98400		875.00000 
 43692.65567		 305.27265			43387.38302		68.21400		324.00000 
 43692.65567		 681.91084			43010.74483		224.98400		875.00000 
 43692.65567		 305.27265			43387.38302		68.21400		324.00000 
 43692.65567		 681.91084			43010.74483		224.98400		875.00000 
 43692.65567		 305.27265			43387.38302		68.21400		324.00000 
 43692.65567		 681.91084			43010.74483		224.98400		875.00000 
 43692.65567		 305.27265			43387.38302		68.21400		324.00000 
 43692.65567		 681.91084			43010.74483		224.98400		875.00000 
 43692.65567		 305.27265			43387.38302		68.21400		324.00000 
 43692.65567		 681.91084			43010.74483		224.98400		875.00000 
 43692.65567		 305.27265			43387.38302		68.21400		324.00000 
 43692.65567		 681.91084			43010.74483		224.98400		875.00000 
 43692.65567		 305.27265			43387.38302		68.21400		324.00000 
 43692.65567		 681.91084			43010.74483		224.98400		875.00000 
 43692.65567		 305.27265			43387.38302		68.21400		324.00000 
 43692.65567		 681.91084			43010.74483		224.98400		875.00000 
 43692.65567		 305.27265			43387.38302		68.21400		324.00000 
 43692.65567		 681.91084			43010.74483		224.98400		875.00000 
 43692.65567		 305.27265			43387.38302		68.21400		324.00000 
 43692.65567		 681.91084			43010.74483		224.98400		875.00000 
 43692.65567		 305.27265			43387.38302		68.21400		324.00000 
 43692.65567		 681.91084			43010.74483		224.98400		875.00000 
 43692.65567		 305.27265			43387.38302		68.21400		324.00000 
 43692.65567		 681.91084			43010.74483		224.98400		875.00000 
 43692.65567		 305.27265			43387.38302		68.21400		324.00000 
 43692.65567		 681.91084			43010.74483		224.98400		875.00000 
 43692.65567		 305.27265			43387.38302		68.21400		324.00000 
 43692.65567		 681.91084			43010.74483		224.98400		875.00000 
 43692.65567		 305.27265			43387.38302		68.21400		324.00000 
 43692.65567		 681.91084			43010.74483		224.98400		875.00000 
 43692.65567		 305.27265			43387.38302		68.21400		324.00000 
 43692.65567		 681.91084			43010.74483		224.98400		875.00000 
 43692.65567		 305.27265			43387.38302		68.21400		324.00000 
 43692.65567		 681.91084			43010.74483		224.98400		875.00000 
 43692.65567		 305.27265			43387.38302		68.21400		324.00000 
 43692.65567		 681.91084			43010.74483		224.98400		875.00000 
 43692.65567		 305.27265			43387.38302		68.21400		324.00000 
 43692.65567		 681.91084			43010.74483		224.98400		875.00000 
 43692.65567		 305.27265			43387.38302		68.21400		324.00000 
 43692.65567		 681.91084			43010.74483		224.98400		875.00000 
 43692.65567		 305.27265			43387.38302		68.21400		324.00000 
 43692.65567		 681.91084			43010.74483		224.98400		875.00000 
 43692.65567		 305.27265			43387.38302		68.21400		324.00000 
 43692.65567		 681.91084			43010.74483		224.98400		875.00000 
 43692.65567		 305.27265			43387.38302		68.21400		324.00000 
 43692.65567		 681.91084			43010.74483		224.98400		875.00000 
 43692.65567		 305.27265			43387.38302		68.21400		324.00000 
 43692.65567		 681.91084			43010.74483		224.98400		875.00000 
 43692.65567		 305.27265			43387.38302		68.21400		324.00000 
 43692.65567		 681.91084			43010.74483		224.98400		875.00000 
 43692.65567		 305.27265			43387.38302		68.21400		324.00000 
 43692.65567		 681.91084			43010.74483		224.98400		875.00000 
 43692.65567		 305.27265			43387.38302		68.21400		324.00000 
 43692.65567		 681.91084			43010.74483		224.98400		875.00000 
 43692.65567		 305.27265			43387.38302		68.21400		324.00000 
 43692.65567		 681.91084			43010.74483		224.98400		875.00000 
 43692.65567		 305.27265			43387.38302		68.21400		324.00000 
 43692.65567		 681.91084			43010.74483		224.98400		875.00000 
 43692.65567		 305.27265			43387.38302		68.21400		324.00000 
 43692.65567		 681.91084			43010.74483		224.98400		875.00000 
 43692.65567		 305.27265			43387.38302		68.21400		324.00000 
 43692.65567		 681.91084			43010.74483		224.98400		875.00000 
 43692.65567		 305.27265			43387.38302		68.21400		324.00000 
 43692.65567		 681.91084			43010.74483		224.98400		875.00000 
 43692.65567		 305.27265			43387.38302		68.21400		324.00000 
 43692.65567		 681.91084			43010.74483		224.98400		875.00000 
 43692.65567		 305.27265			43387.38302		68.21400		324.00000 
 43692.65567		 681.91084			43010.74483		224.98400		875.00000 
 43692.65567		 305.27265			43387.38302		68.21400		324.00000 
 43692.65567		 681.91084			43010.74483		224.98400		875.00000 
 43692.65567		 305.27265			43387.38302		68.21400		324.00000 
 43692.65567		 681.91084			43010.74483		224.98400		875.00000 
 43692.65567		 305.27265			43387.38302		68.21400		324.00000 
 43692.65567		 681.91084			43010.74483		224.98400		875.00000 
 43692.65567		 305.27265			43387.38302		68.21400		324.00000 
 43692.65567		 681.91084			43010.74483		224.98400		875.00000 
 43692.65567		 305.27265			43387.38302		68.21400		324.00000 
 43692.65567		 681.91084			43010.74483		224.98400		875.00000 
 43692.65567		 305.27265			43387.38302		68.21400		324.00000 
 43692.65567		 681.91084			43010.74483		224.98400		875.00000 
 43692.65567		 305.27265			43387.38302		68.21400		324.00000 
 43692.65567		 681.91084			43010.74483		224.98400		875.00000 
 43692.65567		 305.27265			43387.38302		68.21400		324.00000 
 43692.65567		 681.91084			43010.74483		224.98400		875.00000 
 43692.65567		 305.27265			43387.38302		68.21400		324.00000 
 43692.65567		 681.91084			43010.74483		224.98400		875.00000 
 43692.65567		 305.27265			43387.38302		68.21400		324.00000 
 43692.65567		 681.91084			43010.74483		224.98400		875.00000 
 43692.65567		 305.27265			43387.38302		68.21400		324.00000 
 43692.65567		 681.91084			43010.74483		224.98400		875.00000 
 43692.65567		 305.27265			43387.38302		68.21400		324.00000 
 43692.65567		 681.91084			43010.74483		224.98400		875.00000 
 43692.65567		 305.27265			43387.38302		68.21400		324.00000 
 43692.65567		 681.91084			43010.74483		224.98400		875.00000 
 43692.65567		 305.27265			43387.38302		68.21400		324.00000 
 43692.65567		 681.91084			43010.74483		224.98400		875.00000 
 43692.65567		 305.27265			43387.38302		68.21400		324.00000 
 43692.65567		 681.91084			43010.74483		224.98400		875.00000 
 43692.65567		 305.27265			43387.38302		68.21400		324.00000 
 43692.65567		 681.91084			43010.74483		224.98400		875.00000 
 43692.65567		 305.27265			43387.38302		68.21400		324.00000 
 43692.65567		 681.91084			43010.74483		224.98400		875.00000 
 43692.65567		 305.27265			43387.38302		68.21400		324.00000 
 43692.65567		 681.91084			43010.74483		224.98400		875.00000 
 43692.65567		 305.27265			43387.38302		68.21400		324.00000 
 43692.65567		 681.91084			43010.74483		224.98400		875.00000 
 43692.65567		 305.27265			43387.38302		68.21400		324.00000 
 43692.65567		 681.91084			43010.74483		224.98400		875.00000 
 43692.65567		 305.27265			43387.38302		68.21400		324.00000 
 43692.65567		 681.91084			43010.74483		224.98400		875.00000 
 43692.65567		 305.27265			43387.38302		68.21400		324.00000 
 43692.65567		 681.91084			43010.74483		224.98400		875.00000 
 43692.65567		 305.27265			43387.38302		68.21400		324.00000 
 43692.65567		 681.91084			43010.74483		224.98400		875.00000 
 43692.65567		 305.27265			43387.38302		68.21400		324.00000 
 43692.65567		 681.91084			43010.74483		224.98400		875.00000 
 43692.65567		 305.27265			43387.38302		68.21400		324.00000 
 43692.65567		 681.91084			43010.74483		224.98400		875.00000 
 43692.65567		 305.27265			43387.38302		68.21400		324.00000 
 43692.65567		 681.91084			43010.74483		224.98400		875.00000 
 43692.65567		 305.27265			43387.38302		68.21400		324.00000 
 43692.65567		 681.91084			43010.74483		224.98400		875.00000 
 43692.65567		 305.27265			43387.38302		68.21400		324.00000 
 43692.65567		 681.91084			43010.74483		224.98400		875.00000 
 43692.65567		 305.27265			43387.38302		68.21400		324.00000 
 43692.65567		 681.91084			43010.74483		224.98400		875.00000 
 43692.65567		 305.27265			43387.38302		68.21400		324.00000 
 43692.65567		 681.91084			43010.74483		224.98400		875.00000 
 43692.65567		 305.27265			43387.38302		68.21400		324.00000 
 43692.65567		 681.91084			43010.74483		224.98400		875.00000 
 43692.65567		 305.27265			43387.38302		68.21400		324.00000 
 43692.65567		 681.91084			43010.74483		224.98400		875.00000 
 43692.65567		 305.27265			43387.38302		68.21400		324.00000 
 43692.65567		 681.91084			43010.74483		224.98400		875.00000 
 43692.65567		 305.27265			43387.38302		68.21400		324.00000 
 43692.65567		 681.91084			43010.74483		224.98400		875.00000 
 43692.65567		 305.27265			43387.38302		68.21400		324.00000 
 43692.65567		 681.91084			43010.74483		224.98400		875.00000 
 43692.65567		 305.27265			43387.38302		68.21400		324.00000 
 43692.65567		 681.91084			43010.74483		224.98400		875.00000 
 43692.65567		 305.27265			43387.38302		68.21400		324.00000 
 43692.65567		 681.91084			43010.74483		224.98400		875.00000 
 43692.65567		 305.27265			43387.38302		68.21400		324.00000 
 43692.65567		 681.91084			43010.74483		224.98400		875.00000 
 43692.65567		 305.27265			43387.38302		68.21400		324.00000 
 43692.65567		 681.91084			43010.74483		224.98400		875.00000 
 43692.65567		 305.27265			43387.38302		68.21400		324.00000 
 43692.65567		 681.91084			43010.74483		224.98400		875.00000 
 43692.65567		 305.27265			43387.38302		68.21400		324.00000 
 43692.65567		 681.91084			43010.74483		224.98400		875.00000 
 43692.65567		 305.27265			43387.38302		68.21400		324.00000 
 43692.65567		 681.91084			43010.74483		224.98400		875.00000 
 43692.65567		 305.27265			43387.38302		68.21400		324.00000 
 43692.65567		 681.91084			43010.74483		224.98400		875.00000 
 43692.65567		 305.27265			43387.38302		68.21400		324.00000 
 43692.65567		 681.91084			43010.74483		224.98400		875.00000 
 43692.65567		 305.27265			43387.38302		68.21400		324.00000 
 43692.65567		 681.91084			43010.74483		224.98400		875.00000 
 43692.65567		 305.27265			43387.38302		68.21400		324.00000 
 43692.65567		 681.91084			43010.74483		224.98400		875.00000 
 43692.65567		 305.27265			43387.38302		68.21400		324.00000 
 43692.65567		 681.91084			43010.74483		224.98400		875.00000 
 43692.65567		 305.27265			43387.38302		68.21400		324.00000 
 43692.65567		 681.91084			43010.74483		224.98400		875.00000 
 43692.65567		 305.27265			43387.38302		68.21400		324.00000 
 43692.65567		 681.91084			43010.74483		224.98400		875.00000 
 43692.65567		 305.27265			43387.38302		68.21400		324.00000 
 43692.65567		 681.91084			43010.74483		224.98400		875.00000 
 43692.65567		 305.27265			43387.38302		68.21400		324.00000 
 43692.65567		 681.91084			43010.74483		224.98400		875.00000 
 43692.65567		 305.27265			43387.38302		68.21400		324.00000 
 43692.65567		 681.91084			43010.74483		224.98400		875.00000 
 43692.65567		 305.27265			43387.38302		68.21400		324.00000 
 43692.65567		 681.91084			43010.74483		224.98400		875.00000 
 43692.65567		 305.27265			43387.38302		68.21400		324.00000 
 43692.65567		 681.91084			43010.74483		224.98400		875.00000 
 43692.65567		 305.27265			43387.38302		68.21400		324.00000 
 43692.65567		 681.91084			43010.74483		224.98400		875.00000 
 43692.65567		 305.27265			43387.38302		68.21400		324.00000 
 43692.65567		 681.91084			43010.74483		224.98400		875.00000 
 43692.65567		 305.27265			43387.38302		68.21400		324.00000 
 43692.65567		 681.91084			43010.74483		224.98400		875.00000 
 43692.65567		 305.27265			43387.38302		68.21400		324.00000 
 43692.65567		 681.91084			43010.74483		224.98400		875.00000 
 43692.65567		 305.27265			43387.38302		68.21400		324.00000 
 43692.65567		 681.91084			43010.74483		224.98400		875.00000 
 43692.65567		 305.27265			43387.38302		68.21400		324.00000 
 43692.65567		 681.91084			43010.74483		224.98400		875.00000 
 43692.65567		 305.27265			43387.38302		68.21400		324.00000 
 43692.65567		 681.91084			43010.74483		224.98400		875.00000 
 43692.65567		 305.27265			43387.38302		68.21400		324.00000 
 43692.65567		 681.91084			43010.74483		224.98400		875.00000 
 43692.65567		 305.27265			43387.38302		68.21400		324.00000 
 43692.65567		 681.91084			43010.74483		224.98400		875.00000 
 43692.65567		 305.27265			43387.38302		68.21400		324.00000 
 43692.65567		 681.91084			43010.74483		224.98400		875.00000 
 43692.65567		 305.27265			43387.38302		68.21400		324.00000 
 43692.65567		 681.91084			43010.74483		224.98400		875.00000 
 43692.65567		 305.27265			43387.38302		68.21400		324.00000 
 43692.65567		 681.91084			43010.74483		224.98400		875.00000 
 43692.65567		 305.27265			43387.38302		68.21400		324.00000 
 43692.65567		 681.91084			43010.74483		224.98400		875.00000 
 43692.65567		 305.27265			43387.38302		68.21400		324.00000 
 43692.65567		 681.91084			43010.74483		224.98400		875.00000 
 43692.65567		 305.27265			43387.38302		68.21400		324.00000 
 43692.65567		 681.91084			43010.74483		224.98400		875.00000 
 43692.65567		 305.27265			43387.38302		68.21400		324.00000 
 43692.65567		 681.91084			43010.74483		224.98400		875.00000 
 43692.65567		 305.27265			43387.38302		68.21400		324.00000 
 43692.65567		 681.91084			43010.74483		224.98400		875.00000 
 43692.65567		 305.27265			43387.38302		68.21400		324.00000 
 43692.65567		 681.91084			43010.74483		224.98400		875.00000 
 43692.65567		 305.27265			43387.38302		68.21400		324.00000 
 43692.65567		 681.91084			43010.74483		224.98400		875.00000 
 43692.65567		 305.27265			43387.38302		68.21400		324.00000 
 43692.65567		 681.91084			43010.74483		224.98400		875.00000 
 43692.65567		 305.27265			43387.38302		68.21400		324.00000 
 43692.65567		 681.91084			43010.74483		224.98400		875.00000 
 43692.65567		 305.27265			43387.38302		68.21400		324.00000 
 43692.65567		 681.91084			43010.74483		224.98400		875.00000 
 43692.65567		 305.27265			43387.38302		68.21400		324.00000 
 43692.65567		 681.91084			43010.74483		224.98400		875.00000 
 43692.65567		 305.27265			43387.38302		68.21400		324.00000 
 43692.65567		 681.91084			43010.74483		224.98400		875.00000 
 43692.65567		 305.27265			43387.38302		68.21400		324.00000 
 43692.65567		 681.91084			43010.74483		224.98400		875.00000 
 43692.65567		 305.27265			43387.38302		68.21400		324.00000 
 43692.65567		 681.91084			43010.74483		224.98400		875.00000 
 43692.65567		 305.27265			43387.38302		68.21400		324.00000 
 43692.65567		 681.91084			43010.74483		224.98400		875.00000 
 43692.65567		 305.27265			43387.38302		68.21400		324.00000 
 43692.65567		 633.69734			43058.95834		224.98400		875.00000 
 43692.65567		 305.27265			43387.38302		68.21400		324.00000 
 43692.65567		 585.48383			43107.17184		224.98400		875.00000 
 43692.65567		 305.27265			43387.38302		68.21400		324.00000 
 43692.65567		 537.27032			43155.38535		220.13600		875.00000 
 43692.65567		 305.27265			43387.38302		68.21400		324.00000 
 43692.65567		 537.27032			43155.38535		220.13600		875.00000 
 43692.65567		 305.27265			43387.38302		68.21400		324.00000 
 43692.65567		 537.27032			43155.38535		220.13600		875.00000 
 43692.65567		 305.27265			43387.38302		68.21400		324.00000 
 43692.65567		 537.27032			43155.38535		220.13600		875.00000 
 43692.65567		 305.27265			43387.38302		68.21400		324.00000 
 43692.65567		 537.27032			43155.38535		220.13600		875.00000 
 43692.65567		 305.27265			43387.38302		68.21400		324.00000 
 43692.65567		 537.27032			43155.38535		220.13600		875.00000 
 43692.65567		 305.27265			43387.38302		68.21400		324.00000 
 43692.65567		 537.27032			43155.38535		220.13600		875.00000 
 43692.65567		 305.27265			43387.38302		68.21400		324.00000 
 43692.65567		 537.27032			43155.38535		220.13600		875.00000 
 43692.65567		 305.27265			43387.38302		68.21400		324.00000 
 43692.65567		 537.27032			43155.38535		220.13600		875.00000 
 43692.65567		 305.27265			43387.38302		68.21400		324.00000 
 43692.65567		 537.27032			43155.38535		220.13600		875.00000 
 43692.65567		 305.27265			43387.38302		68.21400		324.00000 
 43692.65567		 537.27032			43155.38535		220.13600		875.00000 
 43692.65567		 305.27265			43387.38302		68.21400		324.00000 
 43692.65567		 537.27032			43155.38535		220.13600		875.00000 
 43692.65567		 305.27265			43387.38302		68.21400		324.00000 
 43692.65567		 537.27032			43155.38535		220.13600		875.00000 
 43692.65567		 305.27265			43387.38302		68.21400		324.00000 
 43692.65567		 537.27032			43155.38535		220.13600		875.00000 
 43692.65567		 305.27265			43387.38302		68.21400		324.00000 
 43692.65567		 537.27032			43155.38535		220.13600		875.00000 
 43692.65567		 305.27265			43387.38302		68.21400		324.00000 
 43692.65567		 537.27032			43155.38535		220.13600		875.00000 
 43692.65567		 305.27265			43387.38302		68.21400		324.00000 
 43692.65567		 537.27032			43155.38535		220.13600		875.00000 
 43692.65567		 305.27265			43387.38302		68.21400		324.00000 
 43692.65567		 537.27032			43155.38535		220.13600		875.00000 
 43692.65567		 305.27265			43387.38302		68.21400		324.00000 
 43692.65567		 537.27032			43155.38535		220.13600		875.00000 
 43692.65567		 305.27265			43387.38302		68.21400		324.00000 
 43692.65567		 529.63254			43163.02313		220.13600		875.00000 
 43692.65567		 305.27265			43387.38302		68.21400		324.00000 
 43692.65567		 525.81365			43166.84203		220.13600		875.00000 
 43692.65567		 305.27265			43387.38302		68.21400		324.00000 
 43692.65567		 525.81365			43166.84203		220.13600		875.00000 
 43692.65567		 261.35540			43431.30027		68.21400		324.00000 
