Memory Total (MiB) 	 Memory Used (MiB) 	    Memory Free (MiB) 	 Power Drawed (W) 	 Clocks (Mhz) 	 
 43692.65567		 261.35540			43431.30027		183.03800		875.00000 
 43692.65567		 261.35540			43431.30027		70.12600		324.00000 
 43692.65567		 261.35540			43431.30027		183.03800		875.00000 
 43692.65567		 261.35540			43431.30027		70.12600		324.00000 
 43692.65567		 261.35540			43431.30027		183.03800		875.00000 
 43692.65567		 261.35540			43431.30027		70.12600		324.00000 
 43692.65567		 261.35540			43431.30027		183.03800		875.00000 
 43692.65567		 261.35540			43431.30027		70.12600		324.00000 
 43692.65567		 261.35540			43431.30027		183.03800		875.00000 
 43692.65567		 261.35540			43431.30027		70.12600		324.00000 
 43692.65567		 261.35540			43431.30027		183.03800		875.00000 
 43692.65567		 261.35540			43431.30027		70.12600		324.00000 
 43692.65567		 261.35540			43431.30027		183.03800		875.00000 
 43692.65567		 261.35540			43431.30027		70.12600		324.00000 
 43692.65567		 261.35540			43431.30027		183.03800		875.00000 
 43692.65567		 261.35540			43431.30027		70.12600		324.00000 
 43692.65567		 261.35540			43431.30027		183.03800		875.00000 
 43692.65567		 261.35540			43431.30027		70.12600		324.00000 
 43692.65567		 261.35540			43431.30027		183.03800		875.00000 
 43692.65567		 261.35540			43431.30027		70.12600		324.00000 
 43692.65567		 261.35540			43431.30027		183.03800		875.00000 
 43692.65567		 261.35540			43431.30027		70.12600		324.00000 
 43692.65567		 261.35540			43431.30027		183.03800		875.00000 
 43692.65567		 261.35540			43431.30027		70.12600		324.00000 
 43692.65567		 261.35540			43431.30027		183.03800		875.00000 
 43692.65567		 261.35540			43431.30027		70.12600		324.00000 
 43692.65567		 261.35540			43431.30027		183.03800		875.00000 
 43692.65567		 261.35540			43431.30027		70.12600		324.00000 
 43692.65567		 261.35540			43431.30027		183.03800		875.00000 
 43692.65567		 261.35540			43431.30027		70.12600		324.00000 
 43692.65567		 261.35540			43431.30027		183.03800		875.00000 
 43692.65567		 261.35540			43431.30027		70.12600		324.00000 
 43692.65567		 261.35540			43431.30027		183.03800		875.00000 
 43692.65567		 261.35540			43431.30027		70.12600		324.00000 
 43692.65567		 261.35540			43431.30027		151.45400		875.00000 
 43692.65567		 261.35540			43431.30027		70.12600		324.00000 
 43692.65567		 265.17429			43427.48138		151.45400		875.00000 
 43692.65567		 261.35540			43431.30027		70.12600		324.00000 
 43692.65567		 265.17429			43427.48138		151.45400		875.00000 
 43692.65567		 261.35540			43431.30027		70.12600		324.00000 
 43692.65567		 272.81207			43419.84360		151.45400		875.00000 
 43692.65567		 261.35540			43431.30027		70.12600		324.00000 
 43692.65567		 272.81207			43419.84360		151.45400		875.00000 
 43692.65567		 261.35540			43431.30027		70.12600		324.00000 
 43692.65567		 272.81207			43419.84360		151.45400		875.00000 
 43692.65567		 265.17429			43427.48138		70.12600		324.00000 
 43692.65567		 272.81207			43419.84360		151.45400		875.00000 
 43692.65567		 265.17429			43427.48138		70.12600		324.00000 
 43692.65567		 272.81207			43419.84360		151.45400		875.00000 
 43692.65567		 265.17429			43427.48138		70.12600		324.00000 
 43692.65567		 272.81207			43419.84360		151.45400		875.00000 
 43692.65567		 272.81207			43419.84360		70.12600		324.00000 
 43692.65567		 272.81207			43419.84360		151.45400		875.00000 
 43692.65567		 272.81207			43419.84360		70.12600		324.00000 
 43692.65567		 272.81207			43419.84360		151.45400		875.00000 
 43692.65567		 272.81207			43419.84360		70.12600		324.00000 
 43692.65567		 305.27265			43387.38302		151.45400		875.00000 
 43692.65567		 305.27265			43387.38302		70.12600		324.00000 
 43692.65567		 305.27265			43387.38302		151.45400		875.00000 
 43692.65567		 305.27265			43387.38302		70.12600		324.00000 
 43692.65567		 305.27265			43387.38302		151.45400		875.00000 
 43692.65567		 305.27265			43387.38302		70.12600		324.00000 
 43692.65567		 305.27265			43387.38302		151.45400		875.00000 
 43692.65567		 305.27265			43387.38302		70.12600		324.00000 
 43692.65567		 305.27265			43387.38302		151.45400		875.00000 
 43692.65567		 305.27265			43387.38302		70.12600		324.00000 
 43692.65567		 309.09154			43383.56413		151.45400		875.00000 
 43692.65567		 305.27265			43387.38302		70.12600		324.00000 
 43692.65567		 310.52363			43382.13204		151.45400		875.00000 
 43692.65567		 305.27265			43387.38302		70.12600		324.00000 
 43692.65567		 311.00099			43381.65468		151.45400		875.00000 
 43692.65567		 305.27265			43387.38302		70.12600		324.00000 
 43692.65567		 311.00099			43381.65468		151.45400		875.00000 
 43692.65567		 305.27265			43387.38302		70.12600		324.00000 
 43692.65567		 311.00099			43381.65468		151.45400		875.00000 
 43692.65567		 305.27265			43387.38302		70.12600		324.00000 
 43692.65567		 311.00099			43381.65468		151.45400		875.00000 
 43692.65567		 305.27265			43387.38302		70.12600		324.00000 
 43692.65567		 311.00099			43381.65468		151.45400		875.00000 
 43692.65567		 305.27265			43387.38302		70.12600		324.00000 
 43692.65567		 311.00099			43381.65468		151.45400		875.00000 
 43692.65567		 305.27265			43387.38302		70.12600		324.00000 
 43692.65567		 311.00099			43381.65468		151.45400		875.00000 
 43692.65567		 305.27265			43387.38302		70.12600		324.00000 
 43692.65567		 311.00099			43381.65468		151.45400		875.00000 
 43692.65567		 305.27265			43387.38302		70.12600		324.00000 
 43692.65567		 311.00099			43381.65468		151.45400		875.00000 
 43692.65567		 305.27265			43387.38302		70.12600		324.00000 
 43692.65567		 311.00099			43381.65468		151.45400		875.00000 
 43692.65567		 305.27265			43387.38302		70.12600		324.00000 
 43692.65567		 311.00099			43381.65468		151.45400		875.00000 
 43692.65567		 305.27265			43387.38302		70.12600		324.00000 
 43692.65567		 311.00099			43381.65468		151.45400		875.00000 
 43692.65567		 305.27265			43387.38302		70.12600		324.00000 
 43692.65567		 311.00099			43381.65468		139.28000		875.00000 
 43692.65567		 305.27265			43387.38302		70.12600		324.00000 
 43692.65567		 311.00099			43381.65468		139.28000		875.00000 
 43692.65567		 305.27265			43387.38302		70.12600		324.00000 
 43692.65567		 311.00099			43381.65468		139.28000		875.00000 
 43692.65567		 305.27265			43387.38302		70.12600		324.00000 
 43692.65567		 311.00099			43381.65468		139.28000		875.00000 
 43692.65567		 305.27265			43387.38302		70.12600		324.00000 
 43692.65567		 311.00099			43381.65468		139.28000		875.00000 
 43692.65567		 305.27265			43387.38302		70.12600		324.00000 
 43692.65567		 311.00099			43381.65468		139.28000		875.00000 
 43692.65567		 305.27265			43387.38302		70.12600		324.00000 
 43692.65567		 311.00099			43381.65468		139.28000		875.00000 
 43692.65567		 305.27265			43387.38302		70.12600		324.00000 
 43692.65567		 311.00099			43381.65468		139.28000		875.00000 
 43692.65567		 305.27265			43387.38302		70.12600		324.00000 
 43692.65567		 311.00099			43381.65468		139.28000		875.00000 
 43692.65567		 305.27265			43387.38302		70.12600		324.00000 
 43692.65567		 311.00099			43381.65468		139.28000		875.00000 
 43692.65567		 305.27265			43387.38302		70.12600		324.00000 
 43692.65567		 311.00099			43381.65468		139.28000		875.00000 
 43692.65567		 305.27265			43387.38302		70.12600		324.00000 
 43692.65567		 311.00099			43381.65468		139.28000		875.00000 
 43692.65567		 305.27265			43387.38302		70.12600		324.00000 
 43692.65567		 311.00099			43381.65468		139.28000		875.00000 
 43692.65567		 305.27265			43387.38302		70.12600		324.00000 
 43692.65567		 311.00099			43381.65468		139.28000		875.00000 
 43692.65567		 305.27265			43387.38302		70.12600		324.00000 
 43692.65567		 311.00099			43381.65468		139.28000		875.00000 
 43692.65567		 305.27265			43387.38302		70.12600		324.00000 
 43692.65567		 311.00099			43381.65468		139.28000		875.00000 
 43692.65567		 305.27265			43387.38302		70.12600		324.00000 
 43692.65567		 311.00099			43381.65468		139.28000		875.00000 
 43692.65567		 305.27265			43387.38302		70.12600		324.00000 
 43692.65567		 311.00099			43381.65468		139.28000		875.00000 
 43692.65567		 305.27265			43387.38302		70.12600		324.00000 
 43692.65567		 311.00099			43381.65468		139.28000		875.00000 
 43692.65567		 305.27265			43387.38302		70.12600		324.00000 
 43692.65567		 311.00099			43381.65468		139.28000		875.00000 
 43692.65567		 305.27265			43387.38302		70.12600		324.00000 
 43692.65567		 311.00099			43381.65468		139.28000		875.00000 
 43692.65567		 305.27265			43387.38302		70.12600		324.00000 
 43692.65567		 311.00099			43381.65468		139.28000		875.00000 
 43692.65567		 305.27265			43387.38302		70.12600		324.00000 
 43692.65567		 311.00099			43381.65468		139.28000		875.00000 
 43692.65567		 305.27265			43387.38302		70.12600		324.00000 
 43692.65567		 311.00099			43381.65468		139.28000		875.00000 
 43692.65567		 305.27265			43387.38302		70.12600		324.00000 
 43692.65567		 311.00099			43381.65468		139.28000		875.00000 
 43692.65567		 305.27265			43387.38302		70.12600		324.00000 
 43692.65567		 311.00099			43381.65468		139.28000		875.00000 
 43692.65567		 305.27265			43387.38302		70.12600		324.00000 
 43692.65567		 311.00099			43381.65468		139.28000		875.00000 
 43692.65567		 305.27265			43387.38302		70.12600		324.00000 
 43692.65567		 311.00099			43381.65468		139.28000		875.00000 
 43692.65567		 305.27265			43387.38302		70.12600		324.00000 
 43692.65567		 311.00099			43381.65468		139.28000		875.00000 
 43692.65567		 305.27265			43387.38302		70.12600		324.00000 
 43692.65567		 311.00099			43381.65468		139.28000		875.00000 
 43692.65567		 305.27265			43387.38302		70.12600		324.00000 
 43692.65567		 311.00099			43381.65468		139.28000		875.00000 
 43692.65567		 305.27265			43387.38302		70.12600		324.00000 
 43692.65567		 311.00099			43381.65468		135.03600		875.00000 
 43692.65567		 305.27265			43387.38302		70.12600		324.00000 
 43692.65567		 311.00099			43381.65468		135.03600		875.00000 
 43692.65567		 305.27265			43387.38302		70.12600		324.00000 
 43692.65567		 311.00099			43381.65468		135.03600		875.00000 
 43692.65567		 305.27265			43387.38302		70.12600		324.00000 
 43692.65567		 311.00099			43381.65468		135.03600		875.00000 
 43692.65567		 305.27265			43387.38302		70.12600		324.00000 
 43692.65567		 311.00099			43381.65468		135.03600		875.00000 
 43692.65567		 305.27265			43387.38302		70.12600		324.00000 
 43692.65567		 311.00099			43381.65468		135.03600		875.00000 
 43692.65567		 305.27265			43387.38302		70.12600		324.00000 
 43692.65567		 311.00099			43381.65468		135.03600		875.00000 
 43692.65567		 305.27265			43387.38302		70.12600		324.00000 
 43692.65567		 314.81988			43377.83579		135.03600		875.00000 
 43692.65567		 305.27265			43387.38302		70.12600		324.00000 
 43692.65567		 314.81988			43377.83579		135.03600		875.00000 
 43692.65567		 305.27265			43387.38302		70.12600		324.00000 
 43692.65567		 314.81988			43377.83579		135.03600		875.00000 
 43692.65567		 305.27265			43387.38302		70.12600		324.00000 
 43692.65567		 318.63877			43374.01690		135.03600		875.00000 
 43692.65567		 305.27265			43387.38302		70.12600		324.00000 
 43692.65567		 322.45767			43370.19801		135.03600		875.00000 
 43692.65567		 305.27265			43387.38302		70.12600		324.00000 
 43692.65567		 326.27656			43366.37912		135.03600		875.00000 
 43692.65567		 305.27265			43387.38302		70.12600		324.00000 
 43692.65567		 326.27656			43366.37912		135.03600		875.00000 
 43692.65567		 305.27265			43387.38302		70.12600		324.00000 
 43692.65567		 326.27656			43366.37912		135.03600		875.00000 
 43692.65567		 305.27265			43387.38302		70.12600		324.00000 
 43692.65567		 537.27032			43155.38535		135.03600		875.00000 
 43692.65567		 305.27265			43387.38302		70.12600		324.00000 
 43692.65567		 813.18525			42879.47043		135.03600		875.00000 
 43692.65567		 305.27265			43387.38302		70.12600		324.00000 
 43692.65567		 951.14271			42741.51297		135.03600		875.00000 
 43692.65567		 305.27265			43387.38302		70.12600		324.00000 
 43692.65567		 951.14271			42741.51297		135.03600		875.00000 
 43692.65567		 305.27265			43387.38302		70.12600		324.00000 
 43692.65567		 951.14271			42741.51297		135.03600		875.00000 
 43692.65567		 305.27265			43387.38302		70.12600		324.00000 
 43692.65567		 951.14271			42741.51297		135.03600		875.00000 
 43692.65567		 305.27265			43387.38302		70.12600		324.00000 
 43692.65567		 951.14271			42741.51297		135.03600		875.00000 
 43692.65567		 305.27265			43387.38302		70.12600		324.00000 
 43692.65567		 951.14271			42741.51297		135.03600		875.00000 
 43692.65567		 305.27265			43387.38302		70.12600		324.00000 
 43692.65567		 951.14271			42741.51297		135.03600		875.00000 
 43692.65567		 305.27265			43387.38302		65.72800		324.00000 
 43692.65567		 951.14271			42741.51297		135.03600		875.00000 
 43692.65567		 305.27265			43387.38302		65.72800		324.00000 
 43692.65567		 951.14271			42741.51297		135.03600		875.00000 
 43692.65567		 305.27265			43387.38302		65.72800		324.00000 
 43692.65567		 951.14271			42741.51297		135.03600		875.00000 
 43692.65567		 305.27265			43387.38302		65.72800		324.00000 
 43692.65567		 951.14271			42741.51297		135.03600		875.00000 
 43692.65567		 305.27265			43387.38302		65.72800		324.00000 
 43692.65567		 951.14271			42741.51297		135.03600		875.00000 
 43692.65567		 305.27265			43387.38302		65.72800		324.00000 
 43692.65567		 951.14271			42741.51297		135.03600		875.00000 
 43692.65567		 305.27265			43387.38302		65.72800		324.00000 
 43692.65567		 951.14271			42741.51297		135.03600		875.00000 
 43692.65567		 305.27265			43387.38302		65.72800		324.00000 
 43692.65567		 951.14271			42741.51297		135.03600		875.00000 
 43692.65567		 305.27265			43387.38302		65.72800		324.00000 
 43692.65567		 951.14271			42741.51297		135.03600		875.00000 
 43692.65567		 305.27265			43387.38302		65.72800		324.00000 
 43692.65567		 951.14271			42741.51297		135.03600		875.00000 
 43692.65567		 305.27265			43387.38302		65.72800		324.00000 
 43692.65567		 951.14271			42741.51297		135.03600		875.00000 
 43692.65567		 305.27265			43387.38302		65.72800		324.00000 
 43692.65567		 951.14271			42741.51297		135.03600		875.00000 
 43692.65567		 305.27265			43387.38302		65.72800		324.00000 
 43692.65567		 951.14271			42741.51297		135.03600		875.00000 
 43692.65567		 305.27265			43387.38302		65.72800		324.00000 
 43692.65567		 951.14271			42741.51297		135.03600		875.00000 
 43692.65567		 305.27265			43387.38302		65.72800		324.00000 
 43692.65567		 951.14271			42741.51297		135.03600		875.00000 
 43692.65567		 305.27265			43387.38302		65.72800		324.00000 
 43692.65567		 951.14271			42741.51297		135.03600		875.00000 
 43692.65567		 305.27265			43387.38302		65.72800		324.00000 
 43692.65567		 951.14271			42741.51297		135.03600		875.00000 
 43692.65567		 305.27265			43387.38302		65.72800		324.00000 
 43692.65567		 951.14271			42741.51297		135.03600		875.00000 
 43692.65567		 305.27265			43387.38302		65.72800		324.00000 
 43692.65567		 951.14271			42741.51297		135.03600		875.00000 
 43692.65567		 305.27265			43387.38302		65.72800		324.00000 
 43692.65567		 951.14271			42741.51297		135.03600		875.00000 
 43692.65567		 305.27265			43387.38302		65.72800		324.00000 
 43692.65567		 951.14271			42741.51297		135.03600		875.00000 
 43692.65567		 305.27265			43387.38302		65.72800		324.00000 
 43692.65567		 951.14271			42741.51297		135.03600		875.00000 
 43692.65567		 305.27265			43387.38302		65.72800		324.00000 
 43692.65567		 951.14271			42741.51297		170.94000		875.00000 
 43692.65567		 305.27265			43387.38302		65.72800		324.00000 
 43692.65567		 951.14271			42741.51297		170.94000		875.00000 
 43692.65567		 305.27265			43387.38302		65.72800		324.00000 
 43692.65567		 951.14271			42741.51297		170.94000		875.00000 
 43692.65567		 305.27265			43387.38302		65.72800		324.00000 
 43692.65567		 951.14271			42741.51297		170.94000		875.00000 
 43692.65567		 305.27265			43387.38302		65.72800		324.00000 
 43692.65567		 951.14271			42741.51297		170.94000		875.00000 
 43692.65567		 305.27265			43387.38302		65.72800		324.00000 
 43692.65567		 951.14271			42741.51297		170.94000		875.00000 
 43692.65567		 305.27265			43387.38302		65.72800		324.00000 
 43692.65567		 951.14271			42741.51297		170.94000		875.00000 
 43692.65567		 305.27265			43387.38302		65.72800		324.00000 
 43692.65567		 951.14271			42741.51297		170.94000		875.00000 
 43692.65567		 305.27265			43387.38302		65.72800		324.00000 
 43692.65567		 951.14271			42741.51297		170.94000		875.00000 
 43692.65567		 305.27265			43387.38302		65.72800		324.00000 
 43692.65567		 951.14271			42741.51297		170.94000		875.00000 
 43692.65567		 305.27265			43387.38302		65.72800		324.00000 
 43692.65567		 951.14271			42741.51297		170.94000		875.00000 
 43692.65567		 305.27265			43387.38302		65.72800		324.00000 
 43692.65567		 951.14271			42741.51297		170.94000		875.00000 
 43692.65567		 305.27265			43387.38302		65.72800		324.00000 
 43692.65567		 951.14271			42741.51297		170.94000		875.00000 
 43692.65567		 305.27265			43387.38302		65.72800		324.00000 
 43692.65567		 951.14271			42741.51297		170.94000		875.00000 
 43692.65567		 305.27265			43387.38302		65.72800		324.00000 
 43692.65567		 951.14271			42741.51297		170.94000		875.00000 
 43692.65567		 305.27265			43387.38302		65.72800		324.00000 
 43692.65567		 951.14271			42741.51297		170.94000		875.00000 
 43692.65567		 305.27265			43387.38302		65.72800		324.00000 
 43692.65567		 951.14271			42741.51297		170.94000		875.00000 
 43692.65567		 305.27265			43387.38302		65.72800		324.00000 
 43692.65567		 951.14271			42741.51297		170.94000		875.00000 
 43692.65567		 305.27265			43387.38302		65.72800		324.00000 
 43692.65567		 951.14271			42741.51297		170.94000		875.00000 
 43692.65567		 305.27265			43387.38302		65.72800		324.00000 
 43692.65567		 951.14271			42741.51297		170.94000		875.00000 
 43692.65567		 305.27265			43387.38302		65.72800		324.00000 
 43692.65567		 951.14271			42741.51297		170.94000		875.00000 
 43692.65567		 305.27265			43387.38302		65.72800		324.00000 
 43692.65567		 951.14271			42741.51297		170.94000		875.00000 
 43692.65567		 305.27265			43387.38302		65.72800		324.00000 
 43692.65567		 951.14271			42741.51297		170.94000		875.00000 
 43692.65567		 305.27265			43387.38302		65.72800		324.00000 
 43692.65567		 951.14271			42741.51297		170.94000		875.00000 
 43692.65567		 305.27265			43387.38302		65.72800		324.00000 
 43692.65567		 951.14271			42741.51297		170.94000		875.00000 
 43692.65567		 305.27265			43387.38302		65.72800		324.00000 
 43692.65567		 951.14271			42741.51297		170.94000		875.00000 
 43692.65567		 305.27265			43387.38302		65.72800		324.00000 
 43692.65567		 951.14271			42741.51297		170.94000		875.00000 
 43692.65567		 305.27265			43387.38302		65.72800		324.00000 
 43692.65567		 951.14271			42741.51297		170.94000		875.00000 
 43692.65567		 305.27265			43387.38302		65.72800		324.00000 
 43692.65567		 951.14271			42741.51297		170.94000		875.00000 
 43692.65567		 305.27265			43387.38302		65.72800		324.00000 
 43692.65567		 951.14271			42741.51297		170.94000		875.00000 
 43692.65567		 305.27265			43387.38302		65.72800		324.00000 
 43692.65567		 951.14271			42741.51297		170.94000		875.00000 
 43692.65567		 305.27265			43387.38302		65.72800		324.00000 
 43692.65567		 951.14271			42741.51297		170.94000		875.00000 
 43692.65567		 305.27265			43387.38302		65.72800		324.00000 
 43692.65567		 951.14271			42741.51297		170.94000		875.00000 
 43692.65567		 305.27265			43387.38302		65.72800		324.00000 
 43692.65567		 951.14271			42741.51297		170.94000		875.00000 
 43692.65567		 305.27265			43387.38302		65.72800		324.00000 
 43692.65567		 951.14271			42741.51297		170.94000		875.00000 
 43692.65567		 305.27265			43387.38302		65.72800		324.00000 
 43692.65567		 951.14271			42741.51297		170.94000		875.00000 
 43692.65567		 305.27265			43387.38302		65.72800		324.00000 
 43692.65567		 951.14271			42741.51297		170.94000		875.00000 
 43692.65567		 305.27265			43387.38302		65.72800		324.00000 
 43692.65567		 951.14271			42741.51297		170.94000		875.00000 
 43692.65567		 305.27265			43387.38302		65.72800		324.00000 
 43692.65567		 951.14271			42741.51297		170.94000		875.00000 
 43692.65567		 305.27265			43387.38302		65.72800		324.00000 
 43692.65567		 951.14271			42741.51297		170.94000		875.00000 
 43692.65567		 305.27265			43387.38302		65.72800		324.00000 
 43692.65567		 951.14271			42741.51297		170.94000		875.00000 
 43692.65567		 305.27265			43387.38302		65.72800		324.00000 
 43692.65567		 951.14271			42741.51297		170.94000		875.00000 
 43692.65567		 305.27265			43387.38302		65.72800		324.00000 
 43692.65567		 951.14271			42741.51297		170.94000		875.00000 
 43692.65567		 305.27265			43387.38302		65.72800		324.00000 
 43692.65567		 951.14271			42741.51297		170.94000		875.00000 
 43692.65567		 305.27265			43387.38302		65.72800		324.00000 
 43692.65567		 951.14271			42741.51297		170.94000		875.00000 
 43692.65567		 305.27265			43387.38302		65.72800		324.00000 
 43692.65567		 951.14271			42741.51297		170.94000		875.00000 
 43692.65567		 305.27265			43387.38302		65.72800		324.00000 
 43692.65567		 951.14271			42741.51297		170.94000		875.00000 
 43692.65567		 305.27265			43387.38302		65.72800		324.00000 
 43692.65567		 951.14271			42741.51297		170.94000		875.00000 
 43692.65567		 305.27265			43387.38302		65.72800		324.00000 
 43692.65567		 951.14271			42741.51297		170.94000		875.00000 
 43692.65567		 305.27265			43387.38302		65.72800		324.00000 
 43692.65567		 951.14271			42741.51297		170.94000		875.00000 
 43692.65567		 305.27265			43387.38302		65.72800		324.00000 
 43692.65567		 951.14271			42741.51297		170.94000		875.00000 
 43692.65567		 305.27265			43387.38302		65.72800		324.00000 
 43692.65567		 951.14271			42741.51297		170.94000		875.00000 
 43692.65567		 305.27265			43387.38302		65.72800		324.00000 
 43692.65567		 951.14271			42741.51297		170.94000		875.00000 
 43692.65567		 305.27265			43387.38302		65.72800		324.00000 
 43692.65567		 951.14271			42741.51297		170.94000		875.00000 
 43692.65567		 305.27265			43387.38302		65.72800		324.00000 
 43692.65567		 951.14271			42741.51297		170.94000		875.00000 
 43692.65567		 305.27265			43387.38302		65.72800		324.00000 
 43692.65567		 951.14271			42741.51297		170.94000		875.00000 
 43692.65567		 305.27265			43387.38302		65.72800		324.00000 
 43692.65567		 951.14271			42741.51297		170.94000		875.00000 
 43692.65567		 305.27265			43387.38302		65.72800		324.00000 
 43692.65567		 951.14271			42741.51297		170.94000		875.00000 
 43692.65567		 305.27265			43387.38302		65.72800		324.00000 
 43692.65567		 951.14271			42741.51297		170.94000		875.00000 
 43692.65567		 305.27265			43387.38302		65.72800		324.00000 
 43692.65567		 951.14271			42741.51297		170.94000		875.00000 
 43692.65567		 305.27265			43387.38302		65.72800		324.00000 
 43692.65567		 951.14271			42741.51297		170.94000		875.00000 
 43692.65567		 305.27265			43387.38302		65.72800		324.00000 
 43692.65567		 951.14271			42741.51297		170.94000		875.00000 
 43692.65567		 305.27265			43387.38302		65.72800		324.00000 
 43692.65567		 951.14271			42741.51297		170.94000		875.00000 
 43692.65567		 305.27265			43387.38302		65.72800		324.00000 
 43692.65567		 951.14271			42741.51297		170.94000		875.00000 
 43692.65567		 305.27265			43387.38302		65.72800		324.00000 
 43692.65567		 951.14271			42741.51297		170.94000		875.00000 
 43692.65567		 305.27265			43387.38302		65.72800		324.00000 
 43692.65567		 951.14271			42741.51297		170.94000		875.00000 
 43692.65567		 305.27265			43387.38302		65.72800		324.00000 
 43692.65567		 951.14271			42741.51297		170.94000		875.00000 
 43692.65567		 305.27265			43387.38302		65.72800		324.00000 
 43692.65567		 951.14271			42741.51297		170.94000		875.00000 
 43692.65567		 305.27265			43387.38302		65.72800		324.00000 
 43692.65567		 951.14271			42741.51297		205.48600		875.00000 
 43692.65567		 305.27265			43387.38302		65.72800		324.00000 
 43692.65567		 951.14271			42741.51297		205.48600		875.00000 
 43692.65567		 305.27265			43387.38302		65.72800		324.00000 
 43692.65567		 951.14271			42741.51297		205.48600		875.00000 
 43692.65567		 305.27265			43387.38302		65.72800		324.00000 
 43692.65567		 951.14271			42741.51297		205.48600		875.00000 
 43692.65567		 305.27265			43387.38302		65.72800		324.00000 
 43692.65567		 951.14271			42741.51297		205.48600		875.00000 
 43692.65567		 305.27265			43387.38302		65.72800		324.00000 
 43692.65567		 951.14271			42741.51297		205.48600		875.00000 
 43692.65567		 305.27265			43387.38302		65.72800		324.00000 
 43692.65567		 951.14271			42741.51297		205.48600		875.00000 
 43692.65567		 305.27265			43387.38302		65.72800		324.00000 
 43692.65567		 951.14271			42741.51297		205.48600		875.00000 
 43692.65567		 305.27265			43387.38302		65.72800		324.00000 
 43692.65567		 951.14271			42741.51297		205.48600		875.00000 
 43692.65567		 305.27265			43387.38302		65.72800		324.00000 
 43692.65567		 951.14271			42741.51297		205.48600		875.00000 
 43692.65567		 305.27265			43387.38302		65.72800		324.00000 
 43692.65567		 951.14271			42741.51297		205.48600		875.00000 
 43692.65567		 305.27265			43387.38302		65.72800		324.00000 
 43692.65567		 951.14271			42741.51297		205.48600		875.00000 
 43692.65567		 305.27265			43387.38302		65.72800		324.00000 
 43692.65567		 951.14271			42741.51297		205.48600		875.00000 
 43692.65567		 305.27265			43387.38302		65.72800		324.00000 
 43692.65567		 951.14271			42741.51297		205.48600		875.00000 
 43692.65567		 305.27265			43387.38302		65.72800		324.00000 
 43692.65567		 951.14271			42741.51297		205.48600		875.00000 
 43692.65567		 305.27265			43387.38302		65.72800		324.00000 
 43692.65567		 951.14271			42741.51297		205.48600		875.00000 
 43692.65567		 305.27265			43387.38302		65.72800		324.00000 
 43692.65567		 951.14271			42741.51297		205.48600		875.00000 
 43692.65567		 305.27265			43387.38302		65.72800		324.00000 
 43692.65567		 951.14271			42741.51297		205.48600		875.00000 
 43692.65567		 305.27265			43387.38302		65.72800		324.00000 
 43692.65567		 951.14271			42741.51297		205.48600		875.00000 
 43692.65567		 305.27265			43387.38302		65.72800		324.00000 
 43692.65567		 951.14271			42741.51297		205.48600		875.00000 
 43692.65567		 305.27265			43387.38302		65.72800		324.00000 
 43692.65567		 951.14271			42741.51297		205.48600		875.00000 
 43692.65567		 305.27265			43387.38302		65.72800		324.00000 
 43692.65567		 951.14271			42741.51297		205.48600		875.00000 
 43692.65567		 305.27265			43387.38302		65.72800		324.00000 
 43692.65567		 951.14271			42741.51297		205.48600		875.00000 
 43692.65567		 305.27265			43387.38302		65.72800		324.00000 
 43692.65567		 951.14271			42741.51297		205.48600		875.00000 
 43692.65567		 305.27265			43387.38302		65.72800		324.00000 
 43692.65567		 951.14271			42741.51297		205.48600		875.00000 
 43692.65567		 305.27265			43387.38302		65.72800		324.00000 
 43692.65567		 951.14271			42741.51297		205.48600		875.00000 
 43692.65567		 305.27265			43387.38302		65.72800		324.00000 
 43692.65567		 951.14271			42741.51297		205.48600		875.00000 
 43692.65567		 305.27265			43387.38302		65.72800		324.00000 
 43692.65567		 951.14271			42741.51297		205.48600		875.00000 
 43692.65567		 305.27265			43387.38302		65.72800		324.00000 
 43692.65567		 951.14271			42741.51297		205.48600		875.00000 
 43692.65567		 305.27265			43387.38302		65.72800		324.00000 
 43692.65567		 951.14271			42741.51297		205.48600		875.00000 
 43692.65567		 305.27265			43387.38302		65.72800		324.00000 
 43692.65567		 951.14271			42741.51297		205.48600		875.00000 
 43692.65567		 305.27265			43387.38302		65.72800		324.00000 
 43692.65567		 951.14271			42741.51297		205.48600		875.00000 
 43692.65567		 305.27265			43387.38302		65.72800		324.00000 
 43692.65567		 951.14271			42741.51297		205.48600		875.00000 
 43692.65567		 305.27265			43387.38302		65.72800		324.00000 
 43692.65567		 951.14271			42741.51297		205.48600		875.00000 
 43692.65567		 305.27265			43387.38302		65.72800		324.00000 
 43692.65567		 951.14271			42741.51297		205.48600		875.00000 
 43692.65567		 305.27265			43387.38302		65.72800		324.00000 
 43692.65567		 951.14271			42741.51297		205.48600		875.00000 
 43692.65567		 305.27265			43387.38302		65.72800		324.00000 
 43692.65567		 951.14271			42741.51297		205.48600		875.00000 
 43692.65567		 305.27265			43387.38302		65.72800		324.00000 
 43692.65567		 951.14271			42741.51297		205.48600		875.00000 
 43692.65567		 305.27265			43387.38302		65.72800		324.00000 
 43692.65567		 951.14271			42741.51297		205.48600		875.00000 
 43692.65567		 305.27265			43387.38302		65.72800		324.00000 
 43692.65567		 951.14271			42741.51297		205.48600		875.00000 
 43692.65567		 305.27265			43387.38302		65.72800		324.00000 
 43692.65567		 951.14271			42741.51297		205.48600		875.00000 
 43692.65567		 305.27265			43387.38302		65.72800		324.00000 
 43692.65567		 951.14271			42741.51297		205.48600		875.00000 
 43692.65567		 305.27265			43387.38302		65.72800		324.00000 
 43692.65567		 951.14271			42741.51297		205.48600		875.00000 
 43692.65567		 305.27265			43387.38302		65.72800		324.00000 
 43692.65567		 951.14271			42741.51297		205.48600		875.00000 
 43692.65567		 305.27265			43387.38302		65.72800		324.00000 
 43692.65567		 951.14271			42741.51297		205.48600		875.00000 
 43692.65567		 305.27265			43387.38302		65.72800		324.00000 
 43692.65567		 951.14271			42741.51297		205.48600		875.00000 
 43692.65567		 305.27265			43387.38302		65.72800		324.00000 
 43692.65567		 951.14271			42741.51297		205.48600		875.00000 
 43692.65567		 305.27265			43387.38302		65.72800		324.00000 
 43692.65567		 951.14271			42741.51297		205.48600		875.00000 
 43692.65567		 305.27265			43387.38302		65.72800		324.00000 
 43692.65567		 951.14271			42741.51297		205.48600		875.00000 
 43692.65567		 305.27265			43387.38302		65.72800		324.00000 
 43692.65567		 951.14271			42741.51297		205.48600		875.00000 
 43692.65567		 305.27265			43387.38302		65.72800		324.00000 
 43692.65567		 951.14271			42741.51297		205.48600		875.00000 
 43692.65567		 305.27265			43387.38302		65.72800		324.00000 
 43692.65567		 951.14271			42741.51297		205.48600		875.00000 
 43692.65567		 305.27265			43387.38302		65.72800		324.00000 
 43692.65567		 951.14271			42741.51297		205.48600		875.00000 
 43692.65567		 305.27265			43387.38302		65.72800		324.00000 
 43692.65567		 951.14271			42741.51297		205.48600		875.00000 
 43692.65567		 305.27265			43387.38302		65.72800		324.00000 
 43692.65567		 951.14271			42741.51297		205.48600		875.00000 
 43692.65567		 305.27265			43387.38302		65.72800		324.00000 
 43692.65567		 951.14271			42741.51297		205.48600		875.00000 
 43692.65567		 305.27265			43387.38302		65.72800		324.00000 
 43692.65567		 951.14271			42741.51297		205.48600		875.00000 
 43692.65567		 305.27265			43387.38302		65.72800		324.00000 
 43692.65567		 951.14271			42741.51297		205.48600		875.00000 
 43692.65567		 305.27265			43387.38302		65.72800		324.00000 
 43692.65567		 951.14271			42741.51297		205.48600		875.00000 
 43692.65567		 305.27265			43387.38302		65.72800		324.00000 
 43692.65567		 951.14271			42741.51297		205.48600		875.00000 
 43692.65567		 305.27265			43387.38302		65.72800		324.00000 
 43692.65567		 951.14271			42741.51297		205.48600		875.00000 
 43692.65567		 305.27265			43387.38302		65.72800		324.00000 
 43692.65567		 951.14271			42741.51297		205.48600		875.00000 
 43692.65567		 305.27265			43387.38302		65.72800		324.00000 
 43692.65567		 951.14271			42741.51297		205.48600		875.00000 
 43692.65567		 305.27265			43387.38302		65.72800		324.00000 
 43692.65567		 951.14271			42741.51297		205.48600		875.00000 
 43692.65567		 305.27265			43387.38302		65.72800		324.00000 
 43692.65567		 951.14271			42741.51297		205.48600		875.00000 
 43692.65567		 305.27265			43387.38302		65.72800		324.00000 
 43692.65567		 951.14271			42741.51297		218.59400		875.00000 
 43692.65567		 305.27265			43387.38302		65.72800		324.00000 
 43692.65567		 951.14271			42741.51297		218.59400		875.00000 
 43692.65567		 305.27265			43387.38302		65.72800		324.00000 
 43692.65567		 951.14271			42741.51297		218.59400		875.00000 
 43692.65567		 305.27265			43387.38302		65.72800		324.00000 
 43692.65567		 951.14271			42741.51297		218.59400		875.00000 
 43692.65567		 305.27265			43387.38302		65.72800		324.00000 
 43692.65567		 951.14271			42741.51297		218.59400		875.00000 
 43692.65567		 305.27265			43387.38302		65.72800		324.00000 
 43692.65567		 951.14271			42741.51297		218.59400		875.00000 
 43692.65567		 305.27265			43387.38302		65.72800		324.00000 
 43692.65567		 951.14271			42741.51297		218.59400		875.00000 
 43692.65567		 305.27265			43387.38302		65.72800		324.00000 
 43692.65567		 951.14271			42741.51297		218.59400		875.00000 
 43692.65567		 305.27265			43387.38302		65.72800		324.00000 
 43692.65567		 951.14271			42741.51297		218.59400		875.00000 
 43692.65567		 305.27265			43387.38302		65.72800		324.00000 
 43692.65567		 951.14271			42741.51297		218.59400		875.00000 
 43692.65567		 305.27265			43387.38302		65.72800		324.00000 
 43692.65567		 951.14271			42741.51297		218.59400		875.00000 
 43692.65567		 305.27265			43387.38302		65.72800		324.00000 
 43692.65567		 951.14271			42741.51297		218.59400		875.00000 
 43692.65567		 305.27265			43387.38302		65.72800		324.00000 
 43692.65567		 951.14271			42741.51297		218.59400		875.00000 
 43692.65567		 305.27265			43387.38302		65.72800		324.00000 
 43692.65567		 951.14271			42741.51297		218.59400		875.00000 
 43692.65567		 305.27265			43387.38302		65.72800		324.00000 
 43692.65567		 951.14271			42741.51297		218.59400		875.00000 
 43692.65567		 305.27265			43387.38302		65.72800		324.00000 
 43692.65567		 951.14271			42741.51297		218.59400		875.00000 
 43692.65567		 305.27265			43387.38302		65.72800		324.00000 
 43692.65567		 951.14271			42741.51297		218.59400		875.00000 
 43692.65567		 305.27265			43387.38302		65.72800		324.00000 
 43692.65567		 951.14271			42741.51297		218.59400		875.00000 
 43692.65567		 305.27265			43387.38302		65.72800		324.00000 
 43692.65567		 951.14271			42741.51297		218.59400		875.00000 
 43692.65567		 305.27265			43387.38302		65.72800		324.00000 
 43692.65567		 951.14271			42741.51297		218.59400		875.00000 
 43692.65567		 305.27265			43387.38302		65.72800		324.00000 
 43692.65567		 951.14271			42741.51297		218.59400		875.00000 
 43692.65567		 305.27265			43387.38302		65.72800		324.00000 
 43692.65567		 951.14271			42741.51297		218.59400		875.00000 
 43692.65567		 305.27265			43387.38302		65.72800		324.00000 
 43692.65567		 951.14271			42741.51297		218.59400		875.00000 
 43692.65567		 305.27265			43387.38302		65.72800		324.00000 
 43692.65567		 951.14271			42741.51297		218.59400		875.00000 
 43692.65567		 305.27265			43387.38302		65.72800		324.00000 
 43692.65567		 951.14271			42741.51297		218.59400		875.00000 
 43692.65567		 305.27265			43387.38302		65.72800		324.00000 
 43692.65567		 951.14271			42741.51297		218.59400		875.00000 
 43692.65567		 305.27265			43387.38302		65.72800		324.00000 
 43692.65567		 951.14271			42741.51297		218.59400		875.00000 
 43692.65567		 305.27265			43387.38302		65.72800		324.00000 
 43692.65567		 951.14271			42741.51297		218.59400		875.00000 
 43692.65567		 305.27265			43387.38302		65.72800		324.00000 
 43692.65567		 951.14271			42741.51297		218.59400		875.00000 
 43692.65567		 305.27265			43387.38302		65.72800		324.00000 
 43692.65567		 951.14271			42741.51297		218.59400		875.00000 
 43692.65567		 305.27265			43387.38302		65.72800		324.00000 
 43692.65567		 951.14271			42741.51297		218.59400		875.00000 
 43692.65567		 305.27265			43387.38302		65.72800		324.00000 
 43692.65567		 951.14271			42741.51297		218.59400		875.00000 
 43692.65567		 305.27265			43387.38302		65.72800		324.00000 
 43692.65567		 951.14271			42741.51297		218.59400		875.00000 
 43692.65567		 305.27265			43387.38302		65.72800		324.00000 
 43692.65567		 951.14271			42741.51297		218.59400		875.00000 
 43692.65567		 305.27265			43387.38302		65.72800		324.00000 
 43692.65567		 951.14271			42741.51297		218.59400		875.00000 
 43692.65567		 305.27265			43387.38302		65.72800		324.00000 
 43692.65567		 951.14271			42741.51297		218.59400		875.00000 
 43692.65567		 305.27265			43387.38302		65.72800		324.00000 
 43692.65567		 951.14271			42741.51297		218.59400		875.00000 
 43692.65567		 305.27265			43387.38302		65.72800		324.00000 
 43692.65567		 951.14271			42741.51297		218.59400		875.00000 
 43692.65567		 305.27265			43387.38302		65.72800		324.00000 
 43692.65567		 951.14271			42741.51297		218.59400		875.00000 
 43692.65567		 305.27265			43387.38302		65.72800		324.00000 
 43692.65567		 951.14271			42741.51297		218.59400		875.00000 
 43692.65567		 305.27265			43387.38302		65.72800		324.00000 
 43692.65567		 951.14271			42741.51297		218.59400		875.00000 
 43692.65567		 305.27265			43387.38302		65.72800		324.00000 
 43692.65567		 951.14271			42741.51297		218.59400		875.00000 
 43692.65567		 305.27265			43387.38302		65.72800		324.00000 
 43692.65567		 951.14271			42741.51297		218.59400		875.00000 
 43692.65567		 305.27265			43387.38302		65.72800		324.00000 
 43692.65567		 951.14271			42741.51297		218.59400		875.00000 
 43692.65567		 305.27265			43387.38302		65.72800		324.00000 
 43692.65567		 951.14271			42741.51297		218.59400		875.00000 
 43692.65567		 305.27265			43387.38302		65.72800		324.00000 
 43692.65567		 951.14271			42741.51297		218.59400		875.00000 
 43692.65567		 305.27265			43387.38302		65.72800		324.00000 
 43692.65567		 951.14271			42741.51297		218.59400		875.00000 
 43692.65567		 305.27265			43387.38302		65.72800		324.00000 
 43692.65567		 951.14271			42741.51297		218.59400		875.00000 
 43692.65567		 305.27265			43387.38302		65.72800		324.00000 
 43692.65567		 951.14271			42741.51297		218.59400		875.00000 
 43692.65567		 305.27265			43387.38302		65.72800		324.00000 
 43692.65567		 951.14271			42741.51297		218.59400		875.00000 
 43692.65567		 305.27265			43387.38302		65.72800		324.00000 
 43692.65567		 951.14271			42741.51297		218.59400		875.00000 
 43692.65567		 305.27265			43387.38302		65.72800		324.00000 
 43692.65567		 951.14271			42741.51297		218.59400		875.00000 
 43692.65567		 305.27265			43387.38302		65.72800		324.00000 
 43692.65567		 951.14271			42741.51297		218.59400		875.00000 
 43692.65567		 305.27265			43387.38302		65.72800		324.00000 
 43692.65567		 951.14271			42741.51297		218.59400		875.00000 
 43692.65567		 305.27265			43387.38302		65.72800		324.00000 
 43692.65567		 951.14271			42741.51297		218.59400		875.00000 
 43692.65567		 305.27265			43387.38302		65.72800		324.00000 
 43692.65567		 951.14271			42741.51297		218.59400		875.00000 
 43692.65567		 305.27265			43387.38302		65.72800		324.00000 
 43692.65567		 951.14271			42741.51297		218.59400		875.00000 
 43692.65567		 305.27265			43387.38302		65.72800		324.00000 
 43692.65567		 951.14271			42741.51297		218.59400		875.00000 
 43692.65567		 305.27265			43387.38302		65.72800		324.00000 
 43692.65567		 951.14271			42741.51297		218.59400		875.00000 
 43692.65567		 305.27265			43387.38302		65.72800		324.00000 
 43692.65567		 951.14271			42741.51297		218.59400		875.00000 
 43692.65567		 305.27265			43387.38302		65.72800		324.00000 
 43692.65567		 951.14271			42741.51297		218.59400		875.00000 
 43692.65567		 305.27265			43387.38302		65.72800		324.00000 
 43692.65567		 951.14271			42741.51297		218.59400		875.00000 
 43692.65567		 305.27265			43387.38302		65.72800		324.00000 
 43692.65567		 951.14271			42741.51297		218.59400		875.00000 
 43692.65567		 305.27265			43387.38302		65.72800		324.00000 
 43692.65567		 951.14271			42741.51297		218.59400		875.00000 
 43692.65567		 305.27265			43387.38302		65.72800		324.00000 
 43692.65567		 951.14271			42741.51297		222.57800		875.00000 
 43692.65567		 305.27265			43387.38302		65.72800		324.00000 
 43692.65567		 951.14271			42741.51297		222.57800		875.00000 
 43692.65567		 305.27265			43387.38302		65.72800		324.00000 
 43692.65567		 951.14271			42741.51297		222.57800		875.00000 
 43692.65567		 305.27265			43387.38302		65.72800		324.00000 
 43692.65567		 951.14271			42741.51297		222.57800		875.00000 
 43692.65567		 305.27265			43387.38302		65.72800		324.00000 
 43692.65567		 951.14271			42741.51297		222.57800		875.00000 
 43692.65567		 305.27265			43387.38302		65.72800		324.00000 
 43692.65567		 951.14271			42741.51297		222.57800		875.00000 
 43692.65567		 305.27265			43387.38302		65.72800		324.00000 
 43692.65567		 951.14271			42741.51297		222.57800		875.00000 
 43692.65567		 305.27265			43387.38302		65.72800		324.00000 
 43692.65567		 951.14271			42741.51297		222.57800		875.00000 
 43692.65567		 305.27265			43387.38302		65.72800		324.00000 
 43692.65567		 951.14271			42741.51297		222.57800		875.00000 
 43692.65567		 305.27265			43387.38302		65.72800		324.00000 
 43692.65567		 951.14271			42741.51297		222.57800		875.00000 
 43692.65567		 305.27265			43387.38302		65.72800		324.00000 
 43692.65567		 951.14271			42741.51297		222.57800		875.00000 
 43692.65567		 305.27265			43387.38302		65.72800		324.00000 
 43692.65567		 951.14271			42741.51297		222.57800		875.00000 
 43692.65567		 305.27265			43387.38302		65.72800		324.00000 
 43692.65567		 951.14271			42741.51297		222.57800		875.00000 
 43692.65567		 305.27265			43387.38302		65.72800		324.00000 
 43692.65567		 951.14271			42741.51297		222.57800		875.00000 
 43692.65567		 305.27265			43387.38302		65.72800		324.00000 
 43692.65567		 951.14271			42741.51297		222.57800		875.00000 
 43692.65567		 305.27265			43387.38302		65.72800		324.00000 
 43692.65567		 951.14271			42741.51297		222.57800		875.00000 
 43692.65567		 305.27265			43387.38302		65.72800		324.00000 
 43692.65567		 951.14271			42741.51297		222.57800		875.00000 
 43692.65567		 305.27265			43387.38302		65.72800		324.00000 
 43692.65567		 951.14271			42741.51297		222.57800		875.00000 
 43692.65567		 305.27265			43387.38302		65.72800		324.00000 
 43692.65567		 951.14271			42741.51297		222.57800		875.00000 
 43692.65567		 305.27265			43387.38302		65.72800		324.00000 
 43692.65567		 951.14271			42741.51297		222.57800		875.00000 
 43692.65567		 305.27265			43387.38302		65.72800		324.00000 
 43692.65567		 951.14271			42741.51297		222.57800		875.00000 
 43692.65567		 305.27265			43387.38302		65.72800		324.00000 
 43692.65567		 951.14271			42741.51297		222.57800		875.00000 
 43692.65567		 305.27265			43387.38302		65.72800		324.00000 
 43692.65567		 951.14271			42741.51297		222.57800		875.00000 
 43692.65567		 305.27265			43387.38302		65.72800		324.00000 
 43692.65567		 951.14271			42741.51297		222.57800		875.00000 
 43692.65567		 305.27265			43387.38302		65.72800		324.00000 
 43692.65567		 951.14271			42741.51297		222.57800		875.00000 
 43692.65567		 305.27265			43387.38302		65.72800		324.00000 
 43692.65567		 951.14271			42741.51297		222.57800		875.00000 
 43692.65567		 305.27265			43387.38302		65.72800		324.00000 
 43692.65567		 951.14271			42741.51297		222.57800		875.00000 
 43692.65567		 305.27265			43387.38302		65.72800		324.00000 
 43692.65567		 951.14271			42741.51297		222.57800		875.00000 
 43692.65567		 305.27265			43387.38302		65.72800		324.00000 
 43692.65567		 951.14271			42741.51297		222.57800		875.00000 
 43692.65567		 305.27265			43387.38302		65.72800		324.00000 
 43692.65567		 951.14271			42741.51297		222.57800		875.00000 
 43692.65567		 305.27265			43387.38302		65.72800		324.00000 
 43692.65567		 951.14271			42741.51297		222.57800		875.00000 
 43692.65567		 305.27265			43387.38302		65.72800		324.00000 
 43692.65567		 951.14271			42741.51297		222.57800		875.00000 
 43692.65567		 305.27265			43387.38302		65.72800		324.00000 
 43692.65567		 951.14271			42741.51297		222.57800		875.00000 
 43692.65567		 305.27265			43387.38302		65.72800		324.00000 
 43692.65567		 951.14271			42741.51297		222.57800		875.00000 
 43692.65567		 305.27265			43387.38302		65.72800		324.00000 
 43692.65567		 951.14271			42741.51297		222.57800		875.00000 
 43692.65567		 305.27265			43387.38302		65.72800		324.00000 
 43692.65567		 951.14271			42741.51297		222.57800		875.00000 
 43692.65567		 305.27265			43387.38302		65.72800		324.00000 
 43692.65567		 951.14271			42741.51297		222.57800		875.00000 
 43692.65567		 305.27265			43387.38302		65.72800		324.00000 
 43692.65567		 951.14271			42741.51297		222.57800		875.00000 
 43692.65567		 305.27265			43387.38302		65.72800		324.00000 
 43692.65567		 951.14271			42741.51297		222.57800		875.00000 
 43692.65567		 305.27265			43387.38302		65.72800		324.00000 
 43692.65567		 951.14271			42741.51297		222.57800		875.00000 
 43692.65567		 305.27265			43387.38302		65.72800		324.00000 
 43692.65567		 951.14271			42741.51297		222.57800		875.00000 
 43692.65567		 305.27265			43387.38302		65.72800		324.00000 
 43692.65567		 951.14271			42741.51297		222.57800		875.00000 
 43692.65567		 305.27265			43387.38302		65.72800		324.00000 
 43692.65567		 951.14271			42741.51297		222.57800		875.00000 
 43692.65567		 305.27265			43387.38302		65.72800		324.00000 
 43692.65567		 951.14271			42741.51297		222.57800		875.00000 
 43692.65567		 305.27265			43387.38302		65.72800		324.00000 
 43692.65567		 951.14271			42741.51297		222.57800		875.00000 
 43692.65567		 305.27265			43387.38302		65.72800		324.00000 
 43692.65567		 951.14271			42741.51297		222.57800		875.00000 
 43692.65567		 305.27265			43387.38302		65.72800		324.00000 
 43692.65567		 951.14271			42741.51297		222.57800		875.00000 
 43692.65567		 305.27265			43387.38302		65.72800		324.00000 
 43692.65567		 951.14271			42741.51297		222.57800		875.00000 
 43692.65567		 305.27265			43387.38302		65.72800		324.00000 
 43692.65567		 951.14271			42741.51297		222.57800		875.00000 
 43692.65567		 305.27265			43387.38302		65.72800		324.00000 
 43692.65567		 951.14271			42741.51297		222.57800		875.00000 
 43692.65567		 305.27265			43387.38302		65.72800		324.00000 
 43692.65567		 951.14271			42741.51297		222.57800		875.00000 
 43692.65567		 305.27265			43387.38302		65.72800		324.00000 
 43692.65567		 951.14271			42741.51297		222.57800		875.00000 
 43692.65567		 305.27265			43387.38302		65.72800		324.00000 
 43692.65567		 951.14271			42741.51297		222.57800		875.00000 
 43692.65567		 305.27265			43387.38302		65.72800		324.00000 
 43692.65567		 951.14271			42741.51297		222.57800		875.00000 
 43692.65567		 305.27265			43387.38302		65.72800		324.00000 
 43692.65567		 951.14271			42741.51297		222.57800		875.00000 
 43692.65567		 305.27265			43387.38302		65.72800		324.00000 
 43692.65567		 951.14271			42741.51297		222.57800		875.00000 
 43692.65567		 305.27265			43387.38302		65.72800		324.00000 
 43692.65567		 951.14271			42741.51297		222.57800		875.00000 
 43692.65567		 305.27265			43387.38302		65.72800		324.00000 
 43692.65567		 951.14271			42741.51297		222.57800		875.00000 
 43692.65567		 305.27265			43387.38302		65.72800		324.00000 
 43692.65567		 951.14271			42741.51297		222.57800		875.00000 
 43692.65567		 305.27265			43387.38302		65.72800		324.00000 
 43692.65567		 951.14271			42741.51297		222.57800		875.00000 
 43692.65567		 305.27265			43387.38302		65.72800		324.00000 
 43692.65567		 951.14271			42741.51297		222.57800		875.00000 
 43692.65567		 305.27265			43387.38302		65.72800		324.00000 
 43692.65567		 951.14271			42741.51297		222.57800		875.00000 
 43692.65567		 305.27265			43387.38302		65.72800		324.00000 
 43692.65567		 951.14271			42741.51297		222.57800		875.00000 
 43692.65567		 305.27265			43387.38302		65.72800		324.00000 
 43692.65567		 951.14271			42741.51297		222.57800		875.00000 
 43692.65567		 305.27265			43387.38302		65.72800		324.00000 
 43692.65567		 951.14271			42741.51297		223.95600		875.00000 
 43692.65567		 305.27265			43387.38302		65.72800		324.00000 
 43692.65567		 951.14271			42741.51297		223.95600		875.00000 
 43692.65567		 305.27265			43387.38302		65.72800		324.00000 
 43692.65567		 951.14271			42741.51297		223.95600		875.00000 
 43692.65567		 305.27265			43387.38302		65.72800		324.00000 
 43692.65567		 951.14271			42741.51297		223.95600		875.00000 
 43692.65567		 305.27265			43387.38302		65.72800		324.00000 
 43692.65567		 951.14271			42741.51297		223.95600		875.00000 
 43692.65567		 305.27265			43387.38302		65.72800		324.00000 
 43692.65567		 951.14271			42741.51297		223.95600		875.00000 
 43692.65567		 305.27265			43387.38302		65.72800		324.00000 
 43692.65567		 951.14271			42741.51297		223.95600		875.00000 
 43692.65567		 305.27265			43387.38302		65.72800		324.00000 
 43692.65567		 951.14271			42741.51297		223.95600		875.00000 
 43692.65567		 305.27265			43387.38302		65.72800		324.00000 
 43692.65567		 951.14271			42741.51297		223.95600		875.00000 
 43692.65567		 305.27265			43387.38302		65.72800		324.00000 
 43692.65567		 951.14271			42741.51297		223.95600		875.00000 
 43692.65567		 305.27265			43387.38302		65.72800		324.00000 
 43692.65567		 951.14271			42741.51297		223.95600		875.00000 
 43692.65567		 305.27265			43387.38302		65.72800		324.00000 
 43692.65567		 951.14271			42741.51297		223.95600		875.00000 
 43692.65567		 305.27265			43387.38302		65.72800		324.00000 
 43692.65567		 951.14271			42741.51297		223.95600		875.00000 
 43692.65567		 305.27265			43387.38302		65.72800		324.00000 
 43692.65567		 951.14271			42741.51297		223.95600		875.00000 
 43692.65567		 305.27265			43387.38302		65.72800		324.00000 
 43692.65567		 951.14271			42741.51297		223.95600		875.00000 
 43692.65567		 305.27265			43387.38302		65.72800		324.00000 
 43692.65567		 951.14271			42741.51297		223.95600		875.00000 
 43692.65567		 305.27265			43387.38302		65.72800		324.00000 
 43692.65567		 951.14271			42741.51297		223.95600		875.00000 
 43692.65567		 305.27265			43387.38302		65.72800		324.00000 
 43692.65567		 951.14271			42741.51297		223.95600		875.00000 
 43692.65567		 305.27265			43387.38302		65.72800		324.00000 
 43692.65567		 951.14271			42741.51297		223.95600		875.00000 
 43692.65567		 305.27265			43387.38302		65.72800		324.00000 
 43692.65567		 951.14271			42741.51297		223.95600		875.00000 
 43692.65567		 305.27265			43387.38302		65.72800		324.00000 
 43692.65567		 951.14271			42741.51297		223.95600		875.00000 
 43692.65567		 305.27265			43387.38302		65.72800		324.00000 
 43692.65567		 951.14271			42741.51297		223.95600		875.00000 
 43692.65567		 305.27265			43387.38302		65.72800		324.00000 
 43692.65567		 951.14271			42741.51297		223.95600		875.00000 
 43692.65567		 305.27265			43387.38302		65.72800		324.00000 
 43692.65567		 951.14271			42741.51297		223.95600		875.00000 
 43692.65567		 305.27265			43387.38302		65.72800		324.00000 
 43692.65567		 951.14271			42741.51297		223.95600		875.00000 
 43692.65567		 305.27265			43387.38302		65.72800		324.00000 
 43692.65567		 951.14271			42741.51297		223.95600		875.00000 
 43692.65567		 305.27265			43387.38302		65.72800		324.00000 
 43692.65567		 951.14271			42741.51297		223.95600		875.00000 
 43692.65567		 305.27265			43387.38302		65.72800		324.00000 
 43692.65567		 951.14271			42741.51297		223.95600		875.00000 
 43692.65567		 305.27265			43387.38302		65.72800		324.00000 
 43692.65567		 951.14271			42741.51297		223.95600		875.00000 
 43692.65567		 305.27265			43387.38302		65.72800		324.00000 
 43692.65567		 951.14271			42741.51297		223.95600		875.00000 
 43692.65567		 305.27265			43387.38302		65.72800		324.00000 
 43692.65567		 951.14271			42741.51297		223.95600		875.00000 
 43692.65567		 305.27265			43387.38302		65.72800		324.00000 
 43692.65567		 951.14271			42741.51297		223.95600		875.00000 
 43692.65567		 305.27265			43387.38302		65.72800		324.00000 
 43692.65567		 951.14271			42741.51297		223.95600		875.00000 
 43692.65567		 305.27265			43387.38302		65.72800		324.00000 
 43692.65567		 951.14271			42741.51297		223.95600		875.00000 
 43692.65567		 305.27265			43387.38302		65.72800		324.00000 
 43692.65567		 951.14271			42741.51297		223.95600		875.00000 
 43692.65567		 305.27265			43387.38302		65.72800		324.00000 
 43692.65567		 951.14271			42741.51297		223.95600		875.00000 
 43692.65567		 305.27265			43387.38302		65.72800		324.00000 
 43692.65567		 951.14271			42741.51297		223.95600		875.00000 
 43692.65567		 305.27265			43387.38302		65.72800		324.00000 
 43692.65567		 951.14271			42741.51297		223.95600		875.00000 
 43692.65567		 305.27265			43387.38302		65.72800		324.00000 
 43692.65567		 951.14271			42741.51297		223.95600		875.00000 
 43692.65567		 305.27265			43387.38302		65.72800		324.00000 
 43692.65567		 951.14271			42741.51297		223.95600		875.00000 
 43692.65567		 305.27265			43387.38302		65.72800		324.00000 
 43692.65567		 951.14271			42741.51297		223.95600		875.00000 
 43692.65567		 305.27265			43387.38302		65.72800		324.00000 
 43692.65567		 951.14271			42741.51297		223.95600		875.00000 
 43692.65567		 305.27265			43387.38302		65.72800		324.00000 
 43692.65567		 951.14271			42741.51297		223.95600		875.00000 
 43692.65567		 305.27265			43387.38302		65.72800		324.00000 
 43692.65567		 951.14271			42741.51297		223.95600		875.00000 
 43692.65567		 305.27265			43387.38302		65.72800		324.00000 
 43692.65567		 951.14271			42741.51297		223.95600		875.00000 
 43692.65567		 305.27265			43387.38302		65.72800		324.00000 
 43692.65567		 951.14271			42741.51297		223.95600		875.00000 
 43692.65567		 305.27265			43387.38302		65.72800		324.00000 
 43692.65567		 951.14271			42741.51297		223.95600		875.00000 
 43692.65567		 305.27265			43387.38302		65.72800		324.00000 
 43692.65567		 951.14271			42741.51297		223.95600		875.00000 
 43692.65567		 305.27265			43387.38302		65.72800		324.00000 
 43692.65567		 951.14271			42741.51297		223.95600		875.00000 
 43692.65567		 305.27265			43387.38302		65.72800		324.00000 
 43692.65567		 951.14271			42741.51297		223.95600		875.00000 
 43692.65567		 305.27265			43387.38302		65.72800		324.00000 
 43692.65567		 951.14271			42741.51297		223.95600		875.00000 
 43692.65567		 305.27265			43387.38302		65.72800		324.00000 
 43692.65567		 951.14271			42741.51297		223.95600		875.00000 
 43692.65567		 305.27265			43387.38302		65.72800		324.00000 
 43692.65567		 951.14271			42741.51297		223.95600		875.00000 
 43692.65567		 305.27265			43387.38302		65.72800		324.00000 
 43692.65567		 951.14271			42741.51297		223.95600		875.00000 
 43692.65567		 305.27265			43387.38302		65.72800		324.00000 
 43692.65567		 951.14271			42741.51297		223.95600		875.00000 
 43692.65567		 305.27265			43387.38302		65.72800		324.00000 
 43692.65567		 951.14271			42741.51297		223.95600		875.00000 
 43692.65567		 305.27265			43387.38302		65.72800		324.00000 
 43692.65567		 951.14271			42741.51297		223.95600		875.00000 
 43692.65567		 305.27265			43387.38302		65.72800		324.00000 
 43692.65567		 951.14271			42741.51297		223.95600		875.00000 
 43692.65567		 305.27265			43387.38302		65.72800		324.00000 
 43692.65567		 951.14271			42741.51297		223.95600		875.00000 
 43692.65567		 305.27265			43387.38302		65.72800		324.00000 
 43692.65567		 951.14271			42741.51297		223.95600		875.00000 
 43692.65567		 305.27265			43387.38302		65.72800		324.00000 
 43692.65567		 951.14271			42741.51297		223.95600		875.00000 
 43692.65567		 305.27265			43387.38302		65.72800		324.00000 
 43692.65567		 951.14271			42741.51297		223.95600		875.00000 
 43692.65567		 305.27265			43387.38302		65.72800		324.00000 
 43692.65567		 951.14271			42741.51297		223.95600		875.00000 
 43692.65567		 305.27265			43387.38302		65.72800		324.00000 
 43692.65567		 951.14271			42741.51297		223.95600		875.00000 
 43692.65567		 305.27265			43387.38302		65.72800		324.00000 
 43692.65567		 951.14271			42741.51297		224.54600		875.00000 
 43692.65567		 305.27265			43387.38302		65.72800		324.00000 
 43692.65567		 951.14271			42741.51297		224.54600		875.00000 
 43692.65567		 305.27265			43387.38302		65.72800		324.00000 
 43692.65567		 951.14271			42741.51297		224.54600		875.00000 
 43692.65567		 305.27265			43387.38302		65.72800		324.00000 
 43692.65567		 951.14271			42741.51297		224.54600		875.00000 
 43692.65567		 305.27265			43387.38302		65.72800		324.00000 
 43692.65567		 951.14271			42741.51297		224.54600		875.00000 
 43692.65567		 305.27265			43387.38302		65.72800		324.00000 
 43692.65567		 951.14271			42741.51297		224.54600		875.00000 
 43692.65567		 305.27265			43387.38302		65.72800		324.00000 
 43692.65567		 951.14271			42741.51297		224.54600		875.00000 
 43692.65567		 305.27265			43387.38302		65.72800		324.00000 
 43692.65567		 951.14271			42741.51297		224.54600		875.00000 
 43692.65567		 305.27265			43387.38302		65.72800		324.00000 
 43692.65567		 951.14271			42741.51297		224.54600		875.00000 
 43692.65567		 305.27265			43387.38302		65.72800		324.00000 
 43692.65567		 951.14271			42741.51297		224.54600		875.00000 
 43692.65567		 305.27265			43387.38302		65.72800		324.00000 
 43692.65567		 951.14271			42741.51297		224.54600		875.00000 
 43692.65567		 305.27265			43387.38302		65.72800		324.00000 
 43692.65567		 951.14271			42741.51297		224.54600		875.00000 
 43692.65567		 305.27265			43387.38302		65.72800		324.00000 
 43692.65567		 951.14271			42741.51297		224.54600		875.00000 
 43692.65567		 305.27265			43387.38302		65.72800		324.00000 
 43692.65567		 951.14271			42741.51297		224.54600		875.00000 
 43692.65567		 305.27265			43387.38302		65.72800		324.00000 
 43692.65567		 951.14271			42741.51297		224.54600		875.00000 
 43692.65567		 305.27265			43387.38302		65.72800		324.00000 
 43692.65567		 951.14271			42741.51297		224.54600		875.00000 
 43692.65567		 305.27265			43387.38302		65.72800		324.00000 
 43692.65567		 951.14271			42741.51297		224.54600		875.00000 
 43692.65567		 305.27265			43387.38302		65.72800		324.00000 
 43692.65567		 951.14271			42741.51297		224.54600		875.00000 
 43692.65567		 305.27265			43387.38302		65.72800		324.00000 
 43692.65567		 951.14271			42741.51297		224.54600		875.00000 
 43692.65567		 305.27265			43387.38302		65.72800		324.00000 
 43692.65567		 951.14271			42741.51297		224.54600		875.00000 
 43692.65567		 305.27265			43387.38302		65.72800		324.00000 
 43692.65567		 951.14271			42741.51297		224.54600		875.00000 
 43692.65567		 305.27265			43387.38302		65.72800		324.00000 
 43692.65567		 951.14271			42741.51297		224.54600		875.00000 
 43692.65567		 305.27265			43387.38302		65.72800		324.00000 
 43692.65567		 951.14271			42741.51297		224.54600		875.00000 
 43692.65567		 305.27265			43387.38302		65.72800		324.00000 
 43692.65567		 951.14271			42741.51297		224.54600		875.00000 
 43692.65567		 305.27265			43387.38302		65.72800		324.00000 
 43692.65567		 951.14271			42741.51297		224.54600		875.00000 
 43692.65567		 305.27265			43387.38302		65.72800		324.00000 
 43692.65567		 951.14271			42741.51297		224.54600		875.00000 
 43692.65567		 305.27265			43387.38302		65.72800		324.00000 
 43692.65567		 951.14271			42741.51297		224.54600		875.00000 
 43692.65567		 305.27265			43387.38302		65.72800		324.00000 
 43692.65567		 951.14271			42741.51297		224.54600		875.00000 
 43692.65567		 305.27265			43387.38302		65.72800		324.00000 
 43692.65567		 951.14271			42741.51297		224.54600		875.00000 
 43692.65567		 305.27265			43387.38302		65.72800		324.00000 
 43692.65567		 951.14271			42741.51297		224.54600		875.00000 
 43692.65567		 305.27265			43387.38302		65.72800		324.00000 
 43692.65567		 951.14271			42741.51297		224.54600		875.00000 
 43692.65567		 305.27265			43387.38302		65.72800		324.00000 
 43692.65567		 951.14271			42741.51297		224.54600		875.00000 
 43692.65567		 305.27265			43387.38302		65.72800		324.00000 
 43692.65567		 951.14271			42741.51297		224.54600		875.00000 
 43692.65567		 305.27265			43387.38302		65.72800		324.00000 
 43692.65567		 951.14271			42741.51297		224.54600		875.00000 
 43692.65567		 305.27265			43387.38302		65.72800		324.00000 
 43692.65567		 951.14271			42741.51297		224.54600		875.00000 
 43692.65567		 305.27265			43387.38302		65.72800		324.00000 
 43692.65567		 951.14271			42741.51297		224.54600		875.00000 
 43692.65567		 305.27265			43387.38302		65.72800		324.00000 
 43692.65567		 951.14271			42741.51297		224.54600		875.00000 
 43692.65567		 305.27265			43387.38302		65.72800		324.00000 
 43692.65567		 951.14271			42741.51297		224.54600		875.00000 
 43692.65567		 305.27265			43387.38302		65.72800		324.00000 
 43692.65567		 951.14271			42741.51297		224.54600		875.00000 
 43692.65567		 305.27265			43387.38302		65.72800		324.00000 
 43692.65567		 951.14271			42741.51297		224.54600		875.00000 
 43692.65567		 305.27265			43387.38302		65.72800		324.00000 
 43692.65567		 951.14271			42741.51297		224.54600		875.00000 
 43692.65567		 305.27265			43387.38302		65.72800		324.00000 
 43692.65567		 951.14271			42741.51297		224.54600		875.00000 
 43692.65567		 305.27265			43387.38302		65.72800		324.00000 
 43692.65567		 951.14271			42741.51297		224.54600		875.00000 
 43692.65567		 305.27265			43387.38302		65.72800		324.00000 
 43692.65567		 951.14271			42741.51297		224.54600		875.00000 
 43692.65567		 305.27265			43387.38302		65.72800		324.00000 
 43692.65567		 951.14271			42741.51297		224.54600		875.00000 
 43692.65567		 305.27265			43387.38302		65.72800		324.00000 
 43692.65567		 951.14271			42741.51297		224.54600		875.00000 
 43692.65567		 305.27265			43387.38302		65.72800		324.00000 
 43692.65567		 951.14271			42741.51297		224.54600		875.00000 
 43692.65567		 305.27265			43387.38302		65.72800		324.00000 
 43692.65567		 951.14271			42741.51297		224.54600		875.00000 
 43692.65567		 305.27265			43387.38302		65.72800		324.00000 
 43692.65567		 951.14271			42741.51297		224.54600		875.00000 
 43692.65567		 305.27265			43387.38302		65.72800		324.00000 
 43692.65567		 951.14271			42741.51297		224.54600		875.00000 
 43692.65567		 305.27265			43387.38302		65.72800		324.00000 
 43692.65567		 951.14271			42741.51297		224.54600		875.00000 
 43692.65567		 305.27265			43387.38302		65.72800		324.00000 
 43692.65567		 951.14271			42741.51297		224.54600		875.00000 
 43692.65567		 305.27265			43387.38302		65.72800		324.00000 
 43692.65567		 951.14271			42741.51297		224.54600		875.00000 
 43692.65567		 305.27265			43387.38302		65.72800		324.00000 
 43692.65567		 951.14271			42741.51297		224.54600		875.00000 
 43692.65567		 305.27265			43387.38302		65.72800		324.00000 
 43692.65567		 951.14271			42741.51297		224.54600		875.00000 
 43692.65567		 305.27265			43387.38302		65.72800		324.00000 
 43692.65567		 951.14271			42741.51297		224.54600		875.00000 
 43692.65567		 305.27265			43387.38302		65.72800		324.00000 
 43692.65567		 951.14271			42741.51297		224.54600		875.00000 
 43692.65567		 305.27265			43387.38302		65.72800		324.00000 
 43692.65567		 951.14271			42741.51297		224.54600		875.00000 
 43692.65567		 305.27265			43387.38302		65.72800		324.00000 
 43692.65567		 951.14271			42741.51297		224.54600		875.00000 
 43692.65567		 305.27265			43387.38302		65.72800		324.00000 
 43692.65567		 951.14271			42741.51297		224.54600		875.00000 
 43692.65567		 305.27265			43387.38302		65.72800		324.00000 
 43692.65567		 951.14271			42741.51297		224.54600		875.00000 
 43692.65567		 305.27265			43387.38302		65.72800		324.00000 
 43692.65567		 951.14271			42741.51297		224.54600		875.00000 
 43692.65567		 305.27265			43387.38302		65.72800		324.00000 
 43692.65567		 951.14271			42741.51297		224.54600		875.00000 
 43692.65567		 305.27265			43387.38302		65.72800		324.00000 
 43692.65567		 951.14271			42741.51297		224.54600		875.00000 
 43692.65567		 305.27265			43387.38302		65.72800		324.00000 
 43692.65567		 951.14271			42741.51297		224.75200		875.00000 
 43692.65567		 305.27265			43387.38302		65.72800		324.00000 
 43692.65567		 951.14271			42741.51297		224.75200		875.00000 
 43692.65567		 305.27265			43387.38302		65.72800		324.00000 
 43692.65567		 951.14271			42741.51297		224.75200		875.00000 
 43692.65567		 305.27265			43387.38302		65.72800		324.00000 
 43692.65567		 951.14271			42741.51297		224.75200		875.00000 
 43692.65567		 305.27265			43387.38302		65.72800		324.00000 
 43692.65567		 951.14271			42741.51297		224.75200		875.00000 
 43692.65567		 305.27265			43387.38302		65.72800		324.00000 
 43692.65567		 951.14271			42741.51297		224.75200		875.00000 
 43692.65567		 305.27265			43387.38302		65.72800		324.00000 
 43692.65567		 951.14271			42741.51297		224.75200		875.00000 
 43692.65567		 305.27265			43387.38302		65.72800		324.00000 
 43692.65567		 951.14271			42741.51297		224.75200		875.00000 
 43692.65567		 305.27265			43387.38302		65.72800		324.00000 
 43692.65567		 951.14271			42741.51297		224.75200		875.00000 
 43692.65567		 305.27265			43387.38302		65.72800		324.00000 
 43692.65567		 951.14271			42741.51297		224.75200		875.00000 
 43692.65567		 305.27265			43387.38302		65.72800		324.00000 
 43692.65567		 951.14271			42741.51297		224.75200		875.00000 
 43692.65567		 305.27265			43387.38302		65.72800		324.00000 
 43692.65567		 951.14271			42741.51297		224.75200		875.00000 
 43692.65567		 305.27265			43387.38302		65.72800		324.00000 
 43692.65567		 951.14271			42741.51297		224.75200		875.00000 
 43692.65567		 305.27265			43387.38302		65.72800		324.00000 
 43692.65567		 951.14271			42741.51297		224.75200		875.00000 
 43692.65567		 305.27265			43387.38302		65.72800		324.00000 
 43692.65567		 951.14271			42741.51297		224.75200		875.00000 
 43692.65567		 305.27265			43387.38302		65.72800		324.00000 
 43692.65567		 951.14271			42741.51297		224.75200		875.00000 
 43692.65567		 305.27265			43387.38302		65.72800		324.00000 
 43692.65567		 951.14271			42741.51297		224.75200		875.00000 
 43692.65567		 305.27265			43387.38302		65.72800		324.00000 
 43692.65567		 951.14271			42741.51297		224.75200		875.00000 
 43692.65567		 305.27265			43387.38302		65.72800		324.00000 
 43692.65567		 951.14271			42741.51297		224.75200		875.00000 
 43692.65567		 305.27265			43387.38302		65.72800		324.00000 
 43692.65567		 951.14271			42741.51297		224.75200		875.00000 
 43692.65567		 305.27265			43387.38302		65.72800		324.00000 
 43692.65567		 951.14271			42741.51297		224.75200		875.00000 
 43692.65567		 305.27265			43387.38302		65.72800		324.00000 
 43692.65567		 951.14271			42741.51297		224.75200		875.00000 
 43692.65567		 305.27265			43387.38302		65.72800		324.00000 
 43692.65567		 951.14271			42741.51297		224.75200		875.00000 
 43692.65567		 305.27265			43387.38302		65.72800		324.00000 
 43692.65567		 951.14271			42741.51297		224.75200		875.00000 
 43692.65567		 305.27265			43387.38302		65.72800		324.00000 
 43692.65567		 951.14271			42741.51297		224.75200		875.00000 
 43692.65567		 305.27265			43387.38302		65.72800		324.00000 
 43692.65567		 951.14271			42741.51297		224.75200		875.00000 
 43692.65567		 305.27265			43387.38302		65.72800		324.00000 
 43692.65567		 951.14271			42741.51297		224.75200		875.00000 
 43692.65567		 305.27265			43387.38302		65.72800		324.00000 
 43692.65567		 951.14271			42741.51297		224.75200		875.00000 
 43692.65567		 305.27265			43387.38302		65.72800		324.00000 
 43692.65567		 951.14271			42741.51297		224.75200		875.00000 
 43692.65567		 305.27265			43387.38302		65.72800		324.00000 
 43692.65567		 951.14271			42741.51297		224.75200		875.00000 
 43692.65567		 305.27265			43387.38302		65.72800		324.00000 
 43692.65567		 951.14271			42741.51297		224.75200		875.00000 
 43692.65567		 305.27265			43387.38302		65.72800		324.00000 
 43692.65567		 951.14271			42741.51297		224.75200		875.00000 
 43692.65567		 305.27265			43387.38302		65.72800		324.00000 
 43692.65567		 951.14271			42741.51297		224.75200		875.00000 
 43692.65567		 305.27265			43387.38302		65.72800		324.00000 
 43692.65567		 951.14271			42741.51297		224.75200		875.00000 
 43692.65567		 305.27265			43387.38302		65.72800		324.00000 
 43692.65567		 951.14271			42741.51297		224.75200		875.00000 
 43692.65567		 305.27265			43387.38302		65.72800		324.00000 
 43692.65567		 951.14271			42741.51297		224.75200		875.00000 
 43692.65567		 305.27265			43387.38302		65.72800		324.00000 
 43692.65567		 951.14271			42741.51297		224.75200		875.00000 
 43692.65567		 305.27265			43387.38302		65.72800		324.00000 
 43692.65567		 951.14271			42741.51297		224.75200		875.00000 
 43692.65567		 305.27265			43387.38302		65.72800		324.00000 
 43692.65567		 951.14271			42741.51297		224.75200		875.00000 
 43692.65567		 305.27265			43387.38302		65.72800		324.00000 
 43692.65567		 951.14271			42741.51297		224.75200		875.00000 
 43692.65567		 305.27265			43387.38302		65.72800		324.00000 
 43692.65567		 951.14271			42741.51297		224.75200		875.00000 
 43692.65567		 305.27265			43387.38302		65.72800		324.00000 
 43692.65567		 951.14271			42741.51297		224.75200		875.00000 
 43692.65567		 305.27265			43387.38302		65.72800		324.00000 
 43692.65567		 951.14271			42741.51297		224.75200		875.00000 
 43692.65567		 305.27265			43387.38302		65.72800		324.00000 
 43692.65567		 951.14271			42741.51297		224.75200		875.00000 
 43692.65567		 305.27265			43387.38302		65.72800		324.00000 
 43692.65567		 951.14271			42741.51297		224.75200		875.00000 
 43692.65567		 305.27265			43387.38302		65.72800		324.00000 
 43692.65567		 951.14271			42741.51297		224.75200		875.00000 
 43692.65567		 305.27265			43387.38302		65.72800		324.00000 
 43692.65567		 951.14271			42741.51297		224.75200		875.00000 
 43692.65567		 305.27265			43387.38302		65.72800		324.00000 
 43692.65567		 951.14271			42741.51297		224.75200		875.00000 
 43692.65567		 305.27265			43387.38302		65.72800		324.00000 
 43692.65567		 951.14271			42741.51297		224.75200		875.00000 
 43692.65567		 305.27265			43387.38302		65.72800		324.00000 
 43692.65567		 951.14271			42741.51297		224.75200		875.00000 
 43692.65567		 305.27265			43387.38302		65.72800		324.00000 
 43692.65567		 951.14271			42741.51297		224.75200		875.00000 
 43692.65567		 305.27265			43387.38302		65.72800		324.00000 
 43692.65567		 951.14271			42741.51297		224.75200		875.00000 
 43692.65567		 305.27265			43387.38302		65.72800		324.00000 
 43692.65567		 951.14271			42741.51297		224.75200		875.00000 
 43692.65567		 305.27265			43387.38302		65.72800		324.00000 
 43692.65567		 951.14271			42741.51297		224.75200		875.00000 
 43692.65567		 305.27265			43387.38302		65.72800		324.00000 
 43692.65567		 951.14271			42741.51297		224.75200		875.00000 
 43692.65567		 305.27265			43387.38302		65.72800		324.00000 
 43692.65567		 951.14271			42741.51297		224.75200		875.00000 
 43692.65567		 305.27265			43387.38302		65.72800		324.00000 
 43692.65567		 951.14271			42741.51297		224.75200		875.00000 
 43692.65567		 305.27265			43387.38302		65.72800		324.00000 
 43692.65567		 951.14271			42741.51297		224.75200		875.00000 
 43692.65567		 305.27265			43387.38302		65.72800		324.00000 
 43692.65567		 951.14271			42741.51297		224.75200		875.00000 
 43692.65567		 305.27265			43387.38302		65.72800		324.00000 
 43692.65567		 951.14271			42741.51297		224.75200		875.00000 
 43692.65567		 305.27265			43387.38302		65.72800		324.00000 
 43692.65567		 951.14271			42741.51297		224.75200		875.00000 
 43692.65567		 305.27265			43387.38302		65.72800		324.00000 
 43692.65567		 951.14271			42741.51297		224.75200		875.00000 
 43692.65567		 305.27265			43387.38302		65.72800		324.00000 
 43692.65567		 951.14271			42741.51297		224.75200		875.00000 
 43692.65567		 305.27265			43387.38302		65.72800		324.00000 
 43692.65567		 951.14271			42741.51297		224.75200		875.00000 
 43692.65567		 305.27265			43387.38302		65.72800		324.00000 
 43692.65567		 951.14271			42741.51297		224.75200		875.00000 
 43692.65567		 305.27265			43387.38302		65.72800		324.00000 
 43692.65567		 951.14271			42741.51297		224.75200		875.00000 
 43692.65567		 305.27265			43387.38302		65.72800		324.00000 
 43692.65567		 951.14271			42741.51297		224.75200		875.00000 
 43692.65567		 305.27265			43387.38302		65.72800		324.00000 
 43692.65567		 951.14271			42741.51297		224.75200		875.00000 
 43692.65567		 305.27265			43387.38302		65.72800		324.00000 
 43692.65567		 951.14271			42741.51297		224.75200		875.00000 
 43692.65567		 305.27265			43387.38302		65.72800		324.00000 
 43692.65567		 951.14271			42741.51297		224.75200		875.00000 
 43692.65567		 305.27265			43387.38302		65.72800		324.00000 
 43692.65567		 951.14271			42741.51297		224.75200		875.00000 
 43692.65567		 305.27265			43387.38302		65.72800		324.00000 
 43692.65567		 951.14271			42741.51297		224.75200		875.00000 
 43692.65567		 305.27265			43387.38302		65.72800		324.00000 
 43692.65567		 951.14271			42741.51297		224.75200		875.00000 
 43692.65567		 305.27265			43387.38302		65.72800		324.00000 
 43692.65567		 951.14271			42741.51297		224.75200		875.00000 
 43692.65567		 305.27265			43387.38302		65.72800		324.00000 
 43692.65567		 951.14271			42741.51297		224.75200		875.00000 
 43692.65567		 305.27265			43387.38302		65.72800		324.00000 
 43692.65567		 951.14271			42741.51297		224.75200		875.00000 
 43692.65567		 305.27265			43387.38302		65.72800		324.00000 
 43692.65567		 951.14271			42741.51297		224.75200		875.00000 
 43692.65567		 305.27265			43387.38302		65.72800		324.00000 
 43692.65567		 951.14271			42741.51297		224.75200		875.00000 
 43692.65567		 305.27265			43387.38302		65.72800		324.00000 
 43692.65567		 951.14271			42741.51297		224.75200		875.00000 
 43692.65567		 305.27265			43387.38302		65.72800		324.00000 
 43692.65567		 951.14271			42741.51297		224.75200		875.00000 
 43692.65567		 305.27265			43387.38302		65.72800		324.00000 
 43692.65567		 951.14271			42741.51297		224.75200		875.00000 
 43692.65567		 305.27265			43387.38302		65.72800		324.00000 
 43692.65567		 951.14271			42741.51297		224.75200		875.00000 
 43692.65567		 305.27265			43387.38302		65.72800		324.00000 
 43692.65567		 951.14271			42741.51297		224.75200		875.00000 
 43692.65567		 305.27265			43387.38302		65.72800		324.00000 
 43692.65567		 951.14271			42741.51297		224.75200		875.00000 
 43692.65567		 305.27265			43387.38302		65.72800		324.00000 
 43692.65567		 951.14271			42741.51297		224.75200		875.00000 
 43692.65567		 305.27265			43387.38302		65.72800		324.00000 
 43692.65567		 951.14271			42741.51297		224.75200		875.00000 
 43692.65567		 305.27265			43387.38302		65.72800		324.00000 
 43692.65567		 951.14271			42741.51297		224.75200		875.00000 
 43692.65567		 305.27265			43387.38302		65.72800		324.00000 
 43692.65567		 951.14271			42741.51297		224.75200		875.00000 
 43692.65567		 305.27265			43387.38302		65.72800		324.00000 
 43692.65567		 951.14271			42741.51297		224.75200		875.00000 
 43692.65567		 305.27265			43387.38302		65.72800		324.00000 
 43692.65567		 951.14271			42741.51297		224.75200		875.00000 
 43692.65567		 305.27265			43387.38302		65.72800		324.00000 
 43692.65567		 951.14271			42741.51297		224.75200		875.00000 
 43692.65567		 305.27265			43387.38302		65.72800		324.00000 
 43692.65567		 951.14271			42741.51297		224.75200		875.00000 
 43692.65567		 305.27265			43387.38302		65.72800		324.00000 
 43692.65567		 951.14271			42741.51297		224.75200		875.00000 
 43692.65567		 305.27265			43387.38302		65.72800		324.00000 
 43692.65567		 951.14271			42741.51297		224.75200		875.00000 
 43692.65567		 305.27265			43387.38302		65.72800		324.00000 
 43692.65567		 951.14271			42741.51297		224.75200		875.00000 
 43692.65567		 305.27265			43387.38302		65.72800		324.00000 
 43692.65567		 951.14271			42741.51297		224.75200		875.00000 
 43692.65567		 305.27265			43387.38302		65.72800		324.00000 
 43692.65567		 951.14271			42741.51297		224.75200		875.00000 
 43692.65567		 305.27265			43387.38302		65.72800		324.00000 
 43692.65567		 951.14271			42741.51297		224.75200		875.00000 
 43692.65567		 305.27265			43387.38302		65.72800		324.00000 
 43692.65567		 951.14271			42741.51297		224.75200		875.00000 
 43692.65567		 305.27265			43387.38302		65.72800		324.00000 
 43692.65567		 951.14271			42741.51297		224.75200		875.00000 
 43692.65567		 305.27265			43387.38302		65.72800		324.00000 
 43692.65567		 951.14271			42741.51297		224.75200		875.00000 
 43692.65567		 305.27265			43387.38302		65.72800		324.00000 
 43692.65567		 951.14271			42741.51297		224.75200		875.00000 
 43692.65567		 305.27265			43387.38302		65.72800		324.00000 
 43692.65567		 951.14271			42741.51297		224.75200		875.00000 
 43692.65567		 305.27265			43387.38302		65.72800		324.00000 
 43692.65567		 951.14271			42741.51297		224.75200		875.00000 
 43692.65567		 305.27265			43387.38302		65.72800		324.00000 
 43692.65567		 951.14271			42741.51297		224.75200		875.00000 
 43692.65567		 305.27265			43387.38302		65.72800		324.00000 
 43692.65567		 951.14271			42741.51297		224.75200		875.00000 
 43692.65567		 305.27265			43387.38302		65.72800		324.00000 
 43692.65567		 951.14271			42741.51297		224.75200		875.00000 
 43692.65567		 305.27265			43387.38302		65.72800		324.00000 
 43692.65567		 951.14271			42741.51297		224.75200		875.00000 
 43692.65567		 305.27265			43387.38302		65.72800		324.00000 
 43692.65567		 951.14271			42741.51297		224.75200		875.00000 
 43692.65567		 305.27265			43387.38302		65.72800		324.00000 
 43692.65567		 951.14271			42741.51297		224.75200		875.00000 
 43692.65567		 305.27265			43387.38302		65.72800		324.00000 
 43692.65567		 951.14271			42741.51297		224.75200		875.00000 
 43692.65567		 305.27265			43387.38302		65.72800		324.00000 
 43692.65567		 951.14271			42741.51297		224.75200		875.00000 
 43692.65567		 305.27265			43387.38302		65.72800		324.00000 
 43692.65567		 951.14271			42741.51297		224.75200		875.00000 
 43692.65567		 305.27265			43387.38302		65.72800		324.00000 
 43692.65567		 951.14271			42741.51297		224.75200		875.00000 
 43692.65567		 305.27265			43387.38302		65.72800		324.00000 
 43692.65567		 951.14271			42741.51297		224.75200		875.00000 
 43692.65567		 305.27265			43387.38302		65.72800		324.00000 
 43692.65567		 951.14271			42741.51297		224.75200		875.00000 
 43692.65567		 305.27265			43387.38302		65.72800		324.00000 
 43692.65567		 951.14271			42741.51297		224.75200		875.00000 
 43692.65567		 305.27265			43387.38302		65.72800		324.00000 
 43692.65567		 951.14271			42741.51297		224.75200		875.00000 
 43692.65567		 305.27265			43387.38302		65.72800		324.00000 
 43692.65567		 951.14271			42741.51297		224.75200		875.00000 
 43692.65567		 305.27265			43387.38302		65.72800		324.00000 
 43692.65567		 951.14271			42741.51297		224.75200		875.00000 
 43692.65567		 305.27265			43387.38302		65.72800		324.00000 
 43692.65567		 951.14271			42741.51297		224.75200		875.00000 
 43692.65567		 305.27265			43387.38302		65.72800		324.00000 
 43692.65567		 951.14271			42741.51297		224.75200		875.00000 
 43692.65567		 305.27265			43387.38302		65.72800		324.00000 
 43692.65567		 951.14271			42741.51297		224.75200		875.00000 
 43692.65567		 305.27265			43387.38302		65.72800		324.00000 
 43692.65567		 951.14271			42741.51297		224.75200		875.00000 
 43692.65567		 305.27265			43387.38302		65.72800		324.00000 
 43692.65567		 951.14271			42741.51297		224.75200		875.00000 
 43692.65567		 305.27265			43387.38302		65.72800		324.00000 
 43692.65567		 951.14271			42741.51297		224.75200		875.00000 
 43692.65567		 305.27265			43387.38302		65.72800		324.00000 
 43692.65567		 951.14271			42741.51297		224.75200		875.00000 
 43692.65567		 305.27265			43387.38302		65.72800		324.00000 
 43692.65567		 951.14271			42741.51297		223.55400		875.00000 
 43692.65567		 305.27265			43387.38302		65.72800		324.00000 
 43692.65567		 951.14271			42741.51297		223.55400		875.00000 
 43692.65567		 305.27265			43387.38302		65.72800		324.00000 
 43692.65567		 951.14271			42741.51297		223.55400		875.00000 
 43692.65567		 305.27265			43387.38302		65.72800		324.00000 
 43692.65567		 951.14271			42741.51297		223.55400		875.00000 
 43692.65567		 305.27265			43387.38302		65.72800		324.00000 
 43692.65567		 951.14271			42741.51297		223.55400		875.00000 
 43692.65567		 305.27265			43387.38302		65.72800		324.00000 
 43692.65567		 951.14271			42741.51297		223.55400		875.00000 
 43692.65567		 305.27265			43387.38302		65.72800		324.00000 
 43692.65567		 951.14271			42741.51297		223.55400		875.00000 
 43692.65567		 305.27265			43387.38302		65.72800		324.00000 
 43692.65567		 951.14271			42741.51297		223.55400		875.00000 
 43692.65567		 305.27265			43387.38302		65.72800		324.00000 
 43692.65567		 951.14271			42741.51297		223.55400		875.00000 
 43692.65567		 305.27265			43387.38302		65.72800		324.00000 
 43692.65567		 951.14271			42741.51297		223.55400		875.00000 
 43692.65567		 305.27265			43387.38302		65.72800		324.00000 
 43692.65567		 951.14271			42741.51297		223.55400		875.00000 
 43692.65567		 305.27265			43387.38302		65.72800		324.00000 
 43692.65567		 951.14271			42741.51297		223.55400		875.00000 
 43692.65567		 305.27265			43387.38302		65.72800		324.00000 
 43692.65567		 951.14271			42741.51297		223.55400		875.00000 
 43692.65567		 305.27265			43387.38302		65.72800		324.00000 
 43692.65567		 951.14271			42741.51297		223.55400		875.00000 
 43692.65567		 305.27265			43387.38302		65.72800		324.00000 
 43692.65567		 951.14271			42741.51297		223.55400		875.00000 
 43692.65567		 305.27265			43387.38302		65.72800		324.00000 
 43692.65567		 951.14271			42741.51297		223.55400		875.00000 
 43692.65567		 305.27265			43387.38302		65.72800		324.00000 
 43692.65567		 951.14271			42741.51297		223.55400		875.00000 
 43692.65567		 305.27265			43387.38302		65.72800		324.00000 
 43692.65567		 951.14271			42741.51297		223.55400		875.00000 
 43692.65567		 305.27265			43387.38302		65.72800		324.00000 
 43692.65567		 951.14271			42741.51297		223.55400		875.00000 
 43692.65567		 305.27265			43387.38302		65.72800		324.00000 
 43692.65567		 951.14271			42741.51297		223.55400		875.00000 
 43692.65567		 305.27265			43387.38302		65.72800		324.00000 
 43692.65567		 951.14271			42741.51297		223.55400		875.00000 
 43692.65567		 305.27265			43387.38302		65.72800		324.00000 
 43692.65567		 951.14271			42741.51297		223.55400		875.00000 
 43692.65567		 305.27265			43387.38302		65.72800		324.00000 
 43692.65567		 951.14271			42741.51297		223.55400		875.00000 
 43692.65567		 305.27265			43387.38302		65.72800		324.00000 
 43692.65567		 951.14271			42741.51297		223.55400		875.00000 
 43692.65567		 305.27265			43387.38302		65.72800		324.00000 
 43692.65567		 951.14271			42741.51297		223.55400		875.00000 
 43692.65567		 305.27265			43387.38302		65.72800		324.00000 
 43692.65567		 951.14271			42741.51297		223.55400		875.00000 
 43692.65567		 305.27265			43387.38302		65.72800		324.00000 
 43692.65567		 951.14271			42741.51297		223.55400		875.00000 
 43692.65567		 305.27265			43387.38302		65.72800		324.00000 
 43692.65567		 951.14271			42741.51297		223.55400		875.00000 
 43692.65567		 305.27265			43387.38302		65.72800		324.00000 
 43692.65567		 951.14271			42741.51297		223.55400		875.00000 
 43692.65567		 305.27265			43387.38302		65.72800		324.00000 
 43692.65567		 951.14271			42741.51297		223.55400		875.00000 
 43692.65567		 305.27265			43387.38302		65.72800		324.00000 
 43692.65567		 951.14271			42741.51297		223.55400		875.00000 
 43692.65567		 305.27265			43387.38302		65.72800		324.00000 
 43692.65567		 951.14271			42741.51297		223.55400		875.00000 
 43692.65567		 305.27265			43387.38302		65.72800		324.00000 
 43692.65567		 951.14271			42741.51297		223.55400		875.00000 
 43692.65567		 305.27265			43387.38302		65.72800		324.00000 
 43692.65567		 951.14271			42741.51297		223.55400		875.00000 
 43692.65567		 305.27265			43387.38302		65.72800		324.00000 
 43692.65567		 951.14271			42741.51297		223.55400		875.00000 
 43692.65567		 305.27265			43387.38302		65.72800		324.00000 
 43692.65567		 951.14271			42741.51297		223.55400		875.00000 
 43692.65567		 305.27265			43387.38302		65.72800		324.00000 
 43692.65567		 951.14271			42741.51297		223.55400		875.00000 
 43692.65567		 305.27265			43387.38302		65.72800		324.00000 
 43692.65567		 951.14271			42741.51297		223.55400		875.00000 
 43692.65567		 305.27265			43387.38302		65.72800		324.00000 
 43692.65567		 951.14271			42741.51297		223.55400		875.00000 
 43692.65567		 305.27265			43387.38302		65.72800		324.00000 
 43692.65567		 951.14271			42741.51297		223.55400		875.00000 
 43692.65567		 305.27265			43387.38302		65.72800		324.00000 
 43692.65567		 951.14271			42741.51297		223.55400		875.00000 
 43692.65567		 305.27265			43387.38302		65.72800		324.00000 
 43692.65567		 951.14271			42741.51297		223.55400		875.00000 
 43692.65567		 305.27265			43387.38302		65.72800		324.00000 
 43692.65567		 951.14271			42741.51297		223.55400		875.00000 
 43692.65567		 305.27265			43387.38302		65.72800		324.00000 
 43692.65567		 951.14271			42741.51297		223.55400		875.00000 
 43692.65567		 305.27265			43387.38302		65.72800		324.00000 
 43692.65567		 951.14271			42741.51297		223.55400		875.00000 
 43692.65567		 305.27265			43387.38302		65.72800		324.00000 
 43692.65567		 951.14271			42741.51297		223.55400		875.00000 
 43692.65567		 305.27265			43387.38302		65.72800		324.00000 
 43692.65567		 951.14271			42741.51297		223.55400		875.00000 
 43692.65567		 305.27265			43387.38302		65.72800		324.00000 
 43692.65567		 951.14271			42741.51297		223.55400		875.00000 
 43692.65567		 305.27265			43387.38302		65.72800		324.00000 
 43692.65567		 951.14271			42741.51297		223.55400		875.00000 
 43692.65567		 305.27265			43387.38302		65.72800		324.00000 
 43692.65567		 951.14271			42741.51297		223.55400		875.00000 
 43692.65567		 305.27265			43387.38302		65.72800		324.00000 
 43692.65567		 951.14271			42741.51297		223.55400		875.00000 
 43692.65567		 305.27265			43387.38302		65.72800		324.00000 
 43692.65567		 951.14271			42741.51297		223.55400		875.00000 
 43692.65567		 305.27265			43387.38302		65.72800		324.00000 
 43692.65567		 951.14271			42741.51297		223.55400		875.00000 
 43692.65567		 305.27265			43387.38302		65.72800		324.00000 
 43692.65567		 951.14271			42741.51297		223.55400		875.00000 
 43692.65567		 305.27265			43387.38302		65.72800		324.00000 
 43692.65567		 951.14271			42741.51297		223.55400		875.00000 
 43692.65567		 305.27265			43387.38302		65.72800		324.00000 
 43692.65567		 951.14271			42741.51297		223.55400		875.00000 
 43692.65567		 305.27265			43387.38302		65.72800		324.00000 
 43692.65567		 951.14271			42741.51297		223.55400		875.00000 
 43692.65567		 305.27265			43387.38302		65.72800		324.00000 
 43692.65567		 951.14271			42741.51297		223.55400		875.00000 
 43692.65567		 305.27265			43387.38302		65.72800		324.00000 
 43692.65567		 951.14271			42741.51297		223.55400		875.00000 
 43692.65567		 305.27265			43387.38302		65.72800		324.00000 
 43692.65567		 951.14271			42741.51297		223.55400		875.00000 
 43692.65567		 305.27265			43387.38302		65.72800		324.00000 
 43692.65567		 951.14271			42741.51297		223.55400		875.00000 
 43692.65567		 305.27265			43387.38302		65.72800		324.00000 
 43692.65567		 951.14271			42741.51297		223.55400		875.00000 
 43692.65567		 305.27265			43387.38302		65.72800		324.00000 
 43692.65567		 951.14271			42741.51297		223.55400		875.00000 
 43692.65567		 305.27265			43387.38302		65.72800		324.00000 
 43692.65567		 951.14271			42741.51297		223.55400		875.00000 
 43692.65567		 305.27265			43387.38302		65.72800		324.00000 
 43692.65567		 951.14271			42741.51297		223.55400		875.00000 
 43692.65567		 305.27265			43387.38302		65.72800		324.00000 
 43692.65567		 951.14271			42741.51297		223.55400		875.00000 
 43692.65567		 305.27265			43387.38302		65.72800		324.00000 
 43692.65567		 951.14271			42741.51297		223.55400		875.00000 
 43692.65567		 305.27265			43387.38302		65.72800		324.00000 
 43692.65567		 951.14271			42741.51297		223.55400		875.00000 
 43692.65567		 305.27265			43387.38302		65.72800		324.00000 
 43692.65567		 951.14271			42741.51297		223.55400		875.00000 
 43692.65567		 305.27265			43387.38302		65.72800		324.00000 
 43692.65567		 951.14271			42741.51297		223.55400		875.00000 
 43692.65567		 305.27265			43387.38302		65.72800		324.00000 
 43692.65567		 951.14271			42741.51297		223.55400		875.00000 
 43692.65567		 305.27265			43387.38302		65.72800		324.00000 
 43692.65567		 951.14271			42741.51297		223.55400		875.00000 
 43692.65567		 305.27265			43387.38302		65.72800		324.00000 
 43692.65567		 951.14271			42741.51297		223.55400		875.00000 
 43692.65567		 305.27265			43387.38302		65.72800		324.00000 
 43692.65567		 951.14271			42741.51297		223.55400		875.00000 
 43692.65567		 305.27265			43387.38302		65.72800		324.00000 
 43692.65567		 951.14271			42741.51297		223.55400		875.00000 
 43692.65567		 305.27265			43387.38302		65.72800		324.00000 
 43692.65567		 951.14271			42741.51297		223.55400		875.00000 
 43692.65567		 305.27265			43387.38302		65.72800		324.00000 
 43692.65567		 951.14271			42741.51297		223.55400		875.00000 
 43692.65567		 305.27265			43387.38302		65.72800		324.00000 
 43692.65567		 951.14271			42741.51297		223.55400		875.00000 
 43692.65567		 305.27265			43387.38302		65.72800		324.00000 
 43692.65567		 951.14271			42741.51297		223.55400		875.00000 
 43692.65567		 305.27265			43387.38302		65.72800		324.00000 
 43692.65567		 951.14271			42741.51297		223.55400		875.00000 
 43692.65567		 305.27265			43387.38302		65.72800		324.00000 
 43692.65567		 951.14271			42741.51297		223.55400		875.00000 
 43692.65567		 305.27265			43387.38302		65.72800		324.00000 
 43692.65567		 951.14271			42741.51297		223.55400		875.00000 
 43692.65567		 305.27265			43387.38302		65.72800		324.00000 
 43692.65567		 951.14271			42741.51297		223.55400		875.00000 
 43692.65567		 305.27265			43387.38302		65.72800		324.00000 
 43692.65567		 951.14271			42741.51297		223.55400		875.00000 
 43692.65567		 305.27265			43387.38302		65.72800		324.00000 
 43692.65567		 951.14271			42741.51297		223.55400		875.00000 
 43692.65567		 305.27265			43387.38302		65.72800		324.00000 
 43692.65567		 951.14271			42741.51297		223.55400		875.00000 
 43692.65567		 305.27265			43387.38302		65.72800		324.00000 
 43692.65567		 951.14271			42741.51297		223.55400		875.00000 
 43692.65567		 305.27265			43387.38302		65.72800		324.00000 
 43692.65567		 951.14271			42741.51297		223.55400		875.00000 
 43692.65567		 305.27265			43387.38302		65.72800		324.00000 
 43692.65567		 951.14271			42741.51297		223.55400		875.00000 
 43692.65567		 305.27265			43387.38302		65.72800		324.00000 
 43692.65567		 951.14271			42741.51297		223.55400		875.00000 
 43692.65567		 305.27265			43387.38302		65.72800		324.00000 
 43692.65567		 951.14271			42741.51297		223.55400		875.00000 
 43692.65567		 305.27265			43387.38302		65.72800		324.00000 
 43692.65567		 951.14271			42741.51297		223.55400		875.00000 
 43692.65567		 305.27265			43387.38302		65.72800		324.00000 
 43692.65567		 951.14271			42741.51297		223.55400		875.00000 
 43692.65567		 305.27265			43387.38302		65.72800		324.00000 
 43692.65567		 951.14271			42741.51297		223.55400		875.00000 
 43692.65567		 305.27265			43387.38302		65.72800		324.00000 
 43692.65567		 951.14271			42741.51297		223.55400		875.00000 
 43692.65567		 305.27265			43387.38302		65.72800		324.00000 
 43692.65567		 951.14271			42741.51297		223.55400		875.00000 
 43692.65567		 305.27265			43387.38302		65.72800		324.00000 
 43692.65567		 951.14271			42741.51297		223.55400		875.00000 
 43692.65567		 305.27265			43387.38302		65.72800		324.00000 
 43692.65567		 951.14271			42741.51297		223.55400		875.00000 
 43692.65567		 305.27265			43387.38302		65.72800		324.00000 
 43692.65567		 951.14271			42741.51297		223.55400		875.00000 
 43692.65567		 305.27265			43387.38302		65.72800		324.00000 
 43692.65567		 951.14271			42741.51297		223.55400		875.00000 
 43692.65567		 305.27265			43387.38302		65.72800		324.00000 
 43692.65567		 951.14271			42741.51297		223.55400		875.00000 
 43692.65567		 305.27265			43387.38302		65.72800		324.00000 
 43692.65567		 951.14271			42741.51297		223.55400		875.00000 
 43692.65567		 305.27265			43387.38302		65.72800		324.00000 
 43692.65567		 951.14271			42741.51297		223.55400		875.00000 
 43692.65567		 305.27265			43387.38302		65.72800		324.00000 
 43692.65567		 951.14271			42741.51297		223.55400		875.00000 
 43692.65567		 305.27265			43387.38302		65.72800		324.00000 
 43692.65567		 951.14271			42741.51297		223.55400		875.00000 
 43692.65567		 305.27265			43387.38302		65.72800		324.00000 
 43692.65567		 951.14271			42741.51297		223.55400		875.00000 
 43692.65567		 305.27265			43387.38302		65.72800		324.00000 
 43692.65567		 951.14271			42741.51297		223.55400		875.00000 
 43692.65567		 305.27265			43387.38302		65.72800		324.00000 
 43692.65567		 951.14271			42741.51297		223.55400		875.00000 
 43692.65567		 305.27265			43387.38302		65.72800		324.00000 
 43692.65567		 951.14271			42741.51297		223.55400		875.00000 
 43692.65567		 305.27265			43387.38302		65.72800		324.00000 
 43692.65567		 951.14271			42741.51297		223.55400		875.00000 
 43692.65567		 305.27265			43387.38302		65.72800		324.00000 
 43692.65567		 951.14271			42741.51297		223.55400		875.00000 
 43692.65567		 305.27265			43387.38302		65.72800		324.00000 
 43692.65567		 951.14271			42741.51297		223.55400		875.00000 
 43692.65567		 305.27265			43387.38302		65.72800		324.00000 
 43692.65567		 951.14271			42741.51297		223.55400		875.00000 
 43692.65567		 305.27265			43387.38302		65.72800		324.00000 
 43692.65567		 951.14271			42741.51297		223.55400		875.00000 
 43692.65567		 305.27265			43387.38302		65.72800		324.00000 
 43692.65567		 951.14271			42741.51297		223.55400		875.00000 
 43692.65567		 305.27265			43387.38302		65.72800		324.00000 
 43692.65567		 951.14271			42741.51297		223.55400		875.00000 
 43692.65567		 305.27265			43387.38302		65.72800		324.00000 
 43692.65567		 951.14271			42741.51297		223.55400		875.00000 
 43692.65567		 305.27265			43387.38302		69.64400		324.00000 
 43692.65567		 951.14271			42741.51297		223.55400		875.00000 
 43692.65567		 305.27265			43387.38302		69.64400		324.00000 
 43692.65567		 951.14271			42741.51297		223.55400		875.00000 
 43692.65567		 305.27265			43387.38302		69.64400		324.00000 
 43692.65567		 951.14271			42741.51297		223.55400		875.00000 
 43692.65567		 305.27265			43387.38302		69.64400		324.00000 
 43692.65567		 951.14271			42741.51297		223.55400		875.00000 
 43692.65567		 305.27265			43387.38302		69.64400		324.00000 
 43692.65567		 951.14271			42741.51297		223.55400		875.00000 
 43692.65567		 305.27265			43387.38302		69.64400		324.00000 
 43692.65567		 951.14271			42741.51297		223.55400		875.00000 
 43692.65567		 305.27265			43387.38302		69.64400		324.00000 
 43692.65567		 951.14271			42741.51297		223.55400		875.00000 
 43692.65567		 305.27265			43387.38302		69.64400		324.00000 
 43692.65567		 951.14271			42741.51297		223.55400		875.00000 
 43692.65567		 305.27265			43387.38302		69.64400		324.00000 
 43692.65567		 951.14271			42741.51297		223.55400		875.00000 
 43692.65567		 305.27265			43387.38302		69.64400		324.00000 
 43692.65567		 951.14271			42741.51297		223.55400		875.00000 
 43692.65567		 305.27265			43387.38302		69.64400		324.00000 
 43692.65567		 951.14271			42741.51297		223.55400		875.00000 
 43692.65567		 305.27265			43387.38302		69.64400		324.00000 
 43692.65567		 951.14271			42741.51297		223.55400		875.00000 
 43692.65567		 305.27265			43387.38302		69.64400		324.00000 
 43692.65567		 951.14271			42741.51297		223.55400		875.00000 
 43692.65567		 305.27265			43387.38302		69.64400		324.00000 
 43692.65567		 951.14271			42741.51297		223.55400		875.00000 
 43692.65567		 305.27265			43387.38302		69.64400		324.00000 
 43692.65567		 951.14271			42741.51297		223.55400		875.00000 
 43692.65567		 305.27265			43387.38302		69.64400		324.00000 
 43692.65567		 951.14271			42741.51297		223.55400		875.00000 
 43692.65567		 305.27265			43387.38302		69.64400		324.00000 
 43692.65567		 951.14271			42741.51297		223.55400		875.00000 
 43692.65567		 305.27265			43387.38302		69.64400		324.00000 
 43692.65567		 951.14271			42741.51297		223.55400		875.00000 
 43692.65567		 305.27265			43387.38302		69.64400		324.00000 
 43692.65567		 951.14271			42741.51297		223.55400		875.00000 
 43692.65567		 305.27265			43387.38302		69.64400		324.00000 
 43692.65567		 951.14271			42741.51297		223.55400		875.00000 
 43692.65567		 305.27265			43387.38302		69.64400		324.00000 
 43692.65567		 951.14271			42741.51297		223.55400		875.00000 
 43692.65567		 305.27265			43387.38302		69.64400		324.00000 
 43692.65567		 951.14271			42741.51297		223.55400		875.00000 
 43692.65567		 305.27265			43387.38302		69.64400		324.00000 
 43692.65567		 951.14271			42741.51297		223.55400		875.00000 
 43692.65567		 305.27265			43387.38302		69.64400		324.00000 
 43692.65567		 951.14271			42741.51297		223.55400		875.00000 
 43692.65567		 305.27265			43387.38302		69.64400		324.00000 
 43692.65567		 951.14271			42741.51297		223.55400		875.00000 
 43692.65567		 305.27265			43387.38302		69.64400		324.00000 
 43692.65567		 951.14271			42741.51297		223.55400		875.00000 
 43692.65567		 305.27265			43387.38302		69.64400		324.00000 
 43692.65567		 951.14271			42741.51297		223.55400		875.00000 
 43692.65567		 305.27265			43387.38302		69.64400		324.00000 
 43692.65567		 951.14271			42741.51297		223.55400		875.00000 
 43692.65567		 305.27265			43387.38302		69.64400		324.00000 
 43692.65567		 951.14271			42741.51297		223.55400		875.00000 
 43692.65567		 305.27265			43387.38302		69.64400		324.00000 
 43692.65567		 951.14271			42741.51297		223.55400		875.00000 
 43692.65567		 305.27265			43387.38302		69.64400		324.00000 
 43692.65567		 951.14271			42741.51297		223.55400		875.00000 
 43692.65567		 305.27265			43387.38302		69.64400		324.00000 
 43692.65567		 951.14271			42741.51297		223.55400		875.00000 
 43692.65567		 305.27265			43387.38302		69.64400		324.00000 
 43692.65567		 951.14271			42741.51297		223.55400		875.00000 
 43692.65567		 305.27265			43387.38302		69.64400		324.00000 
 43692.65567		 951.14271			42741.51297		223.55400		875.00000 
 43692.65567		 305.27265			43387.38302		69.64400		324.00000 
 43692.65567		 951.14271			42741.51297		223.55400		875.00000 
 43692.65567		 305.27265			43387.38302		69.64400		324.00000 
 43692.65567		 951.14271			42741.51297		223.55400		875.00000 
 43692.65567		 305.27265			43387.38302		69.64400		324.00000 
 43692.65567		 951.14271			42741.51297		223.55400		875.00000 
 43692.65567		 305.27265			43387.38302		69.64400		324.00000 
 43692.65567		 951.14271			42741.51297		223.55400		875.00000 
 43692.65567		 305.27265			43387.38302		69.64400		324.00000 
 43692.65567		 951.14271			42741.51297		223.55400		875.00000 
 43692.65567		 305.27265			43387.38302		69.64400		324.00000 
 43692.65567		 951.14271			42741.51297		223.55400		875.00000 
 43692.65567		 305.27265			43387.38302		69.64400		324.00000 
 43692.65567		 951.14271			42741.51297		223.55400		875.00000 
 43692.65567		 305.27265			43387.38302		69.64400		324.00000 
 43692.65567		 951.14271			42741.51297		223.55400		875.00000 
 43692.65567		 305.27265			43387.38302		69.64400		324.00000 
 43692.65567		 951.14271			42741.51297		223.55400		875.00000 
 43692.65567		 305.27265			43387.38302		69.64400		324.00000 
 43692.65567		 951.14271			42741.51297		223.55400		875.00000 
 43692.65567		 305.27265			43387.38302		69.64400		324.00000 
 43692.65567		 951.14271			42741.51297		223.55400		875.00000 
 43692.65567		 305.27265			43387.38302		69.64400		324.00000 
 43692.65567		 951.14271			42741.51297		223.55400		875.00000 
 43692.65567		 305.27265			43387.38302		69.64400		324.00000 
 43692.65567		 951.14271			42741.51297		223.55400		875.00000 
 43692.65567		 305.27265			43387.38302		69.64400		324.00000 
 43692.65567		 951.14271			42741.51297		223.55400		875.00000 
 43692.65567		 305.27265			43387.38302		69.64400		324.00000 
 43692.65567		 951.14271			42741.51297		223.55400		875.00000 
 43692.65567		 305.27265			43387.38302		69.64400		324.00000 
 43692.65567		 951.14271			42741.51297		223.55400		875.00000 
 43692.65567		 305.27265			43387.38302		69.64400		324.00000 
 43692.65567		 951.14271			42741.51297		223.55400		875.00000 
 43692.65567		 305.27265			43387.38302		69.64400		324.00000 
 43692.65567		 951.14271			42741.51297		223.55400		875.00000 
 43692.65567		 305.27265			43387.38302		69.64400		324.00000 
 43692.65567		 951.14271			42741.51297		223.55400		875.00000 
 43692.65567		 305.27265			43387.38302		69.64400		324.00000 
 43692.65567		 951.14271			42741.51297		223.55400		875.00000 
 43692.65567		 305.27265			43387.38302		69.64400		324.00000 
 43692.65567		 951.14271			42741.51297		223.55400		875.00000 
 43692.65567		 305.27265			43387.38302		69.64400		324.00000 
 43692.65567		 951.14271			42741.51297		223.55400		875.00000 
 43692.65567		 305.27265			43387.38302		69.64400		324.00000 
 43692.65567		 951.14271			42741.51297		223.55400		875.00000 
 43692.65567		 305.27265			43387.38302		69.64400		324.00000 
 43692.65567		 951.14271			42741.51297		223.55400		875.00000 
 43692.65567		 305.27265			43387.38302		69.64400		324.00000 
 43692.65567		 951.14271			42741.51297		223.55400		875.00000 
 43692.65567		 305.27265			43387.38302		69.64400		324.00000 
 43692.65567		 951.14271			42741.51297		223.55400		875.00000 
 43692.65567		 305.27265			43387.38302		69.64400		324.00000 
 43692.65567		 951.14271			42741.51297		223.55400		875.00000 
 43692.65567		 305.27265			43387.38302		69.64400		324.00000 
 43692.65567		 951.14271			42741.51297		223.55400		875.00000 
 43692.65567		 305.27265			43387.38302		69.64400		324.00000 
 43692.65567		 951.14271			42741.51297		223.55400		875.00000 
 43692.65567		 305.27265			43387.38302		69.64400		324.00000 
 43692.65567		 951.14271			42741.51297		223.55400		875.00000 
 43692.65567		 305.27265			43387.38302		69.64400		324.00000 
 43692.65567		 951.14271			42741.51297		223.55400		875.00000 
 43692.65567		 305.27265			43387.38302		69.64400		324.00000 
 43692.65567		 951.14271			42741.51297		223.55400		875.00000 
 43692.65567		 305.27265			43387.38302		69.64400		324.00000 
 43692.65567		 951.14271			42741.51297		223.55400		875.00000 
 43692.65567		 305.27265			43387.38302		69.64400		324.00000 
 43692.65567		 951.14271			42741.51297		223.55400		875.00000 
 43692.65567		 305.27265			43387.38302		69.64400		324.00000 
 43692.65567		 951.14271			42741.51297		224.15200		875.00000 
 43692.65567		 305.27265			43387.38302		69.64400		324.00000 
 43692.65567		 951.14271			42741.51297		224.15200		875.00000 
 43692.65567		 305.27265			43387.38302		69.64400		324.00000 
 43692.65567		 951.14271			42741.51297		224.15200		875.00000 
 43692.65567		 305.27265			43387.38302		69.64400		324.00000 
 43692.65567		 951.14271			42741.51297		224.15200		875.00000 
 43692.65567		 305.27265			43387.38302		69.64400		324.00000 
 43692.65567		 951.14271			42741.51297		224.15200		875.00000 
 43692.65567		 305.27265			43387.38302		69.64400		324.00000 
 43692.65567		 951.14271			42741.51297		224.15200		875.00000 
 43692.65567		 305.27265			43387.38302		69.64400		324.00000 
 43692.65567		 951.14271			42741.51297		224.15200		875.00000 
 43692.65567		 305.27265			43387.38302		69.64400		324.00000 
 43692.65567		 951.14271			42741.51297		224.15200		875.00000 
 43692.65567		 305.27265			43387.38302		69.64400		324.00000 
 43692.65567		 951.14271			42741.51297		224.15200		875.00000 
 43692.65567		 305.27265			43387.38302		69.64400		324.00000 
 43692.65567		 951.14271			42741.51297		224.15200		875.00000 
 43692.65567		 305.27265			43387.38302		69.64400		324.00000 
 43692.65567		 951.14271			42741.51297		224.15200		875.00000 
 43692.65567		 305.27265			43387.38302		69.64400		324.00000 
 43692.65567		 951.14271			42741.51297		224.15200		875.00000 
 43692.65567		 305.27265			43387.38302		69.64400		324.00000 
 43692.65567		 951.14271			42741.51297		224.15200		875.00000 
 43692.65567		 305.27265			43387.38302		69.64400		324.00000 
 43692.65567		 951.14271			42741.51297		224.15200		875.00000 
 43692.65567		 305.27265			43387.38302		69.64400		324.00000 
 43692.65567		 951.14271			42741.51297		224.15200		875.00000 
 43692.65567		 305.27265			43387.38302		69.64400		324.00000 
 43692.65567		 951.14271			42741.51297		224.15200		875.00000 
 43692.65567		 305.27265			43387.38302		69.64400		324.00000 
 43692.65567		 951.14271			42741.51297		224.15200		875.00000 
 43692.65567		 305.27265			43387.38302		69.64400		324.00000 
 43692.65567		 951.14271			42741.51297		224.15200		875.00000 
 43692.65567		 305.27265			43387.38302		69.64400		324.00000 
 43692.65567		 951.14271			42741.51297		224.15200		875.00000 
 43692.65567		 305.27265			43387.38302		69.64400		324.00000 
 43692.65567		 951.14271			42741.51297		224.15200		875.00000 
 43692.65567		 305.27265			43387.38302		69.64400		324.00000 
 43692.65567		 951.14271			42741.51297		224.15200		875.00000 
 43692.65567		 305.27265			43387.38302		69.64400		324.00000 
 43692.65567		 951.14271			42741.51297		224.15200		875.00000 
 43692.65567		 305.27265			43387.38302		69.64400		324.00000 
 43692.65567		 951.14271			42741.51297		224.15200		875.00000 
 43692.65567		 305.27265			43387.38302		69.64400		324.00000 
 43692.65567		 951.14271			42741.51297		224.15200		875.00000 
 43692.65567		 305.27265			43387.38302		69.64400		324.00000 
 43692.65567		 951.14271			42741.51297		224.15200		875.00000 
 43692.65567		 305.27265			43387.38302		69.64400		324.00000 
 43692.65567		 951.14271			42741.51297		224.15200		875.00000 
 43692.65567		 305.27265			43387.38302		69.64400		324.00000 
 43692.65567		 951.14271			42741.51297		224.15200		875.00000 
 43692.65567		 305.27265			43387.38302		69.64400		324.00000 
 43692.65567		 951.14271			42741.51297		224.15200		875.00000 
 43692.65567		 305.27265			43387.38302		69.64400		324.00000 
 43692.65567		 951.14271			42741.51297		224.15200		875.00000 
 43692.65567		 305.27265			43387.38302		69.64400		324.00000 
 43692.65567		 951.14271			42741.51297		224.15200		875.00000 
 43692.65567		 305.27265			43387.38302		69.64400		324.00000 
 43692.65567		 951.14271			42741.51297		224.15200		875.00000 
 43692.65567		 305.27265			43387.38302		69.64400		324.00000 
 43692.65567		 951.14271			42741.51297		224.15200		875.00000 
 43692.65567		 305.27265			43387.38302		69.64400		324.00000 
 43692.65567		 951.14271			42741.51297		224.15200		875.00000 
 43692.65567		 305.27265			43387.38302		69.64400		324.00000 
 43692.65567		 951.14271			42741.51297		224.15200		875.00000 
 43692.65567		 305.27265			43387.38302		69.64400		324.00000 
 43692.65567		 951.14271			42741.51297		224.15200		875.00000 
 43692.65567		 305.27265			43387.38302		69.64400		324.00000 
 43692.65567		 951.14271			42741.51297		224.15200		875.00000 
 43692.65567		 305.27265			43387.38302		69.64400		324.00000 
 43692.65567		 951.14271			42741.51297		224.15200		875.00000 
 43692.65567		 305.27265			43387.38302		69.64400		324.00000 
 43692.65567		 951.14271			42741.51297		224.15200		875.00000 
 43692.65567		 305.27265			43387.38302		69.64400		324.00000 
 43692.65567		 951.14271			42741.51297		224.15200		875.00000 
 43692.65567		 305.27265			43387.38302		69.64400		324.00000 
 43692.65567		 951.14271			42741.51297		224.15200		875.00000 
 43692.65567		 305.27265			43387.38302		69.64400		324.00000 
 43692.65567		 951.14271			42741.51297		224.15200		875.00000 
 43692.65567		 305.27265			43387.38302		69.64400		324.00000 
 43692.65567		 951.14271			42741.51297		224.15200		875.00000 
 43692.65567		 305.27265			43387.38302		69.64400		324.00000 
 43692.65567		 951.14271			42741.51297		224.15200		875.00000 
 43692.65567		 305.27265			43387.38302		69.64400		324.00000 
 43692.65567		 951.14271			42741.51297		224.15200		875.00000 
 43692.65567		 305.27265			43387.38302		69.64400		324.00000 
 43692.65567		 951.14271			42741.51297		224.15200		875.00000 
 43692.65567		 305.27265			43387.38302		69.64400		324.00000 
 43692.65567		 951.14271			42741.51297		224.15200		875.00000 
 43692.65567		 305.27265			43387.38302		69.64400		324.00000 
 43692.65567		 951.14271			42741.51297		224.15200		875.00000 
 43692.65567		 305.27265			43387.38302		69.64400		324.00000 
 43692.65567		 951.14271			42741.51297		224.15200		875.00000 
 43692.65567		 305.27265			43387.38302		69.64400		324.00000 
 43692.65567		 951.14271			42741.51297		224.15200		875.00000 
 43692.65567		 305.27265			43387.38302		69.64400		324.00000 
 43692.65567		 951.14271			42741.51297		224.15200		875.00000 
 43692.65567		 305.27265			43387.38302		69.64400		324.00000 
 43692.65567		 951.14271			42741.51297		224.15200		875.00000 
 43692.65567		 305.27265			43387.38302		69.64400		324.00000 
 43692.65567		 951.14271			42741.51297		224.15200		875.00000 
 43692.65567		 305.27265			43387.38302		69.64400		324.00000 
 43692.65567		 951.14271			42741.51297		224.15200		875.00000 
 43692.65567		 305.27265			43387.38302		69.64400		324.00000 
 43692.65567		 951.14271			42741.51297		224.15200		875.00000 
 43692.65567		 305.27265			43387.38302		69.64400		324.00000 
 43692.65567		 951.14271			42741.51297		224.15200		875.00000 
 43692.65567		 305.27265			43387.38302		69.64400		324.00000 
 43692.65567		 951.14271			42741.51297		224.15200		875.00000 
 43692.65567		 305.27265			43387.38302		69.64400		324.00000 
 43692.65567		 951.14271			42741.51297		224.15200		875.00000 
 43692.65567		 305.27265			43387.38302		69.64400		324.00000 
 43692.65567		 951.14271			42741.51297		224.15200		875.00000 
 43692.65567		 305.27265			43387.38302		69.64400		324.00000 
 43692.65567		 951.14271			42741.51297		224.15200		875.00000 
 43692.65567		 305.27265			43387.38302		69.64400		324.00000 
 43692.65567		 951.14271			42741.51297		224.15200		875.00000 
 43692.65567		 305.27265			43387.38302		69.64400		324.00000 
 43692.65567		 951.14271			42741.51297		224.15200		875.00000 
 43692.65567		 305.27265			43387.38302		69.64400		324.00000 
 43692.65567		 951.14271			42741.51297		224.15200		875.00000 
 43692.65567		 305.27265			43387.38302		69.64400		324.00000 
 43692.65567		 951.14271			42741.51297		224.15200		875.00000 
 43692.65567		 305.27265			43387.38302		69.64400		324.00000 
 43692.65567		 951.14271			42741.51297		224.15200		875.00000 
 43692.65567		 305.27265			43387.38302		69.64400		324.00000 
 43692.65567		 951.14271			42741.51297		224.22400		875.00000 
 43692.65567		 305.27265			43387.38302		69.64400		324.00000 
 43692.65567		 951.14271			42741.51297		224.22400		875.00000 
 43692.65567		 305.27265			43387.38302		69.64400		324.00000 
 43692.65567		 951.14271			42741.51297		224.22400		875.00000 
 43692.65567		 305.27265			43387.38302		69.64400		324.00000 
 43692.65567		 951.14271			42741.51297		224.22400		875.00000 
 43692.65567		 305.27265			43387.38302		69.64400		324.00000 
 43692.65567		 951.14271			42741.51297		224.22400		875.00000 
 43692.65567		 305.27265			43387.38302		69.64400		324.00000 
 43692.65567		 951.14271			42741.51297		224.22400		875.00000 
 43692.65567		 305.27265			43387.38302		69.64400		324.00000 
 43692.65567		 951.14271			42741.51297		224.22400		875.00000 
 43692.65567		 305.27265			43387.38302		69.64400		324.00000 
 43692.65567		 951.14271			42741.51297		224.22400		875.00000 
 43692.65567		 305.27265			43387.38302		69.64400		324.00000 
 43692.65567		 951.14271			42741.51297		224.22400		875.00000 
 43692.65567		 305.27265			43387.38302		69.64400		324.00000 
 43692.65567		 951.14271			42741.51297		224.22400		875.00000 
 43692.65567		 305.27265			43387.38302		69.64400		324.00000 
 43692.65567		 951.14271			42741.51297		224.22400		875.00000 
 43692.65567		 305.27265			43387.38302		69.64400		324.00000 
 43692.65567		 951.14271			42741.51297		224.22400		875.00000 
 43692.65567		 305.27265			43387.38302		69.64400		324.00000 
 43692.65567		 951.14271			42741.51297		224.22400		875.00000 
 43692.65567		 305.27265			43387.38302		69.64400		324.00000 
 43692.65567		 951.14271			42741.51297		224.22400		875.00000 
 43692.65567		 305.27265			43387.38302		69.64400		324.00000 
 43692.65567		 951.14271			42741.51297		224.22400		875.00000 
 43692.65567		 305.27265			43387.38302		69.64400		324.00000 
 43692.65567		 951.14271			42741.51297		224.22400		875.00000 
 43692.65567		 305.27265			43387.38302		69.64400		324.00000 
 43692.65567		 951.14271			42741.51297		224.22400		875.00000 
 43692.65567		 305.27265			43387.38302		69.64400		324.00000 
 43692.65567		 951.14271			42741.51297		224.22400		875.00000 
 43692.65567		 305.27265			43387.38302		69.64400		324.00000 
 43692.65567		 951.14271			42741.51297		224.22400		875.00000 
 43692.65567		 305.27265			43387.38302		69.64400		324.00000 
 43692.65567		 951.14271			42741.51297		224.22400		875.00000 
 43692.65567		 305.27265			43387.38302		69.64400		324.00000 
 43692.65567		 951.14271			42741.51297		224.22400		875.00000 
 43692.65567		 305.27265			43387.38302		69.64400		324.00000 
 43692.65567		 951.14271			42741.51297		224.22400		875.00000 
 43692.65567		 305.27265			43387.38302		69.64400		324.00000 
 43692.65567		 951.14271			42741.51297		224.22400		875.00000 
 43692.65567		 305.27265			43387.38302		69.64400		324.00000 
 43692.65567		 951.14271			42741.51297		224.22400		875.00000 
 43692.65567		 305.27265			43387.38302		69.64400		324.00000 
 43692.65567		 951.14271			42741.51297		224.22400		875.00000 
 43692.65567		 305.27265			43387.38302		69.64400		324.00000 
 43692.65567		 951.14271			42741.51297		224.22400		875.00000 
 43692.65567		 305.27265			43387.38302		69.64400		324.00000 
 43692.65567		 951.14271			42741.51297		224.22400		875.00000 
 43692.65567		 305.27265			43387.38302		69.64400		324.00000 
 43692.65567		 951.14271			42741.51297		224.22400		875.00000 
 43692.65567		 305.27265			43387.38302		69.64400		324.00000 
 43692.65567		 951.14271			42741.51297		224.22400		875.00000 
 43692.65567		 305.27265			43387.38302		69.64400		324.00000 
 43692.65567		 951.14271			42741.51297		224.22400		875.00000 
 43692.65567		 305.27265			43387.38302		69.64400		324.00000 
 43692.65567		 951.14271			42741.51297		224.22400		875.00000 
 43692.65567		 305.27265			43387.38302		69.64400		324.00000 
 43692.65567		 951.14271			42741.51297		224.22400		875.00000 
 43692.65567		 305.27265			43387.38302		69.64400		324.00000 
 43692.65567		 951.14271			42741.51297		224.22400		875.00000 
 43692.65567		 305.27265			43387.38302		69.64400		324.00000 
 43692.65567		 951.14271			42741.51297		224.22400		875.00000 
 43692.65567		 305.27265			43387.38302		69.64400		324.00000 
 43692.65567		 951.14271			42741.51297		224.22400		875.00000 
 43692.65567		 305.27265			43387.38302		69.64400		324.00000 
 43692.65567		 951.14271			42741.51297		224.22400		875.00000 
 43692.65567		 305.27265			43387.38302		69.64400		324.00000 
 43692.65567		 951.14271			42741.51297		224.22400		875.00000 
 43692.65567		 305.27265			43387.38302		69.64400		324.00000 
 43692.65567		 951.14271			42741.51297		224.22400		875.00000 
 43692.65567		 305.27265			43387.38302		69.64400		324.00000 
 43692.65567		 951.14271			42741.51297		224.22400		875.00000 
 43692.65567		 305.27265			43387.38302		69.64400		324.00000 
 43692.65567		 951.14271			42741.51297		224.22400		875.00000 
 43692.65567		 305.27265			43387.38302		69.64400		324.00000 
 43692.65567		 951.14271			42741.51297		224.22400		875.00000 
 43692.65567		 305.27265			43387.38302		69.64400		324.00000 
 43692.65567		 951.14271			42741.51297		224.22400		875.00000 
 43692.65567		 305.27265			43387.38302		69.64400		324.00000 
 43692.65567		 951.14271			42741.51297		224.22400		875.00000 
 43692.65567		 305.27265			43387.38302		69.64400		324.00000 
 43692.65567		 951.14271			42741.51297		224.22400		875.00000 
 43692.65567		 305.27265			43387.38302		69.64400		324.00000 
 43692.65567		 951.14271			42741.51297		224.22400		875.00000 
 43692.65567		 305.27265			43387.38302		69.64400		324.00000 
 43692.65567		 951.14271			42741.51297		224.22400		875.00000 
 43692.65567		 305.27265			43387.38302		69.64400		324.00000 
 43692.65567		 951.14271			42741.51297		224.22400		875.00000 
 43692.65567		 305.27265			43387.38302		69.64400		324.00000 
 43692.65567		 951.14271			42741.51297		224.22400		875.00000 
 43692.65567		 305.27265			43387.38302		69.64400		324.00000 
 43692.65567		 951.14271			42741.51297		224.22400		875.00000 
 43692.65567		 305.27265			43387.38302		69.64400		324.00000 
 43692.65567		 951.14271			42741.51297		224.22400		875.00000 
 43692.65567		 305.27265			43387.38302		69.64400		324.00000 
 43692.65567		 951.14271			42741.51297		224.22400		875.00000 
 43692.65567		 305.27265			43387.38302		69.64400		324.00000 
 43692.65567		 951.14271			42741.51297		224.22400		875.00000 
 43692.65567		 305.27265			43387.38302		69.64400		324.00000 
 43692.65567		 951.14271			42741.51297		224.22400		875.00000 
 43692.65567		 305.27265			43387.38302		69.64400		324.00000 
 43692.65567		 951.14271			42741.51297		224.22400		875.00000 
 43692.65567		 305.27265			43387.38302		69.64400		324.00000 
 43692.65567		 951.14271			42741.51297		224.22400		875.00000 
 43692.65567		 305.27265			43387.38302		69.64400		324.00000 
 43692.65567		 951.14271			42741.51297		224.22400		875.00000 
 43692.65567		 305.27265			43387.38302		69.64400		324.00000 
 43692.65567		 951.14271			42741.51297		224.22400		875.00000 
 43692.65567		 305.27265			43387.38302		69.64400		324.00000 
 43692.65567		 951.14271			42741.51297		224.22400		875.00000 
 43692.65567		 305.27265			43387.38302		69.64400		324.00000 
 43692.65567		 951.14271			42741.51297		224.22400		875.00000 
 43692.65567		 305.27265			43387.38302		69.64400		324.00000 
 43692.65567		 951.14271			42741.51297		224.22400		875.00000 
 43692.65567		 305.27265			43387.38302		69.64400		324.00000 
 43692.65567		 951.14271			42741.51297		224.22400		875.00000 
 43692.65567		 305.27265			43387.38302		69.64400		324.00000 
 43692.65567		 951.14271			42741.51297		224.22400		875.00000 
 43692.65567		 305.27265			43387.38302		69.64400		324.00000 
 43692.65567		 951.14271			42741.51297		224.22400		875.00000 
 43692.65567		 305.27265			43387.38302		69.64400		324.00000 
 43692.65567		 951.14271			42741.51297		224.22400		875.00000 
 43692.65567		 305.27265			43387.38302		69.64400		324.00000 
 43692.65567		 951.14271			42741.51297		224.22400		875.00000 
 43692.65567		 305.27265			43387.38302		69.64400		324.00000 
 43692.65567		 951.14271			42741.51297		224.15200		875.00000 
 43692.65567		 305.27265			43387.38302		69.64400		324.00000 
 43692.65567		 951.14271			42741.51297		224.15200		875.00000 
 43692.65567		 305.27265			43387.38302		69.64400		324.00000 
 43692.65567		 951.14271			42741.51297		224.15200		875.00000 
 43692.65567		 305.27265			43387.38302		69.64400		324.00000 
 43692.65567		 951.14271			42741.51297		224.15200		875.00000 
 43692.65567		 305.27265			43387.38302		69.64400		324.00000 
 43692.65567		 951.14271			42741.51297		224.15200		875.00000 
 43692.65567		 305.27265			43387.38302		69.64400		324.00000 
 43692.65567		 951.14271			42741.51297		224.15200		875.00000 
 43692.65567		 305.27265			43387.38302		69.64400		324.00000 
 43692.65567		 951.14271			42741.51297		224.15200		875.00000 
 43692.65567		 305.27265			43387.38302		69.64400		324.00000 
 43692.65567		 951.14271			42741.51297		224.15200		875.00000 
 43692.65567		 305.27265			43387.38302		69.64400		324.00000 
 43692.65567		 951.14271			42741.51297		224.15200		875.00000 
 43692.65567		 305.27265			43387.38302		69.64400		324.00000 
 43692.65567		 951.14271			42741.51297		224.15200		875.00000 
 43692.65567		 305.27265			43387.38302		69.64400		324.00000 
 43692.65567		 951.14271			42741.51297		224.15200		875.00000 
 43692.65567		 305.27265			43387.38302		69.64400		324.00000 
 43692.65567		 951.14271			42741.51297		224.15200		875.00000 
 43692.65567		 305.27265			43387.38302		69.64400		324.00000 
 43692.65567		 951.14271			42741.51297		224.15200		875.00000 
 43692.65567		 305.27265			43387.38302		69.64400		324.00000 
 43692.65567		 951.14271			42741.51297		224.15200		875.00000 
 43692.65567		 305.27265			43387.38302		69.64400		324.00000 
 43692.65567		 951.14271			42741.51297		224.15200		875.00000 
 43692.65567		 305.27265			43387.38302		69.64400		324.00000 
 43692.65567		 951.14271			42741.51297		224.15200		875.00000 
 43692.65567		 305.27265			43387.38302		69.64400		324.00000 
 43692.65567		 951.14271			42741.51297		224.15200		875.00000 
 43692.65567		 305.27265			43387.38302		69.64400		324.00000 
 43692.65567		 951.14271			42741.51297		224.15200		875.00000 
 43692.65567		 305.27265			43387.38302		69.64400		324.00000 
 43692.65567		 951.14271			42741.51297		224.15200		875.00000 
 43692.65567		 305.27265			43387.38302		69.64400		324.00000 
 43692.65567		 951.14271			42741.51297		224.15200		875.00000 
 43692.65567		 305.27265			43387.38302		69.64400		324.00000 
 43692.65567		 951.14271			42741.51297		224.15200		875.00000 
 43692.65567		 305.27265			43387.38302		69.64400		324.00000 
 43692.65567		 951.14271			42741.51297		224.15200		875.00000 
 43692.65567		 305.27265			43387.38302		69.64400		324.00000 
 43692.65567		 951.14271			42741.51297		224.15200		875.00000 
 43692.65567		 305.27265			43387.38302		69.64400		324.00000 
 43692.65567		 951.14271			42741.51297		224.15200		875.00000 
 43692.65567		 305.27265			43387.38302		69.64400		324.00000 
 43692.65567		 951.14271			42741.51297		224.15200		875.00000 
 43692.65567		 305.27265			43387.38302		69.64400		324.00000 
 43692.65567		 951.14271			42741.51297		224.15200		875.00000 
 43692.65567		 305.27265			43387.38302		69.64400		324.00000 
 43692.65567		 951.14271			42741.51297		224.15200		875.00000 
 43692.65567		 305.27265			43387.38302		69.64400		324.00000 
 43692.65567		 951.14271			42741.51297		224.15200		875.00000 
 43692.65567		 305.27265			43387.38302		69.64400		324.00000 
 43692.65567		 951.14271			42741.51297		224.15200		875.00000 
 43692.65567		 305.27265			43387.38302		69.64400		324.00000 
 43692.65567		 951.14271			42741.51297		224.15200		875.00000 
 43692.65567		 305.27265			43387.38302		69.64400		324.00000 
 43692.65567		 951.14271			42741.51297		224.15200		875.00000 
 43692.65567		 305.27265			43387.38302		69.64400		324.00000 
 43692.65567		 951.14271			42741.51297		224.15200		875.00000 
 43692.65567		 305.27265			43387.38302		69.64400		324.00000 
 43692.65567		 951.14271			42741.51297		224.15200		875.00000 
 43692.65567		 305.27265			43387.38302		69.64400		324.00000 
 43692.65567		 951.14271			42741.51297		224.15200		875.00000 
 43692.65567		 305.27265			43387.38302		69.64400		324.00000 
 43692.65567		 951.14271			42741.51297		224.15200		875.00000 
 43692.65567		 305.27265			43387.38302		69.64400		324.00000 
 43692.65567		 951.14271			42741.51297		224.15200		875.00000 
 43692.65567		 305.27265			43387.38302		69.64400		324.00000 
 43692.65567		 951.14271			42741.51297		224.15200		875.00000 
 43692.65567		 305.27265			43387.38302		69.64400		324.00000 
 43692.65567		 951.14271			42741.51297		224.15200		875.00000 
 43692.65567		 305.27265			43387.38302		69.64400		324.00000 
 43692.65567		 951.14271			42741.51297		224.15200		875.00000 
 43692.65567		 305.27265			43387.38302		69.64400		324.00000 
 43692.65567		 951.14271			42741.51297		224.15200		875.00000 
 43692.65567		 305.27265			43387.38302		69.64400		324.00000 
 43692.65567		 951.14271			42741.51297		224.15200		875.00000 
 43692.65567		 305.27265			43387.38302		69.64400		324.00000 
 43692.65567		 951.14271			42741.51297		224.15200		875.00000 
 43692.65567		 305.27265			43387.38302		69.64400		324.00000 
 43692.65567		 951.14271			42741.51297		224.15200		875.00000 
 43692.65567		 305.27265			43387.38302		69.64400		324.00000 
 43692.65567		 951.14271			42741.51297		224.15200		875.00000 
 43692.65567		 305.27265			43387.38302		69.64400		324.00000 
 43692.65567		 951.14271			42741.51297		224.15200		875.00000 
 43692.65567		 305.27265			43387.38302		69.64400		324.00000 
 43692.65567		 951.14271			42741.51297		224.15200		875.00000 
 43692.65567		 305.27265			43387.38302		69.64400		324.00000 
 43692.65567		 951.14271			42741.51297		224.15200		875.00000 
 43692.65567		 305.27265			43387.38302		69.64400		324.00000 
 43692.65567		 951.14271			42741.51297		224.15200		875.00000 
 43692.65567		 305.27265			43387.38302		69.64400		324.00000 
 43692.65567		 951.14271			42741.51297		224.15200		875.00000 
 43692.65567		 305.27265			43387.38302		69.64400		324.00000 
 43692.65567		 951.14271			42741.51297		224.15200		875.00000 
 43692.65567		 305.27265			43387.38302		69.64400		324.00000 
 43692.65567		 951.14271			42741.51297		224.15200		875.00000 
 43692.65567		 305.27265			43387.38302		69.64400		324.00000 
 43692.65567		 951.14271			42741.51297		224.15200		875.00000 
 43692.65567		 305.27265			43387.38302		69.64400		324.00000 
 43692.65567		 951.14271			42741.51297		224.15200		875.00000 
 43692.65567		 305.27265			43387.38302		69.64400		324.00000 
 43692.65567		 951.14271			42741.51297		224.15200		875.00000 
 43692.65567		 305.27265			43387.38302		69.64400		324.00000 
 43692.65567		 951.14271			42741.51297		224.15200		875.00000 
 43692.65567		 305.27265			43387.38302		69.64400		324.00000 
 43692.65567		 951.14271			42741.51297		224.15200		875.00000 
 43692.65567		 305.27265			43387.38302		69.64400		324.00000 
 43692.65567		 951.14271			42741.51297		224.15200		875.00000 
 43692.65567		 305.27265			43387.38302		69.64400		324.00000 
 43692.65567		 951.14271			42741.51297		224.15200		875.00000 
 43692.65567		 305.27265			43387.38302		69.64400		324.00000 
 43692.65567		 951.14271			42741.51297		224.15200		875.00000 
 43692.65567		 305.27265			43387.38302		69.64400		324.00000 
 43692.65567		 951.14271			42741.51297		224.15200		875.00000 
 43692.65567		 305.27265			43387.38302		69.64400		324.00000 
 43692.65567		 951.14271			42741.51297		224.15200		875.00000 
 43692.65567		 305.27265			43387.38302		69.64400		324.00000 
 43692.65567		 951.14271			42741.51297		224.15200		875.00000 
 43692.65567		 305.27265			43387.38302		69.64400		324.00000 
 43692.65567		 951.14271			42741.51297		224.15200		875.00000 
 43692.65567		 305.27265			43387.38302		69.64400		324.00000 
 43692.65567		 951.14271			42741.51297		224.15200		875.00000 
 43692.65567		 305.27265			43387.38302		69.64400		324.00000 
 43692.65567		 951.14271			42741.51297		224.15200		875.00000 
 43692.65567		 305.27265			43387.38302		69.64400		324.00000 
 43692.65567		 951.14271			42741.51297		224.22400		875.00000 
 43692.65567		 305.27265			43387.38302		69.64400		324.00000 
 43692.65567		 951.14271			42741.51297		224.22400		875.00000 
 43692.65567		 305.27265			43387.38302		69.64400		324.00000 
 43692.65567		 951.14271			42741.51297		224.22400		875.00000 
 43692.65567		 305.27265			43387.38302		69.64400		324.00000 
 43692.65567		 951.14271			42741.51297		224.22400		875.00000 
 43692.65567		 305.27265			43387.38302		69.64400		324.00000 
 43692.65567		 951.14271			42741.51297		224.22400		875.00000 
 43692.65567		 305.27265			43387.38302		69.64400		324.00000 
 43692.65567		 951.14271			42741.51297		224.22400		875.00000 
 43692.65567		 305.27265			43387.38302		69.64400		324.00000 
 43692.65567		 951.14271			42741.51297		224.22400		875.00000 
 43692.65567		 305.27265			43387.38302		69.64400		324.00000 
 43692.65567		 951.14271			42741.51297		224.22400		875.00000 
 43692.65567		 305.27265			43387.38302		69.64400		324.00000 
 43692.65567		 951.14271			42741.51297		224.22400		875.00000 
 43692.65567		 305.27265			43387.38302		69.64400		324.00000 
 43692.65567		 951.14271			42741.51297		224.22400		875.00000 
 43692.65567		 305.27265			43387.38302		69.64400		324.00000 
 43692.65567		 951.14271			42741.51297		224.22400		875.00000 
 43692.65567		 305.27265			43387.38302		69.64400		324.00000 
 43692.65567		 951.14271			42741.51297		224.22400		875.00000 
 43692.65567		 305.27265			43387.38302		69.64400		324.00000 
 43692.65567		 951.14271			42741.51297		224.22400		875.00000 
 43692.65567		 305.27265			43387.38302		69.64400		324.00000 
 43692.65567		 951.14271			42741.51297		224.22400		875.00000 
 43692.65567		 305.27265			43387.38302		69.64400		324.00000 
 43692.65567		 951.14271			42741.51297		224.22400		875.00000 
 43692.65567		 305.27265			43387.38302		69.64400		324.00000 
 43692.65567		 951.14271			42741.51297		224.22400		875.00000 
 43692.65567		 305.27265			43387.38302		69.64400		324.00000 
 43692.65567		 951.14271			42741.51297		224.22400		875.00000 
 43692.65567		 305.27265			43387.38302		69.64400		324.00000 
 43692.65567		 951.14271			42741.51297		224.22400		875.00000 
 43692.65567		 305.27265			43387.38302		69.64400		324.00000 
 43692.65567		 951.14271			42741.51297		224.22400		875.00000 
 43692.65567		 305.27265			43387.38302		69.64400		324.00000 
 43692.65567		 951.14271			42741.51297		224.22400		875.00000 
 43692.65567		 305.27265			43387.38302		69.64400		324.00000 
 43692.65567		 951.14271			42741.51297		224.22400		875.00000 
 43692.65567		 305.27265			43387.38302		69.64400		324.00000 
 43692.65567		 951.14271			42741.51297		224.22400		875.00000 
 43692.65567		 305.27265			43387.38302		69.64400		324.00000 
 43692.65567		 951.14271			42741.51297		224.22400		875.00000 
 43692.65567		 305.27265			43387.38302		69.64400		324.00000 
 43692.65567		 951.14271			42741.51297		224.22400		875.00000 
 43692.65567		 305.27265			43387.38302		69.64400		324.00000 
 43692.65567		 951.14271			42741.51297		224.22400		875.00000 
 43692.65567		 305.27265			43387.38302		69.64400		324.00000 
 43692.65567		 951.14271			42741.51297		224.22400		875.00000 
 43692.65567		 305.27265			43387.38302		69.64400		324.00000 
 43692.65567		 951.14271			42741.51297		224.22400		875.00000 
 43692.65567		 305.27265			43387.38302		69.64400		324.00000 
 43692.65567		 951.14271			42741.51297		224.22400		875.00000 
 43692.65567		 305.27265			43387.38302		69.64400		324.00000 
 43692.65567		 951.14271			42741.51297		224.22400		875.00000 
 43692.65567		 305.27265			43387.38302		69.64400		324.00000 
 43692.65567		 951.14271			42741.51297		224.22400		875.00000 
 43692.65567		 305.27265			43387.38302		69.64400		324.00000 
 43692.65567		 951.14271			42741.51297		224.22400		875.00000 
 43692.65567		 305.27265			43387.38302		69.64400		324.00000 
 43692.65567		 951.14271			42741.51297		224.22400		875.00000 
 43692.65567		 305.27265			43387.38302		69.64400		324.00000 
 43692.65567		 951.14271			42741.51297		224.22400		875.00000 
 43692.65567		 305.27265			43387.38302		69.64400		324.00000 
 43692.65567		 951.14271			42741.51297		224.22400		875.00000 
 43692.65567		 305.27265			43387.38302		69.64400		324.00000 
 43692.65567		 951.14271			42741.51297		224.22400		875.00000 
 43692.65567		 305.27265			43387.38302		69.64400		324.00000 
 43692.65567		 951.14271			42741.51297		224.22400		875.00000 
 43692.65567		 305.27265			43387.38302		69.64400		324.00000 
 43692.65567		 951.14271			42741.51297		224.22400		875.00000 
 43692.65567		 305.27265			43387.38302		69.64400		324.00000 
 43692.65567		 951.14271			42741.51297		224.22400		875.00000 
 43692.65567		 305.27265			43387.38302		69.64400		324.00000 
 43692.65567		 951.14271			42741.51297		224.22400		875.00000 
 43692.65567		 305.27265			43387.38302		69.64400		324.00000 
 43692.65567		 951.14271			42741.51297		224.22400		875.00000 
 43692.65567		 305.27265			43387.38302		69.64400		324.00000 
 43692.65567		 951.14271			42741.51297		224.22400		875.00000 
 43692.65567		 305.27265			43387.38302		69.64400		324.00000 
 43692.65567		 951.14271			42741.51297		224.22400		875.00000 
 43692.65567		 305.27265			43387.38302		69.64400		324.00000 
 43692.65567		 951.14271			42741.51297		224.22400		875.00000 
 43692.65567		 305.27265			43387.38302		69.64400		324.00000 
 43692.65567		 951.14271			42741.51297		224.22400		875.00000 
 43692.65567		 305.27265			43387.38302		69.64400		324.00000 
 43692.65567		 951.14271			42741.51297		224.22400		875.00000 
 43692.65567		 305.27265			43387.38302		69.64400		324.00000 
 43692.65567		 951.14271			42741.51297		224.22400		875.00000 
 43692.65567		 305.27265			43387.38302		69.64400		324.00000 
 43692.65567		 951.14271			42741.51297		224.22400		875.00000 
 43692.65567		 305.27265			43387.38302		69.64400		324.00000 
 43692.65567		 951.14271			42741.51297		224.22400		875.00000 
 43692.65567		 305.27265			43387.38302		69.64400		324.00000 
 43692.65567		 951.14271			42741.51297		224.22400		875.00000 
 43692.65567		 305.27265			43387.38302		69.64400		324.00000 
 43692.65567		 951.14271			42741.51297		224.22400		875.00000 
 43692.65567		 305.27265			43387.38302		69.64400		324.00000 
 43692.65567		 951.14271			42741.51297		224.22400		875.00000 
 43692.65567		 305.27265			43387.38302		69.64400		324.00000 
 43692.65567		 951.14271			42741.51297		224.22400		875.00000 
 43692.65567		 305.27265			43387.38302		69.64400		324.00000 
 43692.65567		 951.14271			42741.51297		224.22400		875.00000 
 43692.65567		 305.27265			43387.38302		69.64400		324.00000 
 43692.65567		 951.14271			42741.51297		224.22400		875.00000 
 43692.65567		 305.27265			43387.38302		69.64400		324.00000 
 43692.65567		 951.14271			42741.51297		224.22400		875.00000 
 43692.65567		 305.27265			43387.38302		69.64400		324.00000 
 43692.65567		 951.14271			42741.51297		224.22400		875.00000 
 43692.65567		 305.27265			43387.38302		69.64400		324.00000 
 43692.65567		 951.14271			42741.51297		224.22400		875.00000 
 43692.65567		 305.27265			43387.38302		69.64400		324.00000 
 43692.65567		 951.14271			42741.51297		224.22400		875.00000 
 43692.65567		 305.27265			43387.38302		69.64400		324.00000 
 43692.65567		 951.14271			42741.51297		224.22400		875.00000 
 43692.65567		 305.27265			43387.38302		69.64400		324.00000 
 43692.65567		 951.14271			42741.51297		224.22400		875.00000 
 43692.65567		 305.27265			43387.38302		69.64400		324.00000 
 43692.65567		 951.14271			42741.51297		224.22400		875.00000 
 43692.65567		 305.27265			43387.38302		69.64400		324.00000 
 43692.65567		 951.14271			42741.51297		224.22400		875.00000 
 43692.65567		 305.27265			43387.38302		69.64400		324.00000 
 43692.65567		 951.14271			42741.51297		224.22400		875.00000 
 43692.65567		 305.27265			43387.38302		69.64400		324.00000 
 43692.65567		 951.14271			42741.51297		224.22400		875.00000 
 43692.65567		 305.27265			43387.38302		69.64400		324.00000 
 43692.65567		 951.14271			42741.51297		224.22400		875.00000 
 43692.65567		 305.27265			43387.38302		69.64400		324.00000 
 43692.65567		 951.14271			42741.51297		224.22400		875.00000 
 43692.65567		 305.27265			43387.38302		69.64400		324.00000 
 43692.65567		 951.14271			42741.51297		224.22400		875.00000 
 43692.65567		 305.27265			43387.38302		69.64400		324.00000 
 43692.65567		 951.14271			42741.51297		224.22400		875.00000 
 43692.65567		 305.27265			43387.38302		69.64400		324.00000 
 43692.65567		 951.14271			42741.51297		224.22400		875.00000 
 43692.65567		 305.27265			43387.38302		69.64400		324.00000 
 43692.65567		 951.14271			42741.51297		224.22400		875.00000 
 43692.65567		 305.27265			43387.38302		69.64400		324.00000 
 43692.65567		 951.14271			42741.51297		224.22400		875.00000 
 43692.65567		 305.27265			43387.38302		69.64400		324.00000 
 43692.65567		 951.14271			42741.51297		224.22400		875.00000 
 43692.65567		 305.27265			43387.38302		69.64400		324.00000 
 43692.65567		 951.14271			42741.51297		224.22400		875.00000 
 43692.65567		 305.27265			43387.38302		69.64400		324.00000 
 43692.65567		 951.14271			42741.51297		224.22400		875.00000 
 43692.65567		 305.27265			43387.38302		69.64400		324.00000 
 43692.65567		 951.14271			42741.51297		224.22400		875.00000 
 43692.65567		 305.27265			43387.38302		69.64400		324.00000 
 43692.65567		 951.14271			42741.51297		224.22400		875.00000 
 43692.65567		 305.27265			43387.38302		69.64400		324.00000 
 43692.65567		 951.14271			42741.51297		224.22400		875.00000 
 43692.65567		 305.27265			43387.38302		69.64400		324.00000 
 43692.65567		 951.14271			42741.51297		224.22400		875.00000 
 43692.65567		 305.27265			43387.38302		69.64400		324.00000 
 43692.65567		 951.14271			42741.51297		224.22400		875.00000 
 43692.65567		 305.27265			43387.38302		69.64400		324.00000 
 43692.65567		 951.14271			42741.51297		224.22400		875.00000 
 43692.65567		 305.27265			43387.38302		69.64400		324.00000 
 43692.65567		 951.14271			42741.51297		224.22400		875.00000 
 43692.65567		 305.27265			43387.38302		69.64400		324.00000 
 43692.65567		 951.14271			42741.51297		224.22400		875.00000 
 43692.65567		 305.27265			43387.38302		69.64400		324.00000 
 43692.65567		 951.14271			42741.51297		224.22400		875.00000 
 43692.65567		 305.27265			43387.38302		69.64400		324.00000 
 43692.65567		 951.14271			42741.51297		224.22400		875.00000 
 43692.65567		 305.27265			43387.38302		69.64400		324.00000 
 43692.65567		 951.14271			42741.51297		224.22400		875.00000 
 43692.65567		 305.27265			43387.38302		69.64400		324.00000 
 43692.65567		 951.14271			42741.51297		224.22400		875.00000 
 43692.65567		 305.27265			43387.38302		69.64400		324.00000 
 43692.65567		 951.14271			42741.51297		224.22400		875.00000 
 43692.65567		 305.27265			43387.38302		69.64400		324.00000 
 43692.65567		 951.14271			42741.51297		224.22400		875.00000 
 43692.65567		 305.27265			43387.38302		69.64400		324.00000 
 43692.65567		 951.14271			42741.51297		224.22400		875.00000 
 43692.65567		 305.27265			43387.38302		69.64400		324.00000 
 43692.65567		 951.14271			42741.51297		224.22400		875.00000 
 43692.65567		 305.27265			43387.38302		69.64400		324.00000 
 43692.65567		 951.14271			42741.51297		224.22400		875.00000 
 43692.65567		 305.27265			43387.38302		69.64400		324.00000 
 43692.65567		 951.14271			42741.51297		224.22400		875.00000 
 43692.65567		 305.27265			43387.38302		69.64400		324.00000 
 43692.65567		 951.14271			42741.51297		224.22400		875.00000 
 43692.65567		 305.27265			43387.38302		69.64400		324.00000 
 43692.65567		 951.14271			42741.51297		224.22400		875.00000 
 43692.65567		 305.27265			43387.38302		69.64400		324.00000 
 43692.65567		 951.14271			42741.51297		224.22400		875.00000 
 43692.65567		 305.27265			43387.38302		69.64400		324.00000 
 43692.65567		 951.14271			42741.51297		224.22400		875.00000 
 43692.65567		 305.27265			43387.38302		69.64400		324.00000 
 43692.65567		 951.14271			42741.51297		224.22400		875.00000 
 43692.65567		 305.27265			43387.38302		69.64400		324.00000 
 43692.65567		 951.14271			42741.51297		224.22400		875.00000 
 43692.65567		 305.27265			43387.38302		69.64400		324.00000 
 43692.65567		 951.14271			42741.51297		224.22400		875.00000 
 43692.65567		 305.27265			43387.38302		69.64400		324.00000 
 43692.65567		 951.14271			42741.51297		224.22400		875.00000 
 43692.65567		 305.27265			43387.38302		69.64400		324.00000 
 43692.65567		 951.14271			42741.51297		224.22400		875.00000 
 43692.65567		 305.27265			43387.38302		69.64400		324.00000 
 43692.65567		 951.14271			42741.51297		224.22400		875.00000 
 43692.65567		 305.27265			43387.38302		69.64400		324.00000 
 43692.65567		 951.14271			42741.51297		224.22400		875.00000 
 43692.65567		 305.27265			43387.38302		69.64400		324.00000 
 43692.65567		 951.14271			42741.51297		224.22400		875.00000 
 43692.65567		 305.27265			43387.38302		69.64400		324.00000 
 43692.65567		 951.14271			42741.51297		224.22400		875.00000 
 43692.65567		 305.27265			43387.38302		69.64400		324.00000 
 43692.65567		 951.14271			42741.51297		224.22400		875.00000 
 43692.65567		 305.27265			43387.38302		69.64400		324.00000 
 43692.65567		 951.14271			42741.51297		224.22400		875.00000 
 43692.65567		 305.27265			43387.38302		69.64400		324.00000 
 43692.65567		 951.14271			42741.51297		224.22400		875.00000 
 43692.65567		 305.27265			43387.38302		69.64400		324.00000 
 43692.65567		 951.14271			42741.51297		224.22400		875.00000 
 43692.65567		 305.27265			43387.38302		69.64400		324.00000 
 43692.65567		 951.14271			42741.51297		224.22400		875.00000 
 43692.65567		 305.27265			43387.38302		69.64400		324.00000 
 43692.65567		 951.14271			42741.51297		224.22400		875.00000 
 43692.65567		 305.27265			43387.38302		69.64400		324.00000 
 43692.65567		 951.14271			42741.51297		224.22400		875.00000 
 43692.65567		 305.27265			43387.38302		69.64400		324.00000 
 43692.65567		 951.14271			42741.51297		224.22400		875.00000 
 43692.65567		 305.27265			43387.38302		69.64400		324.00000 
 43692.65567		 951.14271			42741.51297		224.22400		875.00000 
 43692.65567		 305.27265			43387.38302		69.64400		324.00000 
 43692.65567		 951.14271			42741.51297		224.22400		875.00000 
 43692.65567		 305.27265			43387.38302		69.64400		324.00000 
 43692.65567		 951.14271			42741.51297		224.22400		875.00000 
 43692.65567		 305.27265			43387.38302		69.64400		324.00000 
 43692.65567		 951.14271			42741.51297		224.22400		875.00000 
 43692.65567		 305.27265			43387.38302		69.64400		324.00000 
 43692.65567		 951.14271			42741.51297		224.22400		875.00000 
 43692.65567		 305.27265			43387.38302		69.64400		324.00000 
 43692.65567		 951.14271			42741.51297		224.22400		875.00000 
 43692.65567		 305.27265			43387.38302		69.64400		324.00000 
 43692.65567		 951.14271			42741.51297		224.22400		875.00000 
 43692.65567		 305.27265			43387.38302		69.64400		324.00000 
 43692.65567		 951.14271			42741.51297		224.22400		875.00000 
 43692.65567		 305.27265			43387.38302		69.64400		324.00000 
 43692.65567		 951.14271			42741.51297		224.22400		875.00000 
 43692.65567		 305.27265			43387.38302		69.64400		324.00000 
 43692.65567		 951.14271			42741.51297		224.22400		875.00000 
 43692.65567		 305.27265			43387.38302		69.64400		324.00000 
 43692.65567		 951.14271			42741.51297		224.22400		875.00000 
 43692.65567		 305.27265			43387.38302		69.64400		324.00000 
 43692.65567		 951.14271			42741.51297		224.22400		875.00000 
 43692.65567		 305.27265			43387.38302		69.64400		324.00000 
 43692.65567		 951.14271			42741.51297		224.22400		875.00000 
 43692.65567		 305.27265			43387.38302		69.64400		324.00000 
 43692.65567		 951.14271			42741.51297		224.22400		875.00000 
 43692.65567		 305.27265			43387.38302		69.64400		324.00000 
 43692.65567		 951.14271			42741.51297		224.22400		875.00000 
 43692.65567		 305.27265			43387.38302		69.64400		324.00000 
 43692.65567		 951.14271			42741.51297		224.22400		875.00000 
 43692.65567		 305.27265			43387.38302		69.64400		324.00000 
 43692.65567		 951.14271			42741.51297		224.22400		875.00000 
 43692.65567		 305.27265			43387.38302		69.64400		324.00000 
 43692.65567		 951.14271			42741.51297		224.22400		875.00000 
 43692.65567		 305.27265			43387.38302		69.64400		324.00000 
 43692.65567		 951.14271			42741.51297		224.22400		875.00000 
 43692.65567		 305.27265			43387.38302		69.64400		324.00000 
 43692.65567		 951.14271			42741.51297		224.22400		875.00000 
 43692.65567		 305.27265			43387.38302		69.64400		324.00000 
 43692.65567		 951.14271			42741.51297		224.22400		875.00000 
 43692.65567		 305.27265			43387.38302		69.64400		324.00000 
 43692.65567		 951.14271			42741.51297		224.22400		875.00000 
 43692.65567		 305.27265			43387.38302		69.64400		324.00000 
 43692.65567		 951.14271			42741.51297		224.22400		875.00000 
 43692.65567		 305.27265			43387.38302		69.64400		324.00000 
 43692.65567		 951.14271			42741.51297		224.22400		875.00000 
 43692.65567		 305.27265			43387.38302		69.64400		324.00000 
 43692.65567		 951.14271			42741.51297		224.22400		875.00000 
 43692.65567		 305.27265			43387.38302		69.64400		324.00000 
 43692.65567		 951.14271			42741.51297		224.22400		875.00000 
 43692.65567		 305.27265			43387.38302		69.64400		324.00000 
 43692.65567		 951.14271			42741.51297		224.22400		875.00000 
 43692.65567		 305.27265			43387.38302		69.64400		324.00000 
 43692.65567		 951.14271			42741.51297		224.22400		875.00000 
 43692.65567		 305.27265			43387.38302		69.64400		324.00000 
 43692.65567		 951.14271			42741.51297		224.22400		875.00000 
 43692.65567		 305.27265			43387.38302		69.64400		324.00000 
 43692.65567		 951.14271			42741.51297		224.22400		875.00000 
 43692.65567		 305.27265			43387.38302		69.64400		324.00000 
 43692.65567		 951.14271			42741.51297		224.22400		875.00000 
 43692.65567		 305.27265			43387.38302		69.64400		324.00000 
 43692.65567		 951.14271			42741.51297		224.22400		875.00000 
 43692.65567		 305.27265			43387.38302		69.64400		324.00000 
 43692.65567		 951.14271			42741.51297		224.22400		875.00000 
 43692.65567		 305.27265			43387.38302		69.64400		324.00000 
 43692.65567		 951.14271			42741.51297		224.22400		875.00000 
 43692.65567		 305.27265			43387.38302		69.64400		324.00000 
 43692.65567		 951.14271			42741.51297		224.22400		875.00000 
 43692.65567		 305.27265			43387.38302		69.64400		324.00000 
 43692.65567		 951.14271			42741.51297		224.22400		875.00000 
 43692.65567		 305.27265			43387.38302		69.64400		324.00000 
 43692.65567		 951.14271			42741.51297		224.22400		875.00000 
 43692.65567		 305.27265			43387.38302		69.64400		324.00000 
 43692.65567		 951.14271			42741.51297		224.22400		875.00000 
 43692.65567		 305.27265			43387.38302		69.64400		324.00000 
 43692.65567		 951.14271			42741.51297		224.22400		875.00000 
 43692.65567		 305.27265			43387.38302		69.64400		324.00000 
 43692.65567		 951.14271			42741.51297		224.22400		875.00000 
 43692.65567		 305.27265			43387.38302		69.64400		324.00000 
 43692.65567		 951.14271			42741.51297		224.22400		875.00000 
 43692.65567		 305.27265			43387.38302		69.64400		324.00000 
 43692.65567		 951.14271			42741.51297		224.22400		875.00000 
 43692.65567		 305.27265			43387.38302		69.64400		324.00000 
 43692.65567		 951.14271			42741.51297		224.22400		875.00000 
 43692.65567		 305.27265			43387.38302		69.64400		324.00000 
 43692.65567		 951.14271			42741.51297		224.22400		875.00000 
 43692.65567		 305.27265			43387.38302		69.64400		324.00000 
 43692.65567		 951.14271			42741.51297		224.22400		875.00000 
 43692.65567		 305.27265			43387.38302		69.64400		324.00000 
 43692.65567		 951.14271			42741.51297		224.22400		875.00000 
 43692.65567		 305.27265			43387.38302		69.64400		324.00000 
 43692.65567		 951.14271			42741.51297		224.22400		875.00000 
 43692.65567		 305.27265			43387.38302		69.64400		324.00000 
 43692.65567		 951.14271			42741.51297		224.22400		875.00000 
 43692.65567		 305.27265			43387.38302		69.64400		324.00000 
 43692.65567		 951.14271			42741.51297		224.22400		875.00000 
 43692.65567		 305.27265			43387.38302		69.64400		324.00000 
 43692.65567		 951.14271			42741.51297		224.22400		875.00000 
 43692.65567		 305.27265			43387.38302		69.64400		324.00000 
 43692.65567		 951.14271			42741.51297		224.22400		875.00000 
 43692.65567		 305.27265			43387.38302		69.64400		324.00000 
 43692.65567		 951.14271			42741.51297		224.22400		875.00000 
 43692.65567		 305.27265			43387.38302		69.64400		324.00000 
 43692.65567		 951.14271			42741.51297		224.22400		875.00000 
 43692.65567		 305.27265			43387.38302		69.64400		324.00000 
 43692.65567		 951.14271			42741.51297		224.22400		875.00000 
 43692.65567		 305.27265			43387.38302		69.64400		324.00000 
 43692.65567		 951.14271			42741.51297		224.22400		875.00000 
 43692.65567		 305.27265			43387.38302		69.64400		324.00000 
 43692.65567		 951.14271			42741.51297		224.22400		875.00000 
 43692.65567		 305.27265			43387.38302		69.64400		324.00000 
 43692.65567		 951.14271			42741.51297		224.22400		875.00000 
 43692.65567		 305.27265			43387.38302		69.64400		324.00000 
 43692.65567		 951.14271			42741.51297		224.22400		875.00000 
 43692.65567		 305.27265			43387.38302		69.64400		324.00000 
 43692.65567		 951.14271			42741.51297		224.22400		875.00000 
 43692.65567		 305.27265			43387.38302		69.64400		324.00000 
 43692.65567		 951.14271			42741.51297		224.22400		875.00000 
 43692.65567		 305.27265			43387.38302		69.64400		324.00000 
 43692.65567		 951.14271			42741.51297		224.22400		875.00000 
 43692.65567		 305.27265			43387.38302		69.64400		324.00000 
 43692.65567		 951.14271			42741.51297		224.22400		875.00000 
 43692.65567		 305.27265			43387.38302		69.64400		324.00000 
 43692.65567		 951.14271			42741.51297		224.22400		875.00000 
 43692.65567		 305.27265			43387.38302		69.64400		324.00000 
 43692.65567		 951.14271			42741.51297		224.22400		875.00000 
 43692.65567		 305.27265			43387.38302		69.64400		324.00000 
 43692.65567		 951.14271			42741.51297		224.22400		875.00000 
 43692.65567		 305.27265			43387.38302		69.64400		324.00000 
 43692.65567		 951.14271			42741.51297		224.22400		875.00000 
 43692.65567		 305.27265			43387.38302		69.64400		324.00000 
 43692.65567		 951.14271			42741.51297		224.22400		875.00000 
 43692.65567		 305.27265			43387.38302		69.64400		324.00000 
 43692.65567		 951.14271			42741.51297		224.22400		875.00000 
 43692.65567		 305.27265			43387.38302		69.64400		324.00000 
 43692.65567		 951.14271			42741.51297		224.22400		875.00000 
 43692.65567		 305.27265			43387.38302		69.64400		324.00000 
 43692.65567		 951.14271			42741.51297		224.22400		875.00000 
 43692.65567		 305.27265			43387.38302		69.64400		324.00000 
 43692.65567		 951.14271			42741.51297		224.22400		875.00000 
 43692.65567		 305.27265			43387.38302		69.64400		324.00000 
 43692.65567		 951.14271			42741.51297		224.22400		875.00000 
 43692.65567		 305.27265			43387.38302		69.64400		324.00000 
 43692.65567		 951.14271			42741.51297		224.22400		875.00000 
 43692.65567		 305.27265			43387.38302		69.64400		324.00000 
 43692.65567		 951.14271			42741.51297		224.22400		875.00000 
 43692.65567		 305.27265			43387.38302		69.64400		324.00000 
 43692.65567		 951.14271			42741.51297		224.22400		875.00000 
 43692.65567		 305.27265			43387.38302		69.64400		324.00000 
 43692.65567		 951.14271			42741.51297		224.22400		875.00000 
 43692.65567		 305.27265			43387.38302		69.64400		324.00000 
 43692.65567		 951.14271			42741.51297		224.22400		875.00000 
 43692.65567		 305.27265			43387.38302		69.64400		324.00000 
 43692.65567		 951.14271			42741.51297		224.22400		875.00000 
 43692.65567		 305.27265			43387.38302		69.64400		324.00000 
 43692.65567		 951.14271			42741.51297		224.22400		875.00000 
 43692.65567		 305.27265			43387.38302		69.64400		324.00000 
 43692.65567		 951.14271			42741.51297		224.22400		875.00000 
 43692.65567		 305.27265			43387.38302		69.64400		324.00000 
 43692.65567		 951.14271			42741.51297		224.22400		875.00000 
 43692.65567		 305.27265			43387.38302		69.64400		324.00000 
 43692.65567		 951.14271			42741.51297		224.22400		875.00000 
 43692.65567		 305.27265			43387.38302		69.64400		324.00000 
 43692.65567		 951.14271			42741.51297		224.22400		875.00000 
 43692.65567		 305.27265			43387.38302		69.64400		324.00000 
 43692.65567		 951.14271			42741.51297		224.22400		875.00000 
 43692.65567		 305.27265			43387.38302		69.64400		324.00000 
 43692.65567		 951.14271			42741.51297		224.22400		875.00000 
 43692.65567		 305.27265			43387.38302		69.64400		324.00000 
 43692.65567		 951.14271			42741.51297		224.15200		875.00000 
 43692.65567		 305.27265			43387.38302		69.64400		324.00000 
 43692.65567		 951.14271			42741.51297		224.15200		875.00000 
 43692.65567		 305.27265			43387.38302		69.64400		324.00000 
 43692.65567		 951.14271			42741.51297		224.15200		875.00000 
 43692.65567		 305.27265			43387.38302		69.64400		324.00000 
 43692.65567		 951.14271			42741.51297		224.15200		875.00000 
 43692.65567		 305.27265			43387.38302		69.64400		324.00000 
 43692.65567		 951.14271			42741.51297		224.15200		875.00000 
 43692.65567		 305.27265			43387.38302		69.64400		324.00000 
 43692.65567		 951.14271			42741.51297		224.15200		875.00000 
 43692.65567		 305.27265			43387.38302		69.64400		324.00000 
 43692.65567		 951.14271			42741.51297		224.15200		875.00000 
 43692.65567		 305.27265			43387.38302		69.64400		324.00000 
 43692.65567		 951.14271			42741.51297		224.15200		875.00000 
 43692.65567		 305.27265			43387.38302		69.64400		324.00000 
 43692.65567		 951.14271			42741.51297		224.15200		875.00000 
 43692.65567		 305.27265			43387.38302		69.64400		324.00000 
 43692.65567		 951.14271			42741.51297		224.15200		875.00000 
 43692.65567		 305.27265			43387.38302		69.64400		324.00000 
 43692.65567		 951.14271			42741.51297		224.15200		875.00000 
 43692.65567		 305.27265			43387.38302		69.64400		324.00000 
 43692.65567		 951.14271			42741.51297		224.15200		875.00000 
 43692.65567		 305.27265			43387.38302		69.64400		324.00000 
 43692.65567		 951.14271			42741.51297		224.15200		875.00000 
 43692.65567		 305.27265			43387.38302		69.64400		324.00000 
 43692.65567		 951.14271			42741.51297		224.15200		875.00000 
 43692.65567		 305.27265			43387.38302		69.64400		324.00000 
 43692.65567		 951.14271			42741.51297		224.15200		875.00000 
 43692.65567		 305.27265			43387.38302		69.64400		324.00000 
 43692.65567		 951.14271			42741.51297		224.15200		875.00000 
 43692.65567		 305.27265			43387.38302		69.64400		324.00000 
 43692.65567		 951.14271			42741.51297		224.15200		875.00000 
 43692.65567		 305.27265			43387.38302		69.64400		324.00000 
 43692.65567		 951.14271			42741.51297		224.15200		875.00000 
 43692.65567		 305.27265			43387.38302		69.64400		324.00000 
 43692.65567		 951.14271			42741.51297		224.15200		875.00000 
 43692.65567		 305.27265			43387.38302		69.64400		324.00000 
 43692.65567		 951.14271			42741.51297		224.15200		875.00000 
 43692.65567		 305.27265			43387.38302		69.64400		324.00000 
 43692.65567		 951.14271			42741.51297		224.15200		875.00000 
 43692.65567		 305.27265			43387.38302		69.64400		324.00000 
 43692.65567		 951.14271			42741.51297		224.15200		875.00000 
 43692.65567		 305.27265			43387.38302		69.64400		324.00000 
 43692.65567		 951.14271			42741.51297		224.15200		875.00000 
 43692.65567		 305.27265			43387.38302		69.64400		324.00000 
 43692.65567		 951.14271			42741.51297		224.15200		875.00000 
 43692.65567		 305.27265			43387.38302		69.64400		324.00000 
 43692.65567		 951.14271			42741.51297		224.15200		875.00000 
 43692.65567		 305.27265			43387.38302		69.64400		324.00000 
 43692.65567		 951.14271			42741.51297		224.15200		875.00000 
 43692.65567		 305.27265			43387.38302		69.64400		324.00000 
 43692.65567		 951.14271			42741.51297		224.15200		875.00000 
 43692.65567		 305.27265			43387.38302		69.64400		324.00000 
 43692.65567		 951.14271			42741.51297		224.15200		875.00000 
 43692.65567		 305.27265			43387.38302		69.64400		324.00000 
 43692.65567		 951.14271			42741.51297		224.15200		875.00000 
 43692.65567		 305.27265			43387.38302		69.64400		324.00000 
 43692.65567		 951.14271			42741.51297		224.15200		875.00000 
 43692.65567		 305.27265			43387.38302		69.64400		324.00000 
 43692.65567		 951.14271			42741.51297		224.15200		875.00000 
 43692.65567		 305.27265			43387.38302		69.64400		324.00000 
 43692.65567		 951.14271			42741.51297		224.15200		875.00000 
 43692.65567		 305.27265			43387.38302		69.64400		324.00000 
 43692.65567		 951.14271			42741.51297		224.15200		875.00000 
 43692.65567		 305.27265			43387.38302		69.64400		324.00000 
 43692.65567		 951.14271			42741.51297		224.15200		875.00000 
 43692.65567		 305.27265			43387.38302		69.64400		324.00000 
 43692.65567		 951.14271			42741.51297		224.15200		875.00000 
 43692.65567		 305.27265			43387.38302		69.64400		324.00000 
 43692.65567		 951.14271			42741.51297		224.15200		875.00000 
 43692.65567		 305.27265			43387.38302		69.64400		324.00000 
 43692.65567		 951.14271			42741.51297		224.15200		875.00000 
 43692.65567		 305.27265			43387.38302		69.64400		324.00000 
 43692.65567		 951.14271			42741.51297		224.15200		875.00000 
 43692.65567		 305.27265			43387.38302		69.64400		324.00000 
 43692.65567		 951.14271			42741.51297		224.15200		875.00000 
 43692.65567		 305.27265			43387.38302		69.64400		324.00000 
 43692.65567		 951.14271			42741.51297		224.15200		875.00000 
 43692.65567		 305.27265			43387.38302		69.64400		324.00000 
 43692.65567		 951.14271			42741.51297		224.15200		875.00000 
 43692.65567		 305.27265			43387.38302		69.64400		324.00000 
 43692.65567		 951.14271			42741.51297		224.15200		875.00000 
 43692.65567		 305.27265			43387.38302		69.64400		324.00000 
 43692.65567		 951.14271			42741.51297		224.15200		875.00000 
 43692.65567		 305.27265			43387.38302		69.64400		324.00000 
 43692.65567		 951.14271			42741.51297		224.15200		875.00000 
 43692.65567		 305.27265			43387.38302		69.64400		324.00000 
 43692.65567		 951.14271			42741.51297		224.15200		875.00000 
 43692.65567		 305.27265			43387.38302		69.64400		324.00000 
 43692.65567		 951.14271			42741.51297		224.15200		875.00000 
 43692.65567		 305.27265			43387.38302		69.64400		324.00000 
 43692.65567		 951.14271			42741.51297		224.15200		875.00000 
 43692.65567		 305.27265			43387.38302		69.64400		324.00000 
 43692.65567		 951.14271			42741.51297		224.15200		875.00000 
 43692.65567		 305.27265			43387.38302		69.64400		324.00000 
 43692.65567		 951.14271			42741.51297		224.15200		875.00000 
 43692.65567		 305.27265			43387.38302		69.64400		324.00000 
 43692.65567		 951.14271			42741.51297		224.15200		875.00000 
 43692.65567		 305.27265			43387.38302		69.64400		324.00000 
 43692.65567		 951.14271			42741.51297		224.15200		875.00000 
 43692.65567		 305.27265			43387.38302		69.64400		324.00000 
 43692.65567		 951.14271			42741.51297		224.15200		875.00000 
 43692.65567		 305.27265			43387.38302		69.64400		324.00000 
 43692.65567		 951.14271			42741.51297		224.15200		875.00000 
 43692.65567		 305.27265			43387.38302		69.64400		324.00000 
 43692.65567		 951.14271			42741.51297		224.15200		875.00000 
 43692.65567		 305.27265			43387.38302		69.64400		324.00000 
 43692.65567		 951.14271			42741.51297		224.15200		875.00000 
 43692.65567		 305.27265			43387.38302		69.64400		324.00000 
 43692.65567		 951.14271			42741.51297		224.15200		875.00000 
 43692.65567		 305.27265			43387.38302		69.64400		324.00000 
 43692.65567		 951.14271			42741.51297		224.15200		875.00000 
 43692.65567		 305.27265			43387.38302		69.64400		324.00000 
 43692.65567		 951.14271			42741.51297		224.15200		875.00000 
 43692.65567		 305.27265			43387.38302		69.64400		324.00000 
 43692.65567		 951.14271			42741.51297		224.15200		875.00000 
 43692.65567		 305.27265			43387.38302		69.64400		324.00000 
 43692.65567		 951.14271			42741.51297		224.15200		875.00000 
 43692.65567		 305.27265			43387.38302		69.64400		324.00000 
 43692.65567		 951.14271			42741.51297		224.15200		875.00000 
 43692.65567		 305.27265			43387.38302		69.64400		324.00000 
 43692.65567		 951.14271			42741.51297		224.15200		875.00000 
 43692.65567		 305.27265			43387.38302		69.64400		324.00000 
 43692.65567		 951.14271			42741.51297		224.15200		875.00000 
 43692.65567		 305.27265			43387.38302		69.64400		324.00000 
 43692.65567		 951.14271			42741.51297		224.15200		875.00000 
 43692.65567		 305.27265			43387.38302		69.64400		324.00000 
 43692.65567		 951.14271			42741.51297		224.15200		875.00000 
 43692.65567		 305.27265			43387.38302		69.64400		324.00000 
 43692.65567		 951.14271			42741.51297		224.15200		875.00000 
 43692.65567		 305.27265			43387.38302		69.64400		324.00000 
 43692.65567		 951.14271			42741.51297		224.15200		875.00000 
 43692.65567		 305.27265			43387.38302		69.64400		324.00000 
 43692.65567		 951.14271			42741.51297		224.15200		875.00000 
 43692.65567		 305.27265			43387.38302		69.64400		324.00000 
 43692.65567		 951.14271			42741.51297		224.15200		875.00000 
 43692.65567		 305.27265			43387.38302		69.64400		324.00000 
 43692.65567		 951.14271			42741.51297		224.15200		875.00000 
 43692.65567		 305.27265			43387.38302		69.64400		324.00000 
 43692.65567		 951.14271			42741.51297		224.15200		875.00000 
 43692.65567		 305.27265			43387.38302		69.64400		324.00000 
 43692.65567		 951.14271			42741.51297		224.15200		875.00000 
 43692.65567		 305.27265			43387.38302		69.64400		324.00000 
 43692.65567		 951.14271			42741.51297		224.15200		875.00000 
 43692.65567		 305.27265			43387.38302		69.64400		324.00000 
 43692.65567		 951.14271			42741.51297		224.15200		875.00000 
 43692.65567		 305.27265			43387.38302		69.64400		324.00000 
 43692.65567		 951.14271			42741.51297		224.15200		875.00000 
 43692.65567		 305.27265			43387.38302		69.64400		324.00000 
 43692.65567		 951.14271			42741.51297		224.15200		875.00000 
 43692.65567		 305.27265			43387.38302		69.64400		324.00000 
 43692.65567		 951.14271			42741.51297		224.15200		875.00000 
 43692.65567		 305.27265			43387.38302		69.64400		324.00000 
 43692.65567		 951.14271			42741.51297		224.15200		875.00000 
 43692.65567		 305.27265			43387.38302		69.64400		324.00000 
 43692.65567		 951.14271			42741.51297		224.15200		875.00000 
 43692.65567		 305.27265			43387.38302		69.64400		324.00000 
 43692.65567		 951.14271			42741.51297		224.15200		875.00000 
 43692.65567		 305.27265			43387.38302		69.64400		324.00000 
 43692.65567		 951.14271			42741.51297		224.15200		875.00000 
 43692.65567		 305.27265			43387.38302		69.64400		324.00000 
 43692.65567		 951.14271			42741.51297		224.15200		875.00000 
 43692.65567		 305.27265			43387.38302		69.64400		324.00000 
 43692.65567		 951.14271			42741.51297		224.15200		875.00000 
 43692.65567		 305.27265			43387.38302		69.64400		324.00000 
 43692.65567		 951.14271			42741.51297		224.15200		875.00000 
 43692.65567		 305.27265			43387.38302		69.64400		324.00000 
 43692.65567		 951.14271			42741.51297		224.15200		875.00000 
 43692.65567		 305.27265			43387.38302		69.64400		324.00000 
 43692.65567		 951.14271			42741.51297		224.15200		875.00000 
 43692.65567		 305.27265			43387.38302		69.64400		324.00000 
 43692.65567		 951.14271			42741.51297		224.15200		875.00000 
 43692.65567		 305.27265			43387.38302		69.64400		324.00000 
 43692.65567		 951.14271			42741.51297		224.15200		875.00000 
 43692.65567		 305.27265			43387.38302		69.64400		324.00000 
 43692.65567		 951.14271			42741.51297		224.15200		875.00000 
 43692.65567		 305.27265			43387.38302		69.64400		324.00000 
 43692.65567		 951.14271			42741.51297		224.15200		875.00000 
 43692.65567		 305.27265			43387.38302		69.64400		324.00000 
 43692.65567		 951.14271			42741.51297		224.15200		875.00000 
 43692.65567		 305.27265			43387.38302		69.64400		324.00000 
 43692.65567		 951.14271			42741.51297		224.15200		875.00000 
 43692.65567		 305.27265			43387.38302		69.64400		324.00000 
 43692.65567		 951.14271			42741.51297		224.15200		875.00000 
 43692.65567		 305.27265			43387.38302		69.64400		324.00000 
 43692.65567		 951.14271			42741.51297		224.15200		875.00000 
 43692.65567		 305.27265			43387.38302		69.64400		324.00000 
 43692.65567		 951.14271			42741.51297		224.15200		875.00000 
 43692.65567		 305.27265			43387.38302		69.64400		324.00000 
 43692.65567		 951.14271			42741.51297		224.15200		875.00000 
 43692.65567		 305.27265			43387.38302		69.64400		324.00000 
 43692.65567		 951.14271			42741.51297		224.15200		875.00000 
 43692.65567		 305.27265			43387.38302		69.64400		324.00000 
 43692.65567		 951.14271			42741.51297		224.15200		875.00000 
 43692.65567		 305.27265			43387.38302		69.64400		324.00000 
 43692.65567		 951.14271			42741.51297		224.15200		875.00000 
 43692.65567		 305.27265			43387.38302		69.64400		324.00000 
 43692.65567		 951.14271			42741.51297		224.15200		875.00000 
 43692.65567		 305.27265			43387.38302		69.64400		324.00000 
 43692.65567		 951.14271			42741.51297		224.15200		875.00000 
 43692.65567		 305.27265			43387.38302		69.64400		324.00000 
 43692.65567		 951.14271			42741.51297		224.15200		875.00000 
 43692.65567		 305.27265			43387.38302		69.64400		324.00000 
 43692.65567		 951.14271			42741.51297		224.15200		875.00000 
 43692.65567		 305.27265			43387.38302		69.64400		324.00000 
 43692.65567		 951.14271			42741.51297		224.15200		875.00000 
 43692.65567		 305.27265			43387.38302		69.64400		324.00000 
 43692.65567		 951.14271			42741.51297		224.15200		875.00000 
 43692.65567		 305.27265			43387.38302		69.64400		324.00000 
 43692.65567		 951.14271			42741.51297		224.15200		875.00000 
 43692.65567		 305.27265			43387.38302		69.64400		324.00000 
 43692.65567		 951.14271			42741.51297		224.15200		875.00000 
 43692.65567		 305.27265			43387.38302		69.64400		324.00000 
 43692.65567		 951.14271			42741.51297		224.15200		875.00000 
 43692.65567		 305.27265			43387.38302		69.64400		324.00000 
 43692.65567		 951.14271			42741.51297		224.15200		875.00000 
 43692.65567		 305.27265			43387.38302		69.64400		324.00000 
 43692.65567		 951.14271			42741.51297		224.15200		875.00000 
 43692.65567		 305.27265			43387.38302		69.64400		324.00000 
 43692.65567		 951.14271			42741.51297		224.15200		875.00000 
 43692.65567		 305.27265			43387.38302		69.64400		324.00000 
 43692.65567		 951.14271			42741.51297		224.15200		875.00000 
 43692.65567		 305.27265			43387.38302		69.64400		324.00000 
 43692.65567		 951.14271			42741.51297		224.15200		875.00000 
 43692.65567		 305.27265			43387.38302		69.64400		324.00000 
 43692.65567		 951.14271			42741.51297		224.15200		875.00000 
 43692.65567		 305.27265			43387.38302		69.64400		324.00000 
 43692.65567		 951.14271			42741.51297		224.15200		875.00000 
 43692.65567		 305.27265			43387.38302		69.64400		324.00000 
 43692.65567		 951.14271			42741.51297		224.15200		875.00000 
 43692.65567		 305.27265			43387.38302		69.64400		324.00000 
 43692.65567		 951.14271			42741.51297		224.15200		875.00000 
 43692.65567		 305.27265			43387.38302		69.64400		324.00000 
 43692.65567		 951.14271			42741.51297		224.15200		875.00000 
 43692.65567		 305.27265			43387.38302		69.64400		324.00000 
 43692.65567		 951.14271			42741.51297		224.15200		875.00000 
 43692.65567		 305.27265			43387.38302		69.64400		324.00000 
 43692.65567		 951.14271			42741.51297		224.15200		875.00000 
 43692.65567		 305.27265			43387.38302		69.64400		324.00000 
 43692.65567		 951.14271			42741.51297		224.15200		875.00000 
 43692.65567		 305.27265			43387.38302		69.64400		324.00000 
 43692.65567		 951.14271			42741.51297		224.15200		875.00000 
 43692.65567		 305.27265			43387.38302		69.64400		324.00000 
 43692.65567		 951.14271			42741.51297		224.15200		875.00000 
 43692.65567		 305.27265			43387.38302		69.64400		324.00000 
 43692.65567		 951.14271			42741.51297		224.15200		875.00000 
 43692.65567		 305.27265			43387.38302		69.64400		324.00000 
 43692.65567		 951.14271			42741.51297		224.22400		875.00000 
 43692.65567		 305.27265			43387.38302		69.64400		324.00000 
 43692.65567		 951.14271			42741.51297		224.22400		875.00000 
 43692.65567		 305.27265			43387.38302		69.64400		324.00000 
 43692.65567		 951.14271			42741.51297		224.22400		875.00000 
 43692.65567		 305.27265			43387.38302		69.64400		324.00000 
 43692.65567		 951.14271			42741.51297		224.22400		875.00000 
 43692.65567		 305.27265			43387.38302		69.64400		324.00000 
 43692.65567		 951.14271			42741.51297		224.22400		875.00000 
 43692.65567		 305.27265			43387.38302		69.64400		324.00000 
 43692.65567		 951.14271			42741.51297		224.22400		875.00000 
 43692.65567		 305.27265			43387.38302		69.64400		324.00000 
 43692.65567		 951.14271			42741.51297		224.22400		875.00000 
 43692.65567		 305.27265			43387.38302		69.64400		324.00000 
 43692.65567		 951.14271			42741.51297		224.22400		875.00000 
 43692.65567		 305.27265			43387.38302		69.64400		324.00000 
 43692.65567		 951.14271			42741.51297		224.22400		875.00000 
 43692.65567		 305.27265			43387.38302		69.64400		324.00000 
 43692.65567		 951.14271			42741.51297		224.22400		875.00000 
 43692.65567		 305.27265			43387.38302		69.64400		324.00000 
 43692.65567		 951.14271			42741.51297		224.22400		875.00000 
 43692.65567		 305.27265			43387.38302		69.64400		324.00000 
 43692.65567		 951.14271			42741.51297		224.22400		875.00000 
 43692.65567		 305.27265			43387.38302		69.64400		324.00000 
 43692.65567		 951.14271			42741.51297		224.22400		875.00000 
 43692.65567		 305.27265			43387.38302		69.64400		324.00000 
 43692.65567		 951.14271			42741.51297		224.22400		875.00000 
 43692.65567		 305.27265			43387.38302		69.64400		324.00000 
 43692.65567		 951.14271			42741.51297		224.22400		875.00000 
 43692.65567		 305.27265			43387.38302		69.64400		324.00000 
 43692.65567		 951.14271			42741.51297		224.22400		875.00000 
 43692.65567		 305.27265			43387.38302		69.64400		324.00000 
 43692.65567		 951.14271			42741.51297		224.22400		875.00000 
 43692.65567		 305.27265			43387.38302		69.64400		324.00000 
 43692.65567		 951.14271			42741.51297		224.22400		875.00000 
 43692.65567		 305.27265			43387.38302		69.64400		324.00000 
 43692.65567		 951.14271			42741.51297		224.22400		875.00000 
 43692.65567		 305.27265			43387.38302		69.64400		324.00000 
 43692.65567		 951.14271			42741.51297		224.22400		875.00000 
 43692.65567		 305.27265			43387.38302		69.64400		324.00000 
 43692.65567		 951.14271			42741.51297		224.22400		875.00000 
 43692.65567		 305.27265			43387.38302		69.64400		324.00000 
 43692.65567		 951.14271			42741.51297		224.22400		875.00000 
 43692.65567		 305.27265			43387.38302		69.64400		324.00000 
 43692.65567		 951.14271			42741.51297		224.22400		875.00000 
 43692.65567		 305.27265			43387.38302		69.64400		324.00000 
 43692.65567		 951.14271			42741.51297		224.22400		875.00000 
 43692.65567		 305.27265			43387.38302		69.64400		324.00000 
 43692.65567		 951.14271			42741.51297		224.22400		875.00000 
 43692.65567		 305.27265			43387.38302		69.64400		324.00000 
 43692.65567		 951.14271			42741.51297		224.22400		875.00000 
 43692.65567		 305.27265			43387.38302		69.64400		324.00000 
 43692.65567		 951.14271			42741.51297		224.22400		875.00000 
 43692.65567		 305.27265			43387.38302		69.64400		324.00000 
 43692.65567		 951.14271			42741.51297		224.22400		875.00000 
 43692.65567		 305.27265			43387.38302		69.64400		324.00000 
 43692.65567		 951.14271			42741.51297		224.22400		875.00000 
 43692.65567		 305.27265			43387.38302		69.64400		324.00000 
 43692.65567		 951.14271			42741.51297		224.22400		875.00000 
 43692.65567		 305.27265			43387.38302		69.64400		324.00000 
 43692.65567		 951.14271			42741.51297		224.22400		875.00000 
 43692.65567		 305.27265			43387.38302		69.64400		324.00000 
 43692.65567		 951.14271			42741.51297		224.22400		875.00000 
 43692.65567		 305.27265			43387.38302		69.64400		324.00000 
 43692.65567		 951.14271			42741.51297		224.22400		875.00000 
 43692.65567		 305.27265			43387.38302		69.64400		324.00000 
 43692.65567		 951.14271			42741.51297		224.22400		875.00000 
 43692.65567		 305.27265			43387.38302		69.64400		324.00000 
 43692.65567		 951.14271			42741.51297		224.22400		875.00000 
 43692.65567		 305.27265			43387.38302		69.64400		324.00000 
 43692.65567		 951.14271			42741.51297		224.22400		875.00000 
 43692.65567		 305.27265			43387.38302		69.64400		324.00000 
 43692.65567		 951.14271			42741.51297		224.22400		875.00000 
 43692.65567		 305.27265			43387.38302		69.64400		324.00000 
 43692.65567		 951.14271			42741.51297		224.22400		875.00000 
 43692.65567		 305.27265			43387.38302		69.64400		324.00000 
 43692.65567		 951.14271			42741.51297		224.22400		875.00000 
 43692.65567		 305.27265			43387.38302		69.64400		324.00000 
 43692.65567		 951.14271			42741.51297		224.22400		875.00000 
 43692.65567		 305.27265			43387.38302		69.64400		324.00000 
 43692.65567		 951.14271			42741.51297		224.22400		875.00000 
 43692.65567		 305.27265			43387.38302		69.64400		324.00000 
 43692.65567		 951.14271			42741.51297		224.22400		875.00000 
 43692.65567		 305.27265			43387.38302		69.64400		324.00000 
 43692.65567		 951.14271			42741.51297		224.22400		875.00000 
 43692.65567		 305.27265			43387.38302		69.64400		324.00000 
 43692.65567		 951.14271			42741.51297		224.22400		875.00000 
 43692.65567		 305.27265			43387.38302		69.64400		324.00000 
 43692.65567		 951.14271			42741.51297		224.22400		875.00000 
 43692.65567		 305.27265			43387.38302		69.64400		324.00000 
 43692.65567		 951.14271			42741.51297		224.22400		875.00000 
 43692.65567		 305.27265			43387.38302		69.64400		324.00000 
 43692.65567		 951.14271			42741.51297		224.22400		875.00000 
 43692.65567		 305.27265			43387.38302		69.64400		324.00000 
 43692.65567		 951.14271			42741.51297		224.22400		875.00000 
 43692.65567		 305.27265			43387.38302		69.64400		324.00000 
 43692.65567		 951.14271			42741.51297		224.22400		875.00000 
 43692.65567		 305.27265			43387.38302		69.64400		324.00000 
 43692.65567		 951.14271			42741.51297		224.22400		875.00000 
 43692.65567		 305.27265			43387.38302		69.64400		324.00000 
 43692.65567		 951.14271			42741.51297		224.22400		875.00000 
 43692.65567		 305.27265			43387.38302		69.64400		324.00000 
 43692.65567		 951.14271			42741.51297		224.22400		875.00000 
 43692.65567		 305.27265			43387.38302		69.64400		324.00000 
 43692.65567		 951.14271			42741.51297		224.22400		875.00000 
 43692.65567		 305.27265			43387.38302		69.64400		324.00000 
 43692.65567		 951.14271			42741.51297		224.22400		875.00000 
 43692.65567		 305.27265			43387.38302		69.64400		324.00000 
 43692.65567		 951.14271			42741.51297		224.22400		875.00000 
 43692.65567		 305.27265			43387.38302		69.64400		324.00000 
 43692.65567		 951.14271			42741.51297		224.22400		875.00000 
 43692.65567		 305.27265			43387.38302		69.64400		324.00000 
 43692.65567		 951.14271			42741.51297		224.22400		875.00000 
 43692.65567		 305.27265			43387.38302		69.64400		324.00000 
 43692.65567		 951.14271			42741.51297		224.22400		875.00000 
 43692.65567		 305.27265			43387.38302		69.64400		324.00000 
 43692.65567		 951.14271			42741.51297		224.22400		875.00000 
 43692.65567		 305.27265			43387.38302		69.64400		324.00000 
 43692.65567		 951.14271			42741.51297		224.22400		875.00000 
 43692.65567		 305.27265			43387.38302		69.64400		324.00000 
 43692.65567		 951.14271			42741.51297		224.22400		875.00000 
 43692.65567		 305.27265			43387.38302		69.64400		324.00000 
 43692.65567		 951.14271			42741.51297		224.22400		875.00000 
 43692.65567		 305.27265			43387.38302		69.64400		324.00000 
 43692.65567		 951.14271			42741.51297		224.22400		875.00000 
 43692.65567		 305.27265			43387.38302		69.64400		324.00000 
 43692.65567		 951.14271			42741.51297		224.22400		875.00000 
 43692.65567		 305.27265			43387.38302		69.64400		324.00000 
 43692.65567		 951.14271			42741.51297		224.15200		875.00000 
 43692.65567		 305.27265			43387.38302		69.64400		324.00000 
 43692.65567		 951.14271			42741.51297		224.15200		875.00000 
 43692.65567		 305.27265			43387.38302		69.64400		324.00000 
 43692.65567		 951.14271			42741.51297		224.15200		875.00000 
 43692.65567		 305.27265			43387.38302		69.64400		324.00000 
 43692.65567		 951.14271			42741.51297		224.15200		875.00000 
 43692.65567		 305.27265			43387.38302		69.64400		324.00000 
 43692.65567		 951.14271			42741.51297		224.15200		875.00000 
 43692.65567		 305.27265			43387.38302		69.64400		324.00000 
 43692.65567		 951.14271			42741.51297		224.15200		875.00000 
 43692.65567		 305.27265			43387.38302		69.64400		324.00000 
 43692.65567		 951.14271			42741.51297		224.15200		875.00000 
 43692.65567		 305.27265			43387.38302		69.64400		324.00000 
 43692.65567		 951.14271			42741.51297		224.15200		875.00000 
 43692.65567		 305.27265			43387.38302		69.64400		324.00000 
 43692.65567		 951.14271			42741.51297		224.15200		875.00000 
 43692.65567		 305.27265			43387.38302		69.64400		324.00000 
 43692.65567		 951.14271			42741.51297		224.15200		875.00000 
 43692.65567		 305.27265			43387.38302		69.16200		324.00000 
 43692.65567		 951.14271			42741.51297		224.15200		875.00000 
 43692.65567		 305.27265			43387.38302		69.16200		324.00000 
 43692.65567		 951.14271			42741.51297		224.15200		875.00000 
 43692.65567		 305.27265			43387.38302		69.16200		324.00000 
 43692.65567		 951.14271			42741.51297		224.15200		875.00000 
 43692.65567		 305.27265			43387.38302		69.16200		324.00000 
 43692.65567		 951.14271			42741.51297		224.15200		875.00000 
 43692.65567		 305.27265			43387.38302		69.16200		324.00000 
 43692.65567		 951.14271			42741.51297		224.15200		875.00000 
 43692.65567		 305.27265			43387.38302		69.16200		324.00000 
 43692.65567		 951.14271			42741.51297		224.15200		875.00000 
 43692.65567		 305.27265			43387.38302		69.16200		324.00000 
 43692.65567		 951.14271			42741.51297		224.15200		875.00000 
 43692.65567		 305.27265			43387.38302		69.16200		324.00000 
 43692.65567		 951.14271			42741.51297		224.15200		875.00000 
 43692.65567		 305.27265			43387.38302		69.16200		324.00000 
 43692.65567		 951.14271			42741.51297		224.15200		875.00000 
 43692.65567		 305.27265			43387.38302		69.16200		324.00000 
 43692.65567		 951.14271			42741.51297		224.15200		875.00000 
 43692.65567		 305.27265			43387.38302		69.16200		324.00000 
 43692.65567		 951.14271			42741.51297		224.15200		875.00000 
 43692.65567		 305.27265			43387.38302		69.16200		324.00000 
 43692.65567		 951.14271			42741.51297		224.15200		875.00000 
 43692.65567		 305.27265			43387.38302		69.16200		324.00000 
 43692.65567		 951.14271			42741.51297		224.15200		875.00000 
 43692.65567		 305.27265			43387.38302		69.16200		324.00000 
 43692.65567		 951.14271			42741.51297		224.15200		875.00000 
 43692.65567		 305.27265			43387.38302		69.16200		324.00000 
 43692.65567		 951.14271			42741.51297		224.15200		875.00000 
 43692.65567		 305.27265			43387.38302		69.16200		324.00000 
 43692.65567		 951.14271			42741.51297		224.15200		875.00000 
 43692.65567		 305.27265			43387.38302		69.16200		324.00000 
 43692.65567		 951.14271			42741.51297		224.15200		875.00000 
 43692.65567		 305.27265			43387.38302		69.16200		324.00000 
 43692.65567		 951.14271			42741.51297		224.15200		875.00000 
 43692.65567		 305.27265			43387.38302		69.16200		324.00000 
 43692.65567		 951.14271			42741.51297		224.15200		875.00000 
 43692.65567		 305.27265			43387.38302		69.16200		324.00000 
 43692.65567		 951.14271			42741.51297		224.15200		875.00000 
 43692.65567		 305.27265			43387.38302		69.16200		324.00000 
 43692.65567		 951.14271			42741.51297		224.15200		875.00000 
 43692.65567		 305.27265			43387.38302		69.16200		324.00000 
 43692.65567		 951.14271			42741.51297		224.15200		875.00000 
 43692.65567		 305.27265			43387.38302		69.16200		324.00000 
 43692.65567		 951.14271			42741.51297		224.15200		875.00000 
 43692.65567		 305.27265			43387.38302		69.16200		324.00000 
 43692.65567		 951.14271			42741.51297		224.15200		875.00000 
 43692.65567		 305.27265			43387.38302		69.16200		324.00000 
 43692.65567		 951.14271			42741.51297		224.15200		875.00000 
 43692.65567		 305.27265			43387.38302		69.16200		324.00000 
 43692.65567		 951.14271			42741.51297		224.15200		875.00000 
 43692.65567		 305.27265			43387.38302		69.16200		324.00000 
 43692.65567		 951.14271			42741.51297		224.15200		875.00000 
 43692.65567		 305.27265			43387.38302		69.16200		324.00000 
 43692.65567		 951.14271			42741.51297		224.15200		875.00000 
 43692.65567		 305.27265			43387.38302		69.16200		324.00000 
 43692.65567		 951.14271			42741.51297		224.15200		875.00000 
 43692.65567		 305.27265			43387.38302		69.16200		324.00000 
 43692.65567		 951.14271			42741.51297		224.15200		875.00000 
 43692.65567		 305.27265			43387.38302		69.16200		324.00000 
 43692.65567		 951.14271			42741.51297		224.15200		875.00000 
 43692.65567		 305.27265			43387.38302		69.16200		324.00000 
 43692.65567		 951.14271			42741.51297		224.15200		875.00000 
 43692.65567		 305.27265			43387.38302		69.16200		324.00000 
 43692.65567		 951.14271			42741.51297		224.15200		875.00000 
 43692.65567		 305.27265			43387.38302		69.16200		324.00000 
 43692.65567		 951.14271			42741.51297		224.15200		875.00000 
 43692.65567		 305.27265			43387.38302		69.16200		324.00000 
 43692.65567		 951.14271			42741.51297		224.15200		875.00000 
 43692.65567		 305.27265			43387.38302		69.16200		324.00000 
 43692.65567		 951.14271			42741.51297		224.15200		875.00000 
 43692.65567		 305.27265			43387.38302		69.16200		324.00000 
 43692.65567		 951.14271			42741.51297		224.15200		875.00000 
 43692.65567		 305.27265			43387.38302		69.16200		324.00000 
 43692.65567		 951.14271			42741.51297		224.15200		875.00000 
 43692.65567		 305.27265			43387.38302		69.16200		324.00000 
 43692.65567		 951.14271			42741.51297		224.15200		875.00000 
 43692.65567		 305.27265			43387.38302		69.16200		324.00000 
 43692.65567		 951.14271			42741.51297		224.15200		875.00000 
 43692.65567		 305.27265			43387.38302		69.16200		324.00000 
 43692.65567		 951.14271			42741.51297		224.15200		875.00000 
 43692.65567		 305.27265			43387.38302		69.16200		324.00000 
 43692.65567		 951.14271			42741.51297		224.15200		875.00000 
 43692.65567		 305.27265			43387.38302		69.16200		324.00000 
 43692.65567		 951.14271			42741.51297		224.15200		875.00000 
 43692.65567		 305.27265			43387.38302		69.16200		324.00000 
 43692.65567		 951.14271			42741.51297		224.15200		875.00000 
 43692.65567		 305.27265			43387.38302		69.16200		324.00000 
 43692.65567		 951.14271			42741.51297		224.15200		875.00000 
 43692.65567		 305.27265			43387.38302		69.16200		324.00000 
 43692.65567		 951.14271			42741.51297		224.15200		875.00000 
 43692.65567		 305.27265			43387.38302		69.16200		324.00000 
 43692.65567		 951.14271			42741.51297		224.15200		875.00000 
 43692.65567		 305.27265			43387.38302		69.16200		324.00000 
 43692.65567		 951.14271			42741.51297		224.15200		875.00000 
 43692.65567		 305.27265			43387.38302		69.16200		324.00000 
 43692.65567		 951.14271			42741.51297		224.15200		875.00000 
 43692.65567		 305.27265			43387.38302		69.16200		324.00000 
 43692.65567		 951.14271			42741.51297		224.15200		875.00000 
 43692.65567		 305.27265			43387.38302		69.16200		324.00000 
 43692.65567		 951.14271			42741.51297		224.15200		875.00000 
 43692.65567		 305.27265			43387.38302		69.16200		324.00000 
 43692.65567		 951.14271			42741.51297		224.15200		875.00000 
 43692.65567		 305.27265			43387.38302		69.16200		324.00000 
 43692.65567		 951.14271			42741.51297		224.15200		875.00000 
 43692.65567		 305.27265			43387.38302		69.16200		324.00000 
 43692.65567		 951.14271			42741.51297		224.15200		875.00000 
 43692.65567		 305.27265			43387.38302		69.16200		324.00000 
 43692.65567		 951.14271			42741.51297		224.15200		875.00000 
 43692.65567		 305.27265			43387.38302		69.16200		324.00000 
 43692.65567		 951.14271			42741.51297		224.15200		875.00000 
 43692.65567		 305.27265			43387.38302		69.16200		324.00000 
 43692.65567		 951.14271			42741.51297		224.15200		875.00000 
 43692.65567		 305.27265			43387.38302		69.16200		324.00000 
 43692.65567		 951.14271			42741.51297		224.15200		875.00000 
 43692.65567		 305.27265			43387.38302		69.16200		324.00000 
 43692.65567		 951.14271			42741.51297		224.15200		875.00000 
 43692.65567		 305.27265			43387.38302		69.16200		324.00000 
 43692.65567		 951.14271			42741.51297		224.15200		875.00000 
 43692.65567		 305.27265			43387.38302		69.16200		324.00000 
 43692.65567		 951.14271			42741.51297		224.15200		875.00000 
 43692.65567		 305.27265			43387.38302		69.16200		324.00000 
 43692.65567		 951.14271			42741.51297		224.15200		875.00000 
 43692.65567		 305.27265			43387.38302		69.16200		324.00000 
 43692.65567		 951.14271			42741.51297		224.15200		875.00000 
 43692.65567		 305.27265			43387.38302		69.16200		324.00000 
 43692.65567		 951.14271			42741.51297		224.15200		875.00000 
 43692.65567		 305.27265			43387.38302		69.16200		324.00000 
 43692.65567		 951.14271			42741.51297		224.15200		875.00000 
 43692.65567		 305.27265			43387.38302		69.16200		324.00000 
 43692.65567		 951.14271			42741.51297		224.15200		875.00000 
 43692.65567		 305.27265			43387.38302		69.16200		324.00000 
 43692.65567		 951.14271			42741.51297		224.15200		875.00000 
 43692.65567		 305.27265			43387.38302		69.16200		324.00000 
 43692.65567		 951.14271			42741.51297		224.15200		875.00000 
 43692.65567		 305.27265			43387.38302		69.16200		324.00000 
 43692.65567		 951.14271			42741.51297		224.15200		875.00000 
 43692.65567		 305.27265			43387.38302		69.16200		324.00000 
 43692.65567		 951.14271			42741.51297		224.15200		875.00000 
 43692.65567		 305.27265			43387.38302		69.16200		324.00000 
 43692.65567		 951.14271			42741.51297		224.15200		875.00000 
 43692.65567		 305.27265			43387.38302		69.16200		324.00000 
 43692.65567		 951.14271			42741.51297		224.15200		875.00000 
 43692.65567		 305.27265			43387.38302		69.16200		324.00000 
 43692.65567		 951.14271			42741.51297		224.15200		875.00000 
 43692.65567		 305.27265			43387.38302		69.16200		324.00000 
 43692.65567		 951.14271			42741.51297		224.15200		875.00000 
 43692.65567		 305.27265			43387.38302		69.16200		324.00000 
 43692.65567		 951.14271			42741.51297		224.15200		875.00000 
 43692.65567		 305.27265			43387.38302		69.16200		324.00000 
 43692.65567		 951.14271			42741.51297		224.15200		875.00000 
 43692.65567		 305.27265			43387.38302		69.16200		324.00000 
 43692.65567		 951.14271			42741.51297		224.15200		875.00000 
 43692.65567		 305.27265			43387.38302		69.16200		324.00000 
 43692.65567		 951.14271			42741.51297		224.15200		875.00000 
 43692.65567		 305.27265			43387.38302		69.16200		324.00000 
 43692.65567		 951.14271			42741.51297		224.15200		875.00000 
 43692.65567		 305.27265			43387.38302		69.16200		324.00000 
 43692.65567		 951.14271			42741.51297		224.15200		875.00000 
 43692.65567		 305.27265			43387.38302		69.16200		324.00000 
 43692.65567		 951.14271			42741.51297		224.15200		875.00000 
 43692.65567		 305.27265			43387.38302		69.16200		324.00000 
 43692.65567		 951.14271			42741.51297		224.15200		875.00000 
 43692.65567		 305.27265			43387.38302		69.16200		324.00000 
 43692.65567		 951.14271			42741.51297		224.15200		875.00000 
 43692.65567		 305.27265			43387.38302		69.16200		324.00000 
 43692.65567		 951.14271			42741.51297		224.15200		875.00000 
 43692.65567		 305.27265			43387.38302		69.16200		324.00000 
 43692.65567		 951.14271			42741.51297		224.15200		875.00000 
 43692.65567		 305.27265			43387.38302		69.16200		324.00000 
 43692.65567		 951.14271			42741.51297		224.15200		875.00000 
 43692.65567		 305.27265			43387.38302		69.16200		324.00000 
 43692.65567		 951.14271			42741.51297		224.15200		875.00000 
 43692.65567		 305.27265			43387.38302		69.16200		324.00000 
 43692.65567		 951.14271			42741.51297		224.15200		875.00000 
 43692.65567		 305.27265			43387.38302		69.16200		324.00000 
 43692.65567		 951.14271			42741.51297		224.15200		875.00000 
 43692.65567		 305.27265			43387.38302		69.16200		324.00000 
 43692.65567		 951.14271			42741.51297		224.15200		875.00000 
 43692.65567		 305.27265			43387.38302		69.16200		324.00000 
 43692.65567		 951.14271			42741.51297		224.15200		875.00000 
 43692.65567		 305.27265			43387.38302		69.16200		324.00000 
 43692.65567		 951.14271			42741.51297		224.15200		875.00000 
 43692.65567		 305.27265			43387.38302		69.16200		324.00000 
 43692.65567		 951.14271			42741.51297		224.15200		875.00000 
 43692.65567		 305.27265			43387.38302		69.16200		324.00000 
 43692.65567		 951.14271			42741.51297		224.15200		875.00000 
 43692.65567		 305.27265			43387.38302		69.16200		324.00000 
 43692.65567		 951.14271			42741.51297		224.15200		875.00000 
 43692.65567		 305.27265			43387.38302		69.16200		324.00000 
 43692.65567		 951.14271			42741.51297		224.15200		875.00000 
 43692.65567		 305.27265			43387.38302		69.16200		324.00000 
 43692.65567		 951.14271			42741.51297		224.15200		875.00000 
 43692.65567		 305.27265			43387.38302		69.16200		324.00000 
 43692.65567		 951.14271			42741.51297		224.15200		875.00000 
 43692.65567		 305.27265			43387.38302		69.16200		324.00000 
 43692.65567		 951.14271			42741.51297		224.15200		875.00000 
 43692.65567		 305.27265			43387.38302		69.16200		324.00000 
 43692.65567		 951.14271			42741.51297		224.15200		875.00000 
 43692.65567		 305.27265			43387.38302		69.16200		324.00000 
 43692.65567		 951.14271			42741.51297		224.15200		875.00000 
 43692.65567		 305.27265			43387.38302		69.16200		324.00000 
 43692.65567		 951.14271			42741.51297		224.15200		875.00000 
 43692.65567		 305.27265			43387.38302		69.16200		324.00000 
 43692.65567		 951.14271			42741.51297		224.15200		875.00000 
 43692.65567		 305.27265			43387.38302		69.16200		324.00000 
 43692.65567		 951.14271			42741.51297		224.15200		875.00000 
 43692.65567		 305.27265			43387.38302		69.16200		324.00000 
 43692.65567		 951.14271			42741.51297		224.15200		875.00000 
 43692.65567		 305.27265			43387.38302		69.16200		324.00000 
 43692.65567		 951.14271			42741.51297		224.15200		875.00000 
 43692.65567		 305.27265			43387.38302		69.16200		324.00000 
 43692.65567		 951.14271			42741.51297		224.15200		875.00000 
 43692.65567		 305.27265			43387.38302		69.16200		324.00000 
 43692.65567		 951.14271			42741.51297		224.15200		875.00000 
 43692.65567		 305.27265			43387.38302		69.16200		324.00000 
 43692.65567		 951.14271			42741.51297		224.15200		875.00000 
 43692.65567		 305.27265			43387.38302		69.16200		324.00000 
 43692.65567		 951.14271			42741.51297		224.15200		875.00000 
 43692.65567		 305.27265			43387.38302		69.16200		324.00000 
 43692.65567		 951.14271			42741.51297		224.15200		875.00000 
 43692.65567		 305.27265			43387.38302		69.16200		324.00000 
 43692.65567		 951.14271			42741.51297		224.15200		875.00000 
 43692.65567		 305.27265			43387.38302		69.16200		324.00000 
 43692.65567		 951.14271			42741.51297		224.15200		875.00000 
 43692.65567		 305.27265			43387.38302		69.16200		324.00000 
 43692.65567		 951.14271			42741.51297		224.15200		875.00000 
 43692.65567		 305.27265			43387.38302		69.16200		324.00000 
 43692.65567		 951.14271			42741.51297		224.15200		875.00000 
 43692.65567		 305.27265			43387.38302		69.16200		324.00000 
 43692.65567		 951.14271			42741.51297		224.15200		875.00000 
 43692.65567		 305.27265			43387.38302		69.16200		324.00000 
 43692.65567		 951.14271			42741.51297		224.15200		875.00000 
 43692.65567		 305.27265			43387.38302		69.16200		324.00000 
 43692.65567		 951.14271			42741.51297		224.15200		875.00000 
 43692.65567		 305.27265			43387.38302		69.16200		324.00000 
 43692.65567		 951.14271			42741.51297		224.15200		875.00000 
 43692.65567		 305.27265			43387.38302		69.16200		324.00000 
 43692.65567		 951.14271			42741.51297		224.15200		875.00000 
 43692.65567		 305.27265			43387.38302		69.16200		324.00000 
 43692.65567		 951.14271			42741.51297		224.15200		875.00000 
 43692.65567		 305.27265			43387.38302		69.16200		324.00000 
 43692.65567		 951.14271			42741.51297		224.15200		875.00000 
 43692.65567		 305.27265			43387.38302		69.16200		324.00000 
 43692.65567		 951.14271			42741.51297		224.15200		875.00000 
 43692.65567		 305.27265			43387.38302		69.16200		324.00000 
 43692.65567		 951.14271			42741.51297		224.15200		875.00000 
 43692.65567		 305.27265			43387.38302		69.16200		324.00000 
 43692.65567		 951.14271			42741.51297		224.15200		875.00000 
 43692.65567		 305.27265			43387.38302		69.16200		324.00000 
 43692.65567		 951.14271			42741.51297		224.15200		875.00000 
 43692.65567		 305.27265			43387.38302		69.16200		324.00000 
 43692.65567		 951.14271			42741.51297		224.15200		875.00000 
 43692.65567		 305.27265			43387.38302		69.16200		324.00000 
 43692.65567		 951.14271			42741.51297		224.15200		875.00000 
 43692.65567		 305.27265			43387.38302		69.16200		324.00000 
 43692.65567		 951.14271			42741.51297		224.15200		875.00000 
 43692.65567		 305.27265			43387.38302		69.16200		324.00000 
 43692.65567		 951.14271			42741.51297		224.15200		875.00000 
 43692.65567		 305.27265			43387.38302		69.16200		324.00000 
 43692.65567		 951.14271			42741.51297		224.15200		875.00000 
 43692.65567		 305.27265			43387.38302		69.16200		324.00000 
 43692.65567		 951.14271			42741.51297		224.15200		875.00000 
 43692.65567		 305.27265			43387.38302		69.16200		324.00000 
 43692.65567		 951.14271			42741.51297		224.15200		875.00000 
 43692.65567		 305.27265			43387.38302		69.16200		324.00000 
 43692.65567		 951.14271			42741.51297		224.15200		875.00000 
 43692.65567		 305.27265			43387.38302		69.16200		324.00000 
 43692.65567		 951.14271			42741.51297		224.15200		875.00000 
 43692.65567		 305.27265			43387.38302		69.16200		324.00000 
 43692.65567		 951.14271			42741.51297		224.15200		875.00000 
 43692.65567		 305.27265			43387.38302		69.16200		324.00000 
 43692.65567		 951.14271			42741.51297		224.15200		875.00000 
 43692.65567		 305.27265			43387.38302		69.16200		324.00000 
 43692.65567		 951.14271			42741.51297		224.15200		875.00000 
 43692.65567		 305.27265			43387.38302		69.16200		324.00000 
 43692.65567		 951.14271			42741.51297		224.15200		875.00000 
 43692.65567		 305.27265			43387.38302		69.16200		324.00000 
 43692.65567		 951.14271			42741.51297		224.15200		875.00000 
 43692.65567		 305.27265			43387.38302		69.16200		324.00000 
 43692.65567		 951.14271			42741.51297		224.15200		875.00000 
 43692.65567		 305.27265			43387.38302		69.16200		324.00000 
 43692.65567		 951.14271			42741.51297		224.15200		875.00000 
 43692.65567		 305.27265			43387.38302		69.16200		324.00000 
 43692.65567		 951.14271			42741.51297		224.15200		875.00000 
 43692.65567		 305.27265			43387.38302		69.16200		324.00000 
 43692.65567		 951.14271			42741.51297		224.15200		875.00000 
 43692.65567		 305.27265			43387.38302		69.16200		324.00000 
 43692.65567		 951.14271			42741.51297		224.15200		875.00000 
 43692.65567		 305.27265			43387.38302		69.16200		324.00000 
 43692.65567		 951.14271			42741.51297		224.15200		875.00000 
 43692.65567		 305.27265			43387.38302		69.16200		324.00000 
 43692.65567		 951.14271			42741.51297		224.15200		875.00000 
 43692.65567		 305.27265			43387.38302		69.16200		324.00000 
 43692.65567		 951.14271			42741.51297		224.15200		875.00000 
 43692.65567		 305.27265			43387.38302		69.16200		324.00000 
 43692.65567		 951.14271			42741.51297		224.15200		875.00000 
 43692.65567		 305.27265			43387.38302		69.16200		324.00000 
 43692.65567		 813.18525			42879.47043		224.15200		875.00000 
 43692.65567		 305.27265			43387.38302		69.16200		324.00000 
 43692.65567		 813.18525			42879.47043		224.15200		875.00000 
 43692.65567		 305.27265			43387.38302		69.16200		324.00000 
 43692.65567		 675.22778			43017.42789		224.15200		875.00000 
 43692.65567		 305.27265			43387.38302		69.16200		324.00000 
 43692.65567		 675.22778			43017.42789		224.15200		875.00000 
 43692.65567		 305.27265			43387.38302		69.16200		324.00000 
 43692.65567		 537.27032			43155.38535		224.15200		875.00000 
 43692.65567		 305.27265			43387.38302		69.16200		324.00000 
 43692.65567		 537.27032			43155.38535		224.15200		875.00000 
 43692.65567		 305.27265			43387.38302		69.16200		324.00000 
 43692.65567		 537.27032			43155.38535		224.15200		875.00000 
 43692.65567		 305.27265			43387.38302		69.16200		324.00000 
 43692.65567		 537.27032			43155.38535		224.15200		875.00000 
 43692.65567		 305.27265			43387.38302		69.16200		324.00000 
 43692.65567		 537.27032			43155.38535		224.15200		875.00000 
 43692.65567		 305.27265			43387.38302		69.16200		324.00000 
 43692.65567		 537.27032			43155.38535		224.15200		875.00000 
 43692.65567		 305.27265			43387.38302		69.16200		324.00000 
 43692.65567		 537.27032			43155.38535		224.15200		875.00000 
 43692.65567		 305.27265			43387.38302		69.16200		324.00000 
 43692.65567		 537.27032			43155.38535		224.15200		875.00000 
 43692.65567		 305.27265			43387.38302		69.16200		324.00000 
 43692.65567		 537.27032			43155.38535		224.15200		875.00000 
 43692.65567		 305.27265			43387.38302		69.16200		324.00000 
 43692.65567		 537.27032			43155.38535		224.15200		875.00000 
 43692.65567		 305.27265			43387.38302		69.16200		324.00000 
 43692.65567		 537.27032			43155.38535		224.15200		875.00000 
 43692.65567		 305.27265			43387.38302		69.16200		324.00000 
 43692.65567		 537.27032			43155.38535		224.15200		875.00000 
 43692.65567		 305.27265			43387.38302		69.16200		324.00000 
 43692.65567		 537.27032			43155.38535		224.15200		875.00000 
 43692.65567		 305.27265			43387.38302		69.16200		324.00000 
 43692.65567		 537.27032			43155.38535		224.15200		875.00000 
 43692.65567		 305.27265			43387.38302		69.16200		324.00000 
 43692.65567		 537.27032			43155.38535		224.15200		875.00000 
 43692.65567		 305.27265			43387.38302		69.16200		324.00000 
 43692.65567		 537.27032			43155.38535		224.15200		875.00000 
 43692.65567		 305.27265			43387.38302		69.16200		324.00000 
 43692.65567		 537.27032			43155.38535		224.15200		875.00000 
 43692.65567		 305.27265			43387.38302		69.16200		324.00000 
 43692.65567		 537.27032			43155.38535		224.15200		875.00000 
 43692.65567		 305.27265			43387.38302		69.16200		324.00000 
 43692.65567		 537.27032			43155.38535		224.15200		875.00000 
 43692.65567		 305.27265			43387.38302		69.16200		324.00000 
 43692.65567		 537.27032			43155.38535		224.15200		875.00000 
 43692.65567		 305.27265			43387.38302		69.16200		324.00000 
 43692.65567		 537.27032			43155.38535		189.67600		875.00000 
 43692.65567		 305.27265			43387.38302		69.16200		324.00000 
 43692.65567		 525.81365			43166.84203		189.67600		875.00000 
 43692.65567		 305.27265			43387.38302		69.16200		324.00000 
 43692.65567		 525.81365			43166.84203		189.67600		875.00000 
 43692.65567		 293.81598			43398.83969		69.16200		324.00000 
 43692.65567		 261.35540			43431.30027		189.67600		875.00000 
 43692.65567		 261.35540			43431.30027		69.16200		324.00000 
