Memory Total (MiB) 	 Memory Used (MiB) 	    Memory Free (MiB) 	 Power Drawed (W) 	 Clocks (Mhz) 	 
 43692.65567		 261.35540			43431.30027		201.60600		875.00000 
 43692.65567		 261.35540			43431.30027		69.67800		324.00000 
 43692.65567		 261.35540			43431.30027		201.60600		875.00000 
 43692.65567		 261.35540			43431.30027		69.67800		324.00000 
 43692.65567		 261.35540			43431.30027		201.60600		875.00000 
 43692.65567		 261.35540			43431.30027		69.67800		324.00000 
 43692.65567		 261.35540			43431.30027		201.60600		875.00000 
 43692.65567		 261.35540			43431.30027		69.67800		324.00000 
 43692.65567		 261.35540			43431.30027		201.60600		875.00000 
 43692.65567		 261.35540			43431.30027		69.67800		324.00000 
 43692.65567		 261.35540			43431.30027		201.60600		875.00000 
 43692.65567		 261.35540			43431.30027		69.67800		324.00000 
 43692.65567		 261.35540			43431.30027		201.60600		875.00000 
 43692.65567		 261.35540			43431.30027		69.67800		324.00000 
 43692.65567		 261.35540			43431.30027		201.60600		875.00000 
 43692.65567		 261.35540			43431.30027		69.67800		324.00000 
 43692.65567		 261.35540			43431.30027		201.60600		875.00000 
 43692.65567		 261.35540			43431.30027		69.67800		324.00000 
 43692.65567		 261.35540			43431.30027		201.60600		875.00000 
 43692.65567		 261.35540			43431.30027		69.67800		324.00000 
 43692.65567		 261.35540			43431.30027		201.60600		875.00000 
 43692.65567		 261.35540			43431.30027		69.67800		324.00000 
 43692.65567		 261.35540			43431.30027		201.60600		875.00000 
 43692.65567		 261.35540			43431.30027		69.67800		324.00000 
 43692.65567		 261.35540			43431.30027		201.60600		875.00000 
 43692.65567		 261.35540			43431.30027		69.67800		324.00000 
 43692.65567		 261.35540			43431.30027		201.60600		875.00000 
 43692.65567		 261.35540			43431.30027		69.67800		324.00000 
 43692.65567		 261.35540			43431.30027		201.60600		875.00000 
 43692.65567		 261.35540			43431.30027		69.67800		324.00000 
 43692.65567		 261.35540			43431.30027		201.60600		875.00000 
 43692.65567		 261.35540			43431.30027		69.67800		324.00000 
 43692.65567		 261.35540			43431.30027		201.60600		875.00000 
 43692.65567		 261.35540			43431.30027		69.67800		324.00000 
 43692.65567		 261.35540			43431.30027		201.60600		875.00000 
 43692.65567		 261.35540			43431.30027		69.67800		324.00000 
 43692.65567		 265.17429			43427.48138		201.60600		875.00000 
 43692.65567		 261.35540			43431.30027		69.67800		324.00000 
 43692.65567		 265.17429			43427.48138		158.48200		875.00000 
 43692.65567		 261.35540			43431.30027		69.67800		324.00000 
 43692.65567		 272.81207			43419.84360		158.48200		875.00000 
 43692.65567		 261.35540			43431.30027		69.67800		324.00000 
 43692.65567		 272.81207			43419.84360		158.48200		875.00000 
 43692.65567		 261.35540			43431.30027		69.67800		324.00000 
 43692.65567		 272.81207			43419.84360		158.48200		875.00000 
 43692.65567		 265.17429			43427.48138		69.67800		324.00000 
 43692.65567		 272.81207			43419.84360		158.48200		875.00000 
 43692.65567		 265.17429			43427.48138		69.67800		324.00000 
 43692.65567		 272.81207			43419.84360		158.48200		875.00000 
 43692.65567		 272.81207			43419.84360		69.67800		324.00000 
 43692.65567		 272.81207			43419.84360		158.48200		875.00000 
 43692.65567		 272.81207			43419.84360		69.67800		324.00000 
 43692.65567		 272.81207			43419.84360		158.48200		875.00000 
 43692.65567		 272.81207			43419.84360		69.67800		324.00000 
 43692.65567		 272.81207			43419.84360		158.48200		875.00000 
 43692.65567		 305.27265			43387.38302		69.67800		324.00000 
 43692.65567		 305.27265			43387.38302		158.48200		875.00000 
 43692.65567		 305.27265			43387.38302		69.67800		324.00000 
 43692.65567		 305.27265			43387.38302		158.48200		875.00000 
 43692.65567		 305.27265			43387.38302		69.67800		324.00000 
 43692.65567		 305.27265			43387.38302		158.48200		875.00000 
 43692.65567		 305.27265			43387.38302		69.67800		324.00000 
 43692.65567		 305.27265			43387.38302		158.48200		875.00000 
 43692.65567		 305.27265			43387.38302		69.67800		324.00000 
 43692.65567		 309.09154			43383.56413		158.48200		875.00000 
 43692.65567		 305.27265			43387.38302		69.67800		324.00000 
 43692.65567		 310.52363			43382.13204		158.48200		875.00000 
 43692.65567		 305.27265			43387.38302		69.67800		324.00000 
 43692.65567		 311.00099			43381.65468		158.48200		875.00000 
 43692.65567		 305.27265			43387.38302		69.67800		324.00000 
 43692.65567		 311.00099			43381.65468		158.48200		875.00000 
 43692.65567		 305.27265			43387.38302		69.67800		324.00000 
 43692.65567		 311.00099			43381.65468		158.48200		875.00000 
 43692.65567		 305.27265			43387.38302		69.67800		324.00000 
 43692.65567		 311.00099			43381.65468		158.48200		875.00000 
 43692.65567		 305.27265			43387.38302		69.67800		324.00000 
 43692.65567		 311.00099			43381.65468		158.48200		875.00000 
 43692.65567		 305.27265			43387.38302		69.67800		324.00000 
 43692.65567		 311.00099			43381.65468		158.48200		875.00000 
 43692.65567		 305.27265			43387.38302		69.67800		324.00000 
 43692.65567		 311.00099			43381.65468		158.48200		875.00000 
 43692.65567		 305.27265			43387.38302		69.67800		324.00000 
 43692.65567		 311.00099			43381.65468		158.48200		875.00000 
 43692.65567		 305.27265			43387.38302		69.67800		324.00000 
 43692.65567		 311.00099			43381.65468		158.48200		875.00000 
 43692.65567		 305.27265			43387.38302		69.67800		324.00000 
 43692.65567		 311.00099			43381.65468		158.48200		875.00000 
 43692.65567		 305.27265			43387.38302		69.67800		324.00000 
 43692.65567		 311.00099			43381.65468		158.48200		875.00000 
 43692.65567		 305.27265			43387.38302		69.67800		324.00000 
 43692.65567		 311.00099			43381.65468		158.48200		875.00000 
 43692.65567		 305.27265			43387.38302		69.67800		324.00000 
 43692.65567		 311.00099			43381.65468		158.48200		875.00000 
 43692.65567		 305.27265			43387.38302		69.67800		324.00000 
 43692.65567		 311.00099			43381.65468		158.48200		875.00000 
 43692.65567		 305.27265			43387.38302		69.67800		324.00000 
 43692.65567		 311.00099			43381.65468		158.48200		875.00000 
 43692.65567		 305.27265			43387.38302		69.67800		324.00000 
 43692.65567		 311.00099			43381.65468		158.48200		875.00000 
 43692.65567		 305.27265			43387.38302		69.67800		324.00000 
 43692.65567		 311.00099			43381.65468		158.48200		875.00000 
 43692.65567		 305.27265			43387.38302		69.67800		324.00000 
 43692.65567		 311.00099			43381.65468		141.75200		875.00000 
 43692.65567		 305.27265			43387.38302		69.67800		324.00000 
 43692.65567		 311.00099			43381.65468		141.75200		875.00000 
 43692.65567		 305.27265			43387.38302		69.67800		324.00000 
 43692.65567		 311.00099			43381.65468		141.75200		875.00000 
 43692.65567		 305.27265			43387.38302		69.67800		324.00000 
 43692.65567		 311.00099			43381.65468		141.75200		875.00000 
 43692.65567		 305.27265			43387.38302		69.67800		324.00000 
 43692.65567		 311.00099			43381.65468		141.75200		875.00000 
 43692.65567		 305.27265			43387.38302		69.67800		324.00000 
 43692.65567		 311.00099			43381.65468		141.75200		875.00000 
 43692.65567		 305.27265			43387.38302		69.67800		324.00000 
 43692.65567		 311.00099			43381.65468		141.75200		875.00000 
 43692.65567		 305.27265			43387.38302		69.67800		324.00000 
 43692.65567		 311.00099			43381.65468		141.75200		875.00000 
 43692.65567		 305.27265			43387.38302		69.67800		324.00000 
 43692.65567		 311.00099			43381.65468		141.75200		875.00000 
 43692.65567		 305.27265			43387.38302		69.67800		324.00000 
 43692.65567		 311.00099			43381.65468		141.75200		875.00000 
 43692.65567		 305.27265			43387.38302		69.67800		324.00000 
 43692.65567		 311.00099			43381.65468		141.75200		875.00000 
 43692.65567		 305.27265			43387.38302		69.67800		324.00000 
 43692.65567		 311.00099			43381.65468		141.75200		875.00000 
 43692.65567		 305.27265			43387.38302		69.67800		324.00000 
 43692.65567		 311.00099			43381.65468		141.75200		875.00000 
 43692.65567		 305.27265			43387.38302		69.67800		324.00000 
 43692.65567		 311.00099			43381.65468		141.75200		875.00000 
 43692.65567		 305.27265			43387.38302		69.67800		324.00000 
 43692.65567		 311.00099			43381.65468		141.75200		875.00000 
 43692.65567		 305.27265			43387.38302		69.67800		324.00000 
 43692.65567		 311.00099			43381.65468		141.75200		875.00000 
 43692.65567		 305.27265			43387.38302		69.67800		324.00000 
 43692.65567		 311.00099			43381.65468		141.75200		875.00000 
 43692.65567		 305.27265			43387.38302		69.67800		324.00000 
 43692.65567		 311.00099			43381.65468		141.75200		875.00000 
 43692.65567		 305.27265			43387.38302		69.67800		324.00000 
 43692.65567		 311.00099			43381.65468		141.75200		875.00000 
 43692.65567		 305.27265			43387.38302		69.67800		324.00000 
 43692.65567		 311.00099			43381.65468		141.75200		875.00000 
 43692.65567		 305.27265			43387.38302		69.67800		324.00000 
 43692.65567		 311.00099			43381.65468		141.75200		875.00000 
 43692.65567		 305.27265			43387.38302		69.67800		324.00000 
 43692.65567		 311.00099			43381.65468		141.75200		875.00000 
 43692.65567		 305.27265			43387.38302		69.67800		324.00000 
 43692.65567		 311.00099			43381.65468		141.75200		875.00000 
 43692.65567		 305.27265			43387.38302		69.67800		324.00000 
 43692.65567		 311.00099			43381.65468		141.75200		875.00000 
 43692.65567		 305.27265			43387.38302		69.67800		324.00000 
 43692.65567		 311.00099			43381.65468		141.75200		875.00000 
 43692.65567		 305.27265			43387.38302		69.67800		324.00000 
 43692.65567		 311.00099			43381.65468		141.75200		875.00000 
 43692.65567		 305.27265			43387.38302		69.67800		324.00000 
 43692.65567		 311.00099			43381.65468		141.75200		875.00000 
 43692.65567		 305.27265			43387.38302		69.67800		324.00000 
 43692.65567		 311.00099			43381.65468		141.75200		875.00000 
 43692.65567		 305.27265			43387.38302		69.67800		324.00000 
 43692.65567		 311.00099			43381.65468		141.75200		875.00000 
 43692.65567		 305.27265			43387.38302		69.67800		324.00000 
 43692.65567		 311.00099			43381.65468		141.75200		875.00000 
 43692.65567		 305.27265			43387.38302		69.67800		324.00000 
 43692.65567		 311.00099			43381.65468		141.75200		875.00000 
 43692.65567		 305.27265			43387.38302		69.67800		324.00000 
 43692.65567		 311.00099			43381.65468		134.75200		875.00000 
 43692.65567		 305.27265			43387.38302		69.67800		324.00000 
 43692.65567		 311.00099			43381.65468		134.75200		875.00000 
 43692.65567		 305.27265			43387.38302		69.67800		324.00000 
 43692.65567		 314.81988			43377.83579		134.75200		875.00000 
 43692.65567		 305.27265			43387.38302		69.67800		324.00000 
 43692.65567		 314.81988			43377.83579		134.75200		875.00000 
 43692.65567		 305.27265			43387.38302		69.67800		324.00000 
 43692.65567		 314.81988			43377.83579		134.75200		875.00000 
 43692.65567		 305.27265			43387.38302		69.67800		324.00000 
 43692.65567		 318.63877			43374.01690		134.75200		875.00000 
 43692.65567		 305.27265			43387.38302		69.67800		324.00000 
 43692.65567		 322.45767			43370.19801		134.75200		875.00000 
 43692.65567		 305.27265			43387.38302		69.67800		324.00000 
 43692.65567		 326.27656			43366.37912		134.75200		875.00000 
 43692.65567		 305.27265			43387.38302		69.67800		324.00000 
 43692.65567		 326.27656			43366.37912		134.75200		875.00000 
 43692.65567		 305.27265			43387.38302		69.67800		324.00000 
 43692.65567		 326.27656			43366.37912		134.75200		875.00000 
 43692.65567		 305.27265			43387.38302		69.67800		324.00000 
 43692.65567		 537.27032			43155.38535		134.75200		875.00000 
 43692.65567		 305.27265			43387.38302		69.67800		324.00000 
 43692.65567		 596.46314			43096.19253		134.75200		875.00000 
 43692.65567		 305.27265			43387.38302		69.67800		324.00000 
 43692.65567		 626.05955			43066.59612		134.75200		875.00000 
 43692.65567		 305.27265			43387.38302		69.67800		324.00000 
 43692.65567		 626.05955			43066.59612		134.75200		875.00000 
 43692.65567		 305.27265			43387.38302		69.67800		324.00000 
 43692.65567		 626.05955			43066.59612		134.75200		875.00000 
 43692.65567		 305.27265			43387.38302		69.67800		324.00000 
 43692.65567		 626.05955			43066.59612		134.75200		875.00000 
 43692.65567		 305.27265			43387.38302		69.67800		324.00000 
 43692.65567		 626.05955			43066.59612		134.75200		875.00000 
 43692.65567		 305.27265			43387.38302		69.67800		324.00000 
 43692.65567		 626.05955			43066.59612		134.75200		875.00000 
 43692.65567		 305.27265			43387.38302		69.67800		324.00000 
 43692.65567		 626.05955			43066.59612		134.75200		875.00000 
 43692.65567		 305.27265			43387.38302		69.67800		324.00000 
 43692.65567		 626.05955			43066.59612		134.75200		875.00000 
 43692.65567		 305.27265			43387.38302		69.67800		324.00000 
 43692.65567		 626.05955			43066.59612		134.75200		875.00000 
 43692.65567		 305.27265			43387.38302		69.67800		324.00000 
 43692.65567		 626.05955			43066.59612		134.75200		875.00000 
 43692.65567		 305.27265			43387.38302		69.67800		324.00000 
 43692.65567		 626.05955			43066.59612		134.75200		875.00000 
 43692.65567		 305.27265			43387.38302		69.67800		324.00000 
 43692.65567		 626.05955			43066.59612		134.75200		875.00000 
 43692.65567		 305.27265			43387.38302		69.67800		324.00000 
 43692.65567		 626.05955			43066.59612		134.75200		875.00000 
 43692.65567		 305.27265			43387.38302		69.67800		324.00000 
 43692.65567		 626.05955			43066.59612		134.75200		875.00000 
 43692.65567		 305.27265			43387.38302		69.67800		324.00000 
 43692.65567		 626.05955			43066.59612		134.75200		875.00000 
 43692.65567		 305.27265			43387.38302		69.67800		324.00000 
 43692.65567		 626.05955			43066.59612		134.75200		875.00000 
 43692.65567		 305.27265			43387.38302		69.67800		324.00000 
 43692.65567		 626.05955			43066.59612		134.75200		875.00000 
 43692.65567		 305.27265			43387.38302		69.67800		324.00000 
 43692.65567		 626.05955			43066.59612		134.75200		875.00000 
 43692.65567		 305.27265			43387.38302		69.67800		324.00000 
 43692.65567		 626.05955			43066.59612		134.75200		875.00000 
 43692.65567		 305.27265			43387.38302		69.67800		324.00000 
 43692.65567		 626.05955			43066.59612		134.75200		875.00000 
 43692.65567		 305.27265			43387.38302		69.67800		324.00000 
 43692.65567		 626.05955			43066.59612		134.75200		875.00000 
 43692.65567		 305.27265			43387.38302		69.67800		324.00000 
 43692.65567		 626.05955			43066.59612		134.75200		875.00000 
 43692.65567		 305.27265			43387.38302		69.67800		324.00000 
 43692.65567		 626.05955			43066.59612		134.75200		875.00000 
 43692.65567		 305.27265			43387.38302		69.67800		324.00000 
 43692.65567		 626.05955			43066.59612		134.75200		875.00000 
 43692.65567		 305.27265			43387.38302		69.67800		324.00000 
 43692.65567		 626.05955			43066.59612		134.75200		875.00000 
 43692.65567		 305.27265			43387.38302		69.67800		324.00000 
 43692.65567		 626.05955			43066.59612		134.75200		875.00000 
 43692.65567		 305.27265			43387.38302		69.67800		324.00000 
 43692.65567		 626.05955			43066.59612		134.75200		875.00000 
 43692.65567		 305.27265			43387.38302		69.67800		324.00000 
 43692.65567		 626.05955			43066.59612		134.75200		875.00000 
 43692.65567		 305.27265			43387.38302		69.67800		324.00000 
 43692.65567		 626.05955			43066.59612		134.75200		875.00000 
 43692.65567		 305.27265			43387.38302		69.67800		324.00000 
 43692.65567		 626.05955			43066.59612		134.75200		875.00000 
 43692.65567		 305.27265			43387.38302		69.67800		324.00000 
 43692.65567		 626.05955			43066.59612		134.75200		875.00000 
 43692.65567		 305.27265			43387.38302		69.67800		324.00000 
 43692.65567		 626.05955			43066.59612		134.75200		875.00000 
 43692.65567		 305.27265			43387.38302		69.67800		324.00000 
 43692.65567		 626.05955			43066.59612		134.75200		875.00000 
 43692.65567		 305.27265			43387.38302		69.67800		324.00000 
 43692.65567		 626.05955			43066.59612		134.75200		875.00000 
 43692.65567		 305.27265			43387.38302		69.67800		324.00000 
 43692.65567		 626.05955			43066.59612		134.75200		875.00000 
 43692.65567		 305.27265			43387.38302		69.67800		324.00000 
 43692.65567		 626.05955			43066.59612		134.75200		875.00000 
 43692.65567		 305.27265			43387.38302		69.67800		324.00000 
 43692.65567		 626.05955			43066.59612		134.75200		875.00000 
 43692.65567		 305.27265			43387.38302		69.67800		324.00000 
 43692.65567		 626.05955			43066.59612		134.75200		875.00000 
 43692.65567		 305.27265			43387.38302		69.67800		324.00000 
 43692.65567		 626.05955			43066.59612		134.75200		875.00000 
 43692.65567		 305.27265			43387.38302		69.67800		324.00000 
 43692.65567		 626.05955			43066.59612		134.75200		875.00000 
 43692.65567		 305.27265			43387.38302		69.67800		324.00000 
 43692.65567		 626.05955			43066.59612		134.75200		875.00000 
 43692.65567		 305.27265			43387.38302		69.67800		324.00000 
 43692.65567		 626.05955			43066.59612		134.75200		875.00000 
 43692.65567		 305.27265			43387.38302		69.67800		324.00000 
 43692.65567		 626.05955			43066.59612		134.75200		875.00000 
 43692.65567		 305.27265			43387.38302		69.67800		324.00000 
 43692.65567		 626.05955			43066.59612		134.75200		875.00000 
 43692.65567		 305.27265			43387.38302		69.67800		324.00000 
 43692.65567		 626.05955			43066.59612		134.75200		875.00000 
 43692.65567		 305.27265			43387.38302		69.67800		324.00000 
 43692.65567		 626.05955			43066.59612		134.75200		875.00000 
 43692.65567		 305.27265			43387.38302		69.67800		324.00000 
 43692.65567		 626.05955			43066.59612		176.51400		875.00000 
 43692.65567		 305.27265			43387.38302		69.67800		324.00000 
 43692.65567		 626.05955			43066.59612		176.51400		875.00000 
 43692.65567		 305.27265			43387.38302		69.67800		324.00000 
 43692.65567		 626.05955			43066.59612		176.51400		875.00000 
 43692.65567		 305.27265			43387.38302		69.67800		324.00000 
 43692.65567		 626.05955			43066.59612		176.51400		875.00000 
 43692.65567		 305.27265			43387.38302		69.67800		324.00000 
 43692.65567		 626.05955			43066.59612		176.51400		875.00000 
 43692.65567		 305.27265			43387.38302		69.67800		324.00000 
 43692.65567		 626.05955			43066.59612		176.51400		875.00000 
 43692.65567		 305.27265			43387.38302		69.67800		324.00000 
 43692.65567		 626.05955			43066.59612		176.51400		875.00000 
 43692.65567		 305.27265			43387.38302		69.67800		324.00000 
 43692.65567		 626.05955			43066.59612		176.51400		875.00000 
 43692.65567		 305.27265			43387.38302		69.67800		324.00000 
 43692.65567		 626.05955			43066.59612		176.51400		875.00000 
 43692.65567		 305.27265			43387.38302		69.67800		324.00000 
 43692.65567		 626.05955			43066.59612		176.51400		875.00000 
 43692.65567		 305.27265			43387.38302		69.67800		324.00000 
 43692.65567		 626.05955			43066.59612		176.51400		875.00000 
 43692.65567		 305.27265			43387.38302		69.67800		324.00000 
 43692.65567		 626.05955			43066.59612		176.51400		875.00000 
 43692.65567		 305.27265			43387.38302		69.67800		324.00000 
 43692.65567		 626.05955			43066.59612		176.51400		875.00000 
 43692.65567		 305.27265			43387.38302		69.67800		324.00000 
 43692.65567		 626.05955			43066.59612		176.51400		875.00000 
 43692.65567		 305.27265			43387.38302		69.67800		324.00000 
 43692.65567		 626.05955			43066.59612		176.51400		875.00000 
 43692.65567		 305.27265			43387.38302		69.67800		324.00000 
 43692.65567		 626.05955			43066.59612		176.51400		875.00000 
 43692.65567		 305.27265			43387.38302		69.67800		324.00000 
 43692.65567		 626.05955			43066.59612		176.51400		875.00000 
 43692.65567		 305.27265			43387.38302		69.67800		324.00000 
 43692.65567		 626.05955			43066.59612		176.51400		875.00000 
 43692.65567		 305.27265			43387.38302		69.67800		324.00000 
 43692.65567		 626.05955			43066.59612		176.51400		875.00000 
 43692.65567		 305.27265			43387.38302		69.67800		324.00000 
 43692.65567		 626.05955			43066.59612		176.51400		875.00000 
 43692.65567		 305.27265			43387.38302		69.67800		324.00000 
 43692.65567		 626.05955			43066.59612		176.51400		875.00000 
 43692.65567		 305.27265			43387.38302		69.67800		324.00000 
 43692.65567		 626.05955			43066.59612		176.51400		875.00000 
 43692.65567		 305.27265			43387.38302		69.67800		324.00000 
 43692.65567		 626.05955			43066.59612		176.51400		875.00000 
 43692.65567		 305.27265			43387.38302		69.67800		324.00000 
 43692.65567		 626.05955			43066.59612		176.51400		875.00000 
 43692.65567		 305.27265			43387.38302		69.67800		324.00000 
 43692.65567		 626.05955			43066.59612		176.51400		875.00000 
 43692.65567		 305.27265			43387.38302		69.67800		324.00000 
 43692.65567		 626.05955			43066.59612		176.51400		875.00000 
 43692.65567		 305.27265			43387.38302		69.67800		324.00000 
 43692.65567		 626.05955			43066.59612		176.51400		875.00000 
 43692.65567		 305.27265			43387.38302		69.67800		324.00000 
 43692.65567		 626.05955			43066.59612		176.51400		875.00000 
 43692.65567		 305.27265			43387.38302		69.67800		324.00000 
 43692.65567		 626.05955			43066.59612		176.51400		875.00000 
 43692.65567		 305.27265			43387.38302		69.67800		324.00000 
 43692.65567		 626.05955			43066.59612		176.51400		875.00000 
 43692.65567		 305.27265			43387.38302		69.67800		324.00000 
 43692.65567		 626.05955			43066.59612		176.51400		875.00000 
 43692.65567		 305.27265			43387.38302		69.67800		324.00000 
 43692.65567		 626.05955			43066.59612		176.51400		875.00000 
 43692.65567		 305.27265			43387.38302		69.67800		324.00000 
 43692.65567		 626.05955			43066.59612		176.51400		875.00000 
 43692.65567		 305.27265			43387.38302		69.67800		324.00000 
 43692.65567		 626.05955			43066.59612		176.51400		875.00000 
 43692.65567		 305.27265			43387.38302		69.67800		324.00000 
 43692.65567		 626.05955			43066.59612		176.51400		875.00000 
 43692.65567		 305.27265			43387.38302		69.67800		324.00000 
 43692.65567		 626.05955			43066.59612		176.51400		875.00000 
 43692.65567		 305.27265			43387.38302		69.67800		324.00000 
 43692.65567		 626.05955			43066.59612		176.51400		875.00000 
 43692.65567		 305.27265			43387.38302		69.67800		324.00000 
 43692.65567		 626.05955			43066.59612		176.51400		875.00000 
 43692.65567		 305.27265			43387.38302		69.67800		324.00000 
 43692.65567		 626.05955			43066.59612		176.51400		875.00000 
 43692.65567		 305.27265			43387.38302		69.67800		324.00000 
 43692.65567		 626.05955			43066.59612		176.51400		875.00000 
 43692.65567		 305.27265			43387.38302		69.67800		324.00000 
 43692.65567		 626.05955			43066.59612		176.51400		875.00000 
 43692.65567		 305.27265			43387.38302		69.67800		324.00000 
 43692.65567		 626.05955			43066.59612		176.51400		875.00000 
 43692.65567		 305.27265			43387.38302		69.67800		324.00000 
 43692.65567		 626.05955			43066.59612		176.51400		875.00000 
 43692.65567		 305.27265			43387.38302		69.67800		324.00000 
 43692.65567		 626.05955			43066.59612		176.51400		875.00000 
 43692.65567		 305.27265			43387.38302		69.67800		324.00000 
 43692.65567		 626.05955			43066.59612		176.51400		875.00000 
 43692.65567		 305.27265			43387.38302		69.67800		324.00000 
 43692.65567		 626.05955			43066.59612		176.51400		875.00000 
 43692.65567		 305.27265			43387.38302		69.67800		324.00000 
 43692.65567		 626.05955			43066.59612		176.51400		875.00000 
 43692.65567		 305.27265			43387.38302		69.67800		324.00000 
 43692.65567		 626.05955			43066.59612		176.51400		875.00000 
 43692.65567		 305.27265			43387.38302		69.67800		324.00000 
 43692.65567		 626.05955			43066.59612		176.51400		875.00000 
 43692.65567		 305.27265			43387.38302		69.67800		324.00000 
 43692.65567		 626.05955			43066.59612		176.51400		875.00000 
 43692.65567		 305.27265			43387.38302		69.67800		324.00000 
 43692.65567		 626.05955			43066.59612		176.51400		875.00000 
 43692.65567		 305.27265			43387.38302		69.67800		324.00000 
 43692.65567		 626.05955			43066.59612		176.51400		875.00000 
 43692.65567		 305.27265			43387.38302		69.67800		324.00000 
 43692.65567		 626.05955			43066.59612		176.51400		875.00000 
 43692.65567		 305.27265			43387.38302		69.67800		324.00000 
 43692.65567		 626.05955			43066.59612		176.51400		875.00000 
 43692.65567		 305.27265			43387.38302		69.67800		324.00000 
 43692.65567		 626.05955			43066.59612		176.51400		875.00000 
 43692.65567		 305.27265			43387.38302		69.67800		324.00000 
 43692.65567		 626.05955			43066.59612		176.51400		875.00000 
 43692.65567		 305.27265			43387.38302		69.67800		324.00000 
 43692.65567		 626.05955			43066.59612		176.51400		875.00000 
 43692.65567		 305.27265			43387.38302		69.67800		324.00000 
 43692.65567		 626.05955			43066.59612		176.51400		875.00000 
 43692.65567		 305.27265			43387.38302		69.67800		324.00000 
 43692.65567		 626.05955			43066.59612		176.51400		875.00000 
 43692.65567		 305.27265			43387.38302		69.67800		324.00000 
 43692.65567		 626.05955			43066.59612		176.51400		875.00000 
 43692.65567		 305.27265			43387.38302		69.67800		324.00000 
 43692.65567		 626.05955			43066.59612		176.51400		875.00000 
 43692.65567		 305.27265			43387.38302		69.67800		324.00000 
 43692.65567		 626.05955			43066.59612		176.51400		875.00000 
 43692.65567		 305.27265			43387.38302		69.67800		324.00000 
 43692.65567		 626.05955			43066.59612		176.51400		875.00000 
 43692.65567		 305.27265			43387.38302		69.67800		324.00000 
 43692.65567		 626.05955			43066.59612		176.51400		875.00000 
 43692.65567		 305.27265			43387.38302		69.67800		324.00000 
 43692.65567		 626.05955			43066.59612		176.51400		875.00000 
 43692.65567		 305.27265			43387.38302		69.67800		324.00000 
 43692.65567		 626.05955			43066.59612		203.46200		875.00000 
 43692.65567		 305.27265			43387.38302		69.67800		324.00000 
 43692.65567		 626.05955			43066.59612		203.46200		875.00000 
 43692.65567		 305.27265			43387.38302		69.67800		324.00000 
 43692.65567		 626.05955			43066.59612		203.46200		875.00000 
 43692.65567		 305.27265			43387.38302		69.67800		324.00000 
 43692.65567		 626.05955			43066.59612		203.46200		875.00000 
 43692.65567		 305.27265			43387.38302		69.67800		324.00000 
 43692.65567		 626.05955			43066.59612		203.46200		875.00000 
 43692.65567		 305.27265			43387.38302		69.67800		324.00000 
 43692.65567		 626.05955			43066.59612		203.46200		875.00000 
 43692.65567		 305.27265			43387.38302		69.67800		324.00000 
 43692.65567		 626.05955			43066.59612		203.46200		875.00000 
 43692.65567		 305.27265			43387.38302		69.67800		324.00000 
 43692.65567		 626.05955			43066.59612		203.46200		875.00000 
 43692.65567		 305.27265			43387.38302		69.67800		324.00000 
 43692.65567		 626.05955			43066.59612		203.46200		875.00000 
 43692.65567		 305.27265			43387.38302		69.67800		324.00000 
 43692.65567		 626.05955			43066.59612		203.46200		875.00000 
 43692.65567		 305.27265			43387.38302		69.67800		324.00000 
 43692.65567		 626.05955			43066.59612		203.46200		875.00000 
 43692.65567		 305.27265			43387.38302		69.67800		324.00000 
 43692.65567		 626.05955			43066.59612		203.46200		875.00000 
 43692.65567		 305.27265			43387.38302		69.67800		324.00000 
 43692.65567		 626.05955			43066.59612		203.46200		875.00000 
 43692.65567		 305.27265			43387.38302		69.67800		324.00000 
 43692.65567		 626.05955			43066.59612		203.46200		875.00000 
 43692.65567		 305.27265			43387.38302		69.67800		324.00000 
 43692.65567		 626.05955			43066.59612		203.46200		875.00000 
 43692.65567		 305.27265			43387.38302		69.67800		324.00000 
 43692.65567		 626.05955			43066.59612		203.46200		875.00000 
 43692.65567		 305.27265			43387.38302		69.67800		324.00000 
 43692.65567		 626.05955			43066.59612		203.46200		875.00000 
 43692.65567		 305.27265			43387.38302		69.67800		324.00000 
 43692.65567		 626.05955			43066.59612		203.46200		875.00000 
 43692.65567		 305.27265			43387.38302		69.67800		324.00000 
 43692.65567		 626.05955			43066.59612		203.46200		875.00000 
 43692.65567		 305.27265			43387.38302		69.67800		324.00000 
 43692.65567		 626.05955			43066.59612		203.46200		875.00000 
 43692.65567		 305.27265			43387.38302		69.67800		324.00000 
 43692.65567		 626.05955			43066.59612		203.46200		875.00000 
 43692.65567		 305.27265			43387.38302		69.67800		324.00000 
 43692.65567		 626.05955			43066.59612		203.46200		875.00000 
 43692.65567		 305.27265			43387.38302		69.67800		324.00000 
 43692.65567		 626.05955			43066.59612		203.46200		875.00000 
 43692.65567		 305.27265			43387.38302		69.67800		324.00000 
 43692.65567		 626.05955			43066.59612		203.46200		875.00000 
 43692.65567		 305.27265			43387.38302		69.67800		324.00000 
 43692.65567		 626.05955			43066.59612		203.46200		875.00000 
 43692.65567		 305.27265			43387.38302		69.67800		324.00000 
 43692.65567		 626.05955			43066.59612		203.46200		875.00000 
 43692.65567		 305.27265			43387.38302		69.67800		324.00000 
 43692.65567		 626.05955			43066.59612		203.46200		875.00000 
 43692.65567		 305.27265			43387.38302		69.67800		324.00000 
 43692.65567		 626.05955			43066.59612		203.46200		875.00000 
 43692.65567		 305.27265			43387.38302		69.67800		324.00000 
 43692.65567		 626.05955			43066.59612		203.46200		875.00000 
 43692.65567		 305.27265			43387.38302		69.67800		324.00000 
 43692.65567		 626.05955			43066.59612		203.46200		875.00000 
 43692.65567		 305.27265			43387.38302		69.67800		324.00000 
 43692.65567		 626.05955			43066.59612		203.46200		875.00000 
 43692.65567		 305.27265			43387.38302		69.67800		324.00000 
 43692.65567		 626.05955			43066.59612		203.46200		875.00000 
 43692.65567		 305.27265			43387.38302		69.67800		324.00000 
 43692.65567		 626.05955			43066.59612		203.46200		875.00000 
 43692.65567		 305.27265			43387.38302		69.67800		324.00000 
 43692.65567		 626.05955			43066.59612		203.46200		875.00000 
 43692.65567		 305.27265			43387.38302		69.67800		324.00000 
 43692.65567		 626.05955			43066.59612		203.46200		875.00000 
 43692.65567		 305.27265			43387.38302		69.67800		324.00000 
 43692.65567		 626.05955			43066.59612		203.46200		875.00000 
 43692.65567		 305.27265			43387.38302		69.67800		324.00000 
 43692.65567		 626.05955			43066.59612		203.46200		875.00000 
 43692.65567		 305.27265			43387.38302		69.67800		324.00000 
 43692.65567		 626.05955			43066.59612		203.46200		875.00000 
 43692.65567		 305.27265			43387.38302		69.67800		324.00000 
 43692.65567		 626.05955			43066.59612		203.46200		875.00000 
 43692.65567		 305.27265			43387.38302		69.67800		324.00000 
 43692.65567		 626.05955			43066.59612		203.46200		875.00000 
 43692.65567		 305.27265			43387.38302		69.67800		324.00000 
 43692.65567		 626.05955			43066.59612		203.46200		875.00000 
 43692.65567		 305.27265			43387.38302		69.67800		324.00000 
 43692.65567		 626.05955			43066.59612		203.46200		875.00000 
 43692.65567		 305.27265			43387.38302		69.67800		324.00000 
 43692.65567		 626.05955			43066.59612		203.46200		875.00000 
 43692.65567		 305.27265			43387.38302		69.67800		324.00000 
 43692.65567		 626.05955			43066.59612		203.46200		875.00000 
 43692.65567		 305.27265			43387.38302		69.67800		324.00000 
 43692.65567		 626.05955			43066.59612		203.46200		875.00000 
 43692.65567		 305.27265			43387.38302		69.67800		324.00000 
 43692.65567		 626.05955			43066.59612		203.46200		875.00000 
 43692.65567		 305.27265			43387.38302		69.67800		324.00000 
 43692.65567		 626.05955			43066.59612		203.46200		875.00000 
 43692.65567		 305.27265			43387.38302		69.67800		324.00000 
 43692.65567		 626.05955			43066.59612		203.46200		875.00000 
 43692.65567		 305.27265			43387.38302		69.67800		324.00000 
 43692.65567		 626.05955			43066.59612		203.46200		875.00000 
 43692.65567		 305.27265			43387.38302		69.67800		324.00000 
 43692.65567		 626.05955			43066.59612		203.46200		875.00000 
 43692.65567		 305.27265			43387.38302		69.67800		324.00000 
 43692.65567		 626.05955			43066.59612		203.46200		875.00000 
 43692.65567		 305.27265			43387.38302		69.67800		324.00000 
 43692.65567		 626.05955			43066.59612		203.46200		875.00000 
 43692.65567		 305.27265			43387.38302		69.67800		324.00000 
 43692.65567		 626.05955			43066.59612		203.46200		875.00000 
 43692.65567		 305.27265			43387.38302		69.67800		324.00000 
 43692.65567		 626.05955			43066.59612		203.46200		875.00000 
 43692.65567		 305.27265			43387.38302		69.67800		324.00000 
 43692.65567		 626.05955			43066.59612		203.46200		875.00000 
 43692.65567		 305.27265			43387.38302		69.67800		324.00000 
 43692.65567		 626.05955			43066.59612		203.46200		875.00000 
 43692.65567		 305.27265			43387.38302		69.67800		324.00000 
 43692.65567		 626.05955			43066.59612		203.46200		875.00000 
 43692.65567		 305.27265			43387.38302		69.67800		324.00000 
 43692.65567		 626.05955			43066.59612		203.46200		875.00000 
 43692.65567		 305.27265			43387.38302		69.67800		324.00000 
 43692.65567		 626.05955			43066.59612		203.46200		875.00000 
 43692.65567		 305.27265			43387.38302		69.67800		324.00000 
 43692.65567		 626.05955			43066.59612		203.46200		875.00000 
 43692.65567		 305.27265			43387.38302		69.67800		324.00000 
 43692.65567		 626.05955			43066.59612		203.46200		875.00000 
 43692.65567		 305.27265			43387.38302		69.67800		324.00000 
 43692.65567		 626.05955			43066.59612		203.46200		875.00000 
 43692.65567		 305.27265			43387.38302		69.67800		324.00000 
 43692.65567		 626.05955			43066.59612		203.46200		875.00000 
 43692.65567		 305.27265			43387.38302		69.67800		324.00000 
 43692.65567		 626.05955			43066.59612		203.46200		875.00000 
 43692.65567		 305.27265			43387.38302		69.67800		324.00000 
 43692.65567		 626.05955			43066.59612		213.89800		875.00000 
 43692.65567		 305.27265			43387.38302		69.67800		324.00000 
 43692.65567		 626.05955			43066.59612		213.89800		875.00000 
 43692.65567		 305.27265			43387.38302		69.67800		324.00000 
 43692.65567		 626.05955			43066.59612		213.89800		875.00000 
 43692.65567		 305.27265			43387.38302		69.67800		324.00000 
 43692.65567		 626.05955			43066.59612		213.89800		875.00000 
 43692.65567		 305.27265			43387.38302		69.67800		324.00000 
 43692.65567		 626.05955			43066.59612		213.89800		875.00000 
 43692.65567		 305.27265			43387.38302		69.67800		324.00000 
 43692.65567		 626.05955			43066.59612		213.89800		875.00000 
 43692.65567		 305.27265			43387.38302		69.67800		324.00000 
 43692.65567		 626.05955			43066.59612		213.89800		875.00000 
 43692.65567		 305.27265			43387.38302		69.67800		324.00000 
 43692.65567		 626.05955			43066.59612		213.89800		875.00000 
 43692.65567		 305.27265			43387.38302		69.67800		324.00000 
 43692.65567		 626.05955			43066.59612		213.89800		875.00000 
 43692.65567		 305.27265			43387.38302		69.67800		324.00000 
 43692.65567		 626.05955			43066.59612		213.89800		875.00000 
 43692.65567		 305.27265			43387.38302		69.67800		324.00000 
 43692.65567		 626.05955			43066.59612		213.89800		875.00000 
 43692.65567		 305.27265			43387.38302		69.67800		324.00000 
 43692.65567		 626.05955			43066.59612		213.89800		875.00000 
 43692.65567		 305.27265			43387.38302		69.67800		324.00000 
 43692.65567		 626.05955			43066.59612		213.89800		875.00000 
 43692.65567		 305.27265			43387.38302		69.67800		324.00000 
 43692.65567		 626.05955			43066.59612		213.89800		875.00000 
 43692.65567		 305.27265			43387.38302		69.67800		324.00000 
 43692.65567		 626.05955			43066.59612		213.89800		875.00000 
 43692.65567		 305.27265			43387.38302		69.67800		324.00000 
 43692.65567		 626.05955			43066.59612		213.89800		875.00000 
 43692.65567		 305.27265			43387.38302		69.67800		324.00000 
 43692.65567		 626.05955			43066.59612		213.89800		875.00000 
 43692.65567		 305.27265			43387.38302		69.67800		324.00000 
 43692.65567		 626.05955			43066.59612		213.89800		875.00000 
 43692.65567		 305.27265			43387.38302		69.67800		324.00000 
 43692.65567		 626.05955			43066.59612		213.89800		875.00000 
 43692.65567		 305.27265			43387.38302		69.67800		324.00000 
 43692.65567		 626.05955			43066.59612		213.89800		875.00000 
 43692.65567		 305.27265			43387.38302		69.67800		324.00000 
 43692.65567		 626.05955			43066.59612		213.89800		875.00000 
 43692.65567		 305.27265			43387.38302		69.67800		324.00000 
 43692.65567		 626.05955			43066.59612		213.89800		875.00000 
 43692.65567		 305.27265			43387.38302		69.67800		324.00000 
 43692.65567		 626.05955			43066.59612		213.89800		875.00000 
 43692.65567		 305.27265			43387.38302		69.67800		324.00000 
 43692.65567		 626.05955			43066.59612		213.89800		875.00000 
 43692.65567		 305.27265			43387.38302		69.67800		324.00000 
 43692.65567		 626.05955			43066.59612		213.89800		875.00000 
 43692.65567		 305.27265			43387.38302		69.67800		324.00000 
 43692.65567		 626.05955			43066.59612		213.89800		875.00000 
 43692.65567		 305.27265			43387.38302		69.67800		324.00000 
 43692.65567		 626.05955			43066.59612		213.89800		875.00000 
 43692.65567		 305.27265			43387.38302		69.67800		324.00000 
 43692.65567		 626.05955			43066.59612		213.89800		875.00000 
 43692.65567		 305.27265			43387.38302		69.67800		324.00000 
 43692.65567		 626.05955			43066.59612		213.89800		875.00000 
 43692.65567		 305.27265			43387.38302		69.67800		324.00000 
 43692.65567		 626.05955			43066.59612		213.89800		875.00000 
 43692.65567		 305.27265			43387.38302		69.67800		324.00000 
 43692.65567		 626.05955			43066.59612		213.89800		875.00000 
 43692.65567		 305.27265			43387.38302		69.67800		324.00000 
 43692.65567		 626.05955			43066.59612		213.89800		875.00000 
 43692.65567		 305.27265			43387.38302		69.67800		324.00000 
 43692.65567		 626.05955			43066.59612		213.89800		875.00000 
 43692.65567		 305.27265			43387.38302		69.67800		324.00000 
 43692.65567		 626.05955			43066.59612		213.89800		875.00000 
 43692.65567		 305.27265			43387.38302		69.67800		324.00000 
 43692.65567		 626.05955			43066.59612		213.89800		875.00000 
 43692.65567		 305.27265			43387.38302		69.67800		324.00000 
 43692.65567		 626.05955			43066.59612		213.89800		875.00000 
 43692.65567		 305.27265			43387.38302		69.67800		324.00000 
 43692.65567		 626.05955			43066.59612		213.89800		875.00000 
 43692.65567		 305.27265			43387.38302		69.67800		324.00000 
 43692.65567		 626.05955			43066.59612		213.89800		875.00000 
 43692.65567		 305.27265			43387.38302		69.67800		324.00000 
 43692.65567		 626.05955			43066.59612		213.89800		875.00000 
 43692.65567		 305.27265			43387.38302		69.67800		324.00000 
 43692.65567		 626.05955			43066.59612		213.89800		875.00000 
 43692.65567		 305.27265			43387.38302		69.67800		324.00000 
 43692.65567		 626.05955			43066.59612		213.89800		875.00000 
 43692.65567		 305.27265			43387.38302		69.67800		324.00000 
 43692.65567		 626.05955			43066.59612		213.89800		875.00000 
 43692.65567		 305.27265			43387.38302		69.67800		324.00000 
 43692.65567		 626.05955			43066.59612		213.89800		875.00000 
 43692.65567		 305.27265			43387.38302		69.67800		324.00000 
 43692.65567		 626.05955			43066.59612		213.89800		875.00000 
 43692.65567		 305.27265			43387.38302		69.67800		324.00000 
 43692.65567		 626.05955			43066.59612		213.89800		875.00000 
 43692.65567		 305.27265			43387.38302		69.67800		324.00000 
 43692.65567		 626.05955			43066.59612		213.89800		875.00000 
 43692.65567		 305.27265			43387.38302		69.67800		324.00000 
 43692.65567		 626.05955			43066.59612		213.89800		875.00000 
 43692.65567		 305.27265			43387.38302		69.67800		324.00000 
 43692.65567		 626.05955			43066.59612		213.89800		875.00000 
 43692.65567		 305.27265			43387.38302		69.67800		324.00000 
 43692.65567		 626.05955			43066.59612		213.89800		875.00000 
 43692.65567		 305.27265			43387.38302		69.67800		324.00000 
 43692.65567		 626.05955			43066.59612		213.89800		875.00000 
 43692.65567		 305.27265			43387.38302		69.67800		324.00000 
 43692.65567		 626.05955			43066.59612		213.89800		875.00000 
 43692.65567		 305.27265			43387.38302		69.67800		324.00000 
 43692.65567		 626.05955			43066.59612		213.89800		875.00000 
 43692.65567		 305.27265			43387.38302		69.67800		324.00000 
 43692.65567		 626.05955			43066.59612		213.89800		875.00000 
 43692.65567		 305.27265			43387.38302		69.67800		324.00000 
 43692.65567		 626.05955			43066.59612		213.89800		875.00000 
 43692.65567		 305.27265			43387.38302		69.67800		324.00000 
 43692.65567		 626.05955			43066.59612		213.89800		875.00000 
 43692.65567		 305.27265			43387.38302		69.67800		324.00000 
 43692.65567		 626.05955			43066.59612		213.89800		875.00000 
 43692.65567		 305.27265			43387.38302		69.67800		324.00000 
 43692.65567		 626.05955			43066.59612		213.89800		875.00000 
 43692.65567		 305.27265			43387.38302		69.67800		324.00000 
 43692.65567		 626.05955			43066.59612		213.89800		875.00000 
 43692.65567		 305.27265			43387.38302		69.67800		324.00000 
 43692.65567		 626.05955			43066.59612		213.89800		875.00000 
 43692.65567		 305.27265			43387.38302		69.67800		324.00000 
 43692.65567		 626.05955			43066.59612		213.89800		875.00000 
 43692.65567		 305.27265			43387.38302		69.67800		324.00000 
 43692.65567		 626.05955			43066.59612		213.89800		875.00000 
 43692.65567		 305.27265			43387.38302		69.67800		324.00000 
 43692.65567		 626.05955			43066.59612		213.89800		875.00000 
 43692.65567		 305.27265			43387.38302		69.67800		324.00000 
 43692.65567		 626.05955			43066.59612		213.89800		875.00000 
 43692.65567		 305.27265			43387.38302		69.67800		324.00000 
 43692.65567		 626.05955			43066.59612		213.89800		875.00000 
 43692.65567		 305.27265			43387.38302		69.67800		324.00000 
 43692.65567		 626.05955			43066.59612		217.97000		875.00000 
 43692.65567		 305.27265			43387.38302		69.67800		324.00000 
 43692.65567		 626.05955			43066.59612		217.97000		875.00000 
 43692.65567		 305.27265			43387.38302		69.67800		324.00000 
 43692.65567		 626.05955			43066.59612		217.97000		875.00000 
 43692.65567		 305.27265			43387.38302		69.67800		324.00000 
 43692.65567		 626.05955			43066.59612		217.97000		875.00000 
 43692.65567		 305.27265			43387.38302		69.67800		324.00000 
 43692.65567		 626.05955			43066.59612		217.97000		875.00000 
 43692.65567		 305.27265			43387.38302		69.67800		324.00000 
 43692.65567		 626.05955			43066.59612		217.97000		875.00000 
 43692.65567		 305.27265			43387.38302		69.67800		324.00000 
 43692.65567		 626.05955			43066.59612		217.97000		875.00000 
 43692.65567		 305.27265			43387.38302		69.67800		324.00000 
 43692.65567		 626.05955			43066.59612		217.97000		875.00000 
 43692.65567		 305.27265			43387.38302		69.67800		324.00000 
 43692.65567		 626.05955			43066.59612		217.97000		875.00000 
 43692.65567		 305.27265			43387.38302		69.67800		324.00000 
 43692.65567		 626.05955			43066.59612		217.97000		875.00000 
 43692.65567		 305.27265			43387.38302		69.67800		324.00000 
 43692.65567		 626.05955			43066.59612		217.97000		875.00000 
 43692.65567		 305.27265			43387.38302		69.67800		324.00000 
 43692.65567		 626.05955			43066.59612		217.97000		875.00000 
 43692.65567		 305.27265			43387.38302		69.67800		324.00000 
 43692.65567		 626.05955			43066.59612		217.97000		875.00000 
 43692.65567		 305.27265			43387.38302		69.67800		324.00000 
 43692.65567		 626.05955			43066.59612		217.97000		875.00000 
 43692.65567		 305.27265			43387.38302		69.67800		324.00000 
 43692.65567		 626.05955			43066.59612		217.97000		875.00000 
 43692.65567		 305.27265			43387.38302		69.67800		324.00000 
 43692.65567		 626.05955			43066.59612		217.97000		875.00000 
 43692.65567		 305.27265			43387.38302		69.67800		324.00000 
 43692.65567		 626.05955			43066.59612		217.97000		875.00000 
 43692.65567		 305.27265			43387.38302		69.67800		324.00000 
 43692.65567		 626.05955			43066.59612		217.97000		875.00000 
 43692.65567		 305.27265			43387.38302		69.67800		324.00000 
 43692.65567		 626.05955			43066.59612		217.97000		875.00000 
 43692.65567		 305.27265			43387.38302		69.67800		324.00000 
 43692.65567		 626.05955			43066.59612		217.97000		875.00000 
 43692.65567		 305.27265			43387.38302		69.67800		324.00000 
 43692.65567		 626.05955			43066.59612		217.97000		875.00000 
 43692.65567		 305.27265			43387.38302		69.67800		324.00000 
 43692.65567		 626.05955			43066.59612		217.97000		875.00000 
 43692.65567		 305.27265			43387.38302		69.67800		324.00000 
 43692.65567		 626.05955			43066.59612		217.97000		875.00000 
 43692.65567		 305.27265			43387.38302		69.67800		324.00000 
 43692.65567		 626.05955			43066.59612		217.97000		875.00000 
 43692.65567		 305.27265			43387.38302		69.67800		324.00000 
 43692.65567		 626.05955			43066.59612		217.97000		875.00000 
 43692.65567		 305.27265			43387.38302		69.67800		324.00000 
 43692.65567		 626.05955			43066.59612		217.97000		875.00000 
 43692.65567		 305.27265			43387.38302		69.67800		324.00000 
 43692.65567		 626.05955			43066.59612		217.97000		875.00000 
 43692.65567		 305.27265			43387.38302		69.67800		324.00000 
 43692.65567		 626.05955			43066.59612		217.97000		875.00000 
 43692.65567		 305.27265			43387.38302		69.67800		324.00000 
 43692.65567		 626.05955			43066.59612		217.97000		875.00000 
 43692.65567		 305.27265			43387.38302		69.67800		324.00000 
 43692.65567		 626.05955			43066.59612		217.97000		875.00000 
 43692.65567		 305.27265			43387.38302		69.67800		324.00000 
 43692.65567		 626.05955			43066.59612		217.97000		875.00000 
 43692.65567		 305.27265			43387.38302		69.67800		324.00000 
 43692.65567		 626.05955			43066.59612		217.97000		875.00000 
 43692.65567		 305.27265			43387.38302		69.67800		324.00000 
 43692.65567		 626.05955			43066.59612		217.97000		875.00000 
 43692.65567		 305.27265			43387.38302		69.67800		324.00000 
 43692.65567		 626.05955			43066.59612		217.97000		875.00000 
 43692.65567		 305.27265			43387.38302		69.67800		324.00000 
 43692.65567		 626.05955			43066.59612		217.97000		875.00000 
 43692.65567		 305.27265			43387.38302		69.67800		324.00000 
 43692.65567		 626.05955			43066.59612		217.97000		875.00000 
 43692.65567		 305.27265			43387.38302		69.67800		324.00000 
 43692.65567		 626.05955			43066.59612		217.97000		875.00000 
 43692.65567		 305.27265			43387.38302		69.67800		324.00000 
 43692.65567		 626.05955			43066.59612		217.97000		875.00000 
 43692.65567		 305.27265			43387.38302		69.67800		324.00000 
 43692.65567		 626.05955			43066.59612		217.97000		875.00000 
 43692.65567		 305.27265			43387.38302		69.67800		324.00000 
 43692.65567		 626.05955			43066.59612		217.97000		875.00000 
 43692.65567		 305.27265			43387.38302		69.67800		324.00000 
 43692.65567		 626.05955			43066.59612		217.97000		875.00000 
 43692.65567		 305.27265			43387.38302		69.67800		324.00000 
 43692.65567		 626.05955			43066.59612		217.97000		875.00000 
 43692.65567		 305.27265			43387.38302		69.67800		324.00000 
 43692.65567		 626.05955			43066.59612		217.97000		875.00000 
 43692.65567		 305.27265			43387.38302		69.67800		324.00000 
 43692.65567		 626.05955			43066.59612		217.97000		875.00000 
 43692.65567		 305.27265			43387.38302		69.67800		324.00000 
 43692.65567		 626.05955			43066.59612		217.97000		875.00000 
 43692.65567		 305.27265			43387.38302		69.67800		324.00000 
 43692.65567		 626.05955			43066.59612		217.97000		875.00000 
 43692.65567		 305.27265			43387.38302		69.67800		324.00000 
 43692.65567		 626.05955			43066.59612		217.97000		875.00000 
 43692.65567		 305.27265			43387.38302		69.67800		324.00000 
 43692.65567		 626.05955			43066.59612		217.97000		875.00000 
 43692.65567		 305.27265			43387.38302		69.67800		324.00000 
 43692.65567		 626.05955			43066.59612		217.97000		875.00000 
 43692.65567		 305.27265			43387.38302		69.67800		324.00000 
 43692.65567		 626.05955			43066.59612		217.97000		875.00000 
 43692.65567		 305.27265			43387.38302		69.67800		324.00000 
 43692.65567		 626.05955			43066.59612		217.97000		875.00000 
 43692.65567		 305.27265			43387.38302		69.67800		324.00000 
 43692.65567		 626.05955			43066.59612		217.97000		875.00000 
 43692.65567		 305.27265			43387.38302		69.67800		324.00000 
 43692.65567		 626.05955			43066.59612		217.97000		875.00000 
 43692.65567		 305.27265			43387.38302		69.67800		324.00000 
 43692.65567		 626.05955			43066.59612		217.97000		875.00000 
 43692.65567		 305.27265			43387.38302		69.67800		324.00000 
 43692.65567		 626.05955			43066.59612		217.97000		875.00000 
 43692.65567		 305.27265			43387.38302		69.67800		324.00000 
 43692.65567		 626.05955			43066.59612		217.97000		875.00000 
 43692.65567		 305.27265			43387.38302		69.67800		324.00000 
 43692.65567		 626.05955			43066.59612		217.97000		875.00000 
 43692.65567		 305.27265			43387.38302		69.67800		324.00000 
 43692.65567		 626.05955			43066.59612		217.97000		875.00000 
 43692.65567		 305.27265			43387.38302		69.67800		324.00000 
 43692.65567		 626.05955			43066.59612		217.97000		875.00000 
 43692.65567		 305.27265			43387.38302		69.67800		324.00000 
 43692.65567		 626.05955			43066.59612		217.97000		875.00000 
 43692.65567		 305.27265			43387.38302		69.67800		324.00000 
 43692.65567		 626.05955			43066.59612		217.97000		875.00000 
 43692.65567		 305.27265			43387.38302		69.67800		324.00000 
 43692.65567		 626.05955			43066.59612		217.97000		875.00000 
 43692.65567		 305.27265			43387.38302		69.67800		324.00000 
 43692.65567		 626.05955			43066.59612		217.97000		875.00000 
 43692.65567		 305.27265			43387.38302		69.67800		324.00000 
 43692.65567		 626.05955			43066.59612		217.97000		875.00000 
 43692.65567		 305.27265			43387.38302		69.67800		324.00000 
 43692.65567		 626.05955			43066.59612		219.71600		875.00000 
 43692.65567		 305.27265			43387.38302		69.67800		324.00000 
 43692.65567		 626.05955			43066.59612		219.71600		875.00000 
 43692.65567		 305.27265			43387.38302		69.67800		324.00000 
 43692.65567		 626.05955			43066.59612		219.71600		875.00000 
 43692.65567		 305.27265			43387.38302		69.67800		324.00000 
 43692.65567		 626.05955			43066.59612		219.71600		875.00000 
 43692.65567		 305.27265			43387.38302		69.67800		324.00000 
 43692.65567		 626.05955			43066.59612		219.71600		875.00000 
 43692.65567		 305.27265			43387.38302		69.67800		324.00000 
 43692.65567		 626.05955			43066.59612		219.71600		875.00000 
 43692.65567		 305.27265			43387.38302		69.67800		324.00000 
 43692.65567		 626.05955			43066.59612		219.71600		875.00000 
 43692.65567		 305.27265			43387.38302		69.67800		324.00000 
 43692.65567		 626.05955			43066.59612		219.71600		875.00000 
 43692.65567		 305.27265			43387.38302		69.67800		324.00000 
 43692.65567		 626.05955			43066.59612		219.71600		875.00000 
 43692.65567		 305.27265			43387.38302		69.67800		324.00000 
 43692.65567		 626.05955			43066.59612		219.71600		875.00000 
 43692.65567		 305.27265			43387.38302		69.67800		324.00000 
 43692.65567		 626.05955			43066.59612		219.71600		875.00000 
 43692.65567		 305.27265			43387.38302		69.67800		324.00000 
 43692.65567		 626.05955			43066.59612		219.71600		875.00000 
 43692.65567		 305.27265			43387.38302		69.67800		324.00000 
 43692.65567		 626.05955			43066.59612		219.71600		875.00000 
 43692.65567		 305.27265			43387.38302		69.67800		324.00000 
 43692.65567		 626.05955			43066.59612		219.71600		875.00000 
 43692.65567		 305.27265			43387.38302		69.67800		324.00000 
 43692.65567		 626.05955			43066.59612		219.71600		875.00000 
 43692.65567		 305.27265			43387.38302		69.67800		324.00000 
 43692.65567		 626.05955			43066.59612		219.71600		875.00000 
 43692.65567		 305.27265			43387.38302		69.67800		324.00000 
 43692.65567		 626.05955			43066.59612		219.71600		875.00000 
 43692.65567		 305.27265			43387.38302		69.67800		324.00000 
 43692.65567		 626.05955			43066.59612		219.71600		875.00000 
 43692.65567		 305.27265			43387.38302		69.67800		324.00000 
 43692.65567		 626.05955			43066.59612		219.71600		875.00000 
 43692.65567		 305.27265			43387.38302		69.67800		324.00000 
 43692.65567		 626.05955			43066.59612		219.71600		875.00000 
 43692.65567		 305.27265			43387.38302		69.67800		324.00000 
 43692.65567		 626.05955			43066.59612		219.71600		875.00000 
 43692.65567		 305.27265			43387.38302		69.67800		324.00000 
 43692.65567		 626.05955			43066.59612		219.71600		875.00000 
 43692.65567		 305.27265			43387.38302		69.67800		324.00000 
 43692.65567		 626.05955			43066.59612		219.71600		875.00000 
 43692.65567		 305.27265			43387.38302		69.67800		324.00000 
 43692.65567		 626.05955			43066.59612		219.71600		875.00000 
 43692.65567		 305.27265			43387.38302		69.67800		324.00000 
 43692.65567		 626.05955			43066.59612		219.71600		875.00000 
 43692.65567		 305.27265			43387.38302		69.67800		324.00000 
 43692.65567		 626.05955			43066.59612		219.71600		875.00000 
 43692.65567		 305.27265			43387.38302		69.67800		324.00000 
 43692.65567		 626.05955			43066.59612		219.71600		875.00000 
 43692.65567		 305.27265			43387.38302		69.67800		324.00000 
 43692.65567		 626.05955			43066.59612		219.71600		875.00000 
 43692.65567		 305.27265			43387.38302		69.67800		324.00000 
 43692.65567		 626.05955			43066.59612		219.71600		875.00000 
 43692.65567		 305.27265			43387.38302		69.67800		324.00000 
 43692.65567		 626.05955			43066.59612		219.71600		875.00000 
 43692.65567		 305.27265			43387.38302		69.67800		324.00000 
 43692.65567		 626.05955			43066.59612		219.71600		875.00000 
 43692.65567		 305.27265			43387.38302		69.67800		324.00000 
 43692.65567		 626.05955			43066.59612		219.71600		875.00000 
 43692.65567		 305.27265			43387.38302		69.67800		324.00000 
 43692.65567		 626.05955			43066.59612		219.71600		875.00000 
 43692.65567		 305.27265			43387.38302		69.67800		324.00000 
 43692.65567		 626.05955			43066.59612		219.71600		875.00000 
 43692.65567		 305.27265			43387.38302		69.67800		324.00000 
 43692.65567		 596.46314			43096.19253		219.71600		875.00000 
 43692.65567		 305.27265			43387.38302		69.67800		324.00000 
 43692.65567		 537.27032			43155.38535		219.71600		875.00000 
 43692.65567		 305.27265			43387.38302		69.67800		324.00000 
 43692.65567		 537.27032			43155.38535		219.71600		875.00000 
 43692.65567		 305.27265			43387.38302		69.67800		324.00000 
 43692.65567		 537.27032			43155.38535		219.71600		875.00000 
 43692.65567		 305.27265			43387.38302		69.67800		324.00000 
 43692.65567		 537.27032			43155.38535		219.71600		875.00000 
 43692.65567		 305.27265			43387.38302		69.67800		324.00000 
 43692.65567		 537.27032			43155.38535		219.71600		875.00000 
 43692.65567		 305.27265			43387.38302		69.67800		324.00000 
 43692.65567		 537.27032			43155.38535		219.71600		875.00000 
 43692.65567		 305.27265			43387.38302		69.67800		324.00000 
 43692.65567		 537.27032			43155.38535		219.71600		875.00000 
 43692.65567		 305.27265			43387.38302		69.67800		324.00000 
 43692.65567		 537.27032			43155.38535		219.71600		875.00000 
 43692.65567		 305.27265			43387.38302		69.67800		324.00000 
 43692.65567		 537.27032			43155.38535		219.71600		875.00000 
 43692.65567		 305.27265			43387.38302		69.67800		324.00000 
 43692.65567		 537.27032			43155.38535		219.71600		875.00000 
 43692.65567		 305.27265			43387.38302		69.67800		324.00000 
 43692.65567		 537.27032			43155.38535		219.71600		875.00000 
 43692.65567		 305.27265			43387.38302		69.67800		324.00000 
 43692.65567		 537.27032			43155.38535		219.71600		875.00000 
 43692.65567		 305.27265			43387.38302		69.67800		324.00000 
 43692.65567		 537.27032			43155.38535		219.71600		875.00000 
 43692.65567		 305.27265			43387.38302		69.67800		324.00000 
 43692.65567		 537.27032			43155.38535		219.71600		875.00000 
 43692.65567		 305.27265			43387.38302		69.67800		324.00000 
 43692.65567		 537.27032			43155.38535		219.71600		875.00000 
 43692.65567		 305.27265			43387.38302		69.67800		324.00000 
 43692.65567		 537.27032			43155.38535		219.71600		875.00000 
 43692.65567		 305.27265			43387.38302		69.67800		324.00000 
 43692.65567		 537.27032			43155.38535		219.71600		875.00000 
 43692.65567		 305.27265			43387.38302		69.67800		324.00000 
 43692.65567		 537.27032			43155.38535		219.71600		875.00000 
 43692.65567		 305.27265			43387.38302		69.67800		324.00000 
 43692.65567		 537.27032			43155.38535		219.71600		875.00000 
 43692.65567		 305.27265			43387.38302		69.67800		324.00000 
 43692.65567		 537.27032			43155.38535		219.71600		875.00000 
 43692.65567		 305.27265			43387.38302		69.67800		324.00000 
 43692.65567		 537.27032			43155.38535		219.71600		875.00000 
 43692.65567		 305.27265			43387.38302		69.67800		324.00000 
 43692.65567		 525.81365			43166.84203		188.20800		875.00000 
 43692.65567		 297.63487			43395.02080		69.67800		324.00000 
 43692.65567		 261.35540			43431.30027		188.20800		875.00000 
 43692.65567		 261.35540			43431.30027		69.67800		324.00000 
