Memory Total (MiB) 	 Memory Used (MiB) 	    Memory Free (MiB) 	 Power Drawed (W) 	 Clocks (Mhz) 	 
 43692.65567		 261.35540			43431.30027		178.20400		875.00000 
 43692.65567		 261.35540			43431.30027		69.65600		324.00000 
 43692.65567		 261.35540			43431.30027		178.20400		875.00000 
 43692.65567		 261.35540			43431.30027		69.65600		324.00000 
 43692.65567		 261.35540			43431.30027		178.20400		875.00000 
 43692.65567		 261.35540			43431.30027		69.65600		324.00000 
 43692.65567		 261.35540			43431.30027		178.20400		875.00000 
 43692.65567		 261.35540			43431.30027		69.65600		324.00000 
 43692.65567		 261.35540			43431.30027		178.20400		875.00000 
 43692.65567		 261.35540			43431.30027		69.65600		324.00000 
 43692.65567		 261.35540			43431.30027		178.20400		875.00000 
 43692.65567		 261.35540			43431.30027		69.65600		324.00000 
 43692.65567		 261.35540			43431.30027		178.20400		875.00000 
 43692.65567		 261.35540			43431.30027		69.65600		324.00000 
 43692.65567		 261.35540			43431.30027		178.20400		875.00000 
 43692.65567		 261.35540			43431.30027		69.65600		324.00000 
 43692.65567		 261.35540			43431.30027		178.20400		875.00000 
 43692.65567		 261.35540			43431.30027		69.65600		324.00000 
 43692.65567		 261.35540			43431.30027		178.20400		875.00000 
 43692.65567		 261.35540			43431.30027		69.65600		324.00000 
 43692.65567		 261.35540			43431.30027		178.20400		875.00000 
 43692.65567		 261.35540			43431.30027		69.65600		324.00000 
 43692.65567		 261.35540			43431.30027		178.20400		875.00000 
 43692.65567		 261.35540			43431.30027		69.65600		324.00000 
 43692.65567		 261.35540			43431.30027		178.20400		875.00000 
 43692.65567		 261.35540			43431.30027		69.65600		324.00000 
 43692.65567		 261.35540			43431.30027		178.20400		875.00000 
 43692.65567		 261.35540			43431.30027		69.65600		324.00000 
 43692.65567		 261.35540			43431.30027		178.20400		875.00000 
 43692.65567		 261.35540			43431.30027		69.65600		324.00000 
 43692.65567		 261.35540			43431.30027		178.20400		875.00000 
 43692.65567		 261.35540			43431.30027		69.65600		324.00000 
 43692.65567		 261.35540			43431.30027		178.20400		875.00000 
 43692.65567		 261.35540			43431.30027		66.69000		324.00000 
 43692.65567		 261.35540			43431.30027		178.20400		875.00000 
 43692.65567		 261.35540			43431.30027		66.69000		324.00000 
 43692.65567		 261.35540			43431.30027		178.20400		875.00000 
 43692.65567		 261.35540			43431.30027		66.69000		324.00000 
 43692.65567		 265.17429			43427.48138		178.20400		875.00000 
 43692.65567		 261.35540			43431.30027		66.69000		324.00000 
 43692.65567		 265.17429			43427.48138		178.20400		875.00000 
 43692.65567		 261.35540			43431.30027		66.69000		324.00000 
 43692.65567		 272.81207			43419.84360		178.20400		875.00000 
 43692.65567		 261.35540			43431.30027		66.69000		324.00000 
 43692.65567		 272.81207			43419.84360		178.20400		875.00000 
 43692.65567		 265.17429			43427.48138		66.69000		324.00000 
 43692.65567		 272.81207			43419.84360		178.20400		875.00000 
 43692.65567		 265.17429			43427.48138		66.69000		324.00000 
 43692.65567		 272.81207			43419.84360		148.26800		875.00000 
 43692.65567		 265.17429			43427.48138		66.69000		324.00000 
 43692.65567		 272.81207			43419.84360		148.26800		875.00000 
 43692.65567		 272.81207			43419.84360		66.69000		324.00000 
 43692.65567		 272.81207			43419.84360		148.26800		875.00000 
 43692.65567		 272.81207			43419.84360		66.69000		324.00000 
 43692.65567		 272.81207			43419.84360		148.26800		875.00000 
 43692.65567		 272.81207			43419.84360		66.69000		324.00000 
 43692.65567		 305.27265			43387.38302		148.26800		875.00000 
 43692.65567		 305.27265			43387.38302		66.69000		324.00000 
 43692.65567		 305.27265			43387.38302		148.26800		875.00000 
 43692.65567		 305.27265			43387.38302		66.69000		324.00000 
 43692.65567		 305.27265			43387.38302		148.26800		875.00000 
 43692.65567		 305.27265			43387.38302		66.69000		324.00000 
 43692.65567		 305.27265			43387.38302		148.26800		875.00000 
 43692.65567		 305.27265			43387.38302		66.69000		324.00000 
 43692.65567		 305.27265			43387.38302		148.26800		875.00000 
 43692.65567		 305.27265			43387.38302		66.69000		324.00000 
 43692.65567		 309.56891			43383.08677		148.26800		875.00000 
 43692.65567		 305.27265			43387.38302		66.69000		324.00000 
 43692.65567		 311.00099			43381.65468		148.26800		875.00000 
 43692.65567		 305.27265			43387.38302		66.69000		324.00000 
 43692.65567		 311.00099			43381.65468		148.26800		875.00000 
 43692.65567		 305.27265			43387.38302		66.69000		324.00000 
 43692.65567		 311.00099			43381.65468		148.26800		875.00000 
 43692.65567		 305.27265			43387.38302		66.69000		324.00000 
 43692.65567		 311.00099			43381.65468		148.26800		875.00000 
 43692.65567		 305.27265			43387.38302		66.69000		324.00000 
 43692.65567		 311.00099			43381.65468		148.26800		875.00000 
 43692.65567		 305.27265			43387.38302		66.69000		324.00000 
 43692.65567		 311.00099			43381.65468		148.26800		875.00000 
 43692.65567		 305.27265			43387.38302		66.69000		324.00000 
 43692.65567		 311.00099			43381.65468		148.26800		875.00000 
 43692.65567		 305.27265			43387.38302		66.69000		324.00000 
 43692.65567		 311.00099			43381.65468		148.26800		875.00000 
 43692.65567		 305.27265			43387.38302		66.69000		324.00000 
 43692.65567		 311.00099			43381.65468		148.26800		875.00000 
 43692.65567		 305.27265			43387.38302		66.69000		324.00000 
 43692.65567		 311.00099			43381.65468		148.26800		875.00000 
 43692.65567		 305.27265			43387.38302		66.69000		324.00000 
 43692.65567		 311.00099			43381.65468		148.26800		875.00000 
 43692.65567		 305.27265			43387.38302		66.69000		324.00000 
 43692.65567		 311.00099			43381.65468		148.26800		875.00000 
 43692.65567		 305.27265			43387.38302		66.69000		324.00000 
 43692.65567		 311.00099			43381.65468		148.26800		875.00000 
 43692.65567		 305.27265			43387.38302		66.69000		324.00000 
 43692.65567		 311.00099			43381.65468		148.26800		875.00000 
 43692.65567		 305.27265			43387.38302		66.69000		324.00000 
 43692.65567		 311.00099			43381.65468		148.26800		875.00000 
 43692.65567		 305.27265			43387.38302		66.69000		324.00000 
 43692.65567		 311.00099			43381.65468		148.26800		875.00000 
 43692.65567		 305.27265			43387.38302		66.69000		324.00000 
 43692.65567		 311.00099			43381.65468		148.26800		875.00000 
 43692.65567		 305.27265			43387.38302		66.69000		324.00000 
 43692.65567		 311.00099			43381.65468		148.26800		875.00000 
 43692.65567		 305.27265			43387.38302		66.69000		324.00000 
 43692.65567		 311.00099			43381.65468		148.26800		875.00000 
 43692.65567		 305.27265			43387.38302		66.69000		324.00000 
 43692.65567		 311.00099			43381.65468		148.26800		875.00000 
 43692.65567		 305.27265			43387.38302		66.69000		324.00000 
 43692.65567		 311.00099			43381.65468		148.26800		875.00000 
 43692.65567		 305.27265			43387.38302		66.69000		324.00000 
 43692.65567		 311.00099			43381.65468		148.26800		875.00000 
 43692.65567		 305.27265			43387.38302		66.69000		324.00000 
 43692.65567		 311.00099			43381.65468		137.39600		875.00000 
 43692.65567		 305.27265			43387.38302		66.69000		324.00000 
 43692.65567		 311.00099			43381.65468		137.39600		875.00000 
 43692.65567		 305.27265			43387.38302		66.69000		324.00000 
 43692.65567		 311.00099			43381.65468		137.39600		875.00000 
 43692.65567		 305.27265			43387.38302		66.69000		324.00000 
 43692.65567		 311.00099			43381.65468		137.39600		875.00000 
 43692.65567		 305.27265			43387.38302		66.69000		324.00000 
 43692.65567		 311.00099			43381.65468		137.39600		875.00000 
 43692.65567		 305.27265			43387.38302		66.69000		324.00000 
 43692.65567		 311.00099			43381.65468		137.39600		875.00000 
 43692.65567		 305.27265			43387.38302		66.69000		324.00000 
 43692.65567		 311.00099			43381.65468		137.39600		875.00000 
 43692.65567		 305.27265			43387.38302		66.69000		324.00000 
 43692.65567		 311.00099			43381.65468		137.39600		875.00000 
 43692.65567		 305.27265			43387.38302		66.69000		324.00000 
 43692.65567		 311.00099			43381.65468		137.39600		875.00000 
 43692.65567		 305.27265			43387.38302		66.69000		324.00000 
 43692.65567		 311.00099			43381.65468		137.39600		875.00000 
 43692.65567		 305.27265			43387.38302		66.69000		324.00000 
 43692.65567		 311.00099			43381.65468		137.39600		875.00000 
 43692.65567		 305.27265			43387.38302		66.69000		324.00000 
 43692.65567		 311.00099			43381.65468		137.39600		875.00000 
 43692.65567		 305.27265			43387.38302		66.69000		324.00000 
 43692.65567		 311.00099			43381.65468		137.39600		875.00000 
 43692.65567		 305.27265			43387.38302		66.69000		324.00000 
 43692.65567		 311.00099			43381.65468		137.39600		875.00000 
 43692.65567		 305.27265			43387.38302		66.69000		324.00000 
 43692.65567		 311.00099			43381.65468		137.39600		875.00000 
 43692.65567		 305.27265			43387.38302		66.69000		324.00000 
 43692.65567		 311.00099			43381.65468		137.39600		875.00000 
 43692.65567		 305.27265			43387.38302		66.69000		324.00000 
 43692.65567		 311.00099			43381.65468		137.39600		875.00000 
 43692.65567		 305.27265			43387.38302		66.69000		324.00000 
 43692.65567		 311.00099			43381.65468		137.39600		875.00000 
 43692.65567		 305.27265			43387.38302		66.69000		324.00000 
 43692.65567		 311.00099			43381.65468		137.39600		875.00000 
 43692.65567		 305.27265			43387.38302		66.69000		324.00000 
 43692.65567		 311.00099			43381.65468		137.39600		875.00000 
 43692.65567		 305.27265			43387.38302		66.69000		324.00000 
 43692.65567		 311.00099			43381.65468		137.39600		875.00000 
 43692.65567		 305.27265			43387.38302		66.69000		324.00000 
 43692.65567		 311.00099			43381.65468		137.39600		875.00000 
 43692.65567		 305.27265			43387.38302		66.69000		324.00000 
 43692.65567		 311.00099			43381.65468		137.39600		875.00000 
 43692.65567		 305.27265			43387.38302		66.69000		324.00000 
 43692.65567		 311.00099			43381.65468		137.39600		875.00000 
 43692.65567		 305.27265			43387.38302		66.69000		324.00000 
 43692.65567		 311.00099			43381.65468		137.39600		875.00000 
 43692.65567		 305.27265			43387.38302		66.69000		324.00000 
 43692.65567		 311.00099			43381.65468		137.39600		875.00000 
 43692.65567		 305.27265			43387.38302		66.69000		324.00000 
 43692.65567		 311.00099			43381.65468		137.39600		875.00000 
 43692.65567		 305.27265			43387.38302		66.69000		324.00000 
 43692.65567		 311.00099			43381.65468		137.39600		875.00000 
 43692.65567		 305.27265			43387.38302		66.69000		324.00000 
 43692.65567		 311.00099			43381.65468		137.39600		875.00000 
 43692.65567		 305.27265			43387.38302		66.69000		324.00000 
 43692.65567		 311.00099			43381.65468		137.39600		875.00000 
 43692.65567		 305.27265			43387.38302		66.69000		324.00000 
 43692.65567		 314.81988			43377.83579		137.39600		875.00000 
 43692.65567		 305.27265			43387.38302		66.69000		324.00000 
 43692.65567		 314.81988			43377.83579		133.18800		875.00000 
 43692.65567		 305.27265			43387.38302		66.69000		324.00000 
 43692.65567		 314.81988			43377.83579		133.18800		875.00000 
 43692.65567		 305.27265			43387.38302		66.69000		324.00000 
 43692.65567		 318.63877			43374.01690		133.18800		875.00000 
 43692.65567		 305.27265			43387.38302		66.69000		324.00000 
 43692.65567		 322.45767			43370.19801		133.18800		875.00000 
 43692.65567		 305.27265			43387.38302		66.69000		324.00000 
 43692.65567		 326.27656			43366.37912		133.18800		875.00000 
 43692.65567		 305.27265			43387.38302		66.69000		324.00000 
 43692.65567		 326.27656			43366.37912		133.18800		875.00000 
 43692.65567		 305.27265			43387.38302		66.69000		324.00000 
 43692.65567		 326.27656			43366.37912		133.18800		875.00000 
 43692.65567		 305.27265			43387.38302		66.69000		324.00000 
 43692.65567		 537.27032			43155.38535		133.18800		875.00000 
 43692.65567		 305.27265			43387.38302		66.69000		324.00000 
 43692.65567		 565.91201			43126.74366		133.18800		875.00000 
 43692.65567		 305.27265			43387.38302		66.69000		324.00000 
 43692.65567		 623.19538			43069.46029		133.18800		875.00000 
 43692.65567		 305.27265			43387.38302		66.69000		324.00000 
 43692.65567		 623.19538			43069.46029		133.18800		875.00000 
 43692.65567		 305.27265			43387.38302		66.69000		324.00000 
 43692.65567		 623.19538			43069.46029		133.18800		875.00000 
 43692.65567		 305.27265			43387.38302		66.69000		324.00000 
 43692.65567		 623.19538			43069.46029		133.18800		875.00000 
 43692.65567		 305.27265			43387.38302		66.69000		324.00000 
 43692.65567		 623.19538			43069.46029		133.18800		875.00000 
 43692.65567		 305.27265			43387.38302		66.69000		324.00000 
 43692.65567		 623.19538			43069.46029		133.18800		875.00000 
 43692.65567		 305.27265			43387.38302		66.69000		324.00000 
 43692.65567		 623.19538			43069.46029		133.18800		875.00000 
 43692.65567		 305.27265			43387.38302		66.69000		324.00000 
 43692.65567		 623.19538			43069.46029		133.18800		875.00000 
 43692.65567		 305.27265			43387.38302		66.69000		324.00000 
 43692.65567		 623.19538			43069.46029		133.18800		875.00000 
 43692.65567		 305.27265			43387.38302		66.69000		324.00000 
 43692.65567		 623.19538			43069.46029		133.18800		875.00000 
 43692.65567		 305.27265			43387.38302		66.69000		324.00000 
 43692.65567		 623.19538			43069.46029		133.18800		875.00000 
 43692.65567		 305.27265			43387.38302		66.69000		324.00000 
 43692.65567		 623.19538			43069.46029		133.18800		875.00000 
 43692.65567		 305.27265			43387.38302		66.69000		324.00000 
 43692.65567		 623.19538			43069.46029		133.18800		875.00000 
 43692.65567		 305.27265			43387.38302		66.69000		324.00000 
 43692.65567		 623.19538			43069.46029		133.18800		875.00000 
 43692.65567		 305.27265			43387.38302		66.69000		324.00000 
 43692.65567		 623.19538			43069.46029		133.18800		875.00000 
 43692.65567		 305.27265			43387.38302		66.69000		324.00000 
 43692.65567		 623.19538			43069.46029		133.18800		875.00000 
 43692.65567		 305.27265			43387.38302		66.69000		324.00000 
 43692.65567		 623.19538			43069.46029		133.18800		875.00000 
 43692.65567		 305.27265			43387.38302		66.69000		324.00000 
 43692.65567		 623.19538			43069.46029		133.18800		875.00000 
 43692.65567		 305.27265			43387.38302		66.69000		324.00000 
 43692.65567		 623.19538			43069.46029		133.18800		875.00000 
 43692.65567		 305.27265			43387.38302		66.69000		324.00000 
 43692.65567		 623.19538			43069.46029		133.18800		875.00000 
 43692.65567		 305.27265			43387.38302		66.69000		324.00000 
 43692.65567		 623.19538			43069.46029		133.18800		875.00000 
 43692.65567		 305.27265			43387.38302		66.69000		324.00000 
 43692.65567		 623.19538			43069.46029		133.18800		875.00000 
 43692.65567		 305.27265			43387.38302		66.69000		324.00000 
 43692.65567		 623.19538			43069.46029		133.18800		875.00000 
 43692.65567		 305.27265			43387.38302		66.69000		324.00000 
 43692.65567		 623.19538			43069.46029		133.18800		875.00000 
 43692.65567		 305.27265			43387.38302		66.69000		324.00000 
 43692.65567		 623.19538			43069.46029		133.18800		875.00000 
 43692.65567		 305.27265			43387.38302		66.69000		324.00000 
 43692.65567		 623.19538			43069.46029		133.18800		875.00000 
 43692.65567		 305.27265			43387.38302		66.69000		324.00000 
 43692.65567		 623.19538			43069.46029		133.18800		875.00000 
 43692.65567		 305.27265			43387.38302		66.69000		324.00000 
 43692.65567		 623.19538			43069.46029		133.18800		875.00000 
 43692.65567		 305.27265			43387.38302		66.69000		324.00000 
 43692.65567		 623.19538			43069.46029		133.18800		875.00000 
 43692.65567		 305.27265			43387.38302		66.69000		324.00000 
 43692.65567		 623.19538			43069.46029		133.18800		875.00000 
 43692.65567		 305.27265			43387.38302		66.69000		324.00000 
 43692.65567		 623.19538			43069.46029		133.18800		875.00000 
 43692.65567		 305.27265			43387.38302		66.69000		324.00000 
 43692.65567		 623.19538			43069.46029		133.18800		875.00000 
 43692.65567		 305.27265			43387.38302		66.69000		324.00000 
 43692.65567		 623.19538			43069.46029		133.18800		875.00000 
 43692.65567		 305.27265			43387.38302		66.69000		324.00000 
 43692.65567		 623.19538			43069.46029		133.18800		875.00000 
 43692.65567		 305.27265			43387.38302		66.69000		324.00000 
 43692.65567		 623.19538			43069.46029		133.18800		875.00000 
 43692.65567		 305.27265			43387.38302		66.69000		324.00000 
 43692.65567		 623.19538			43069.46029		133.18800		875.00000 
 43692.65567		 305.27265			43387.38302		66.69000		324.00000 
 43692.65567		 623.19538			43069.46029		133.18800		875.00000 
 43692.65567		 305.27265			43387.38302		66.69000		324.00000 
 43692.65567		 623.19538			43069.46029		133.18800		875.00000 
 43692.65567		 305.27265			43387.38302		66.69000		324.00000 
 43692.65567		 623.19538			43069.46029		133.18800		875.00000 
 43692.65567		 305.27265			43387.38302		66.69000		324.00000 
 43692.65567		 623.19538			43069.46029		133.18800		875.00000 
 43692.65567		 305.27265			43387.38302		66.69000		324.00000 
 43692.65567		 623.19538			43069.46029		133.18800		875.00000 
 43692.65567		 305.27265			43387.38302		66.69000		324.00000 
 43692.65567		 623.19538			43069.46029		133.18800		875.00000 
 43692.65567		 305.27265			43387.38302		66.69000		324.00000 
 43692.65567		 623.19538			43069.46029		133.18800		875.00000 
 43692.65567		 305.27265			43387.38302		66.69000		324.00000 
 43692.65567		 623.19538			43069.46029		133.18800		875.00000 
 43692.65567		 305.27265			43387.38302		66.69000		324.00000 
 43692.65567		 623.19538			43069.46029		133.18800		875.00000 
 43692.65567		 305.27265			43387.38302		66.69000		324.00000 
 43692.65567		 623.19538			43069.46029		133.18800		875.00000 
 43692.65567		 305.27265			43387.38302		66.69000		324.00000 
 43692.65567		 623.19538			43069.46029		133.18800		875.00000 
 43692.65567		 305.27265			43387.38302		66.69000		324.00000 
 43692.65567		 623.19538			43069.46029		133.18800		875.00000 
 43692.65567		 305.27265			43387.38302		66.69000		324.00000 
 43692.65567		 623.19538			43069.46029		133.18800		875.00000 
 43692.65567		 305.27265			43387.38302		66.69000		324.00000 
 43692.65567		 623.19538			43069.46029		133.18800		875.00000 
 43692.65567		 305.27265			43387.38302		66.69000		324.00000 
 43692.65567		 623.19538			43069.46029		133.18800		875.00000 
 43692.65567		 305.27265			43387.38302		66.69000		324.00000 
 43692.65567		 623.19538			43069.46029		133.18800		875.00000 
 43692.65567		 305.27265			43387.38302		66.69000		324.00000 
 43692.65567		 623.19538			43069.46029		179.85600		875.00000 
 43692.65567		 305.27265			43387.38302		66.69000		324.00000 
 43692.65567		 623.19538			43069.46029		179.85600		875.00000 
 43692.65567		 305.27265			43387.38302		66.69000		324.00000 
 43692.65567		 623.19538			43069.46029		179.85600		875.00000 
 43692.65567		 305.27265			43387.38302		66.69000		324.00000 
 43692.65567		 623.19538			43069.46029		179.85600		875.00000 
 43692.65567		 305.27265			43387.38302		66.69000		324.00000 
 43692.65567		 623.19538			43069.46029		179.85600		875.00000 
 43692.65567		 305.27265			43387.38302		66.69000		324.00000 
 43692.65567		 623.19538			43069.46029		179.85600		875.00000 
 43692.65567		 305.27265			43387.38302		66.69000		324.00000 
 43692.65567		 623.19538			43069.46029		179.85600		875.00000 
 43692.65567		 305.27265			43387.38302		66.69000		324.00000 
 43692.65567		 623.19538			43069.46029		179.85600		875.00000 
 43692.65567		 305.27265			43387.38302		66.69000		324.00000 
 43692.65567		 623.19538			43069.46029		179.85600		875.00000 
 43692.65567		 305.27265			43387.38302		66.69000		324.00000 
 43692.65567		 623.19538			43069.46029		179.85600		875.00000 
 43692.65567		 305.27265			43387.38302		66.69000		324.00000 
 43692.65567		 623.19538			43069.46029		179.85600		875.00000 
 43692.65567		 305.27265			43387.38302		66.69000		324.00000 
 43692.65567		 623.19538			43069.46029		179.85600		875.00000 
 43692.65567		 305.27265			43387.38302		66.69000		324.00000 
 43692.65567		 623.19538			43069.46029		179.85600		875.00000 
 43692.65567		 305.27265			43387.38302		66.69000		324.00000 
 43692.65567		 623.19538			43069.46029		179.85600		875.00000 
 43692.65567		 305.27265			43387.38302		66.69000		324.00000 
 43692.65567		 623.19538			43069.46029		179.85600		875.00000 
 43692.65567		 305.27265			43387.38302		66.69000		324.00000 
 43692.65567		 623.19538			43069.46029		179.85600		875.00000 
 43692.65567		 305.27265			43387.38302		66.69000		324.00000 
 43692.65567		 623.19538			43069.46029		179.85600		875.00000 
 43692.65567		 305.27265			43387.38302		66.69000		324.00000 
 43692.65567		 623.19538			43069.46029		179.85600		875.00000 
 43692.65567		 305.27265			43387.38302		66.69000		324.00000 
 43692.65567		 623.19538			43069.46029		179.85600		875.00000 
 43692.65567		 305.27265			43387.38302		66.69000		324.00000 
 43692.65567		 623.19538			43069.46029		179.85600		875.00000 
 43692.65567		 305.27265			43387.38302		66.69000		324.00000 
 43692.65567		 623.19538			43069.46029		179.85600		875.00000 
 43692.65567		 305.27265			43387.38302		66.69000		324.00000 
 43692.65567		 623.19538			43069.46029		179.85600		875.00000 
 43692.65567		 305.27265			43387.38302		66.69000		324.00000 
 43692.65567		 623.19538			43069.46029		179.85600		875.00000 
 43692.65567		 305.27265			43387.38302		66.69000		324.00000 
 43692.65567		 623.19538			43069.46029		179.85600		875.00000 
 43692.65567		 305.27265			43387.38302		66.69000		324.00000 
 43692.65567		 623.19538			43069.46029		179.85600		875.00000 
 43692.65567		 305.27265			43387.38302		66.69000		324.00000 
 43692.65567		 623.19538			43069.46029		179.85600		875.00000 
 43692.65567		 305.27265			43387.38302		66.69000		324.00000 
 43692.65567		 623.19538			43069.46029		179.85600		875.00000 
 43692.65567		 305.27265			43387.38302		66.69000		324.00000 
 43692.65567		 623.19538			43069.46029		179.85600		875.00000 
 43692.65567		 305.27265			43387.38302		66.69000		324.00000 
 43692.65567		 623.19538			43069.46029		179.85600		875.00000 
 43692.65567		 305.27265			43387.38302		66.69000		324.00000 
 43692.65567		 623.19538			43069.46029		179.85600		875.00000 
 43692.65567		 305.27265			43387.38302		66.69000		324.00000 
 43692.65567		 623.19538			43069.46029		179.85600		875.00000 
 43692.65567		 305.27265			43387.38302		66.69000		324.00000 
 43692.65567		 623.19538			43069.46029		179.85600		875.00000 
 43692.65567		 305.27265			43387.38302		66.69000		324.00000 
 43692.65567		 623.19538			43069.46029		179.85600		875.00000 
 43692.65567		 305.27265			43387.38302		66.69000		324.00000 
 43692.65567		 623.19538			43069.46029		179.85600		875.00000 
 43692.65567		 305.27265			43387.38302		66.69000		324.00000 
 43692.65567		 623.19538			43069.46029		179.85600		875.00000 
 43692.65567		 305.27265			43387.38302		66.69000		324.00000 
 43692.65567		 623.19538			43069.46029		179.85600		875.00000 
 43692.65567		 305.27265			43387.38302		66.69000		324.00000 
 43692.65567		 623.19538			43069.46029		179.85600		875.00000 
 43692.65567		 305.27265			43387.38302		66.69000		324.00000 
 43692.65567		 623.19538			43069.46029		179.85600		875.00000 
 43692.65567		 305.27265			43387.38302		66.69000		324.00000 
 43692.65567		 623.19538			43069.46029		179.85600		875.00000 
 43692.65567		 305.27265			43387.38302		66.69000		324.00000 
 43692.65567		 623.19538			43069.46029		179.85600		875.00000 
 43692.65567		 305.27265			43387.38302		66.69000		324.00000 
 43692.65567		 623.19538			43069.46029		179.85600		875.00000 
 43692.65567		 305.27265			43387.38302		66.69000		324.00000 
 43692.65567		 623.19538			43069.46029		179.85600		875.00000 
 43692.65567		 305.27265			43387.38302		66.69000		324.00000 
 43692.65567		 623.19538			43069.46029		179.85600		875.00000 
 43692.65567		 305.27265			43387.38302		66.69000		324.00000 
 43692.65567		 623.19538			43069.46029		179.85600		875.00000 
 43692.65567		 305.27265			43387.38302		66.69000		324.00000 
 43692.65567		 623.19538			43069.46029		179.85600		875.00000 
 43692.65567		 305.27265			43387.38302		66.69000		324.00000 
 43692.65567		 623.19538			43069.46029		179.85600		875.00000 
 43692.65567		 305.27265			43387.38302		66.69000		324.00000 
 43692.65567		 623.19538			43069.46029		179.85600		875.00000 
 43692.65567		 305.27265			43387.38302		66.69000		324.00000 
 43692.65567		 623.19538			43069.46029		179.85600		875.00000 
 43692.65567		 305.27265			43387.38302		66.69000		324.00000 
 43692.65567		 623.19538			43069.46029		179.85600		875.00000 
 43692.65567		 305.27265			43387.38302		66.69000		324.00000 
 43692.65567		 623.19538			43069.46029		179.85600		875.00000 
 43692.65567		 305.27265			43387.38302		66.69000		324.00000 
 43692.65567		 623.19538			43069.46029		179.85600		875.00000 
 43692.65567		 305.27265			43387.38302		66.69000		324.00000 
 43692.65567		 623.19538			43069.46029		179.85600		875.00000 
 43692.65567		 305.27265			43387.38302		66.69000		324.00000 
 43692.65567		 623.19538			43069.46029		179.85600		875.00000 
 43692.65567		 305.27265			43387.38302		66.69000		324.00000 
 43692.65567		 623.19538			43069.46029		179.85600		875.00000 
 43692.65567		 305.27265			43387.38302		66.69000		324.00000 
 43692.65567		 623.19538			43069.46029		179.85600		875.00000 
 43692.65567		 305.27265			43387.38302		66.69000		324.00000 
 43692.65567		 623.19538			43069.46029		179.85600		875.00000 
 43692.65567		 305.27265			43387.38302		66.69000		324.00000 
 43692.65567		 623.19538			43069.46029		179.85600		875.00000 
 43692.65567		 305.27265			43387.38302		66.69000		324.00000 
 43692.65567		 623.19538			43069.46029		179.85600		875.00000 
 43692.65567		 305.27265			43387.38302		66.69000		324.00000 
 43692.65567		 623.19538			43069.46029		179.85600		875.00000 
 43692.65567		 305.27265			43387.38302		66.69000		324.00000 
 43692.65567		 623.19538			43069.46029		179.85600		875.00000 
 43692.65567		 305.27265			43387.38302		66.69000		324.00000 
 43692.65567		 623.19538			43069.46029		179.85600		875.00000 
 43692.65567		 305.27265			43387.38302		66.69000		324.00000 
 43692.65567		 623.19538			43069.46029		179.85600		875.00000 
 43692.65567		 305.27265			43387.38302		66.69000		324.00000 
 43692.65567		 623.19538			43069.46029		179.85600		875.00000 
 43692.65567		 305.27265			43387.38302		66.69000		324.00000 
 43692.65567		 623.19538			43069.46029		179.85600		875.00000 
 43692.65567		 305.27265			43387.38302		66.69000		324.00000 
 43692.65567		 623.19538			43069.46029		205.00800		875.00000 
 43692.65567		 305.27265			43387.38302		66.69000		324.00000 
 43692.65567		 623.19538			43069.46029		205.00800		875.00000 
 43692.65567		 305.27265			43387.38302		66.69000		324.00000 
 43692.65567		 623.19538			43069.46029		205.00800		875.00000 
 43692.65567		 305.27265			43387.38302		66.69000		324.00000 
 43692.65567		 623.19538			43069.46029		205.00800		875.00000 
 43692.65567		 305.27265			43387.38302		66.69000		324.00000 
 43692.65567		 623.19538			43069.46029		205.00800		875.00000 
 43692.65567		 305.27265			43387.38302		66.69000		324.00000 
 43692.65567		 623.19538			43069.46029		205.00800		875.00000 
 43692.65567		 305.27265			43387.38302		66.69000		324.00000 
 43692.65567		 623.19538			43069.46029		205.00800		875.00000 
 43692.65567		 305.27265			43387.38302		66.69000		324.00000 
 43692.65567		 623.19538			43069.46029		205.00800		875.00000 
 43692.65567		 305.27265			43387.38302		66.69000		324.00000 
 43692.65567		 623.19538			43069.46029		205.00800		875.00000 
 43692.65567		 305.27265			43387.38302		66.69000		324.00000 
 43692.65567		 623.19538			43069.46029		205.00800		875.00000 
 43692.65567		 305.27265			43387.38302		66.69000		324.00000 
 43692.65567		 623.19538			43069.46029		205.00800		875.00000 
 43692.65567		 305.27265			43387.38302		66.69000		324.00000 
 43692.65567		 623.19538			43069.46029		205.00800		875.00000 
 43692.65567		 305.27265			43387.38302		66.69000		324.00000 
 43692.65567		 623.19538			43069.46029		205.00800		875.00000 
 43692.65567		 305.27265			43387.38302		66.69000		324.00000 
 43692.65567		 623.19538			43069.46029		205.00800		875.00000 
 43692.65567		 305.27265			43387.38302		66.69000		324.00000 
 43692.65567		 623.19538			43069.46029		205.00800		875.00000 
 43692.65567		 305.27265			43387.38302		66.69000		324.00000 
 43692.65567		 623.19538			43069.46029		205.00800		875.00000 
 43692.65567		 305.27265			43387.38302		66.69000		324.00000 
 43692.65567		 623.19538			43069.46029		205.00800		875.00000 
 43692.65567		 305.27265			43387.38302		66.69000		324.00000 
 43692.65567		 623.19538			43069.46029		205.00800		875.00000 
 43692.65567		 305.27265			43387.38302		66.69000		324.00000 
 43692.65567		 623.19538			43069.46029		205.00800		875.00000 
 43692.65567		 305.27265			43387.38302		66.69000		324.00000 
 43692.65567		 623.19538			43069.46029		205.00800		875.00000 
 43692.65567		 305.27265			43387.38302		66.69000		324.00000 
 43692.65567		 623.19538			43069.46029		205.00800		875.00000 
 43692.65567		 305.27265			43387.38302		66.69000		324.00000 
 43692.65567		 623.19538			43069.46029		205.00800		875.00000 
 43692.65567		 305.27265			43387.38302		66.69000		324.00000 
 43692.65567		 623.19538			43069.46029		205.00800		875.00000 
 43692.65567		 305.27265			43387.38302		66.69000		324.00000 
 43692.65567		 623.19538			43069.46029		205.00800		875.00000 
 43692.65567		 305.27265			43387.38302		66.69000		324.00000 
 43692.65567		 623.19538			43069.46029		205.00800		875.00000 
 43692.65567		 305.27265			43387.38302		66.69000		324.00000 
 43692.65567		 623.19538			43069.46029		205.00800		875.00000 
 43692.65567		 305.27265			43387.38302		66.69000		324.00000 
 43692.65567		 623.19538			43069.46029		205.00800		875.00000 
 43692.65567		 305.27265			43387.38302		66.69000		324.00000 
 43692.65567		 623.19538			43069.46029		205.00800		875.00000 
 43692.65567		 305.27265			43387.38302		66.69000		324.00000 
 43692.65567		 623.19538			43069.46029		205.00800		875.00000 
 43692.65567		 305.27265			43387.38302		66.69000		324.00000 
 43692.65567		 623.19538			43069.46029		205.00800		875.00000 
 43692.65567		 305.27265			43387.38302		66.69000		324.00000 
 43692.65567		 623.19538			43069.46029		205.00800		875.00000 
 43692.65567		 305.27265			43387.38302		66.69000		324.00000 
 43692.65567		 623.19538			43069.46029		205.00800		875.00000 
 43692.65567		 305.27265			43387.38302		66.69000		324.00000 
 43692.65567		 623.19538			43069.46029		205.00800		875.00000 
 43692.65567		 305.27265			43387.38302		66.69000		324.00000 
 43692.65567		 623.19538			43069.46029		205.00800		875.00000 
 43692.65567		 305.27265			43387.38302		66.69000		324.00000 
 43692.65567		 623.19538			43069.46029		205.00800		875.00000 
 43692.65567		 305.27265			43387.38302		66.69000		324.00000 
 43692.65567		 623.19538			43069.46029		205.00800		875.00000 
 43692.65567		 305.27265			43387.38302		66.69000		324.00000 
 43692.65567		 623.19538			43069.46029		205.00800		875.00000 
 43692.65567		 305.27265			43387.38302		66.69000		324.00000 
 43692.65567		 623.19538			43069.46029		205.00800		875.00000 
 43692.65567		 305.27265			43387.38302		66.69000		324.00000 
 43692.65567		 623.19538			43069.46029		205.00800		875.00000 
 43692.65567		 305.27265			43387.38302		66.69000		324.00000 
 43692.65567		 623.19538			43069.46029		205.00800		875.00000 
 43692.65567		 305.27265			43387.38302		66.69000		324.00000 
 43692.65567		 623.19538			43069.46029		205.00800		875.00000 
 43692.65567		 305.27265			43387.38302		66.69000		324.00000 
 43692.65567		 623.19538			43069.46029		205.00800		875.00000 
 43692.65567		 305.27265			43387.38302		66.69000		324.00000 
 43692.65567		 623.19538			43069.46029		205.00800		875.00000 
 43692.65567		 305.27265			43387.38302		66.69000		324.00000 
 43692.65567		 623.19538			43069.46029		205.00800		875.00000 
 43692.65567		 305.27265			43387.38302		66.69000		324.00000 
 43692.65567		 623.19538			43069.46029		205.00800		875.00000 
 43692.65567		 305.27265			43387.38302		66.69000		324.00000 
 43692.65567		 623.19538			43069.46029		205.00800		875.00000 
 43692.65567		 305.27265			43387.38302		66.69000		324.00000 
 43692.65567		 623.19538			43069.46029		205.00800		875.00000 
 43692.65567		 305.27265			43387.38302		66.69000		324.00000 
 43692.65567		 623.19538			43069.46029		205.00800		875.00000 
 43692.65567		 305.27265			43387.38302		66.69000		324.00000 
 43692.65567		 623.19538			43069.46029		205.00800		875.00000 
 43692.65567		 305.27265			43387.38302		66.69000		324.00000 
 43692.65567		 623.19538			43069.46029		205.00800		875.00000 
 43692.65567		 305.27265			43387.38302		66.69000		324.00000 
 43692.65567		 623.19538			43069.46029		205.00800		875.00000 
 43692.65567		 305.27265			43387.38302		66.69000		324.00000 
 43692.65567		 623.19538			43069.46029		205.00800		875.00000 
 43692.65567		 305.27265			43387.38302		66.69000		324.00000 
 43692.65567		 623.19538			43069.46029		205.00800		875.00000 
 43692.65567		 305.27265			43387.38302		66.69000		324.00000 
 43692.65567		 623.19538			43069.46029		205.00800		875.00000 
 43692.65567		 305.27265			43387.38302		66.69000		324.00000 
 43692.65567		 623.19538			43069.46029		205.00800		875.00000 
 43692.65567		 305.27265			43387.38302		66.69000		324.00000 
 43692.65567		 623.19538			43069.46029		205.00800		875.00000 
 43692.65567		 305.27265			43387.38302		66.69000		324.00000 
 43692.65567		 623.19538			43069.46029		205.00800		875.00000 
 43692.65567		 305.27265			43387.38302		66.69000		324.00000 
 43692.65567		 623.19538			43069.46029		205.00800		875.00000 
 43692.65567		 305.27265			43387.38302		66.69000		324.00000 
 43692.65567		 623.19538			43069.46029		205.00800		875.00000 
 43692.65567		 305.27265			43387.38302		66.69000		324.00000 
 43692.65567		 623.19538			43069.46029		205.00800		875.00000 
 43692.65567		 305.27265			43387.38302		66.69000		324.00000 
 43692.65567		 623.19538			43069.46029		205.00800		875.00000 
 43692.65567		 305.27265			43387.38302		66.69000		324.00000 
 43692.65567		 623.19538			43069.46029		205.00800		875.00000 
 43692.65567		 305.27265			43387.38302		66.69000		324.00000 
 43692.65567		 623.19538			43069.46029		205.00800		875.00000 
 43692.65567		 305.27265			43387.38302		66.69000		324.00000 
 43692.65567		 623.19538			43069.46029		205.00800		875.00000 
 43692.65567		 305.27265			43387.38302		66.69000		324.00000 
 43692.65567		 623.19538			43069.46029		205.00800		875.00000 
 43692.65567		 305.27265			43387.38302		66.69000		324.00000 
 43692.65567		 623.19538			43069.46029		213.89800		875.00000 
 43692.65567		 305.27265			43387.38302		66.69000		324.00000 
 43692.65567		 623.19538			43069.46029		213.89800		875.00000 
 43692.65567		 305.27265			43387.38302		66.69000		324.00000 
 43692.65567		 623.19538			43069.46029		213.89800		875.00000 
 43692.65567		 305.27265			43387.38302		66.69000		324.00000 
 43692.65567		 623.19538			43069.46029		213.89800		875.00000 
 43692.65567		 305.27265			43387.38302		66.69000		324.00000 
 43692.65567		 623.19538			43069.46029		213.89800		875.00000 
 43692.65567		 305.27265			43387.38302		66.69000		324.00000 
 43692.65567		 623.19538			43069.46029		213.89800		875.00000 
 43692.65567		 305.27265			43387.38302		66.69000		324.00000 
 43692.65567		 623.19538			43069.46029		213.89800		875.00000 
 43692.65567		 305.27265			43387.38302		66.69000		324.00000 
 43692.65567		 623.19538			43069.46029		213.89800		875.00000 
 43692.65567		 305.27265			43387.38302		66.69000		324.00000 
 43692.65567		 623.19538			43069.46029		213.89800		875.00000 
 43692.65567		 305.27265			43387.38302		66.69000		324.00000 
 43692.65567		 623.19538			43069.46029		213.89800		875.00000 
 43692.65567		 305.27265			43387.38302		66.69000		324.00000 
 43692.65567		 623.19538			43069.46029		213.89800		875.00000 
 43692.65567		 305.27265			43387.38302		66.69000		324.00000 
 43692.65567		 623.19538			43069.46029		213.89800		875.00000 
 43692.65567		 305.27265			43387.38302		66.69000		324.00000 
 43692.65567		 623.19538			43069.46029		213.89800		875.00000 
 43692.65567		 305.27265			43387.38302		66.69000		324.00000 
 43692.65567		 623.19538			43069.46029		213.89800		875.00000 
 43692.65567		 305.27265			43387.38302		66.69000		324.00000 
 43692.65567		 623.19538			43069.46029		213.89800		875.00000 
 43692.65567		 305.27265			43387.38302		66.69000		324.00000 
 43692.65567		 623.19538			43069.46029		213.89800		875.00000 
 43692.65567		 305.27265			43387.38302		66.69000		324.00000 
 43692.65567		 623.19538			43069.46029		213.89800		875.00000 
 43692.65567		 305.27265			43387.38302		66.69000		324.00000 
 43692.65567		 623.19538			43069.46029		213.89800		875.00000 
 43692.65567		 305.27265			43387.38302		66.69000		324.00000 
 43692.65567		 623.19538			43069.46029		213.89800		875.00000 
 43692.65567		 305.27265			43387.38302		66.69000		324.00000 
 43692.65567		 623.19538			43069.46029		213.89800		875.00000 
 43692.65567		 305.27265			43387.38302		66.69000		324.00000 
 43692.65567		 623.19538			43069.46029		213.89800		875.00000 
 43692.65567		 305.27265			43387.38302		66.69000		324.00000 
 43692.65567		 623.19538			43069.46029		213.89800		875.00000 
 43692.65567		 305.27265			43387.38302		66.69000		324.00000 
 43692.65567		 623.19538			43069.46029		213.89800		875.00000 
 43692.65567		 305.27265			43387.38302		66.69000		324.00000 
 43692.65567		 623.19538			43069.46029		213.89800		875.00000 
 43692.65567		 305.27265			43387.38302		66.69000		324.00000 
 43692.65567		 623.19538			43069.46029		213.89800		875.00000 
 43692.65567		 305.27265			43387.38302		66.69000		324.00000 
 43692.65567		 623.19538			43069.46029		213.89800		875.00000 
 43692.65567		 305.27265			43387.38302		66.69000		324.00000 
 43692.65567		 623.19538			43069.46029		213.89800		875.00000 
 43692.65567		 305.27265			43387.38302		66.69000		324.00000 
 43692.65567		 623.19538			43069.46029		213.89800		875.00000 
 43692.65567		 305.27265			43387.38302		66.69000		324.00000 
 43692.65567		 623.19538			43069.46029		213.89800		875.00000 
 43692.65567		 305.27265			43387.38302		66.69000		324.00000 
 43692.65567		 623.19538			43069.46029		213.89800		875.00000 
 43692.65567		 305.27265			43387.38302		66.69000		324.00000 
 43692.65567		 623.19538			43069.46029		213.89800		875.00000 
 43692.65567		 305.27265			43387.38302		66.69000		324.00000 
 43692.65567		 623.19538			43069.46029		213.89800		875.00000 
 43692.65567		 305.27265			43387.38302		66.69000		324.00000 
 43692.65567		 623.19538			43069.46029		213.89800		875.00000 
 43692.65567		 305.27265			43387.38302		66.69000		324.00000 
 43692.65567		 623.19538			43069.46029		213.89800		875.00000 
 43692.65567		 305.27265			43387.38302		66.69000		324.00000 
 43692.65567		 623.19538			43069.46029		213.89800		875.00000 
 43692.65567		 305.27265			43387.38302		66.69000		324.00000 
 43692.65567		 623.19538			43069.46029		213.89800		875.00000 
 43692.65567		 305.27265			43387.38302		66.69000		324.00000 
 43692.65567		 623.19538			43069.46029		213.89800		875.00000 
 43692.65567		 305.27265			43387.38302		66.69000		324.00000 
 43692.65567		 623.19538			43069.46029		213.89800		875.00000 
 43692.65567		 305.27265			43387.38302		66.69000		324.00000 
 43692.65567		 623.19538			43069.46029		213.89800		875.00000 
 43692.65567		 305.27265			43387.38302		66.69000		324.00000 
 43692.65567		 623.19538			43069.46029		213.89800		875.00000 
 43692.65567		 305.27265			43387.38302		66.69000		324.00000 
 43692.65567		 623.19538			43069.46029		213.89800		875.00000 
 43692.65567		 305.27265			43387.38302		66.69000		324.00000 
 43692.65567		 623.19538			43069.46029		213.89800		875.00000 
 43692.65567		 305.27265			43387.38302		66.69000		324.00000 
 43692.65567		 623.19538			43069.46029		213.89800		875.00000 
 43692.65567		 305.27265			43387.38302		66.69000		324.00000 
 43692.65567		 623.19538			43069.46029		213.89800		875.00000 
 43692.65567		 305.27265			43387.38302		66.69000		324.00000 
 43692.65567		 623.19538			43069.46029		213.89800		875.00000 
 43692.65567		 305.27265			43387.38302		66.69000		324.00000 
 43692.65567		 623.19538			43069.46029		213.89800		875.00000 
 43692.65567		 305.27265			43387.38302		66.69000		324.00000 
 43692.65567		 623.19538			43069.46029		213.89800		875.00000 
 43692.65567		 305.27265			43387.38302		66.69000		324.00000 
 43692.65567		 623.19538			43069.46029		213.89800		875.00000 
 43692.65567		 305.27265			43387.38302		66.69000		324.00000 
 43692.65567		 623.19538			43069.46029		213.89800		875.00000 
 43692.65567		 305.27265			43387.38302		66.69000		324.00000 
 43692.65567		 623.19538			43069.46029		213.89800		875.00000 
 43692.65567		 305.27265			43387.38302		66.69000		324.00000 
 43692.65567		 623.19538			43069.46029		213.89800		875.00000 
 43692.65567		 305.27265			43387.38302		66.69000		324.00000 
 43692.65567		 623.19538			43069.46029		213.89800		875.00000 
 43692.65567		 305.27265			43387.38302		66.69000		324.00000 
 43692.65567		 623.19538			43069.46029		213.89800		875.00000 
 43692.65567		 305.27265			43387.38302		66.69000		324.00000 
 43692.65567		 623.19538			43069.46029		213.89800		875.00000 
 43692.65567		 305.27265			43387.38302		66.69000		324.00000 
 43692.65567		 623.19538			43069.46029		213.89800		875.00000 
 43692.65567		 305.27265			43387.38302		66.69000		324.00000 
 43692.65567		 623.19538			43069.46029		213.89800		875.00000 
 43692.65567		 305.27265			43387.38302		66.69000		324.00000 
 43692.65567		 623.19538			43069.46029		213.89800		875.00000 
 43692.65567		 305.27265			43387.38302		66.69000		324.00000 
 43692.65567		 623.19538			43069.46029		213.89800		875.00000 
 43692.65567		 305.27265			43387.38302		66.69000		324.00000 
 43692.65567		 623.19538			43069.46029		213.89800		875.00000 
 43692.65567		 305.27265			43387.38302		66.69000		324.00000 
 43692.65567		 623.19538			43069.46029		213.89800		875.00000 
 43692.65567		 305.27265			43387.38302		66.69000		324.00000 
 43692.65567		 623.19538			43069.46029		213.89800		875.00000 
 43692.65567		 305.27265			43387.38302		66.69000		324.00000 
 43692.65567		 623.19538			43069.46029		213.89800		875.00000 
 43692.65567		 305.27265			43387.38302		66.69000		324.00000 
 43692.65567		 623.19538			43069.46029		213.89800		875.00000 
 43692.65567		 305.27265			43387.38302		66.69000		324.00000 
 43692.65567		 623.19538			43069.46029		213.89800		875.00000 
 43692.65567		 305.27265			43387.38302		66.69000		324.00000 
 43692.65567		 623.19538			43069.46029		217.97000		875.00000 
 43692.65567		 305.27265			43387.38302		66.69000		324.00000 
 43692.65567		 623.19538			43069.46029		217.97000		875.00000 
 43692.65567		 305.27265			43387.38302		66.69000		324.00000 
 43692.65567		 623.19538			43069.46029		217.97000		875.00000 
 43692.65567		 305.27265			43387.38302		66.69000		324.00000 
 43692.65567		 623.19538			43069.46029		217.97000		875.00000 
 43692.65567		 305.27265			43387.38302		66.69000		324.00000 
 43692.65567		 623.19538			43069.46029		217.97000		875.00000 
 43692.65567		 305.27265			43387.38302		66.69000		324.00000 
 43692.65567		 623.19538			43069.46029		217.97000		875.00000 
 43692.65567		 305.27265			43387.38302		66.69000		324.00000 
 43692.65567		 623.19538			43069.46029		217.97000		875.00000 
 43692.65567		 305.27265			43387.38302		66.69000		324.00000 
 43692.65567		 623.19538			43069.46029		217.97000		875.00000 
 43692.65567		 305.27265			43387.38302		66.69000		324.00000 
 43692.65567		 623.19538			43069.46029		217.97000		875.00000 
 43692.65567		 305.27265			43387.38302		66.69000		324.00000 
 43692.65567		 623.19538			43069.46029		217.97000		875.00000 
 43692.65567		 305.27265			43387.38302		66.69000		324.00000 
 43692.65567		 623.19538			43069.46029		217.97000		875.00000 
 43692.65567		 305.27265			43387.38302		66.69000		324.00000 
 43692.65567		 623.19538			43069.46029		217.97000		875.00000 
 43692.65567		 305.27265			43387.38302		66.69000		324.00000 
 43692.65567		 623.19538			43069.46029		217.97000		875.00000 
 43692.65567		 305.27265			43387.38302		66.69000		324.00000 
 43692.65567		 623.19538			43069.46029		217.97000		875.00000 
 43692.65567		 305.27265			43387.38302		66.69000		324.00000 
 43692.65567		 623.19538			43069.46029		217.97000		875.00000 
 43692.65567		 305.27265			43387.38302		66.69000		324.00000 
 43692.65567		 623.19538			43069.46029		217.97000		875.00000 
 43692.65567		 305.27265			43387.38302		66.69000		324.00000 
 43692.65567		 623.19538			43069.46029		217.97000		875.00000 
 43692.65567		 305.27265			43387.38302		66.69000		324.00000 
 43692.65567		 623.19538			43069.46029		217.97000		875.00000 
 43692.65567		 305.27265			43387.38302		66.69000		324.00000 
 43692.65567		 623.19538			43069.46029		217.97000		875.00000 
 43692.65567		 305.27265			43387.38302		66.69000		324.00000 
 43692.65567		 623.19538			43069.46029		217.97000		875.00000 
 43692.65567		 305.27265			43387.38302		66.69000		324.00000 
 43692.65567		 623.19538			43069.46029		217.97000		875.00000 
 43692.65567		 305.27265			43387.38302		66.69000		324.00000 
 43692.65567		 623.19538			43069.46029		217.97000		875.00000 
 43692.65567		 305.27265			43387.38302		66.69000		324.00000 
 43692.65567		 623.19538			43069.46029		217.97000		875.00000 
 43692.65567		 305.27265			43387.38302		66.69000		324.00000 
 43692.65567		 623.19538			43069.46029		217.97000		875.00000 
 43692.65567		 305.27265			43387.38302		66.69000		324.00000 
 43692.65567		 623.19538			43069.46029		217.97000		875.00000 
 43692.65567		 305.27265			43387.38302		66.69000		324.00000 
 43692.65567		 623.19538			43069.46029		217.97000		875.00000 
 43692.65567		 305.27265			43387.38302		66.69000		324.00000 
 43692.65567		 623.19538			43069.46029		217.97000		875.00000 
 43692.65567		 305.27265			43387.38302		66.69000		324.00000 
 43692.65567		 623.19538			43069.46029		217.97000		875.00000 
 43692.65567		 305.27265			43387.38302		66.69000		324.00000 
 43692.65567		 623.19538			43069.46029		217.97000		875.00000 
 43692.65567		 305.27265			43387.38302		66.69000		324.00000 
 43692.65567		 623.19538			43069.46029		217.97000		875.00000 
 43692.65567		 305.27265			43387.38302		66.69000		324.00000 
 43692.65567		 623.19538			43069.46029		217.97000		875.00000 
 43692.65567		 305.27265			43387.38302		66.69000		324.00000 
 43692.65567		 623.19538			43069.46029		217.97000		875.00000 
 43692.65567		 305.27265			43387.38302		66.69000		324.00000 
 43692.65567		 623.19538			43069.46029		217.97000		875.00000 
 43692.65567		 305.27265			43387.38302		66.69000		324.00000 
 43692.65567		 623.19538			43069.46029		217.97000		875.00000 
 43692.65567		 305.27265			43387.38302		66.69000		324.00000 
 43692.65567		 623.19538			43069.46029		217.97000		875.00000 
 43692.65567		 305.27265			43387.38302		66.69000		324.00000 
 43692.65567		 623.19538			43069.46029		217.97000		875.00000 
 43692.65567		 305.27265			43387.38302		66.69000		324.00000 
 43692.65567		 623.19538			43069.46029		217.97000		875.00000 
 43692.65567		 305.27265			43387.38302		66.69000		324.00000 
 43692.65567		 623.19538			43069.46029		217.97000		875.00000 
 43692.65567		 305.27265			43387.38302		66.69000		324.00000 
 43692.65567		 623.19538			43069.46029		217.97000		875.00000 
 43692.65567		 305.27265			43387.38302		66.69000		324.00000 
 43692.65567		 623.19538			43069.46029		217.97000		875.00000 
 43692.65567		 305.27265			43387.38302		66.69000		324.00000 
 43692.65567		 623.19538			43069.46029		217.97000		875.00000 
 43692.65567		 305.27265			43387.38302		66.69000		324.00000 
 43692.65567		 623.19538			43069.46029		217.97000		875.00000 
 43692.65567		 305.27265			43387.38302		66.69000		324.00000 
 43692.65567		 623.19538			43069.46029		217.97000		875.00000 
 43692.65567		 305.27265			43387.38302		66.69000		324.00000 
 43692.65567		 623.19538			43069.46029		217.97000		875.00000 
 43692.65567		 305.27265			43387.38302		66.69000		324.00000 
 43692.65567		 623.19538			43069.46029		217.97000		875.00000 
 43692.65567		 305.27265			43387.38302		66.69000		324.00000 
 43692.65567		 623.19538			43069.46029		217.97000		875.00000 
 43692.65567		 305.27265			43387.38302		66.69000		324.00000 
 43692.65567		 623.19538			43069.46029		217.97000		875.00000 
 43692.65567		 305.27265			43387.38302		66.69000		324.00000 
 43692.65567		 623.19538			43069.46029		217.97000		875.00000 
 43692.65567		 305.27265			43387.38302		66.69000		324.00000 
 43692.65567		 623.19538			43069.46029		217.97000		875.00000 
 43692.65567		 305.27265			43387.38302		66.69000		324.00000 
 43692.65567		 623.19538			43069.46029		217.97000		875.00000 
 43692.65567		 305.27265			43387.38302		66.69000		324.00000 
 43692.65567		 623.19538			43069.46029		217.97000		875.00000 
 43692.65567		 305.27265			43387.38302		66.69000		324.00000 
 43692.65567		 623.19538			43069.46029		217.97000		875.00000 
 43692.65567		 305.27265			43387.38302		66.69000		324.00000 
 43692.65567		 623.19538			43069.46029		217.97000		875.00000 
 43692.65567		 305.27265			43387.38302		66.69000		324.00000 
 43692.65567		 623.19538			43069.46029		217.97000		875.00000 
 43692.65567		 305.27265			43387.38302		66.69000		324.00000 
 43692.65567		 623.19538			43069.46029		217.97000		875.00000 
 43692.65567		 305.27265			43387.38302		66.69000		324.00000 
 43692.65567		 623.19538			43069.46029		217.97000		875.00000 
 43692.65567		 305.27265			43387.38302		66.69000		324.00000 
 43692.65567		 623.19538			43069.46029		217.97000		875.00000 
 43692.65567		 305.27265			43387.38302		66.69000		324.00000 
 43692.65567		 623.19538			43069.46029		217.97000		875.00000 
 43692.65567		 305.27265			43387.38302		66.69000		324.00000 
 43692.65567		 623.19538			43069.46029		217.97000		875.00000 
 43692.65567		 305.27265			43387.38302		66.69000		324.00000 
 43692.65567		 623.19538			43069.46029		217.97000		875.00000 
 43692.65567		 305.27265			43387.38302		66.69000		324.00000 
 43692.65567		 623.19538			43069.46029		217.97000		875.00000 
 43692.65567		 305.27265			43387.38302		66.69000		324.00000 
 43692.65567		 623.19538			43069.46029		217.97000		875.00000 
 43692.65567		 305.27265			43387.38302		66.69000		324.00000 
 43692.65567		 623.19538			43069.46029		217.97000		875.00000 
 43692.65567		 305.27265			43387.38302		66.69000		324.00000 
 43692.65567		 623.19538			43069.46029		217.97000		875.00000 
 43692.65567		 305.27265			43387.38302		66.69000		324.00000 
 43692.65567		 623.19538			43069.46029		219.71600		875.00000 
 43692.65567		 305.27265			43387.38302		66.69000		324.00000 
 43692.65567		 623.19538			43069.46029		219.71600		875.00000 
 43692.65567		 305.27265			43387.38302		66.69000		324.00000 
 43692.65567		 623.19538			43069.46029		219.71600		875.00000 
 43692.65567		 305.27265			43387.38302		66.69000		324.00000 
 43692.65567		 623.19538			43069.46029		219.71600		875.00000 
 43692.65567		 305.27265			43387.38302		66.69000		324.00000 
 43692.65567		 623.19538			43069.46029		219.71600		875.00000 
 43692.65567		 305.27265			43387.38302		66.69000		324.00000 
 43692.65567		 623.19538			43069.46029		219.71600		875.00000 
 43692.65567		 305.27265			43387.38302		66.69000		324.00000 
 43692.65567		 623.19538			43069.46029		219.71600		875.00000 
 43692.65567		 305.27265			43387.38302		66.69000		324.00000 
 43692.65567		 623.19538			43069.46029		219.71600		875.00000 
 43692.65567		 305.27265			43387.38302		66.69000		324.00000 
 43692.65567		 623.19538			43069.46029		219.71600		875.00000 
 43692.65567		 305.27265			43387.38302		66.69000		324.00000 
 43692.65567		 623.19538			43069.46029		219.71600		875.00000 
 43692.65567		 305.27265			43387.38302		66.69000		324.00000 
 43692.65567		 623.19538			43069.46029		219.71600		875.00000 
 43692.65567		 305.27265			43387.38302		66.69000		324.00000 
 43692.65567		 623.19538			43069.46029		219.71600		875.00000 
 43692.65567		 305.27265			43387.38302		66.69000		324.00000 
 43692.65567		 623.19538			43069.46029		219.71600		875.00000 
 43692.65567		 305.27265			43387.38302		66.69000		324.00000 
 43692.65567		 623.19538			43069.46029		219.71600		875.00000 
 43692.65567		 305.27265			43387.38302		66.69000		324.00000 
 43692.65567		 623.19538			43069.46029		219.71600		875.00000 
 43692.65567		 305.27265			43387.38302		66.69000		324.00000 
 43692.65567		 565.91201			43126.74366		219.71600		875.00000 
 43692.65567		 305.27265			43387.38302		66.69000		324.00000 
 43692.65567		 537.27032			43155.38535		219.71600		875.00000 
 43692.65567		 305.27265			43387.38302		66.69000		324.00000 
 43692.65567		 537.27032			43155.38535		219.71600		875.00000 
 43692.65567		 305.27265			43387.38302		66.69000		324.00000 
 43692.65567		 537.27032			43155.38535		219.71600		875.00000 
 43692.65567		 305.27265			43387.38302		66.69000		324.00000 
 43692.65567		 537.27032			43155.38535		219.71600		875.00000 
 43692.65567		 305.27265			43387.38302		66.69000		324.00000 
 43692.65567		 537.27032			43155.38535		219.71600		875.00000 
 43692.65567		 305.27265			43387.38302		66.69000		324.00000 
 43692.65567		 537.27032			43155.38535		219.71600		875.00000 
 43692.65567		 305.27265			43387.38302		66.69000		324.00000 
 43692.65567		 537.27032			43155.38535		219.71600		875.00000 
 43692.65567		 305.27265			43387.38302		66.69000		324.00000 
 43692.65567		 537.27032			43155.38535		219.71600		875.00000 
 43692.65567		 305.27265			43387.38302		66.69000		324.00000 
 43692.65567		 537.27032			43155.38535		219.71600		875.00000 
 43692.65567		 305.27265			43387.38302		66.69000		324.00000 
 43692.65567		 537.27032			43155.38535		219.71600		875.00000 
 43692.65567		 305.27265			43387.38302		66.69000		324.00000 
 43692.65567		 537.27032			43155.38535		219.71600		875.00000 
 43692.65567		 305.27265			43387.38302		66.69000		324.00000 
 43692.65567		 537.27032			43155.38535		219.71600		875.00000 
 43692.65567		 305.27265			43387.38302		66.69000		324.00000 
 43692.65567		 537.27032			43155.38535		219.71600		875.00000 
 43692.65567		 305.27265			43387.38302		66.69000		324.00000 
 43692.65567		 537.27032			43155.38535		219.71600		875.00000 
 43692.65567		 305.27265			43387.38302		66.69000		324.00000 
 43692.65567		 537.27032			43155.38535		219.71600		875.00000 
 43692.65567		 305.27265			43387.38302		66.69000		324.00000 
 43692.65567		 537.27032			43155.38535		219.71600		875.00000 
 43692.65567		 305.27265			43387.38302		66.69000		324.00000 
 43692.65567		 537.27032			43155.38535		219.71600		875.00000 
 43692.65567		 305.27265			43387.38302		66.69000		324.00000 
 43692.65567		 537.27032			43155.38535		219.71600		875.00000 
 43692.65567		 305.27265			43387.38302		66.69000		324.00000 
 43692.65567		 529.63254			43163.02313		219.71600		875.00000 
 43692.65567		 305.27265			43387.38302		66.69000		324.00000 
 43692.65567		 525.81365			43166.84203		219.71600		875.00000 
 43692.65567		 305.27265			43387.38302		66.69000		324.00000 
 43692.65567		 525.81365			43166.84203		219.71600		875.00000 
 43692.65567		 261.35540			43431.30027		66.69000		324.00000 
