Memory Total (MiB) 	 Memory Used (MiB) 	    Memory Free (MiB) 	 Power Drawed (W) 	 Clocks (Mhz) 	 
 43692.65567		 261.35540			43431.30027		167.95200		875.00000 
 43692.65567		 261.35540			43431.30027		70.25800		324.00000 
 43692.65567		 261.35540			43431.30027		167.95200		875.00000 
 43692.65567		 261.35540			43431.30027		70.25800		324.00000 
 43692.65567		 261.35540			43431.30027		167.95200		875.00000 
 43692.65567		 261.35540			43431.30027		70.25800		324.00000 
 43692.65567		 261.35540			43431.30027		167.95200		875.00000 
 43692.65567		 261.35540			43431.30027		70.25800		324.00000 
 43692.65567		 261.35540			43431.30027		167.95200		875.00000 
 43692.65567		 261.35540			43431.30027		70.25800		324.00000 
 43692.65567		 261.35540			43431.30027		167.95200		875.00000 
 43692.65567		 261.35540			43431.30027		70.25800		324.00000 
 43692.65567		 261.35540			43431.30027		167.95200		875.00000 
 43692.65567		 261.35540			43431.30027		70.25800		324.00000 
 43692.65567		 261.35540			43431.30027		167.95200		875.00000 
 43692.65567		 261.35540			43431.30027		70.25800		324.00000 
 43692.65567		 261.35540			43431.30027		167.95200		875.00000 
 43692.65567		 261.35540			43431.30027		70.25800		324.00000 
 43692.65567		 261.35540			43431.30027		167.95200		875.00000 
 43692.65567		 261.35540			43431.30027		70.25800		324.00000 
 43692.65567		 261.35540			43431.30027		167.95200		875.00000 
 43692.65567		 261.35540			43431.30027		70.25800		324.00000 
 43692.65567		 261.35540			43431.30027		167.95200		875.00000 
 43692.65567		 261.35540			43431.30027		70.25800		324.00000 
 43692.65567		 261.35540			43431.30027		167.95200		875.00000 
 43692.65567		 261.35540			43431.30027		70.25800		324.00000 
 43692.65567		 261.35540			43431.30027		167.95200		875.00000 
 43692.65567		 261.35540			43431.30027		70.25800		324.00000 
 43692.65567		 261.35540			43431.30027		167.95200		875.00000 
 43692.65567		 261.35540			43431.30027		70.25800		324.00000 
 43692.65567		 261.35540			43431.30027		167.95200		875.00000 
 43692.65567		 261.35540			43431.30027		70.25800		324.00000 
 43692.65567		 261.35540			43431.30027		167.95200		875.00000 
 43692.65567		 261.35540			43431.30027		70.25800		324.00000 
 43692.65567		 261.35540			43431.30027		167.95200		875.00000 
 43692.65567		 261.35540			43431.30027		70.25800		324.00000 
 43692.65567		 261.35540			43431.30027		167.95200		875.00000 
 43692.65567		 261.35540			43431.30027		70.25800		324.00000 
 43692.65567		 265.17429			43427.48138		167.95200		875.00000 
 43692.65567		 261.35540			43431.30027		70.25800		324.00000 
 43692.65567		 272.81207			43419.84360		167.95200		875.00000 
 43692.65567		 261.35540			43431.30027		70.25800		324.00000 
 43692.65567		 272.81207			43419.84360		167.95200		875.00000 
 43692.65567		 261.35540			43431.30027		70.25800		324.00000 
 43692.65567		 272.81207			43419.84360		167.95200		875.00000 
 43692.65567		 265.17429			43427.48138		70.25800		324.00000 
 43692.65567		 272.81207			43419.84360		145.70600		875.00000 
 43692.65567		 265.17429			43427.48138		70.25800		324.00000 
 43692.65567		 272.81207			43419.84360		145.70600		875.00000 
 43692.65567		 272.81207			43419.84360		70.25800		324.00000 
 43692.65567		 272.81207			43419.84360		145.70600		875.00000 
 43692.65567		 272.81207			43419.84360		70.25800		324.00000 
 43692.65567		 272.81207			43419.84360		145.70600		875.00000 
 43692.65567		 272.81207			43419.84360		70.25800		324.00000 
 43692.65567		 272.81207			43419.84360		145.70600		875.00000 
 43692.65567		 305.27265			43387.38302		70.25800		324.00000 
 43692.65567		 305.27265			43387.38302		145.70600		875.00000 
 43692.65567		 305.27265			43387.38302		70.25800		324.00000 
 43692.65567		 305.27265			43387.38302		145.70600		875.00000 
 43692.65567		 305.27265			43387.38302		70.25800		324.00000 
 43692.65567		 305.27265			43387.38302		145.70600		875.00000 
 43692.65567		 305.27265			43387.38302		70.25800		324.00000 
 43692.65567		 305.27265			43387.38302		145.70600		875.00000 
 43692.65567		 305.27265			43387.38302		70.25800		324.00000 
 43692.65567		 309.09154			43383.56413		145.70600		875.00000 
 43692.65567		 305.27265			43387.38302		70.25800		324.00000 
 43692.65567		 310.52363			43382.13204		145.70600		875.00000 
 43692.65567		 305.27265			43387.38302		70.25800		324.00000 
 43692.65567		 311.00099			43381.65468		145.70600		875.00000 
 43692.65567		 305.27265			43387.38302		70.25800		324.00000 
 43692.65567		 311.00099			43381.65468		145.70600		875.00000 
 43692.65567		 305.27265			43387.38302		70.25800		324.00000 
 43692.65567		 311.00099			43381.65468		145.70600		875.00000 
 43692.65567		 305.27265			43387.38302		70.25800		324.00000 
 43692.65567		 311.00099			43381.65468		145.70600		875.00000 
 43692.65567		 305.27265			43387.38302		70.25800		324.00000 
 43692.65567		 311.00099			43381.65468		145.70600		875.00000 
 43692.65567		 305.27265			43387.38302		70.25800		324.00000 
 43692.65567		 311.00099			43381.65468		145.70600		875.00000 
 43692.65567		 305.27265			43387.38302		70.25800		324.00000 
 43692.65567		 311.00099			43381.65468		145.70600		875.00000 
 43692.65567		 305.27265			43387.38302		70.25800		324.00000 
 43692.65567		 311.00099			43381.65468		145.70600		875.00000 
 43692.65567		 305.27265			43387.38302		70.25800		324.00000 
 43692.65567		 311.00099			43381.65468		145.70600		875.00000 
 43692.65567		 305.27265			43387.38302		70.25800		324.00000 
 43692.65567		 311.00099			43381.65468		145.70600		875.00000 
 43692.65567		 305.27265			43387.38302		70.25800		324.00000 
 43692.65567		 311.00099			43381.65468		145.70600		875.00000 
 43692.65567		 305.27265			43387.38302		70.25800		324.00000 
 43692.65567		 311.00099			43381.65468		145.70600		875.00000 
 43692.65567		 305.27265			43387.38302		70.25800		324.00000 
 43692.65567		 311.00099			43381.65468		145.70600		875.00000 
 43692.65567		 305.27265			43387.38302		70.25800		324.00000 
 43692.65567		 311.00099			43381.65468		145.70600		875.00000 
 43692.65567		 305.27265			43387.38302		70.25800		324.00000 
 43692.65567		 311.00099			43381.65468		145.70600		875.00000 
 43692.65567		 305.27265			43387.38302		70.25800		324.00000 
 43692.65567		 311.00099			43381.65468		145.70600		875.00000 
 43692.65567		 305.27265			43387.38302		70.25800		324.00000 
 43692.65567		 311.00099			43381.65468		145.70600		875.00000 
 43692.65567		 305.27265			43387.38302		70.25800		324.00000 
 43692.65567		 311.00099			43381.65468		145.70600		875.00000 
 43692.65567		 305.27265			43387.38302		70.25800		324.00000 
 43692.65567		 311.00099			43381.65468		145.70600		875.00000 
 43692.65567		 305.27265			43387.38302		70.25800		324.00000 
 43692.65567		 311.00099			43381.65468		145.70600		875.00000 
 43692.65567		 305.27265			43387.38302		70.25800		324.00000 
 43692.65567		 311.00099			43381.65468		145.70600		875.00000 
 43692.65567		 305.27265			43387.38302		70.25800		324.00000 
 43692.65567		 311.00099			43381.65468		145.70600		875.00000 
 43692.65567		 305.27265			43387.38302		70.25800		324.00000 
 43692.65567		 311.00099			43381.65468		136.53400		875.00000 
 43692.65567		 305.27265			43387.38302		70.25800		324.00000 
 43692.65567		 311.00099			43381.65468		136.53400		875.00000 
 43692.65567		 305.27265			43387.38302		70.25800		324.00000 
 43692.65567		 311.00099			43381.65468		136.53400		875.00000 
 43692.65567		 305.27265			43387.38302		70.25800		324.00000 
 43692.65567		 311.00099			43381.65468		136.53400		875.00000 
 43692.65567		 305.27265			43387.38302		70.25800		324.00000 
 43692.65567		 311.00099			43381.65468		136.53400		875.00000 
 43692.65567		 305.27265			43387.38302		70.25800		324.00000 
 43692.65567		 311.00099			43381.65468		136.53400		875.00000 
 43692.65567		 305.27265			43387.38302		70.25800		324.00000 
 43692.65567		 311.00099			43381.65468		136.53400		875.00000 
 43692.65567		 305.27265			43387.38302		70.25800		324.00000 
 43692.65567		 311.00099			43381.65468		136.53400		875.00000 
 43692.65567		 305.27265			43387.38302		70.25800		324.00000 
 43692.65567		 311.00099			43381.65468		136.53400		875.00000 
 43692.65567		 305.27265			43387.38302		70.25800		324.00000 
 43692.65567		 311.00099			43381.65468		136.53400		875.00000 
 43692.65567		 305.27265			43387.38302		70.25800		324.00000 
 43692.65567		 311.00099			43381.65468		136.53400		875.00000 
 43692.65567		 305.27265			43387.38302		70.25800		324.00000 
 43692.65567		 311.00099			43381.65468		136.53400		875.00000 
 43692.65567		 305.27265			43387.38302		70.25800		324.00000 
 43692.65567		 311.00099			43381.65468		136.53400		875.00000 
 43692.65567		 305.27265			43387.38302		70.25800		324.00000 
 43692.65567		 311.00099			43381.65468		136.53400		875.00000 
 43692.65567		 305.27265			43387.38302		70.25800		324.00000 
 43692.65567		 311.00099			43381.65468		136.53400		875.00000 
 43692.65567		 305.27265			43387.38302		70.25800		324.00000 
 43692.65567		 311.00099			43381.65468		136.53400		875.00000 
 43692.65567		 305.27265			43387.38302		70.25800		324.00000 
 43692.65567		 311.00099			43381.65468		136.53400		875.00000 
 43692.65567		 305.27265			43387.38302		70.25800		324.00000 
 43692.65567		 311.00099			43381.65468		136.53400		875.00000 
 43692.65567		 305.27265			43387.38302		70.25800		324.00000 
 43692.65567		 311.00099			43381.65468		136.53400		875.00000 
 43692.65567		 305.27265			43387.38302		70.25800		324.00000 
 43692.65567		 311.00099			43381.65468		136.53400		875.00000 
 43692.65567		 305.27265			43387.38302		70.25800		324.00000 
 43692.65567		 311.00099			43381.65468		136.53400		875.00000 
 43692.65567		 305.27265			43387.38302		70.25800		324.00000 
 43692.65567		 311.00099			43381.65468		136.53400		875.00000 
 43692.65567		 305.27265			43387.38302		70.25800		324.00000 
 43692.65567		 311.00099			43381.65468		136.53400		875.00000 
 43692.65567		 305.27265			43387.38302		70.25800		324.00000 
 43692.65567		 311.00099			43381.65468		136.53400		875.00000 
 43692.65567		 305.27265			43387.38302		70.25800		324.00000 
 43692.65567		 311.00099			43381.65468		136.53400		875.00000 
 43692.65567		 305.27265			43387.38302		70.25800		324.00000 
 43692.65567		 311.00099			43381.65468		136.53400		875.00000 
 43692.65567		 305.27265			43387.38302		70.25800		324.00000 
 43692.65567		 311.00099			43381.65468		136.53400		875.00000 
 43692.65567		 305.27265			43387.38302		70.25800		324.00000 
 43692.65567		 311.00099			43381.65468		136.53400		875.00000 
 43692.65567		 305.27265			43387.38302		70.25800		324.00000 
 43692.65567		 314.81988			43377.83579		136.53400		875.00000 
 43692.65567		 305.27265			43387.38302		70.25800		324.00000 
 43692.65567		 314.81988			43377.83579		136.53400		875.00000 
 43692.65567		 305.27265			43387.38302		70.25800		324.00000 
 43692.65567		 314.81988			43377.83579		136.53400		875.00000 
 43692.65567		 305.27265			43387.38302		70.25800		324.00000 
 43692.65567		 318.63877			43374.01690		133.57200		875.00000 
 43692.65567		 305.27265			43387.38302		64.65000		324.00000 
 43692.65567		 322.45767			43370.19801		133.57200		875.00000 
 43692.65567		 305.27265			43387.38302		64.65000		324.00000 
 43692.65567		 326.27656			43366.37912		133.57200		875.00000 
 43692.65567		 305.27265			43387.38302		64.65000		324.00000 
 43692.65567		 326.27656			43366.37912		133.57200		875.00000 
 43692.65567		 305.27265			43387.38302		64.65000		324.00000 
 43692.65567		 326.27656			43366.37912		133.57200		875.00000 
 43692.65567		 305.27265			43387.38302		64.65000		324.00000 
 43692.65567		 537.27032			43155.38535		133.57200		875.00000 
 43692.65567		 305.27265			43387.38302		64.65000		324.00000 
 43692.65567		 772.13216			42920.52351		133.57200		875.00000 
 43692.65567		 305.27265			43387.38302		64.65000		324.00000 
 43692.65567		 889.56308			42803.09259		133.57200		875.00000 
 43692.65567		 305.27265			43387.38302		64.65000		324.00000 
 43692.65567		 889.56308			42803.09259		133.57200		875.00000 
 43692.65567		 305.27265			43387.38302		64.65000		324.00000 
 43692.65567		 889.56308			42803.09259		133.57200		875.00000 
 43692.65567		 305.27265			43387.38302		64.65000		324.00000 
 43692.65567		 889.56308			42803.09259		133.57200		875.00000 
 43692.65567		 305.27265			43387.38302		64.65000		324.00000 
 43692.65567		 889.56308			42803.09259		133.57200		875.00000 
 43692.65567		 305.27265			43387.38302		64.65000		324.00000 
 43692.65567		 889.56308			42803.09259		133.57200		875.00000 
 43692.65567		 305.27265			43387.38302		64.65000		324.00000 
 43692.65567		 889.56308			42803.09259		133.57200		875.00000 
 43692.65567		 305.27265			43387.38302		64.65000		324.00000 
 43692.65567		 889.56308			42803.09259		133.57200		875.00000 
 43692.65567		 305.27265			43387.38302		64.65000		324.00000 
 43692.65567		 889.56308			42803.09259		133.57200		875.00000 
 43692.65567		 305.27265			43387.38302		64.65000		324.00000 
 43692.65567		 889.56308			42803.09259		133.57200		875.00000 
 43692.65567		 305.27265			43387.38302		64.65000		324.00000 
 43692.65567		 889.56308			42803.09259		133.57200		875.00000 
 43692.65567		 305.27265			43387.38302		64.65000		324.00000 
 43692.65567		 889.56308			42803.09259		133.57200		875.00000 
 43692.65567		 305.27265			43387.38302		64.65000		324.00000 
 43692.65567		 889.56308			42803.09259		133.57200		875.00000 
 43692.65567		 305.27265			43387.38302		64.65000		324.00000 
 43692.65567		 889.56308			42803.09259		133.57200		875.00000 
 43692.65567		 305.27265			43387.38302		64.65000		324.00000 
 43692.65567		 889.56308			42803.09259		133.57200		875.00000 
 43692.65567		 305.27265			43387.38302		64.65000		324.00000 
 43692.65567		 889.56308			42803.09259		133.57200		875.00000 
 43692.65567		 305.27265			43387.38302		64.65000		324.00000 
 43692.65567		 889.56308			42803.09259		133.57200		875.00000 
 43692.65567		 305.27265			43387.38302		64.65000		324.00000 
 43692.65567		 889.56308			42803.09259		133.57200		875.00000 
 43692.65567		 305.27265			43387.38302		64.65000		324.00000 
 43692.65567		 889.56308			42803.09259		133.57200		875.00000 
 43692.65567		 305.27265			43387.38302		64.65000		324.00000 
 43692.65567		 889.56308			42803.09259		133.57200		875.00000 
 43692.65567		 305.27265			43387.38302		64.65000		324.00000 
 43692.65567		 889.56308			42803.09259		133.57200		875.00000 
 43692.65567		 305.27265			43387.38302		64.65000		324.00000 
 43692.65567		 889.56308			42803.09259		133.57200		875.00000 
 43692.65567		 305.27265			43387.38302		64.65000		324.00000 
 43692.65567		 889.56308			42803.09259		133.57200		875.00000 
 43692.65567		 305.27265			43387.38302		64.65000		324.00000 
 43692.65567		 889.56308			42803.09259		133.57200		875.00000 
 43692.65567		 305.27265			43387.38302		64.65000		324.00000 
 43692.65567		 889.56308			42803.09259		133.57200		875.00000 
 43692.65567		 305.27265			43387.38302		64.65000		324.00000 
 43692.65567		 889.56308			42803.09259		133.57200		875.00000 
 43692.65567		 305.27265			43387.38302		64.65000		324.00000 
 43692.65567		 889.56308			42803.09259		133.57200		875.00000 
 43692.65567		 305.27265			43387.38302		64.65000		324.00000 
 43692.65567		 889.56308			42803.09259		133.57200		875.00000 
 43692.65567		 305.27265			43387.38302		64.65000		324.00000 
 43692.65567		 889.56308			42803.09259		133.57200		875.00000 
 43692.65567		 305.27265			43387.38302		64.65000		324.00000 
 43692.65567		 889.56308			42803.09259		133.57200		875.00000 
 43692.65567		 305.27265			43387.38302		64.65000		324.00000 
 43692.65567		 889.56308			42803.09259		133.57200		875.00000 
 43692.65567		 305.27265			43387.38302		64.65000		324.00000 
 43692.65567		 889.56308			42803.09259		133.57200		875.00000 
 43692.65567		 305.27265			43387.38302		64.65000		324.00000 
 43692.65567		 889.56308			42803.09259		133.57200		875.00000 
 43692.65567		 305.27265			43387.38302		64.65000		324.00000 
 43692.65567		 889.56308			42803.09259		133.57200		875.00000 
 43692.65567		 305.27265			43387.38302		64.65000		324.00000 
 43692.65567		 889.56308			42803.09259		133.57200		875.00000 
 43692.65567		 305.27265			43387.38302		64.65000		324.00000 
 43692.65567		 889.56308			42803.09259		133.57200		875.00000 
 43692.65567		 305.27265			43387.38302		64.65000		324.00000 
 43692.65567		 889.56308			42803.09259		133.57200		875.00000 
 43692.65567		 305.27265			43387.38302		64.65000		324.00000 
 43692.65567		 889.56308			42803.09259		133.57200		875.00000 
 43692.65567		 305.27265			43387.38302		64.65000		324.00000 
 43692.65567		 889.56308			42803.09259		133.57200		875.00000 
 43692.65567		 305.27265			43387.38302		64.65000		324.00000 
 43692.65567		 889.56308			42803.09259		133.57200		875.00000 
 43692.65567		 305.27265			43387.38302		64.65000		324.00000 
 43692.65567		 889.56308			42803.09259		133.57200		875.00000 
 43692.65567		 305.27265			43387.38302		64.65000		324.00000 
 43692.65567		 889.56308			42803.09259		133.57200		875.00000 
 43692.65567		 305.27265			43387.38302		64.65000		324.00000 
 43692.65567		 889.56308			42803.09259		133.57200		875.00000 
 43692.65567		 305.27265			43387.38302		64.65000		324.00000 
 43692.65567		 889.56308			42803.09259		133.57200		875.00000 
 43692.65567		 305.27265			43387.38302		64.65000		324.00000 
 43692.65567		 889.56308			42803.09259		133.57200		875.00000 
 43692.65567		 305.27265			43387.38302		64.65000		324.00000 
 43692.65567		 889.56308			42803.09259		133.57200		875.00000 
 43692.65567		 305.27265			43387.38302		64.65000		324.00000 
 43692.65567		 889.56308			42803.09259		133.57200		875.00000 
 43692.65567		 305.27265			43387.38302		64.65000		324.00000 
 43692.65567		 889.56308			42803.09259		133.57200		875.00000 
 43692.65567		 305.27265			43387.38302		64.65000		324.00000 
 43692.65567		 889.56308			42803.09259		133.57200		875.00000 
 43692.65567		 305.27265			43387.38302		64.65000		324.00000 
 43692.65567		 889.56308			42803.09259		133.57200		875.00000 
 43692.65567		 305.27265			43387.38302		64.65000		324.00000 
 43692.65567		 889.56308			42803.09259		133.57200		875.00000 
 43692.65567		 305.27265			43387.38302		64.65000		324.00000 
 43692.65567		 889.56308			42803.09259		133.57200		875.00000 
 43692.65567		 305.27265			43387.38302		64.65000		324.00000 
 43692.65567		 889.56308			42803.09259		186.03400		875.00000 
 43692.65567		 305.27265			43387.38302		64.65000		324.00000 
 43692.65567		 889.56308			42803.09259		186.03400		875.00000 
 43692.65567		 305.27265			43387.38302		64.65000		324.00000 
 43692.65567		 889.56308			42803.09259		186.03400		875.00000 
 43692.65567		 305.27265			43387.38302		64.65000		324.00000 
 43692.65567		 889.56308			42803.09259		186.03400		875.00000 
 43692.65567		 305.27265			43387.38302		64.65000		324.00000 
 43692.65567		 889.56308			42803.09259		186.03400		875.00000 
 43692.65567		 305.27265			43387.38302		64.65000		324.00000 
 43692.65567		 889.56308			42803.09259		186.03400		875.00000 
 43692.65567		 305.27265			43387.38302		64.65000		324.00000 
 43692.65567		 889.56308			42803.09259		186.03400		875.00000 
 43692.65567		 305.27265			43387.38302		64.65000		324.00000 
 43692.65567		 889.56308			42803.09259		186.03400		875.00000 
 43692.65567		 305.27265			43387.38302		64.65000		324.00000 
 43692.65567		 889.56308			42803.09259		186.03400		875.00000 
 43692.65567		 305.27265			43387.38302		64.65000		324.00000 
 43692.65567		 889.56308			42803.09259		186.03400		875.00000 
 43692.65567		 305.27265			43387.38302		64.65000		324.00000 
 43692.65567		 889.56308			42803.09259		186.03400		875.00000 
 43692.65567		 305.27265			43387.38302		64.65000		324.00000 
 43692.65567		 889.56308			42803.09259		186.03400		875.00000 
 43692.65567		 305.27265			43387.38302		64.65000		324.00000 
 43692.65567		 889.56308			42803.09259		186.03400		875.00000 
 43692.65567		 305.27265			43387.38302		64.65000		324.00000 
 43692.65567		 889.56308			42803.09259		186.03400		875.00000 
 43692.65567		 305.27265			43387.38302		64.65000		324.00000 
 43692.65567		 889.56308			42803.09259		186.03400		875.00000 
 43692.65567		 305.27265			43387.38302		64.65000		324.00000 
 43692.65567		 889.56308			42803.09259		186.03400		875.00000 
 43692.65567		 305.27265			43387.38302		64.65000		324.00000 
 43692.65567		 889.56308			42803.09259		186.03400		875.00000 
 43692.65567		 305.27265			43387.38302		64.65000		324.00000 
 43692.65567		 889.56308			42803.09259		186.03400		875.00000 
 43692.65567		 305.27265			43387.38302		64.65000		324.00000 
 43692.65567		 889.56308			42803.09259		186.03400		875.00000 
 43692.65567		 305.27265			43387.38302		64.65000		324.00000 
 43692.65567		 889.56308			42803.09259		186.03400		875.00000 
 43692.65567		 305.27265			43387.38302		64.65000		324.00000 
 43692.65567		 889.56308			42803.09259		186.03400		875.00000 
 43692.65567		 305.27265			43387.38302		64.65000		324.00000 
 43692.65567		 889.56308			42803.09259		186.03400		875.00000 
 43692.65567		 305.27265			43387.38302		64.65000		324.00000 
 43692.65567		 889.56308			42803.09259		186.03400		875.00000 
 43692.65567		 305.27265			43387.38302		64.65000		324.00000 
 43692.65567		 889.56308			42803.09259		186.03400		875.00000 
 43692.65567		 305.27265			43387.38302		64.65000		324.00000 
 43692.65567		 889.56308			42803.09259		186.03400		875.00000 
 43692.65567		 305.27265			43387.38302		64.65000		324.00000 
 43692.65567		 889.56308			42803.09259		186.03400		875.00000 
 43692.65567		 305.27265			43387.38302		64.65000		324.00000 
 43692.65567		 889.56308			42803.09259		186.03400		875.00000 
 43692.65567		 305.27265			43387.38302		64.65000		324.00000 
 43692.65567		 889.56308			42803.09259		186.03400		875.00000 
 43692.65567		 305.27265			43387.38302		64.65000		324.00000 
 43692.65567		 889.56308			42803.09259		186.03400		875.00000 
 43692.65567		 305.27265			43387.38302		64.65000		324.00000 
 43692.65567		 889.56308			42803.09259		186.03400		875.00000 
 43692.65567		 305.27265			43387.38302		64.65000		324.00000 
 43692.65567		 889.56308			42803.09259		186.03400		875.00000 
 43692.65567		 305.27265			43387.38302		64.65000		324.00000 
 43692.65567		 889.56308			42803.09259		186.03400		875.00000 
 43692.65567		 305.27265			43387.38302		64.65000		324.00000 
 43692.65567		 889.56308			42803.09259		186.03400		875.00000 
 43692.65567		 305.27265			43387.38302		64.65000		324.00000 
 43692.65567		 889.56308			42803.09259		186.03400		875.00000 
 43692.65567		 305.27265			43387.38302		64.65000		324.00000 
 43692.65567		 889.56308			42803.09259		186.03400		875.00000 
 43692.65567		 305.27265			43387.38302		64.65000		324.00000 
 43692.65567		 889.56308			42803.09259		186.03400		875.00000 
 43692.65567		 305.27265			43387.38302		64.65000		324.00000 
 43692.65567		 889.56308			42803.09259		186.03400		875.00000 
 43692.65567		 305.27265			43387.38302		64.65000		324.00000 
 43692.65567		 889.56308			42803.09259		186.03400		875.00000 
 43692.65567		 305.27265			43387.38302		64.65000		324.00000 
 43692.65567		 889.56308			42803.09259		186.03400		875.00000 
 43692.65567		 305.27265			43387.38302		64.65000		324.00000 
 43692.65567		 889.56308			42803.09259		186.03400		875.00000 
 43692.65567		 305.27265			43387.38302		64.65000		324.00000 
 43692.65567		 889.56308			42803.09259		186.03400		875.00000 
 43692.65567		 305.27265			43387.38302		64.65000		324.00000 
 43692.65567		 889.56308			42803.09259		186.03400		875.00000 
 43692.65567		 305.27265			43387.38302		64.65000		324.00000 
 43692.65567		 889.56308			42803.09259		186.03400		875.00000 
 43692.65567		 305.27265			43387.38302		64.65000		324.00000 
 43692.65567		 889.56308			42803.09259		186.03400		875.00000 
 43692.65567		 305.27265			43387.38302		64.65000		324.00000 
 43692.65567		 889.56308			42803.09259		186.03400		875.00000 
 43692.65567		 305.27265			43387.38302		64.65000		324.00000 
 43692.65567		 889.56308			42803.09259		186.03400		875.00000 
 43692.65567		 305.27265			43387.38302		64.65000		324.00000 
 43692.65567		 889.56308			42803.09259		186.03400		875.00000 
 43692.65567		 305.27265			43387.38302		64.65000		324.00000 
 43692.65567		 889.56308			42803.09259		186.03400		875.00000 
 43692.65567		 305.27265			43387.38302		64.65000		324.00000 
 43692.65567		 889.56308			42803.09259		186.03400		875.00000 
 43692.65567		 305.27265			43387.38302		64.65000		324.00000 
 43692.65567		 889.56308			42803.09259		186.03400		875.00000 
 43692.65567		 305.27265			43387.38302		64.65000		324.00000 
 43692.65567		 889.56308			42803.09259		186.03400		875.00000 
 43692.65567		 305.27265			43387.38302		64.65000		324.00000 
 43692.65567		 889.56308			42803.09259		186.03400		875.00000 
 43692.65567		 305.27265			43387.38302		64.65000		324.00000 
 43692.65567		 889.56308			42803.09259		186.03400		875.00000 
 43692.65567		 305.27265			43387.38302		64.65000		324.00000 
 43692.65567		 889.56308			42803.09259		186.03400		875.00000 
 43692.65567		 305.27265			43387.38302		64.65000		324.00000 
 43692.65567		 889.56308			42803.09259		186.03400		875.00000 
 43692.65567		 305.27265			43387.38302		64.65000		324.00000 
 43692.65567		 889.56308			42803.09259		186.03400		875.00000 
 43692.65567		 305.27265			43387.38302		64.65000		324.00000 
 43692.65567		 889.56308			42803.09259		186.03400		875.00000 
 43692.65567		 305.27265			43387.38302		64.65000		324.00000 
 43692.65567		 889.56308			42803.09259		186.03400		875.00000 
 43692.65567		 305.27265			43387.38302		64.65000		324.00000 
 43692.65567		 889.56308			42803.09259		186.03400		875.00000 
 43692.65567		 305.27265			43387.38302		64.65000		324.00000 
 43692.65567		 889.56308			42803.09259		186.03400		875.00000 
 43692.65567		 305.27265			43387.38302		64.65000		324.00000 
 43692.65567		 889.56308			42803.09259		186.03400		875.00000 
 43692.65567		 305.27265			43387.38302		64.65000		324.00000 
 43692.65567		 889.56308			42803.09259		186.03400		875.00000 
 43692.65567		 305.27265			43387.38302		64.65000		324.00000 
 43692.65567		 889.56308			42803.09259		186.03400		875.00000 
 43692.65567		 305.27265			43387.38302		64.65000		324.00000 
 43692.65567		 889.56308			42803.09259		186.03400		875.00000 
 43692.65567		 305.27265			43387.38302		64.65000		324.00000 
 43692.65567		 889.56308			42803.09259		214.48400		875.00000 
 43692.65567		 305.27265			43387.38302		64.65000		324.00000 
 43692.65567		 889.56308			42803.09259		214.48400		875.00000 
 43692.65567		 305.27265			43387.38302		64.65000		324.00000 
 43692.65567		 889.56308			42803.09259		214.48400		875.00000 
 43692.65567		 305.27265			43387.38302		64.65000		324.00000 
 43692.65567		 889.56308			42803.09259		214.48400		875.00000 
 43692.65567		 305.27265			43387.38302		64.65000		324.00000 
 43692.65567		 889.56308			42803.09259		214.48400		875.00000 
 43692.65567		 305.27265			43387.38302		64.65000		324.00000 
 43692.65567		 889.56308			42803.09259		214.48400		875.00000 
 43692.65567		 305.27265			43387.38302		64.65000		324.00000 
 43692.65567		 889.56308			42803.09259		214.48400		875.00000 
 43692.65567		 305.27265			43387.38302		64.65000		324.00000 
 43692.65567		 889.56308			42803.09259		214.48400		875.00000 
 43692.65567		 305.27265			43387.38302		64.65000		324.00000 
 43692.65567		 889.56308			42803.09259		214.48400		875.00000 
 43692.65567		 305.27265			43387.38302		64.65000		324.00000 
 43692.65567		 889.56308			42803.09259		214.48400		875.00000 
 43692.65567		 305.27265			43387.38302		64.65000		324.00000 
 43692.65567		 889.56308			42803.09259		214.48400		875.00000 
 43692.65567		 305.27265			43387.38302		64.65000		324.00000 
 43692.65567		 889.56308			42803.09259		214.48400		875.00000 
 43692.65567		 305.27265			43387.38302		64.65000		324.00000 
 43692.65567		 889.56308			42803.09259		214.48400		875.00000 
 43692.65567		 305.27265			43387.38302		64.65000		324.00000 
 43692.65567		 889.56308			42803.09259		214.48400		875.00000 
 43692.65567		 305.27265			43387.38302		64.65000		324.00000 
 43692.65567		 889.56308			42803.09259		214.48400		875.00000 
 43692.65567		 305.27265			43387.38302		64.65000		324.00000 
 43692.65567		 889.56308			42803.09259		214.48400		875.00000 
 43692.65567		 305.27265			43387.38302		64.65000		324.00000 
 43692.65567		 889.56308			42803.09259		214.48400		875.00000 
 43692.65567		 305.27265			43387.38302		64.65000		324.00000 
 43692.65567		 889.56308			42803.09259		214.48400		875.00000 
 43692.65567		 305.27265			43387.38302		64.65000		324.00000 
 43692.65567		 889.56308			42803.09259		214.48400		875.00000 
 43692.65567		 305.27265			43387.38302		64.65000		324.00000 
 43692.65567		 889.56308			42803.09259		214.48400		875.00000 
 43692.65567		 305.27265			43387.38302		64.65000		324.00000 
 43692.65567		 889.56308			42803.09259		214.48400		875.00000 
 43692.65567		 305.27265			43387.38302		64.65000		324.00000 
 43692.65567		 889.56308			42803.09259		214.48400		875.00000 
 43692.65567		 305.27265			43387.38302		64.65000		324.00000 
 43692.65567		 889.56308			42803.09259		214.48400		875.00000 
 43692.65567		 305.27265			43387.38302		64.65000		324.00000 
 43692.65567		 889.56308			42803.09259		214.48400		875.00000 
 43692.65567		 305.27265			43387.38302		64.65000		324.00000 
 43692.65567		 889.56308			42803.09259		214.48400		875.00000 
 43692.65567		 305.27265			43387.38302		64.65000		324.00000 
 43692.65567		 889.56308			42803.09259		214.48400		875.00000 
 43692.65567		 305.27265			43387.38302		64.65000		324.00000 
 43692.65567		 889.56308			42803.09259		214.48400		875.00000 
 43692.65567		 305.27265			43387.38302		64.65000		324.00000 
 43692.65567		 889.56308			42803.09259		214.48400		875.00000 
 43692.65567		 305.27265			43387.38302		64.65000		324.00000 
 43692.65567		 889.56308			42803.09259		214.48400		875.00000 
 43692.65567		 305.27265			43387.38302		64.65000		324.00000 
 43692.65567		 889.56308			42803.09259		214.48400		875.00000 
 43692.65567		 305.27265			43387.38302		64.65000		324.00000 
 43692.65567		 889.56308			42803.09259		214.48400		875.00000 
 43692.65567		 305.27265			43387.38302		64.65000		324.00000 
 43692.65567		 889.56308			42803.09259		214.48400		875.00000 
 43692.65567		 305.27265			43387.38302		64.65000		324.00000 
 43692.65567		 889.56308			42803.09259		214.48400		875.00000 
 43692.65567		 305.27265			43387.38302		64.65000		324.00000 
 43692.65567		 889.56308			42803.09259		214.48400		875.00000 
 43692.65567		 305.27265			43387.38302		64.65000		324.00000 
 43692.65567		 889.56308			42803.09259		214.48400		875.00000 
 43692.65567		 305.27265			43387.38302		64.65000		324.00000 
 43692.65567		 889.56308			42803.09259		214.48400		875.00000 
 43692.65567		 305.27265			43387.38302		64.65000		324.00000 
 43692.65567		 889.56308			42803.09259		214.48400		875.00000 
 43692.65567		 305.27265			43387.38302		64.65000		324.00000 
 43692.65567		 889.56308			42803.09259		214.48400		875.00000 
 43692.65567		 305.27265			43387.38302		64.65000		324.00000 
 43692.65567		 889.56308			42803.09259		214.48400		875.00000 
 43692.65567		 305.27265			43387.38302		64.65000		324.00000 
 43692.65567		 889.56308			42803.09259		214.48400		875.00000 
 43692.65567		 305.27265			43387.38302		64.65000		324.00000 
 43692.65567		 889.56308			42803.09259		214.48400		875.00000 
 43692.65567		 305.27265			43387.38302		64.65000		324.00000 
 43692.65567		 889.56308			42803.09259		214.48400		875.00000 
 43692.65567		 305.27265			43387.38302		64.65000		324.00000 
 43692.65567		 889.56308			42803.09259		214.48400		875.00000 
 43692.65567		 305.27265			43387.38302		64.65000		324.00000 
 43692.65567		 889.56308			42803.09259		214.48400		875.00000 
 43692.65567		 305.27265			43387.38302		64.65000		324.00000 
 43692.65567		 889.56308			42803.09259		214.48400		875.00000 
 43692.65567		 305.27265			43387.38302		64.65000		324.00000 
 43692.65567		 889.56308			42803.09259		214.48400		875.00000 
 43692.65567		 305.27265			43387.38302		64.65000		324.00000 
 43692.65567		 889.56308			42803.09259		214.48400		875.00000 
 43692.65567		 305.27265			43387.38302		64.65000		324.00000 
 43692.65567		 889.56308			42803.09259		214.48400		875.00000 
 43692.65567		 305.27265			43387.38302		64.65000		324.00000 
 43692.65567		 889.56308			42803.09259		214.48400		875.00000 
 43692.65567		 305.27265			43387.38302		64.65000		324.00000 
 43692.65567		 889.56308			42803.09259		214.48400		875.00000 
 43692.65567		 305.27265			43387.38302		64.65000		324.00000 
 43692.65567		 889.56308			42803.09259		214.48400		875.00000 
 43692.65567		 305.27265			43387.38302		64.65000		324.00000 
 43692.65567		 889.56308			42803.09259		214.48400		875.00000 
 43692.65567		 305.27265			43387.38302		64.65000		324.00000 
 43692.65567		 889.56308			42803.09259		214.48400		875.00000 
 43692.65567		 305.27265			43387.38302		64.65000		324.00000 
 43692.65567		 889.56308			42803.09259		214.48400		875.00000 
 43692.65567		 305.27265			43387.38302		64.65000		324.00000 
 43692.65567		 889.56308			42803.09259		214.48400		875.00000 
 43692.65567		 305.27265			43387.38302		64.65000		324.00000 
 43692.65567		 889.56308			42803.09259		214.48400		875.00000 
 43692.65567		 305.27265			43387.38302		64.65000		324.00000 
 43692.65567		 889.56308			42803.09259		214.48400		875.00000 
 43692.65567		 305.27265			43387.38302		64.65000		324.00000 
 43692.65567		 889.56308			42803.09259		214.48400		875.00000 
 43692.65567		 305.27265			43387.38302		64.65000		324.00000 
 43692.65567		 889.56308			42803.09259		214.48400		875.00000 
 43692.65567		 305.27265			43387.38302		64.65000		324.00000 
 43692.65567		 889.56308			42803.09259		214.48400		875.00000 
 43692.65567		 305.27265			43387.38302		64.65000		324.00000 
 43692.65567		 889.56308			42803.09259		214.48400		875.00000 
 43692.65567		 305.27265			43387.38302		64.65000		324.00000 
 43692.65567		 889.56308			42803.09259		214.48400		875.00000 
 43692.65567		 305.27265			43387.38302		64.65000		324.00000 
 43692.65567		 889.56308			42803.09259		214.48400		875.00000 
 43692.65567		 305.27265			43387.38302		64.65000		324.00000 
 43692.65567		 889.56308			42803.09259		214.48400		875.00000 
 43692.65567		 305.27265			43387.38302		64.65000		324.00000 
 43692.65567		 889.56308			42803.09259		223.58800		875.00000 
 43692.65567		 305.27265			43387.38302		64.65000		324.00000 
 43692.65567		 889.56308			42803.09259		223.58800		875.00000 
 43692.65567		 305.27265			43387.38302		64.65000		324.00000 
 43692.65567		 889.56308			42803.09259		223.58800		875.00000 
 43692.65567		 305.27265			43387.38302		64.65000		324.00000 
 43692.65567		 889.56308			42803.09259		223.58800		875.00000 
 43692.65567		 305.27265			43387.38302		64.65000		324.00000 
 43692.65567		 889.56308			42803.09259		223.58800		875.00000 
 43692.65567		 305.27265			43387.38302		64.65000		324.00000 
 43692.65567		 889.56308			42803.09259		223.58800		875.00000 
 43692.65567		 305.27265			43387.38302		64.65000		324.00000 
 43692.65567		 889.56308			42803.09259		223.58800		875.00000 
 43692.65567		 305.27265			43387.38302		64.65000		324.00000 
 43692.65567		 889.56308			42803.09259		223.58800		875.00000 
 43692.65567		 305.27265			43387.38302		64.65000		324.00000 
 43692.65567		 889.56308			42803.09259		223.58800		875.00000 
 43692.65567		 305.27265			43387.38302		64.65000		324.00000 
 43692.65567		 889.56308			42803.09259		223.58800		875.00000 
 43692.65567		 305.27265			43387.38302		64.65000		324.00000 
 43692.65567		 889.56308			42803.09259		223.58800		875.00000 
 43692.65567		 305.27265			43387.38302		64.65000		324.00000 
 43692.65567		 889.56308			42803.09259		223.58800		875.00000 
 43692.65567		 305.27265			43387.38302		64.65000		324.00000 
 43692.65567		 889.56308			42803.09259		223.58800		875.00000 
 43692.65567		 305.27265			43387.38302		64.65000		324.00000 
 43692.65567		 889.56308			42803.09259		223.58800		875.00000 
 43692.65567		 305.27265			43387.38302		64.65000		324.00000 
 43692.65567		 889.56308			42803.09259		223.58800		875.00000 
 43692.65567		 305.27265			43387.38302		64.65000		324.00000 
 43692.65567		 889.56308			42803.09259		223.58800		875.00000 
 43692.65567		 305.27265			43387.38302		64.65000		324.00000 
 43692.65567		 889.56308			42803.09259		223.58800		875.00000 
 43692.65567		 305.27265			43387.38302		64.65000		324.00000 
 43692.65567		 889.56308			42803.09259		223.58800		875.00000 
 43692.65567		 305.27265			43387.38302		64.65000		324.00000 
 43692.65567		 889.56308			42803.09259		223.58800		875.00000 
 43692.65567		 305.27265			43387.38302		64.65000		324.00000 
 43692.65567		 889.56308			42803.09259		223.58800		875.00000 
 43692.65567		 305.27265			43387.38302		64.65000		324.00000 
 43692.65567		 889.56308			42803.09259		223.58800		875.00000 
 43692.65567		 305.27265			43387.38302		64.65000		324.00000 
 43692.65567		 889.56308			42803.09259		223.58800		875.00000 
 43692.65567		 305.27265			43387.38302		64.65000		324.00000 
 43692.65567		 889.56308			42803.09259		223.58800		875.00000 
 43692.65567		 305.27265			43387.38302		64.65000		324.00000 
 43692.65567		 889.56308			42803.09259		223.58800		875.00000 
 43692.65567		 305.27265			43387.38302		64.65000		324.00000 
 43692.65567		 889.56308			42803.09259		223.58800		875.00000 
 43692.65567		 305.27265			43387.38302		64.65000		324.00000 
 43692.65567		 889.56308			42803.09259		223.58800		875.00000 
 43692.65567		 305.27265			43387.38302		64.65000		324.00000 
 43692.65567		 889.56308			42803.09259		223.58800		875.00000 
 43692.65567		 305.27265			43387.38302		64.65000		324.00000 
 43692.65567		 889.56308			42803.09259		223.58800		875.00000 
 43692.65567		 305.27265			43387.38302		64.65000		324.00000 
 43692.65567		 889.56308			42803.09259		223.58800		875.00000 
 43692.65567		 305.27265			43387.38302		64.65000		324.00000 
 43692.65567		 889.56308			42803.09259		223.58800		875.00000 
 43692.65567		 305.27265			43387.38302		64.65000		324.00000 
 43692.65567		 889.56308			42803.09259		223.58800		875.00000 
 43692.65567		 305.27265			43387.38302		64.65000		324.00000 
 43692.65567		 889.56308			42803.09259		223.58800		875.00000 
 43692.65567		 305.27265			43387.38302		64.65000		324.00000 
 43692.65567		 889.56308			42803.09259		223.58800		875.00000 
 43692.65567		 305.27265			43387.38302		64.65000		324.00000 
 43692.65567		 889.56308			42803.09259		223.58800		875.00000 
 43692.65567		 305.27265			43387.38302		64.65000		324.00000 
 43692.65567		 889.56308			42803.09259		223.58800		875.00000 
 43692.65567		 305.27265			43387.38302		64.65000		324.00000 
 43692.65567		 889.56308			42803.09259		223.58800		875.00000 
 43692.65567		 305.27265			43387.38302		64.65000		324.00000 
 43692.65567		 889.56308			42803.09259		223.58800		875.00000 
 43692.65567		 305.27265			43387.38302		64.65000		324.00000 
 43692.65567		 889.56308			42803.09259		223.58800		875.00000 
 43692.65567		 305.27265			43387.38302		64.65000		324.00000 
 43692.65567		 889.56308			42803.09259		223.58800		875.00000 
 43692.65567		 305.27265			43387.38302		64.65000		324.00000 
 43692.65567		 889.56308			42803.09259		223.58800		875.00000 
 43692.65567		 305.27265			43387.38302		64.65000		324.00000 
 43692.65567		 889.56308			42803.09259		223.58800		875.00000 
 43692.65567		 305.27265			43387.38302		64.65000		324.00000 
 43692.65567		 889.56308			42803.09259		223.58800		875.00000 
 43692.65567		 305.27265			43387.38302		64.65000		324.00000 
 43692.65567		 889.56308			42803.09259		223.58800		875.00000 
 43692.65567		 305.27265			43387.38302		64.65000		324.00000 
 43692.65567		 889.56308			42803.09259		223.58800		875.00000 
 43692.65567		 305.27265			43387.38302		64.65000		324.00000 
 43692.65567		 889.56308			42803.09259		223.58800		875.00000 
 43692.65567		 305.27265			43387.38302		64.65000		324.00000 
 43692.65567		 889.56308			42803.09259		223.58800		875.00000 
 43692.65567		 305.27265			43387.38302		64.65000		324.00000 
 43692.65567		 889.56308			42803.09259		223.58800		875.00000 
 43692.65567		 305.27265			43387.38302		64.65000		324.00000 
 43692.65567		 889.56308			42803.09259		223.58800		875.00000 
 43692.65567		 305.27265			43387.38302		64.65000		324.00000 
 43692.65567		 889.56308			42803.09259		223.58800		875.00000 
 43692.65567		 305.27265			43387.38302		64.65000		324.00000 
 43692.65567		 889.56308			42803.09259		223.58800		875.00000 
 43692.65567		 305.27265			43387.38302		64.65000		324.00000 
 43692.65567		 889.56308			42803.09259		223.58800		875.00000 
 43692.65567		 305.27265			43387.38302		64.65000		324.00000 
 43692.65567		 889.56308			42803.09259		223.58800		875.00000 
 43692.65567		 305.27265			43387.38302		64.65000		324.00000 
 43692.65567		 889.56308			42803.09259		223.58800		875.00000 
 43692.65567		 305.27265			43387.38302		64.65000		324.00000 
 43692.65567		 889.56308			42803.09259		223.58800		875.00000 
 43692.65567		 305.27265			43387.38302		64.65000		324.00000 
 43692.65567		 889.56308			42803.09259		223.58800		875.00000 
 43692.65567		 305.27265			43387.38302		64.65000		324.00000 
 43692.65567		 889.56308			42803.09259		223.58800		875.00000 
 43692.65567		 305.27265			43387.38302		64.65000		324.00000 
 43692.65567		 889.56308			42803.09259		223.58800		875.00000 
 43692.65567		 305.27265			43387.38302		64.65000		324.00000 
 43692.65567		 889.56308			42803.09259		223.58800		875.00000 
 43692.65567		 305.27265			43387.38302		64.65000		324.00000 
 43692.65567		 889.56308			42803.09259		223.58800		875.00000 
 43692.65567		 305.27265			43387.38302		64.65000		324.00000 
 43692.65567		 889.56308			42803.09259		223.58800		875.00000 
 43692.65567		 305.27265			43387.38302		64.65000		324.00000 
 43692.65567		 889.56308			42803.09259		223.58800		875.00000 
 43692.65567		 305.27265			43387.38302		64.65000		324.00000 
 43692.65567		 889.56308			42803.09259		223.58800		875.00000 
 43692.65567		 305.27265			43387.38302		64.65000		324.00000 
 43692.65567		 889.56308			42803.09259		223.58800		875.00000 
 43692.65567		 305.27265			43387.38302		64.65000		324.00000 
 43692.65567		 889.56308			42803.09259		223.58800		875.00000 
 43692.65567		 305.27265			43387.38302		64.65000		324.00000 
 43692.65567		 889.56308			42803.09259		223.58800		875.00000 
 43692.65567		 305.27265			43387.38302		64.65000		324.00000 
 43692.65567		 889.56308			42803.09259		227.15000		875.00000 
 43692.65567		 305.27265			43387.38302		64.65000		324.00000 
 43692.65567		 889.56308			42803.09259		227.15000		875.00000 
 43692.65567		 305.27265			43387.38302		64.65000		324.00000 
 43692.65567		 889.56308			42803.09259		227.15000		875.00000 
 43692.65567		 305.27265			43387.38302		64.65000		324.00000 
 43692.65567		 889.56308			42803.09259		227.15000		875.00000 
 43692.65567		 305.27265			43387.38302		64.65000		324.00000 
 43692.65567		 889.56308			42803.09259		227.15000		875.00000 
 43692.65567		 305.27265			43387.38302		64.65000		324.00000 
 43692.65567		 889.56308			42803.09259		227.15000		875.00000 
 43692.65567		 305.27265			43387.38302		64.65000		324.00000 
 43692.65567		 889.56308			42803.09259		227.15000		875.00000 
 43692.65567		 305.27265			43387.38302		64.65000		324.00000 
 43692.65567		 889.56308			42803.09259		227.15000		875.00000 
 43692.65567		 305.27265			43387.38302		64.65000		324.00000 
 43692.65567		 889.56308			42803.09259		227.15000		875.00000 
 43692.65567		 305.27265			43387.38302		64.65000		324.00000 
 43692.65567		 889.56308			42803.09259		227.15000		875.00000 
 43692.65567		 305.27265			43387.38302		64.65000		324.00000 
 43692.65567		 889.56308			42803.09259		227.15000		875.00000 
 43692.65567		 305.27265			43387.38302		64.65000		324.00000 
 43692.65567		 889.56308			42803.09259		227.15000		875.00000 
 43692.65567		 305.27265			43387.38302		64.65000		324.00000 
 43692.65567		 889.56308			42803.09259		227.15000		875.00000 
 43692.65567		 305.27265			43387.38302		64.65000		324.00000 
 43692.65567		 889.56308			42803.09259		227.15000		875.00000 
 43692.65567		 305.27265			43387.38302		64.65000		324.00000 
 43692.65567		 889.56308			42803.09259		227.15000		875.00000 
 43692.65567		 305.27265			43387.38302		64.65000		324.00000 
 43692.65567		 889.56308			42803.09259		227.15000		875.00000 
 43692.65567		 305.27265			43387.38302		64.65000		324.00000 
 43692.65567		 889.56308			42803.09259		227.15000		875.00000 
 43692.65567		 305.27265			43387.38302		64.65000		324.00000 
 43692.65567		 889.56308			42803.09259		227.15000		875.00000 
 43692.65567		 305.27265			43387.38302		64.65000		324.00000 
 43692.65567		 889.56308			42803.09259		227.15000		875.00000 
 43692.65567		 305.27265			43387.38302		64.65000		324.00000 
 43692.65567		 889.56308			42803.09259		227.15000		875.00000 
 43692.65567		 305.27265			43387.38302		64.65000		324.00000 
 43692.65567		 889.56308			42803.09259		227.15000		875.00000 
 43692.65567		 305.27265			43387.38302		64.65000		324.00000 
 43692.65567		 889.56308			42803.09259		227.15000		875.00000 
 43692.65567		 305.27265			43387.38302		64.65000		324.00000 
 43692.65567		 889.56308			42803.09259		227.15000		875.00000 
 43692.65567		 305.27265			43387.38302		64.65000		324.00000 
 43692.65567		 889.56308			42803.09259		227.15000		875.00000 
 43692.65567		 305.27265			43387.38302		64.65000		324.00000 
 43692.65567		 889.56308			42803.09259		227.15000		875.00000 
 43692.65567		 305.27265			43387.38302		64.65000		324.00000 
 43692.65567		 889.56308			42803.09259		227.15000		875.00000 
 43692.65567		 305.27265			43387.38302		64.65000		324.00000 
 43692.65567		 889.56308			42803.09259		227.15000		875.00000 
 43692.65567		 305.27265			43387.38302		64.65000		324.00000 
 43692.65567		 889.56308			42803.09259		227.15000		875.00000 
 43692.65567		 305.27265			43387.38302		64.65000		324.00000 
 43692.65567		 889.56308			42803.09259		227.15000		875.00000 
 43692.65567		 305.27265			43387.38302		64.65000		324.00000 
 43692.65567		 889.56308			42803.09259		227.15000		875.00000 
 43692.65567		 305.27265			43387.38302		64.65000		324.00000 
 43692.65567		 889.56308			42803.09259		227.15000		875.00000 
 43692.65567		 305.27265			43387.38302		64.65000		324.00000 
 43692.65567		 889.56308			42803.09259		227.15000		875.00000 
 43692.65567		 305.27265			43387.38302		64.65000		324.00000 
 43692.65567		 889.56308			42803.09259		227.15000		875.00000 
 43692.65567		 305.27265			43387.38302		64.65000		324.00000 
 43692.65567		 889.56308			42803.09259		227.15000		875.00000 
 43692.65567		 305.27265			43387.38302		64.65000		324.00000 
 43692.65567		 889.56308			42803.09259		227.15000		875.00000 
 43692.65567		 305.27265			43387.38302		64.65000		324.00000 
 43692.65567		 889.56308			42803.09259		227.15000		875.00000 
 43692.65567		 305.27265			43387.38302		64.65000		324.00000 
 43692.65567		 889.56308			42803.09259		227.15000		875.00000 
 43692.65567		 305.27265			43387.38302		64.65000		324.00000 
 43692.65567		 889.56308			42803.09259		227.15000		875.00000 
 43692.65567		 305.27265			43387.38302		64.65000		324.00000 
 43692.65567		 889.56308			42803.09259		227.15000		875.00000 
 43692.65567		 305.27265			43387.38302		64.65000		324.00000 
 43692.65567		 889.56308			42803.09259		227.15000		875.00000 
 43692.65567		 305.27265			43387.38302		64.65000		324.00000 
 43692.65567		 889.56308			42803.09259		227.15000		875.00000 
 43692.65567		 305.27265			43387.38302		64.65000		324.00000 
 43692.65567		 889.56308			42803.09259		227.15000		875.00000 
 43692.65567		 305.27265			43387.38302		64.65000		324.00000 
 43692.65567		 889.56308			42803.09259		227.15000		875.00000 
 43692.65567		 305.27265			43387.38302		64.65000		324.00000 
 43692.65567		 889.56308			42803.09259		227.15000		875.00000 
 43692.65567		 305.27265			43387.38302		64.65000		324.00000 
 43692.65567		 889.56308			42803.09259		227.15000		875.00000 
 43692.65567		 305.27265			43387.38302		64.65000		324.00000 
 43692.65567		 889.56308			42803.09259		227.15000		875.00000 
 43692.65567		 305.27265			43387.38302		64.65000		324.00000 
 43692.65567		 889.56308			42803.09259		227.15000		875.00000 
 43692.65567		 305.27265			43387.38302		64.65000		324.00000 
 43692.65567		 889.56308			42803.09259		227.15000		875.00000 
 43692.65567		 305.27265			43387.38302		64.65000		324.00000 
 43692.65567		 889.56308			42803.09259		227.15000		875.00000 
 43692.65567		 305.27265			43387.38302		64.65000		324.00000 
 43692.65567		 889.56308			42803.09259		227.15000		875.00000 
 43692.65567		 305.27265			43387.38302		64.65000		324.00000 
 43692.65567		 889.56308			42803.09259		227.15000		875.00000 
 43692.65567		 305.27265			43387.38302		64.65000		324.00000 
 43692.65567		 889.56308			42803.09259		227.15000		875.00000 
 43692.65567		 305.27265			43387.38302		64.65000		324.00000 
 43692.65567		 889.56308			42803.09259		227.15000		875.00000 
 43692.65567		 305.27265			43387.38302		64.65000		324.00000 
 43692.65567		 889.56308			42803.09259		227.15000		875.00000 
 43692.65567		 305.27265			43387.38302		64.65000		324.00000 
 43692.65567		 889.56308			42803.09259		227.15000		875.00000 
 43692.65567		 305.27265			43387.38302		64.65000		324.00000 
 43692.65567		 889.56308			42803.09259		227.15000		875.00000 
 43692.65567		 305.27265			43387.38302		64.65000		324.00000 
 43692.65567		 889.56308			42803.09259		227.15000		875.00000 
 43692.65567		 305.27265			43387.38302		64.65000		324.00000 
 43692.65567		 889.56308			42803.09259		227.15000		875.00000 
 43692.65567		 305.27265			43387.38302		64.65000		324.00000 
 43692.65567		 889.56308			42803.09259		227.15000		875.00000 
 43692.65567		 305.27265			43387.38302		64.65000		324.00000 
 43692.65567		 889.56308			42803.09259		227.15000		875.00000 
 43692.65567		 305.27265			43387.38302		64.65000		324.00000 
 43692.65567		 889.56308			42803.09259		227.15000		875.00000 
 43692.65567		 305.27265			43387.38302		64.65000		324.00000 
 43692.65567		 889.56308			42803.09259		227.15000		875.00000 
 43692.65567		 305.27265			43387.38302		64.65000		324.00000 
 43692.65567		 889.56308			42803.09259		227.15000		875.00000 
 43692.65567		 305.27265			43387.38302		64.65000		324.00000 
 43692.65567		 889.56308			42803.09259		227.15000		875.00000 
 43692.65567		 305.27265			43387.38302		64.65000		324.00000 
 43692.65567		 889.56308			42803.09259		228.94600		875.00000 
 43692.65567		 305.27265			43387.38302		64.65000		324.00000 
 43692.65567		 889.56308			42803.09259		228.94600		875.00000 
 43692.65567		 305.27265			43387.38302		64.65000		324.00000 
 43692.65567		 889.56308			42803.09259		228.94600		875.00000 
 43692.65567		 305.27265			43387.38302		64.65000		324.00000 
 43692.65567		 889.56308			42803.09259		228.94600		875.00000 
 43692.65567		 305.27265			43387.38302		64.65000		324.00000 
 43692.65567		 889.56308			42803.09259		228.94600		875.00000 
 43692.65567		 305.27265			43387.38302		64.65000		324.00000 
 43692.65567		 889.56308			42803.09259		228.94600		875.00000 
 43692.65567		 305.27265			43387.38302		64.65000		324.00000 
 43692.65567		 889.56308			42803.09259		228.94600		875.00000 
 43692.65567		 305.27265			43387.38302		64.65000		324.00000 
 43692.65567		 889.56308			42803.09259		228.94600		875.00000 
 43692.65567		 305.27265			43387.38302		64.65000		324.00000 
 43692.65567		 889.56308			42803.09259		228.94600		875.00000 
 43692.65567		 305.27265			43387.38302		64.65000		324.00000 
 43692.65567		 889.56308			42803.09259		228.94600		875.00000 
 43692.65567		 305.27265			43387.38302		64.65000		324.00000 
 43692.65567		 889.56308			42803.09259		228.94600		875.00000 
 43692.65567		 305.27265			43387.38302		64.65000		324.00000 
 43692.65567		 889.56308			42803.09259		228.94600		875.00000 
 43692.65567		 305.27265			43387.38302		64.65000		324.00000 
 43692.65567		 889.56308			42803.09259		228.94600		875.00000 
 43692.65567		 305.27265			43387.38302		64.65000		324.00000 
 43692.65567		 889.56308			42803.09259		228.94600		875.00000 
 43692.65567		 305.27265			43387.38302		64.65000		324.00000 
 43692.65567		 889.56308			42803.09259		228.94600		875.00000 
 43692.65567		 305.27265			43387.38302		64.65000		324.00000 
 43692.65567		 889.56308			42803.09259		228.94600		875.00000 
 43692.65567		 305.27265			43387.38302		64.65000		324.00000 
 43692.65567		 889.56308			42803.09259		228.94600		875.00000 
 43692.65567		 305.27265			43387.38302		64.65000		324.00000 
 43692.65567		 889.56308			42803.09259		228.94600		875.00000 
 43692.65567		 305.27265			43387.38302		64.65000		324.00000 
 43692.65567		 889.56308			42803.09259		228.94600		875.00000 
 43692.65567		 305.27265			43387.38302		64.65000		324.00000 
 43692.65567		 889.56308			42803.09259		228.94600		875.00000 
 43692.65567		 305.27265			43387.38302		64.65000		324.00000 
 43692.65567		 889.56308			42803.09259		228.94600		875.00000 
 43692.65567		 305.27265			43387.38302		64.65000		324.00000 
 43692.65567		 889.56308			42803.09259		228.94600		875.00000 
 43692.65567		 305.27265			43387.38302		64.65000		324.00000 
 43692.65567		 889.56308			42803.09259		228.94600		875.00000 
 43692.65567		 305.27265			43387.38302		64.65000		324.00000 
 43692.65567		 889.56308			42803.09259		228.94600		875.00000 
 43692.65567		 305.27265			43387.38302		64.65000		324.00000 
 43692.65567		 889.56308			42803.09259		228.94600		875.00000 
 43692.65567		 305.27265			43387.38302		64.65000		324.00000 
 43692.65567		 889.56308			42803.09259		228.94600		875.00000 
 43692.65567		 305.27265			43387.38302		64.65000		324.00000 
 43692.65567		 889.56308			42803.09259		228.94600		875.00000 
 43692.65567		 305.27265			43387.38302		64.65000		324.00000 
 43692.65567		 889.56308			42803.09259		228.94600		875.00000 
 43692.65567		 305.27265			43387.38302		64.65000		324.00000 
 43692.65567		 889.56308			42803.09259		228.94600		875.00000 
 43692.65567		 305.27265			43387.38302		64.65000		324.00000 
 43692.65567		 889.56308			42803.09259		228.94600		875.00000 
 43692.65567		 305.27265			43387.38302		64.65000		324.00000 
 43692.65567		 889.56308			42803.09259		228.94600		875.00000 
 43692.65567		 305.27265			43387.38302		64.65000		324.00000 
 43692.65567		 889.56308			42803.09259		228.94600		875.00000 
 43692.65567		 305.27265			43387.38302		64.65000		324.00000 
 43692.65567		 889.56308			42803.09259		228.94600		875.00000 
 43692.65567		 305.27265			43387.38302		64.65000		324.00000 
 43692.65567		 889.56308			42803.09259		228.94600		875.00000 
 43692.65567		 305.27265			43387.38302		64.65000		324.00000 
 43692.65567		 889.56308			42803.09259		228.94600		875.00000 
 43692.65567		 305.27265			43387.38302		64.65000		324.00000 
 43692.65567		 889.56308			42803.09259		228.94600		875.00000 
 43692.65567		 305.27265			43387.38302		64.65000		324.00000 
 43692.65567		 889.56308			42803.09259		228.94600		875.00000 
 43692.65567		 305.27265			43387.38302		64.65000		324.00000 
 43692.65567		 889.56308			42803.09259		228.94600		875.00000 
 43692.65567		 305.27265			43387.38302		64.65000		324.00000 
 43692.65567		 889.56308			42803.09259		228.94600		875.00000 
 43692.65567		 305.27265			43387.38302		64.65000		324.00000 
 43692.65567		 889.56308			42803.09259		228.94600		875.00000 
 43692.65567		 305.27265			43387.38302		64.65000		324.00000 
 43692.65567		 889.56308			42803.09259		228.94600		875.00000 
 43692.65567		 305.27265			43387.38302		64.65000		324.00000 
 43692.65567		 889.56308			42803.09259		228.94600		875.00000 
 43692.65567		 305.27265			43387.38302		64.65000		324.00000 
 43692.65567		 889.56308			42803.09259		228.94600		875.00000 
 43692.65567		 305.27265			43387.38302		64.65000		324.00000 
 43692.65567		 889.56308			42803.09259		228.94600		875.00000 
 43692.65567		 305.27265			43387.38302		64.65000		324.00000 
 43692.65567		 889.56308			42803.09259		228.94600		875.00000 
 43692.65567		 305.27265			43387.38302		64.65000		324.00000 
 43692.65567		 889.56308			42803.09259		228.94600		875.00000 
 43692.65567		 305.27265			43387.38302		64.65000		324.00000 
 43692.65567		 889.56308			42803.09259		228.94600		875.00000 
 43692.65567		 305.27265			43387.38302		64.65000		324.00000 
 43692.65567		 889.56308			42803.09259		228.94600		875.00000 
 43692.65567		 305.27265			43387.38302		64.65000		324.00000 
 43692.65567		 889.56308			42803.09259		228.94600		875.00000 
 43692.65567		 305.27265			43387.38302		64.65000		324.00000 
 43692.65567		 889.56308			42803.09259		228.94600		875.00000 
 43692.65567		 305.27265			43387.38302		64.65000		324.00000 
 43692.65567		 889.56308			42803.09259		228.94600		875.00000 
 43692.65567		 305.27265			43387.38302		64.65000		324.00000 
 43692.65567		 889.56308			42803.09259		228.94600		875.00000 
 43692.65567		 305.27265			43387.38302		64.65000		324.00000 
 43692.65567		 889.56308			42803.09259		228.94600		875.00000 
 43692.65567		 305.27265			43387.38302		64.65000		324.00000 
 43692.65567		 889.56308			42803.09259		228.94600		875.00000 
 43692.65567		 305.27265			43387.38302		64.65000		324.00000 
 43692.65567		 889.56308			42803.09259		228.94600		875.00000 
 43692.65567		 305.27265			43387.38302		64.65000		324.00000 
 43692.65567		 889.56308			42803.09259		228.94600		875.00000 
 43692.65567		 305.27265			43387.38302		64.65000		324.00000 
 43692.65567		 889.56308			42803.09259		228.94600		875.00000 
 43692.65567		 305.27265			43387.38302		64.65000		324.00000 
 43692.65567		 889.56308			42803.09259		228.94600		875.00000 
 43692.65567		 305.27265			43387.38302		64.65000		324.00000 
 43692.65567		 889.56308			42803.09259		228.94600		875.00000 
 43692.65567		 305.27265			43387.38302		64.65000		324.00000 
 43692.65567		 889.56308			42803.09259		228.94600		875.00000 
 43692.65567		 305.27265			43387.38302		64.65000		324.00000 
 43692.65567		 889.56308			42803.09259		228.94600		875.00000 
 43692.65567		 305.27265			43387.38302		64.65000		324.00000 
 43692.65567		 889.56308			42803.09259		228.94600		875.00000 
 43692.65567		 305.27265			43387.38302		64.65000		324.00000 
 43692.65567		 889.56308			42803.09259		228.94600		875.00000 
 43692.65567		 305.27265			43387.38302		64.65000		324.00000 
 43692.65567		 889.56308			42803.09259		228.94600		875.00000 
 43692.65567		 305.27265			43387.38302		64.65000		324.00000 
 43692.65567		 889.56308			42803.09259		228.94600		875.00000 
 43692.65567		 305.27265			43387.38302		64.65000		324.00000 
 43692.65567		 889.56308			42803.09259		228.94600		875.00000 
 43692.65567		 305.27265			43387.38302		64.65000		324.00000 
 43692.65567		 889.56308			42803.09259		228.94600		875.00000 
 43692.65567		 305.27265			43387.38302		64.65000		324.00000 
 43692.65567		 889.56308			42803.09259		228.94600		875.00000 
 43692.65567		 305.27265			43387.38302		64.65000		324.00000 
 43692.65567		 889.56308			42803.09259		228.94600		875.00000 
 43692.65567		 305.27265			43387.38302		64.65000		324.00000 
 43692.65567		 889.56308			42803.09259		228.94600		875.00000 
 43692.65567		 305.27265			43387.38302		64.65000		324.00000 
 43692.65567		 889.56308			42803.09259		228.94600		875.00000 
 43692.65567		 305.27265			43387.38302		64.65000		324.00000 
 43692.65567		 889.56308			42803.09259		228.94600		875.00000 
 43692.65567		 305.27265			43387.38302		64.65000		324.00000 
 43692.65567		 889.56308			42803.09259		228.94600		875.00000 
 43692.65567		 305.27265			43387.38302		64.65000		324.00000 
 43692.65567		 889.56308			42803.09259		228.94600		875.00000 
 43692.65567		 305.27265			43387.38302		64.65000		324.00000 
 43692.65567		 889.56308			42803.09259		228.94600		875.00000 
 43692.65567		 305.27265			43387.38302		64.65000		324.00000 
 43692.65567		 889.56308			42803.09259		228.94600		875.00000 
 43692.65567		 305.27265			43387.38302		64.65000		324.00000 
 43692.65567		 889.56308			42803.09259		228.94600		875.00000 
 43692.65567		 305.27265			43387.38302		64.65000		324.00000 
 43692.65567		 889.56308			42803.09259		228.94600		875.00000 
 43692.65567		 305.27265			43387.38302		64.65000		324.00000 
 43692.65567		 889.56308			42803.09259		228.94600		875.00000 
 43692.65567		 305.27265			43387.38302		64.65000		324.00000 
 43692.65567		 889.56308			42803.09259		228.94600		875.00000 
 43692.65567		 305.27265			43387.38302		64.65000		324.00000 
 43692.65567		 889.56308			42803.09259		228.94600		875.00000 
 43692.65567		 305.27265			43387.38302		64.65000		324.00000 
 43692.65567		 889.56308			42803.09259		228.94600		875.00000 
 43692.65567		 305.27265			43387.38302		64.65000		324.00000 
 43692.65567		 889.56308			42803.09259		228.94600		875.00000 
 43692.65567		 305.27265			43387.38302		64.65000		324.00000 
 43692.65567		 889.56308			42803.09259		228.94600		875.00000 
 43692.65567		 305.27265			43387.38302		64.65000		324.00000 
 43692.65567		 889.56308			42803.09259		228.94600		875.00000 
 43692.65567		 305.27265			43387.38302		64.65000		324.00000 
 43692.65567		 889.56308			42803.09259		228.94600		875.00000 
 43692.65567		 305.27265			43387.38302		64.65000		324.00000 
 43692.65567		 889.56308			42803.09259		228.94600		875.00000 
 43692.65567		 305.27265			43387.38302		64.65000		324.00000 
 43692.65567		 889.56308			42803.09259		228.94600		875.00000 
 43692.65567		 305.27265			43387.38302		64.65000		324.00000 
 43692.65567		 889.56308			42803.09259		228.94600		875.00000 
 43692.65567		 305.27265			43387.38302		64.65000		324.00000 
 43692.65567		 889.56308			42803.09259		228.94600		875.00000 
 43692.65567		 305.27265			43387.38302		64.65000		324.00000 
 43692.65567		 889.56308			42803.09259		228.94600		875.00000 
 43692.65567		 305.27265			43387.38302		64.65000		324.00000 
 43692.65567		 889.56308			42803.09259		228.94600		875.00000 
 43692.65567		 305.27265			43387.38302		64.65000		324.00000 
 43692.65567		 889.56308			42803.09259		228.94600		875.00000 
 43692.65567		 305.27265			43387.38302		64.65000		324.00000 
 43692.65567		 889.56308			42803.09259		228.94600		875.00000 
 43692.65567		 305.27265			43387.38302		64.65000		324.00000 
 43692.65567		 889.56308			42803.09259		228.94600		875.00000 
 43692.65567		 305.27265			43387.38302		64.65000		324.00000 
 43692.65567		 889.56308			42803.09259		228.94600		875.00000 
 43692.65567		 305.27265			43387.38302		64.65000		324.00000 
 43692.65567		 889.56308			42803.09259		228.94600		875.00000 
 43692.65567		 305.27265			43387.38302		64.65000		324.00000 
 43692.65567		 889.56308			42803.09259		228.94600		875.00000 
 43692.65567		 305.27265			43387.38302		64.65000		324.00000 
 43692.65567		 889.56308			42803.09259		228.94600		875.00000 
 43692.65567		 305.27265			43387.38302		64.65000		324.00000 
 43692.65567		 889.56308			42803.09259		228.94600		875.00000 
 43692.65567		 305.27265			43387.38302		64.65000		324.00000 
 43692.65567		 889.56308			42803.09259		228.94600		875.00000 
 43692.65567		 305.27265			43387.38302		64.65000		324.00000 
 43692.65567		 889.56308			42803.09259		228.94600		875.00000 
 43692.65567		 305.27265			43387.38302		64.65000		324.00000 
 43692.65567		 889.56308			42803.09259		228.94600		875.00000 
 43692.65567		 305.27265			43387.38302		64.65000		324.00000 
 43692.65567		 889.56308			42803.09259		228.94600		875.00000 
 43692.65567		 305.27265			43387.38302		64.65000		324.00000 
 43692.65567		 889.56308			42803.09259		228.94600		875.00000 
 43692.65567		 305.27265			43387.38302		64.65000		324.00000 
 43692.65567		 889.56308			42803.09259		228.94600		875.00000 
 43692.65567		 305.27265			43387.38302		64.65000		324.00000 
 43692.65567		 889.56308			42803.09259		228.94600		875.00000 
 43692.65567		 305.27265			43387.38302		64.65000		324.00000 
 43692.65567		 889.56308			42803.09259		228.94600		875.00000 
 43692.65567		 305.27265			43387.38302		64.65000		324.00000 
 43692.65567		 889.56308			42803.09259		228.94600		875.00000 
 43692.65567		 305.27265			43387.38302		64.65000		324.00000 
 43692.65567		 889.56308			42803.09259		228.94600		875.00000 
 43692.65567		 305.27265			43387.38302		64.65000		324.00000 
 43692.65567		 889.56308			42803.09259		228.94600		875.00000 
 43692.65567		 305.27265			43387.38302		64.65000		324.00000 
 43692.65567		 889.56308			42803.09259		228.94600		875.00000 
 43692.65567		 305.27265			43387.38302		64.65000		324.00000 
 43692.65567		 889.56308			42803.09259		228.94600		875.00000 
 43692.65567		 305.27265			43387.38302		64.65000		324.00000 
 43692.65567		 889.56308			42803.09259		228.94600		875.00000 
 43692.65567		 305.27265			43387.38302		64.65000		324.00000 
 43692.65567		 889.56308			42803.09259		228.94600		875.00000 
 43692.65567		 305.27265			43387.38302		64.65000		324.00000 
 43692.65567		 889.56308			42803.09259		228.94600		875.00000 
 43692.65567		 305.27265			43387.38302		64.65000		324.00000 
 43692.65567		 889.56308			42803.09259		228.94600		875.00000 
 43692.65567		 305.27265			43387.38302		64.65000		324.00000 
 43692.65567		 889.56308			42803.09259		228.94600		875.00000 
 43692.65567		 305.27265			43387.38302		64.65000		324.00000 
 43692.65567		 889.56308			42803.09259		228.94600		875.00000 
 43692.65567		 305.27265			43387.38302		64.65000		324.00000 
 43692.65567		 889.56308			42803.09259		228.94600		875.00000 
 43692.65567		 305.27265			43387.38302		64.65000		324.00000 
 43692.65567		 889.56308			42803.09259		228.94600		875.00000 
 43692.65567		 305.27265			43387.38302		64.65000		324.00000 
 43692.65567		 889.56308			42803.09259		228.94600		875.00000 
 43692.65567		 305.27265			43387.38302		64.65000		324.00000 
 43692.65567		 889.56308			42803.09259		228.94600		875.00000 
 43692.65567		 305.27265			43387.38302		64.65000		324.00000 
 43692.65567		 889.56308			42803.09259		228.94600		875.00000 
 43692.65567		 305.27265			43387.38302		64.65000		324.00000 
 43692.65567		 889.56308			42803.09259		228.94600		875.00000 
 43692.65567		 305.27265			43387.38302		64.65000		324.00000 
 43692.65567		 889.56308			42803.09259		228.94600		875.00000 
 43692.65567		 305.27265			43387.38302		64.65000		324.00000 
 43692.65567		 889.56308			42803.09259		228.94600		875.00000 
 43692.65567		 305.27265			43387.38302		64.65000		324.00000 
 43692.65567		 889.56308			42803.09259		228.94600		875.00000 
 43692.65567		 305.27265			43387.38302		64.65000		324.00000 
 43692.65567		 889.56308			42803.09259		228.94600		875.00000 
 43692.65567		 305.27265			43387.38302		64.65000		324.00000 
 43692.65567		 889.56308			42803.09259		228.94600		875.00000 
 43692.65567		 305.27265			43387.38302		64.65000		324.00000 
 43692.65567		 889.56308			42803.09259		228.94600		875.00000 
 43692.65567		 305.27265			43387.38302		64.65000		324.00000 
 43692.65567		 889.56308			42803.09259		228.94600		875.00000 
 43692.65567		 305.27265			43387.38302		64.65000		324.00000 
 43692.65567		 889.56308			42803.09259		228.94600		875.00000 
 43692.65567		 305.27265			43387.38302		64.65000		324.00000 
 43692.65567		 889.56308			42803.09259		228.94600		875.00000 
 43692.65567		 305.27265			43387.38302		64.65000		324.00000 
 43692.65567		 889.56308			42803.09259		228.94600		875.00000 
 43692.65567		 305.27265			43387.38302		64.65000		324.00000 
 43692.65567		 889.56308			42803.09259		228.94600		875.00000 
 43692.65567		 305.27265			43387.38302		64.65000		324.00000 
 43692.65567		 889.56308			42803.09259		228.94600		875.00000 
 43692.65567		 305.27265			43387.38302		64.65000		324.00000 
 43692.65567		 889.56308			42803.09259		228.94600		875.00000 
 43692.65567		 305.27265			43387.38302		64.65000		324.00000 
 43692.65567		 889.56308			42803.09259		228.94600		875.00000 
 43692.65567		 305.27265			43387.38302		64.65000		324.00000 
 43692.65567		 889.56308			42803.09259		228.94600		875.00000 
 43692.65567		 305.27265			43387.38302		64.65000		324.00000 
 43692.65567		 889.56308			42803.09259		228.94600		875.00000 
 43692.65567		 305.27265			43387.38302		64.65000		324.00000 
 43692.65567		 889.56308			42803.09259		228.94600		875.00000 
 43692.65567		 305.27265			43387.38302		64.65000		324.00000 
 43692.65567		 889.56308			42803.09259		228.94600		875.00000 
 43692.65567		 305.27265			43387.38302		64.65000		324.00000 
 43692.65567		 889.56308			42803.09259		228.94600		875.00000 
 43692.65567		 305.27265			43387.38302		64.65000		324.00000 
 43692.65567		 889.56308			42803.09259		228.94600		875.00000 
 43692.65567		 305.27265			43387.38302		64.65000		324.00000 
 43692.65567		 889.56308			42803.09259		228.94600		875.00000 
 43692.65567		 305.27265			43387.38302		64.65000		324.00000 
 43692.65567		 889.56308			42803.09259		228.94600		875.00000 
 43692.65567		 305.27265			43387.38302		64.65000		324.00000 
 43692.65567		 889.56308			42803.09259		228.94600		875.00000 
 43692.65567		 305.27265			43387.38302		64.65000		324.00000 
 43692.65567		 889.56308			42803.09259		228.94600		875.00000 
 43692.65567		 305.27265			43387.38302		64.65000		324.00000 
 43692.65567		 889.56308			42803.09259		228.94600		875.00000 
 43692.65567		 305.27265			43387.38302		64.65000		324.00000 
 43692.65567		 889.56308			42803.09259		228.94600		875.00000 
 43692.65567		 305.27265			43387.38302		64.65000		324.00000 
 43692.65567		 889.56308			42803.09259		228.94600		875.00000 
 43692.65567		 305.27265			43387.38302		64.65000		324.00000 
 43692.65567		 889.56308			42803.09259		228.94600		875.00000 
 43692.65567		 305.27265			43387.38302		64.65000		324.00000 
 43692.65567		 889.56308			42803.09259		228.94600		875.00000 
 43692.65567		 305.27265			43387.38302		64.65000		324.00000 
 43692.65567		 889.56308			42803.09259		228.94600		875.00000 
 43692.65567		 305.27265			43387.38302		64.65000		324.00000 
 43692.65567		 889.56308			42803.09259		228.94600		875.00000 
 43692.65567		 305.27265			43387.38302		64.65000		324.00000 
 43692.65567		 889.56308			42803.09259		228.94600		875.00000 
 43692.65567		 305.27265			43387.38302		64.65000		324.00000 
 43692.65567		 889.56308			42803.09259		228.94600		875.00000 
 43692.65567		 305.27265			43387.38302		64.65000		324.00000 
 43692.65567		 889.56308			42803.09259		228.94600		875.00000 
 43692.65567		 305.27265			43387.38302		64.65000		324.00000 
 43692.65567		 889.56308			42803.09259		228.94600		875.00000 
 43692.65567		 305.27265			43387.38302		64.65000		324.00000 
 43692.65567		 889.56308			42803.09259		228.94600		875.00000 
 43692.65567		 305.27265			43387.38302		64.65000		324.00000 
 43692.65567		 889.56308			42803.09259		228.94600		875.00000 
 43692.65567		 305.27265			43387.38302		64.65000		324.00000 
 43692.65567		 889.56308			42803.09259		228.94600		875.00000 
 43692.65567		 305.27265			43387.38302		64.65000		324.00000 
 43692.65567		 889.56308			42803.09259		228.94600		875.00000 
 43692.65567		 305.27265			43387.38302		64.65000		324.00000 
 43692.65567		 889.56308			42803.09259		228.94600		875.00000 
 43692.65567		 305.27265			43387.38302		64.65000		324.00000 
 43692.65567		 889.56308			42803.09259		228.94600		875.00000 
 43692.65567		 305.27265			43387.38302		64.65000		324.00000 
 43692.65567		 889.56308			42803.09259		228.94600		875.00000 
 43692.65567		 305.27265			43387.38302		64.65000		324.00000 
 43692.65567		 889.56308			42803.09259		228.94600		875.00000 
 43692.65567		 305.27265			43387.38302		64.65000		324.00000 
 43692.65567		 889.56308			42803.09259		228.94600		875.00000 
 43692.65567		 305.27265			43387.38302		64.65000		324.00000 
 43692.65567		 889.56308			42803.09259		228.94600		875.00000 
 43692.65567		 305.27265			43387.38302		64.65000		324.00000 
 43692.65567		 889.56308			42803.09259		228.94600		875.00000 
 43692.65567		 305.27265			43387.38302		64.65000		324.00000 
 43692.65567		 889.56308			42803.09259		228.94600		875.00000 
 43692.65567		 305.27265			43387.38302		64.65000		324.00000 
 43692.65567		 889.56308			42803.09259		228.94600		875.00000 
 43692.65567		 305.27265			43387.38302		64.65000		324.00000 
 43692.65567		 889.56308			42803.09259		228.94600		875.00000 
 43692.65567		 305.27265			43387.38302		64.65000		324.00000 
 43692.65567		 889.56308			42803.09259		228.94600		875.00000 
 43692.65567		 305.27265			43387.38302		64.65000		324.00000 
 43692.65567		 889.56308			42803.09259		228.94600		875.00000 
 43692.65567		 305.27265			43387.38302		64.65000		324.00000 
 43692.65567		 889.56308			42803.09259		228.94600		875.00000 
 43692.65567		 305.27265			43387.38302		64.65000		324.00000 
 43692.65567		 889.56308			42803.09259		228.94600		875.00000 
 43692.65567		 305.27265			43387.38302		64.65000		324.00000 
 43692.65567		 889.56308			42803.09259		228.94600		875.00000 
 43692.65567		 305.27265			43387.38302		64.65000		324.00000 
 43692.65567		 889.56308			42803.09259		228.94600		875.00000 
 43692.65567		 305.27265			43387.38302		64.65000		324.00000 
 43692.65567		 889.56308			42803.09259		228.94600		875.00000 
 43692.65567		 305.27265			43387.38302		64.65000		324.00000 
 43692.65567		 889.56308			42803.09259		228.94600		875.00000 
 43692.65567		 305.27265			43387.38302		64.65000		324.00000 
 43692.65567		 889.56308			42803.09259		228.94600		875.00000 
 43692.65567		 305.27265			43387.38302		64.65000		324.00000 
 43692.65567		 889.56308			42803.09259		228.94600		875.00000 
 43692.65567		 305.27265			43387.38302		64.65000		324.00000 
 43692.65567		 889.56308			42803.09259		228.94600		875.00000 
 43692.65567		 305.27265			43387.38302		64.65000		324.00000 
 43692.65567		 889.56308			42803.09259		228.94600		875.00000 
 43692.65567		 305.27265			43387.38302		64.65000		324.00000 
 43692.65567		 889.56308			42803.09259		228.94600		875.00000 
 43692.65567		 305.27265			43387.38302		64.65000		324.00000 
 43692.65567		 889.56308			42803.09259		228.94600		875.00000 
 43692.65567		 305.27265			43387.38302		64.65000		324.00000 
 43692.65567		 889.56308			42803.09259		228.94600		875.00000 
 43692.65567		 305.27265			43387.38302		64.65000		324.00000 
 43692.65567		 889.56308			42803.09259		228.94600		875.00000 
 43692.65567		 305.27265			43387.38302		64.65000		324.00000 
 43692.65567		 889.56308			42803.09259		228.94600		875.00000 
 43692.65567		 305.27265			43387.38302		64.65000		324.00000 
 43692.65567		 889.56308			42803.09259		228.94600		875.00000 
 43692.65567		 305.27265			43387.38302		64.65000		324.00000 
 43692.65567		 889.56308			42803.09259		228.94600		875.00000 
 43692.65567		 305.27265			43387.38302		64.65000		324.00000 
 43692.65567		 889.56308			42803.09259		228.94600		875.00000 
 43692.65567		 305.27265			43387.38302		64.65000		324.00000 
 43692.65567		 889.56308			42803.09259		228.94600		875.00000 
 43692.65567		 305.27265			43387.38302		64.65000		324.00000 
 43692.65567		 889.56308			42803.09259		228.94600		875.00000 
 43692.65567		 305.27265			43387.38302		64.65000		324.00000 
 43692.65567		 889.56308			42803.09259		228.94600		875.00000 
 43692.65567		 305.27265			43387.38302		64.65000		324.00000 
 43692.65567		 889.56308			42803.09259		228.94600		875.00000 
 43692.65567		 305.27265			43387.38302		64.65000		324.00000 
 43692.65567		 889.56308			42803.09259		228.94600		875.00000 
 43692.65567		 305.27265			43387.38302		64.65000		324.00000 
 43692.65567		 889.56308			42803.09259		228.94600		875.00000 
 43692.65567		 305.27265			43387.38302		64.65000		324.00000 
 43692.65567		 889.56308			42803.09259		228.94600		875.00000 
 43692.65567		 305.27265			43387.38302		64.65000		324.00000 
 43692.65567		 889.56308			42803.09259		228.94600		875.00000 
 43692.65567		 305.27265			43387.38302		64.65000		324.00000 
 43692.65567		 889.56308			42803.09259		228.94600		875.00000 
 43692.65567		 305.27265			43387.38302		64.65000		324.00000 
 43692.65567		 889.56308			42803.09259		228.94600		875.00000 
 43692.65567		 305.27265			43387.38302		64.65000		324.00000 
 43692.65567		 889.56308			42803.09259		228.94600		875.00000 
 43692.65567		 305.27265			43387.38302		64.65000		324.00000 
 43692.65567		 889.56308			42803.09259		228.94600		875.00000 
 43692.65567		 305.27265			43387.38302		64.65000		324.00000 
 43692.65567		 889.56308			42803.09259		228.94600		875.00000 
 43692.65567		 305.27265			43387.38302		64.65000		324.00000 
 43692.65567		 889.56308			42803.09259		228.94600		875.00000 
 43692.65567		 305.27265			43387.38302		64.65000		324.00000 
 43692.65567		 889.56308			42803.09259		228.94600		875.00000 
 43692.65567		 305.27265			43387.38302		64.65000		324.00000 
 43692.65567		 889.56308			42803.09259		228.94600		875.00000 
 43692.65567		 305.27265			43387.38302		64.65000		324.00000 
 43692.65567		 889.56308			42803.09259		228.94600		875.00000 
 43692.65567		 305.27265			43387.38302		64.65000		324.00000 
 43692.65567		 889.56308			42803.09259		228.94600		875.00000 
 43692.65567		 305.27265			43387.38302		64.65000		324.00000 
 43692.65567		 889.56308			42803.09259		228.94600		875.00000 
 43692.65567		 305.27265			43387.38302		64.65000		324.00000 
 43692.65567		 889.56308			42803.09259		228.94600		875.00000 
 43692.65567		 305.27265			43387.38302		64.65000		324.00000 
 43692.65567		 889.56308			42803.09259		228.94600		875.00000 
 43692.65567		 305.27265			43387.38302		64.65000		324.00000 
 43692.65567		 889.56308			42803.09259		228.94600		875.00000 
 43692.65567		 305.27265			43387.38302		64.65000		324.00000 
 43692.65567		 889.56308			42803.09259		228.94600		875.00000 
 43692.65567		 305.27265			43387.38302		64.65000		324.00000 
 43692.65567		 889.56308			42803.09259		228.94600		875.00000 
 43692.65567		 305.27265			43387.38302		64.65000		324.00000 
 43692.65567		 889.56308			42803.09259		228.94600		875.00000 
 43692.65567		 305.27265			43387.38302		64.65000		324.00000 
 43692.65567		 889.56308			42803.09259		228.94600		875.00000 
 43692.65567		 305.27265			43387.38302		64.65000		324.00000 
 43692.65567		 889.56308			42803.09259		228.94600		875.00000 
 43692.65567		 305.27265			43387.38302		64.65000		324.00000 
 43692.65567		 889.56308			42803.09259		228.94600		875.00000 
 43692.65567		 305.27265			43387.38302		64.65000		324.00000 
 43692.65567		 889.56308			42803.09259		228.94600		875.00000 
 43692.65567		 305.27265			43387.38302		64.65000		324.00000 
 43692.65567		 889.56308			42803.09259		228.94600		875.00000 
 43692.65567		 305.27265			43387.38302		64.65000		324.00000 
 43692.65567		 889.56308			42803.09259		228.94600		875.00000 
 43692.65567		 305.27265			43387.38302		64.65000		324.00000 
 43692.65567		 889.56308			42803.09259		228.94600		875.00000 
 43692.65567		 305.27265			43387.38302		64.65000		324.00000 
 43692.65567		 889.56308			42803.09259		228.94600		875.00000 
 43692.65567		 305.27265			43387.38302		64.65000		324.00000 
 43692.65567		 889.56308			42803.09259		228.94600		875.00000 
 43692.65567		 305.27265			43387.38302		64.65000		324.00000 
 43692.65567		 889.56308			42803.09259		228.94600		875.00000 
 43692.65567		 305.27265			43387.38302		64.65000		324.00000 
 43692.65567		 889.56308			42803.09259		228.94600		875.00000 
 43692.65567		 305.27265			43387.38302		64.65000		324.00000 
 43692.65567		 889.56308			42803.09259		228.94600		875.00000 
 43692.65567		 305.27265			43387.38302		64.65000		324.00000 
 43692.65567		 889.56308			42803.09259		228.94600		875.00000 
 43692.65567		 305.27265			43387.38302		64.65000		324.00000 
 43692.65567		 889.56308			42803.09259		228.94600		875.00000 
 43692.65567		 305.27265			43387.38302		64.65000		324.00000 
 43692.65567		 889.56308			42803.09259		228.94600		875.00000 
 43692.65567		 305.27265			43387.38302		64.65000		324.00000 
 43692.65567		 889.56308			42803.09259		228.94600		875.00000 
 43692.65567		 305.27265			43387.38302		64.65000		324.00000 
 43692.65567		 889.56308			42803.09259		228.94600		875.00000 
 43692.65567		 305.27265			43387.38302		64.65000		324.00000 
 43692.65567		 889.56308			42803.09259		228.94600		875.00000 
 43692.65567		 305.27265			43387.38302		64.65000		324.00000 
 43692.65567		 889.56308			42803.09259		228.94600		875.00000 
 43692.65567		 305.27265			43387.38302		64.65000		324.00000 
 43692.65567		 889.56308			42803.09259		228.94600		875.00000 
 43692.65567		 305.27265			43387.38302		64.65000		324.00000 
 43692.65567		 889.56308			42803.09259		228.94600		875.00000 
 43692.65567		 305.27265			43387.38302		64.65000		324.00000 
 43692.65567		 889.56308			42803.09259		228.94600		875.00000 
 43692.65567		 305.27265			43387.38302		64.65000		324.00000 
 43692.65567		 889.56308			42803.09259		228.94600		875.00000 
 43692.65567		 305.27265			43387.38302		64.65000		324.00000 
 43692.65567		 889.56308			42803.09259		228.94600		875.00000 
 43692.65567		 305.27265			43387.38302		64.65000		324.00000 
 43692.65567		 889.56308			42803.09259		228.94600		875.00000 
 43692.65567		 305.27265			43387.38302		64.65000		324.00000 
 43692.65567		 889.56308			42803.09259		228.94600		875.00000 
 43692.65567		 305.27265			43387.38302		64.65000		324.00000 
 43692.65567		 889.56308			42803.09259		228.94600		875.00000 
 43692.65567		 305.27265			43387.38302		64.65000		324.00000 
 43692.65567		 889.56308			42803.09259		228.94600		875.00000 
 43692.65567		 305.27265			43387.38302		64.65000		324.00000 
 43692.65567		 889.56308			42803.09259		228.94600		875.00000 
 43692.65567		 305.27265			43387.38302		64.65000		324.00000 
 43692.65567		 889.56308			42803.09259		228.94600		875.00000 
 43692.65567		 305.27265			43387.38302		64.65000		324.00000 
 43692.65567		 889.56308			42803.09259		228.94600		875.00000 
 43692.65567		 305.27265			43387.38302		64.65000		324.00000 
 43692.65567		 889.56308			42803.09259		228.94600		875.00000 
 43692.65567		 305.27265			43387.38302		64.65000		324.00000 
 43692.65567		 889.56308			42803.09259		228.94600		875.00000 
 43692.65567		 305.27265			43387.38302		64.65000		324.00000 
 43692.65567		 889.56308			42803.09259		228.94600		875.00000 
 43692.65567		 305.27265			43387.38302		64.65000		324.00000 
 43692.65567		 889.56308			42803.09259		228.94600		875.00000 
 43692.65567		 305.27265			43387.38302		64.65000		324.00000 
 43692.65567		 889.56308			42803.09259		228.94600		875.00000 
 43692.65567		 305.27265			43387.38302		64.65000		324.00000 
 43692.65567		 889.56308			42803.09259		228.94600		875.00000 
 43692.65567		 305.27265			43387.38302		64.65000		324.00000 
 43692.65567		 889.56308			42803.09259		228.94600		875.00000 
 43692.65567		 305.27265			43387.38302		64.65000		324.00000 
 43692.65567		 889.56308			42803.09259		228.94600		875.00000 
 43692.65567		 305.27265			43387.38302		64.65000		324.00000 
 43692.65567		 889.56308			42803.09259		228.94600		875.00000 
 43692.65567		 305.27265			43387.38302		64.65000		324.00000 
 43692.65567		 889.56308			42803.09259		228.94600		875.00000 
 43692.65567		 305.27265			43387.38302		64.65000		324.00000 
 43692.65567		 889.56308			42803.09259		228.94600		875.00000 
 43692.65567		 305.27265			43387.38302		64.65000		324.00000 
 43692.65567		 889.56308			42803.09259		228.94600		875.00000 
 43692.65567		 305.27265			43387.38302		64.65000		324.00000 
 43692.65567		 889.56308			42803.09259		228.94600		875.00000 
 43692.65567		 305.27265			43387.38302		64.65000		324.00000 
 43692.65567		 889.56308			42803.09259		228.94600		875.00000 
 43692.65567		 305.27265			43387.38302		64.65000		324.00000 
 43692.65567		 889.56308			42803.09259		228.94600		875.00000 
 43692.65567		 305.27265			43387.38302		64.65000		324.00000 
 43692.65567		 889.56308			42803.09259		228.94600		875.00000 
 43692.65567		 305.27265			43387.38302		64.65000		324.00000 
 43692.65567		 889.56308			42803.09259		228.94600		875.00000 
 43692.65567		 305.27265			43387.38302		64.65000		324.00000 
 43692.65567		 889.56308			42803.09259		228.94600		875.00000 
 43692.65567		 305.27265			43387.38302		64.65000		324.00000 
 43692.65567		 889.56308			42803.09259		228.94600		875.00000 
 43692.65567		 305.27265			43387.38302		64.65000		324.00000 
 43692.65567		 889.56308			42803.09259		228.94600		875.00000 
 43692.65567		 305.27265			43387.38302		64.65000		324.00000 
 43692.65567		 889.56308			42803.09259		228.94600		875.00000 
 43692.65567		 305.27265			43387.38302		64.65000		324.00000 
 43692.65567		 889.56308			42803.09259		228.94600		875.00000 
 43692.65567		 305.27265			43387.38302		64.65000		324.00000 
 43692.65567		 889.56308			42803.09259		228.94600		875.00000 
 43692.65567		 305.27265			43387.38302		64.65000		324.00000 
 43692.65567		 889.56308			42803.09259		228.94600		875.00000 
 43692.65567		 305.27265			43387.38302		64.65000		324.00000 
 43692.65567		 889.56308			42803.09259		228.94600		875.00000 
 43692.65567		 305.27265			43387.38302		64.65000		324.00000 
 43692.65567		 889.56308			42803.09259		228.94600		875.00000 
 43692.65567		 305.27265			43387.38302		64.65000		324.00000 
 43692.65567		 889.56308			42803.09259		228.94600		875.00000 
 43692.65567		 305.27265			43387.38302		64.65000		324.00000 
 43692.65567		 889.56308			42803.09259		228.94600		875.00000 
 43692.65567		 305.27265			43387.38302		64.65000		324.00000 
 43692.65567		 889.56308			42803.09259		228.94600		875.00000 
 43692.65567		 305.27265			43387.38302		64.65000		324.00000 
 43692.65567		 889.56308			42803.09259		228.94600		875.00000 
 43692.65567		 305.27265			43387.38302		64.65000		324.00000 
 43692.65567		 889.56308			42803.09259		228.94600		875.00000 
 43692.65567		 305.27265			43387.38302		64.65000		324.00000 
 43692.65567		 889.56308			42803.09259		228.94600		875.00000 
 43692.65567		 305.27265			43387.38302		64.65000		324.00000 
 43692.65567		 889.56308			42803.09259		228.94600		875.00000 
 43692.65567		 305.27265			43387.38302		64.65000		324.00000 
 43692.65567		 889.56308			42803.09259		228.94600		875.00000 
 43692.65567		 305.27265			43387.38302		64.65000		324.00000 
 43692.65567		 889.56308			42803.09259		228.94600		875.00000 
 43692.65567		 305.27265			43387.38302		64.65000		324.00000 
 43692.65567		 889.56308			42803.09259		228.94600		875.00000 
 43692.65567		 305.27265			43387.38302		64.65000		324.00000 
 43692.65567		 889.56308			42803.09259		228.94600		875.00000 
 43692.65567		 305.27265			43387.38302		64.65000		324.00000 
 43692.65567		 889.56308			42803.09259		228.94600		875.00000 
 43692.65567		 305.27265			43387.38302		64.65000		324.00000 
 43692.65567		 889.56308			42803.09259		228.94600		875.00000 
 43692.65567		 305.27265			43387.38302		64.65000		324.00000 
 43692.65567		 889.56308			42803.09259		228.94600		875.00000 
 43692.65567		 305.27265			43387.38302		64.65000		324.00000 
 43692.65567		 889.56308			42803.09259		228.94600		875.00000 
 43692.65567		 305.27265			43387.38302		64.65000		324.00000 
 43692.65567		 889.56308			42803.09259		228.94600		875.00000 
 43692.65567		 305.27265			43387.38302		64.65000		324.00000 
 43692.65567		 889.56308			42803.09259		228.94600		875.00000 
 43692.65567		 305.27265			43387.38302		64.65000		324.00000 
 43692.65567		 889.56308			42803.09259		228.94600		875.00000 
 43692.65567		 305.27265			43387.38302		64.65000		324.00000 
 43692.65567		 889.56308			42803.09259		228.94600		875.00000 
 43692.65567		 305.27265			43387.38302		64.65000		324.00000 
 43692.65567		 889.56308			42803.09259		228.94600		875.00000 
 43692.65567		 305.27265			43387.38302		64.65000		324.00000 
 43692.65567		 889.56308			42803.09259		228.94600		875.00000 
 43692.65567		 305.27265			43387.38302		64.65000		324.00000 
 43692.65567		 889.56308			42803.09259		228.94600		875.00000 
 43692.65567		 305.27265			43387.38302		64.65000		324.00000 
 43692.65567		 889.56308			42803.09259		228.94600		875.00000 
 43692.65567		 305.27265			43387.38302		64.65000		324.00000 
 43692.65567		 889.56308			42803.09259		228.94600		875.00000 
 43692.65567		 305.27265			43387.38302		64.65000		324.00000 
 43692.65567		 889.56308			42803.09259		228.94600		875.00000 
 43692.65567		 305.27265			43387.38302		64.65000		324.00000 
 43692.65567		 889.56308			42803.09259		228.94600		875.00000 
 43692.65567		 305.27265			43387.38302		64.65000		324.00000 
 43692.65567		 889.56308			42803.09259		228.94600		875.00000 
 43692.65567		 305.27265			43387.38302		64.65000		324.00000 
 43692.65567		 889.56308			42803.09259		228.94600		875.00000 
 43692.65567		 305.27265			43387.38302		64.65000		324.00000 
 43692.65567		 889.56308			42803.09259		228.94600		875.00000 
 43692.65567		 305.27265			43387.38302		64.65000		324.00000 
 43692.65567		 889.56308			42803.09259		228.94600		875.00000 
 43692.65567		 305.27265			43387.38302		64.65000		324.00000 
 43692.65567		 889.56308			42803.09259		228.94600		875.00000 
 43692.65567		 305.27265			43387.38302		64.65000		324.00000 
 43692.65567		 889.56308			42803.09259		228.94600		875.00000 
 43692.65567		 305.27265			43387.38302		64.65000		324.00000 
 43692.65567		 889.56308			42803.09259		228.94600		875.00000 
 43692.65567		 305.27265			43387.38302		64.65000		324.00000 
 43692.65567		 889.56308			42803.09259		228.94600		875.00000 
 43692.65567		 305.27265			43387.38302		64.65000		324.00000 
 43692.65567		 889.56308			42803.09259		228.94600		875.00000 
 43692.65567		 305.27265			43387.38302		64.65000		324.00000 
 43692.65567		 889.56308			42803.09259		228.94600		875.00000 
 43692.65567		 305.27265			43387.38302		64.65000		324.00000 
 43692.65567		 889.56308			42803.09259		228.94600		875.00000 
 43692.65567		 305.27265			43387.38302		64.65000		324.00000 
 43692.65567		 889.56308			42803.09259		228.94600		875.00000 
 43692.65567		 305.27265			43387.38302		64.65000		324.00000 
 43692.65567		 889.56308			42803.09259		228.94600		875.00000 
 43692.65567		 305.27265			43387.38302		64.65000		324.00000 
 43692.65567		 889.56308			42803.09259		228.94600		875.00000 
 43692.65567		 305.27265			43387.38302		64.65000		324.00000 
 43692.65567		 889.56308			42803.09259		228.94600		875.00000 
 43692.65567		 305.27265			43387.38302		64.65000		324.00000 
 43692.65567		 889.56308			42803.09259		228.94600		875.00000 
 43692.65567		 305.27265			43387.38302		64.65000		324.00000 
 43692.65567		 889.56308			42803.09259		228.94600		875.00000 
 43692.65567		 305.27265			43387.38302		64.65000		324.00000 
 43692.65567		 889.56308			42803.09259		228.94600		875.00000 
 43692.65567		 305.27265			43387.38302		64.65000		324.00000 
 43692.65567		 889.56308			42803.09259		228.94600		875.00000 
 43692.65567		 305.27265			43387.38302		64.65000		324.00000 
 43692.65567		 889.56308			42803.09259		228.94600		875.00000 
 43692.65567		 305.27265			43387.38302		64.65000		324.00000 
 43692.65567		 889.56308			42803.09259		228.94600		875.00000 
 43692.65567		 305.27265			43387.38302		64.65000		324.00000 
 43692.65567		 889.56308			42803.09259		228.94600		875.00000 
 43692.65567		 305.27265			43387.38302		64.65000		324.00000 
 43692.65567		 889.56308			42803.09259		228.94600		875.00000 
 43692.65567		 305.27265			43387.38302		64.65000		324.00000 
 43692.65567		 889.56308			42803.09259		228.94600		875.00000 
 43692.65567		 305.27265			43387.38302		64.65000		324.00000 
 43692.65567		 889.56308			42803.09259		228.94600		875.00000 
 43692.65567		 305.27265			43387.38302		64.65000		324.00000 
 43692.65567		 889.56308			42803.09259		228.94600		875.00000 
 43692.65567		 305.27265			43387.38302		64.65000		324.00000 
 43692.65567		 889.56308			42803.09259		228.94600		875.00000 
 43692.65567		 305.27265			43387.38302		64.65000		324.00000 
 43692.65567		 889.56308			42803.09259		228.94600		875.00000 
 43692.65567		 305.27265			43387.38302		64.65000		324.00000 
 43692.65567		 889.56308			42803.09259		228.94600		875.00000 
 43692.65567		 305.27265			43387.38302		64.65000		324.00000 
 43692.65567		 889.56308			42803.09259		228.94600		875.00000 
 43692.65567		 305.27265			43387.38302		64.65000		324.00000 
 43692.65567		 889.56308			42803.09259		228.94600		875.00000 
 43692.65567		 305.27265			43387.38302		64.65000		324.00000 
 43692.65567		 889.56308			42803.09259		228.94600		875.00000 
 43692.65567		 305.27265			43387.38302		64.65000		324.00000 
 43692.65567		 889.56308			42803.09259		228.94600		875.00000 
 43692.65567		 305.27265			43387.38302		64.65000		324.00000 
 43692.65567		 889.56308			42803.09259		228.94600		875.00000 
 43692.65567		 305.27265			43387.38302		64.65000		324.00000 
 43692.65567		 889.56308			42803.09259		228.94600		875.00000 
 43692.65567		 305.27265			43387.38302		64.65000		324.00000 
 43692.65567		 889.56308			42803.09259		228.94600		875.00000 
 43692.65567		 305.27265			43387.38302		64.65000		324.00000 
 43692.65567		 889.56308			42803.09259		228.94600		875.00000 
 43692.65567		 305.27265			43387.38302		64.65000		324.00000 
 43692.65567		 889.56308			42803.09259		228.94600		875.00000 
 43692.65567		 305.27265			43387.38302		64.65000		324.00000 
 43692.65567		 889.56308			42803.09259		228.94600		875.00000 
 43692.65567		 305.27265			43387.38302		64.65000		324.00000 
 43692.65567		 889.56308			42803.09259		228.94600		875.00000 
 43692.65567		 305.27265			43387.38302		69.63800		324.00000 
 43692.65567		 889.56308			42803.09259		228.94600		875.00000 
 43692.65567		 305.27265			43387.38302		69.63800		324.00000 
 43692.65567		 889.56308			42803.09259		228.94600		875.00000 
 43692.65567		 305.27265			43387.38302		69.63800		324.00000 
 43692.65567		 889.56308			42803.09259		228.94600		875.00000 
 43692.65567		 305.27265			43387.38302		69.63800		324.00000 
 43692.65567		 889.56308			42803.09259		228.94600		875.00000 
 43692.65567		 305.27265			43387.38302		69.63800		324.00000 
 43692.65567		 889.56308			42803.09259		228.94600		875.00000 
 43692.65567		 305.27265			43387.38302		69.63800		324.00000 
 43692.65567		 889.56308			42803.09259		228.94600		875.00000 
 43692.65567		 305.27265			43387.38302		69.63800		324.00000 
 43692.65567		 889.56308			42803.09259		228.94600		875.00000 
 43692.65567		 305.27265			43387.38302		69.63800		324.00000 
 43692.65567		 889.56308			42803.09259		228.94600		875.00000 
 43692.65567		 305.27265			43387.38302		69.63800		324.00000 
 43692.65567		 889.56308			42803.09259		228.94600		875.00000 
 43692.65567		 305.27265			43387.38302		69.63800		324.00000 
 43692.65567		 889.56308			42803.09259		228.94600		875.00000 
 43692.65567		 305.27265			43387.38302		69.63800		324.00000 
 43692.65567		 889.56308			42803.09259		228.94600		875.00000 
 43692.65567		 305.27265			43387.38302		69.63800		324.00000 
 43692.65567		 889.56308			42803.09259		228.94600		875.00000 
 43692.65567		 305.27265			43387.38302		69.63800		324.00000 
 43692.65567		 889.56308			42803.09259		228.94600		875.00000 
 43692.65567		 305.27265			43387.38302		69.63800		324.00000 
 43692.65567		 889.56308			42803.09259		228.94600		875.00000 
 43692.65567		 305.27265			43387.38302		69.63800		324.00000 
 43692.65567		 889.56308			42803.09259		228.94600		875.00000 
 43692.65567		 305.27265			43387.38302		69.63800		324.00000 
 43692.65567		 889.56308			42803.09259		228.94600		875.00000 
 43692.65567		 305.27265			43387.38302		69.63800		324.00000 
 43692.65567		 889.56308			42803.09259		228.94600		875.00000 
 43692.65567		 305.27265			43387.38302		69.63800		324.00000 
 43692.65567		 889.56308			42803.09259		228.94600		875.00000 
 43692.65567		 305.27265			43387.38302		69.63800		324.00000 
 43692.65567		 889.56308			42803.09259		228.94600		875.00000 
 43692.65567		 305.27265			43387.38302		69.63800		324.00000 
 43692.65567		 889.56308			42803.09259		228.94600		875.00000 
 43692.65567		 305.27265			43387.38302		69.63800		324.00000 
 43692.65567		 889.56308			42803.09259		228.94600		875.00000 
 43692.65567		 305.27265			43387.38302		69.63800		324.00000 
 43692.65567		 889.56308			42803.09259		228.94600		875.00000 
 43692.65567		 305.27265			43387.38302		69.63800		324.00000 
 43692.65567		 889.56308			42803.09259		228.94600		875.00000 
 43692.65567		 305.27265			43387.38302		69.63800		324.00000 
 43692.65567		 889.56308			42803.09259		228.94600		875.00000 
 43692.65567		 305.27265			43387.38302		69.63800		324.00000 
 43692.65567		 889.56308			42803.09259		228.94600		875.00000 
 43692.65567		 305.27265			43387.38302		69.63800		324.00000 
 43692.65567		 889.56308			42803.09259		228.94600		875.00000 
 43692.65567		 305.27265			43387.38302		69.63800		324.00000 
 43692.65567		 889.56308			42803.09259		228.94600		875.00000 
 43692.65567		 305.27265			43387.38302		69.63800		324.00000 
 43692.65567		 889.56308			42803.09259		228.94600		875.00000 
 43692.65567		 305.27265			43387.38302		69.63800		324.00000 
 43692.65567		 889.56308			42803.09259		228.94600		875.00000 
 43692.65567		 305.27265			43387.38302		69.63800		324.00000 
 43692.65567		 889.56308			42803.09259		228.94600		875.00000 
 43692.65567		 305.27265			43387.38302		69.63800		324.00000 
 43692.65567		 889.56308			42803.09259		228.94600		875.00000 
 43692.65567		 305.27265			43387.38302		69.63800		324.00000 
 43692.65567		 889.56308			42803.09259		228.94600		875.00000 
 43692.65567		 305.27265			43387.38302		69.63800		324.00000 
 43692.65567		 889.56308			42803.09259		228.94600		875.00000 
 43692.65567		 305.27265			43387.38302		69.63800		324.00000 
 43692.65567		 889.56308			42803.09259		228.94600		875.00000 
 43692.65567		 305.27265			43387.38302		69.63800		324.00000 
 43692.65567		 889.56308			42803.09259		228.94600		875.00000 
 43692.65567		 305.27265			43387.38302		69.63800		324.00000 
 43692.65567		 889.56308			42803.09259		228.94600		875.00000 
 43692.65567		 305.27265			43387.38302		69.63800		324.00000 
 43692.65567		 889.56308			42803.09259		228.94600		875.00000 
 43692.65567		 305.27265			43387.38302		69.63800		324.00000 
 43692.65567		 889.56308			42803.09259		228.94600		875.00000 
 43692.65567		 305.27265			43387.38302		69.63800		324.00000 
 43692.65567		 889.56308			42803.09259		228.94600		875.00000 
 43692.65567		 305.27265			43387.38302		69.63800		324.00000 
 43692.65567		 889.56308			42803.09259		228.94600		875.00000 
 43692.65567		 305.27265			43387.38302		69.63800		324.00000 
 43692.65567		 889.56308			42803.09259		228.94600		875.00000 
 43692.65567		 305.27265			43387.38302		69.63800		324.00000 
 43692.65567		 889.56308			42803.09259		228.94600		875.00000 
 43692.65567		 305.27265			43387.38302		69.63800		324.00000 
 43692.65567		 889.56308			42803.09259		228.94600		875.00000 
 43692.65567		 305.27265			43387.38302		69.63800		324.00000 
 43692.65567		 889.56308			42803.09259		228.94600		875.00000 
 43692.65567		 305.27265			43387.38302		69.63800		324.00000 
 43692.65567		 889.56308			42803.09259		228.94600		875.00000 
 43692.65567		 305.27265			43387.38302		69.63800		324.00000 
 43692.65567		 889.56308			42803.09259		228.94600		875.00000 
 43692.65567		 305.27265			43387.38302		69.63800		324.00000 
 43692.65567		 889.56308			42803.09259		228.94600		875.00000 
 43692.65567		 305.27265			43387.38302		69.63800		324.00000 
 43692.65567		 889.56308			42803.09259		228.94600		875.00000 
 43692.65567		 305.27265			43387.38302		69.63800		324.00000 
 43692.65567		 889.56308			42803.09259		228.94600		875.00000 
 43692.65567		 305.27265			43387.38302		69.63800		324.00000 
 43692.65567		 889.56308			42803.09259		228.94600		875.00000 
 43692.65567		 305.27265			43387.38302		69.63800		324.00000 
 43692.65567		 889.56308			42803.09259		228.94600		875.00000 
 43692.65567		 305.27265			43387.38302		69.63800		324.00000 
 43692.65567		 889.56308			42803.09259		228.94600		875.00000 
 43692.65567		 305.27265			43387.38302		69.63800		324.00000 
 43692.65567		 889.56308			42803.09259		228.94600		875.00000 
 43692.65567		 305.27265			43387.38302		69.63800		324.00000 
 43692.65567		 889.56308			42803.09259		228.94600		875.00000 
 43692.65567		 305.27265			43387.38302		69.63800		324.00000 
 43692.65567		 889.56308			42803.09259		228.94600		875.00000 
 43692.65567		 305.27265			43387.38302		69.63800		324.00000 
 43692.65567		 889.56308			42803.09259		228.94600		875.00000 
 43692.65567		 305.27265			43387.38302		69.63800		324.00000 
 43692.65567		 889.56308			42803.09259		228.94600		875.00000 
 43692.65567		 305.27265			43387.38302		69.63800		324.00000 
 43692.65567		 889.56308			42803.09259		228.94600		875.00000 
 43692.65567		 305.27265			43387.38302		69.63800		324.00000 
 43692.65567		 889.56308			42803.09259		228.94600		875.00000 
 43692.65567		 305.27265			43387.38302		69.63800		324.00000 
 43692.65567		 889.56308			42803.09259		228.94600		875.00000 
 43692.65567		 305.27265			43387.38302		69.63800		324.00000 
 43692.65567		 889.56308			42803.09259		228.94600		875.00000 
 43692.65567		 305.27265			43387.38302		69.63800		324.00000 
 43692.65567		 889.56308			42803.09259		228.94600		875.00000 
 43692.65567		 305.27265			43387.38302		69.63800		324.00000 
 43692.65567		 889.56308			42803.09259		228.94600		875.00000 
 43692.65567		 305.27265			43387.38302		69.63800		324.00000 
 43692.65567		 889.56308			42803.09259		228.94600		875.00000 
 43692.65567		 305.27265			43387.38302		69.63800		324.00000 
 43692.65567		 889.56308			42803.09259		228.94600		875.00000 
 43692.65567		 305.27265			43387.38302		69.63800		324.00000 
 43692.65567		 889.56308			42803.09259		228.94600		875.00000 
 43692.65567		 305.27265			43387.38302		69.63800		324.00000 
 43692.65567		 889.56308			42803.09259		228.94600		875.00000 
 43692.65567		 305.27265			43387.38302		69.63800		324.00000 
 43692.65567		 889.56308			42803.09259		228.94600		875.00000 
 43692.65567		 305.27265			43387.38302		69.63800		324.00000 
 43692.65567		 889.56308			42803.09259		228.94600		875.00000 
 43692.65567		 305.27265			43387.38302		69.63800		324.00000 
 43692.65567		 889.56308			42803.09259		228.94600		875.00000 
 43692.65567		 305.27265			43387.38302		69.63800		324.00000 
 43692.65567		 889.56308			42803.09259		228.94600		875.00000 
 43692.65567		 305.27265			43387.38302		69.63800		324.00000 
 43692.65567		 889.56308			42803.09259		228.94600		875.00000 
 43692.65567		 305.27265			43387.38302		69.63800		324.00000 
 43692.65567		 889.56308			42803.09259		228.94600		875.00000 
 43692.65567		 305.27265			43387.38302		69.63800		324.00000 
 43692.65567		 889.56308			42803.09259		228.94600		875.00000 
 43692.65567		 305.27265			43387.38302		69.63800		324.00000 
 43692.65567		 889.56308			42803.09259		228.94600		875.00000 
 43692.65567		 305.27265			43387.38302		69.63800		324.00000 
 43692.65567		 889.56308			42803.09259		228.94600		875.00000 
 43692.65567		 305.27265			43387.38302		69.63800		324.00000 
 43692.65567		 889.56308			42803.09259		228.94600		875.00000 
 43692.65567		 305.27265			43387.38302		69.63800		324.00000 
 43692.65567		 889.56308			42803.09259		228.94600		875.00000 
 43692.65567		 305.27265			43387.38302		69.63800		324.00000 
 43692.65567		 889.56308			42803.09259		228.94600		875.00000 
 43692.65567		 305.27265			43387.38302		69.63800		324.00000 
 43692.65567		 889.56308			42803.09259		228.94600		875.00000 
 43692.65567		 305.27265			43387.38302		69.63800		324.00000 
 43692.65567		 889.56308			42803.09259		228.94600		875.00000 
 43692.65567		 305.27265			43387.38302		69.63800		324.00000 
 43692.65567		 889.56308			42803.09259		228.94600		875.00000 
 43692.65567		 305.27265			43387.38302		69.63800		324.00000 
 43692.65567		 889.56308			42803.09259		228.94600		875.00000 
 43692.65567		 305.27265			43387.38302		69.63800		324.00000 
 43692.65567		 889.56308			42803.09259		228.94600		875.00000 
 43692.65567		 305.27265			43387.38302		69.63800		324.00000 
 43692.65567		 889.56308			42803.09259		228.94600		875.00000 
 43692.65567		 305.27265			43387.38302		69.63800		324.00000 
 43692.65567		 889.56308			42803.09259		228.94600		875.00000 
 43692.65567		 305.27265			43387.38302		69.63800		324.00000 
 43692.65567		 889.56308			42803.09259		228.94600		875.00000 
 43692.65567		 305.27265			43387.38302		69.63800		324.00000 
 43692.65567		 889.56308			42803.09259		228.94600		875.00000 
 43692.65567		 305.27265			43387.38302		69.63800		324.00000 
 43692.65567		 889.56308			42803.09259		228.94600		875.00000 
 43692.65567		 305.27265			43387.38302		69.63800		324.00000 
 43692.65567		 889.56308			42803.09259		228.94600		875.00000 
 43692.65567		 305.27265			43387.38302		69.63800		324.00000 
 43692.65567		 889.56308			42803.09259		228.94600		875.00000 
 43692.65567		 305.27265			43387.38302		69.63800		324.00000 
 43692.65567		 889.56308			42803.09259		228.94600		875.00000 
 43692.65567		 305.27265			43387.38302		69.63800		324.00000 
 43692.65567		 889.56308			42803.09259		228.94600		875.00000 
 43692.65567		 305.27265			43387.38302		69.63800		324.00000 
 43692.65567		 889.56308			42803.09259		228.94600		875.00000 
 43692.65567		 305.27265			43387.38302		69.63800		324.00000 
 43692.65567		 889.56308			42803.09259		228.94600		875.00000 
 43692.65567		 305.27265			43387.38302		69.63800		324.00000 
 43692.65567		 889.56308			42803.09259		228.94600		875.00000 
 43692.65567		 305.27265			43387.38302		69.63800		324.00000 
 43692.65567		 889.56308			42803.09259		228.94600		875.00000 
 43692.65567		 305.27265			43387.38302		69.63800		324.00000 
 43692.65567		 889.56308			42803.09259		228.94600		875.00000 
 43692.65567		 305.27265			43387.38302		69.63800		324.00000 
 43692.65567		 889.56308			42803.09259		228.94600		875.00000 
 43692.65567		 305.27265			43387.38302		69.63800		324.00000 
 43692.65567		 889.56308			42803.09259		228.94600		875.00000 
 43692.65567		 305.27265			43387.38302		69.63800		324.00000 
 43692.65567		 889.56308			42803.09259		228.94600		875.00000 
 43692.65567		 305.27265			43387.38302		69.63800		324.00000 
 43692.65567		 889.56308			42803.09259		228.94600		875.00000 
 43692.65567		 305.27265			43387.38302		69.63800		324.00000 
 43692.65567		 889.56308			42803.09259		228.94600		875.00000 
 43692.65567		 305.27265			43387.38302		69.63800		324.00000 
 43692.65567		 889.56308			42803.09259		228.94600		875.00000 
 43692.65567		 305.27265			43387.38302		69.63800		324.00000 
 43692.65567		 889.56308			42803.09259		228.94600		875.00000 
 43692.65567		 305.27265			43387.38302		69.63800		324.00000 
 43692.65567		 889.56308			42803.09259		228.94600		875.00000 
 43692.65567		 305.27265			43387.38302		69.63800		324.00000 
 43692.65567		 889.56308			42803.09259		228.94600		875.00000 
 43692.65567		 305.27265			43387.38302		69.63800		324.00000 
 43692.65567		 889.56308			42803.09259		228.94600		875.00000 
 43692.65567		 305.27265			43387.38302		69.63800		324.00000 
 43692.65567		 889.56308			42803.09259		228.94600		875.00000 
 43692.65567		 305.27265			43387.38302		69.63800		324.00000 
 43692.65567		 889.56308			42803.09259		228.94600		875.00000 
 43692.65567		 305.27265			43387.38302		69.63800		324.00000 
 43692.65567		 889.56308			42803.09259		228.94600		875.00000 
 43692.65567		 305.27265			43387.38302		69.63800		324.00000 
 43692.65567		 889.56308			42803.09259		228.94600		875.00000 
 43692.65567		 305.27265			43387.38302		69.63800		324.00000 
 43692.65567		 889.56308			42803.09259		228.94600		875.00000 
 43692.65567		 305.27265			43387.38302		69.63800		324.00000 
 43692.65567		 889.56308			42803.09259		228.94600		875.00000 
 43692.65567		 305.27265			43387.38302		69.63800		324.00000 
 43692.65567		 889.56308			42803.09259		228.94600		875.00000 
 43692.65567		 305.27265			43387.38302		69.63800		324.00000 
 43692.65567		 889.56308			42803.09259		228.94600		875.00000 
 43692.65567		 305.27265			43387.38302		69.63800		324.00000 
 43692.65567		 889.56308			42803.09259		228.94600		875.00000 
 43692.65567		 305.27265			43387.38302		69.63800		324.00000 
 43692.65567		 889.56308			42803.09259		228.94600		875.00000 
 43692.65567		 305.27265			43387.38302		69.63800		324.00000 
 43692.65567		 889.56308			42803.09259		228.94600		875.00000 
 43692.65567		 305.27265			43387.38302		69.63800		324.00000 
 43692.65567		 889.56308			42803.09259		228.94600		875.00000 
 43692.65567		 305.27265			43387.38302		69.63800		324.00000 
 43692.65567		 889.56308			42803.09259		228.94600		875.00000 
 43692.65567		 305.27265			43387.38302		69.63800		324.00000 
 43692.65567		 889.56308			42803.09259		228.94600		875.00000 
 43692.65567		 305.27265			43387.38302		69.63800		324.00000 
 43692.65567		 889.56308			42803.09259		228.94600		875.00000 
 43692.65567		 305.27265			43387.38302		69.63800		324.00000 
 43692.65567		 889.56308			42803.09259		228.94600		875.00000 
 43692.65567		 305.27265			43387.38302		69.63800		324.00000 
 43692.65567		 889.56308			42803.09259		228.94600		875.00000 
 43692.65567		 305.27265			43387.38302		69.63800		324.00000 
 43692.65567		 889.56308			42803.09259		228.94600		875.00000 
 43692.65567		 305.27265			43387.38302		69.63800		324.00000 
 43692.65567		 889.56308			42803.09259		228.94600		875.00000 
 43692.65567		 305.27265			43387.38302		69.63800		324.00000 
 43692.65567		 889.56308			42803.09259		228.94600		875.00000 
 43692.65567		 305.27265			43387.38302		69.63800		324.00000 
 43692.65567		 889.56308			42803.09259		228.94600		875.00000 
 43692.65567		 305.27265			43387.38302		69.63800		324.00000 
 43692.65567		 889.56308			42803.09259		228.94600		875.00000 
 43692.65567		 305.27265			43387.38302		69.63800		324.00000 
 43692.65567		 889.56308			42803.09259		228.94600		875.00000 
 43692.65567		 305.27265			43387.38302		69.63800		324.00000 
 43692.65567		 889.56308			42803.09259		228.94600		875.00000 
 43692.65567		 305.27265			43387.38302		69.63800		324.00000 
 43692.65567		 889.56308			42803.09259		228.94600		875.00000 
 43692.65567		 305.27265			43387.38302		69.63800		324.00000 
 43692.65567		 889.56308			42803.09259		228.94600		875.00000 
 43692.65567		 305.27265			43387.38302		69.63800		324.00000 
 43692.65567		 889.56308			42803.09259		228.94600		875.00000 
 43692.65567		 305.27265			43387.38302		69.63800		324.00000 
 43692.65567		 889.56308			42803.09259		228.94600		875.00000 
 43692.65567		 305.27265			43387.38302		69.63800		324.00000 
 43692.65567		 889.56308			42803.09259		228.94600		875.00000 
 43692.65567		 305.27265			43387.38302		69.63800		324.00000 
 43692.65567		 889.56308			42803.09259		228.94600		875.00000 
 43692.65567		 305.27265			43387.38302		69.63800		324.00000 
 43692.65567		 889.56308			42803.09259		228.94600		875.00000 
 43692.65567		 305.27265			43387.38302		69.63800		324.00000 
 43692.65567		 889.56308			42803.09259		228.94600		875.00000 
 43692.65567		 305.27265			43387.38302		69.63800		324.00000 
 43692.65567		 889.56308			42803.09259		228.94600		875.00000 
 43692.65567		 305.27265			43387.38302		69.63800		324.00000 
 43692.65567		 889.56308			42803.09259		228.94600		875.00000 
 43692.65567		 305.27265			43387.38302		69.63800		324.00000 
 43692.65567		 889.56308			42803.09259		228.94600		875.00000 
 43692.65567		 305.27265			43387.38302		69.63800		324.00000 
 43692.65567		 889.56308			42803.09259		228.94600		875.00000 
 43692.65567		 305.27265			43387.38302		69.63800		324.00000 
 43692.65567		 889.56308			42803.09259		228.94600		875.00000 
 43692.65567		 305.27265			43387.38302		69.63800		324.00000 
 43692.65567		 889.56308			42803.09259		228.94600		875.00000 
 43692.65567		 305.27265			43387.38302		69.63800		324.00000 
 43692.65567		 889.56308			42803.09259		228.94600		875.00000 
 43692.65567		 305.27265			43387.38302		69.63800		324.00000 
 43692.65567		 889.56308			42803.09259		228.94600		875.00000 
 43692.65567		 305.27265			43387.38302		69.63800		324.00000 
 43692.65567		 889.56308			42803.09259		228.94600		875.00000 
 43692.65567		 305.27265			43387.38302		69.63800		324.00000 
 43692.65567		 889.56308			42803.09259		228.94600		875.00000 
 43692.65567		 305.27265			43387.38302		69.63800		324.00000 
 43692.65567		 889.56308			42803.09259		228.94600		875.00000 
 43692.65567		 305.27265			43387.38302		69.63800		324.00000 
 43692.65567		 889.56308			42803.09259		228.94600		875.00000 
 43692.65567		 305.27265			43387.38302		69.63800		324.00000 
 43692.65567		 889.56308			42803.09259		228.94600		875.00000 
 43692.65567		 305.27265			43387.38302		69.63800		324.00000 
 43692.65567		 889.56308			42803.09259		228.94600		875.00000 
 43692.65567		 305.27265			43387.38302		69.63800		324.00000 
 43692.65567		 889.56308			42803.09259		228.94600		875.00000 
 43692.65567		 305.27265			43387.38302		69.63800		324.00000 
 43692.65567		 889.56308			42803.09259		228.94600		875.00000 
 43692.65567		 305.27265			43387.38302		69.63800		324.00000 
 43692.65567		 889.56308			42803.09259		228.94600		875.00000 
 43692.65567		 305.27265			43387.38302		69.63800		324.00000 
 43692.65567		 889.56308			42803.09259		228.94600		875.00000 
 43692.65567		 305.27265			43387.38302		69.63800		324.00000 
 43692.65567		 889.56308			42803.09259		228.94600		875.00000 
 43692.65567		 305.27265			43387.38302		69.63800		324.00000 
 43692.65567		 889.56308			42803.09259		228.94600		875.00000 
 43692.65567		 305.27265			43387.38302		69.63800		324.00000 
 43692.65567		 889.56308			42803.09259		228.94600		875.00000 
 43692.65567		 305.27265			43387.38302		69.63800		324.00000 
 43692.65567		 889.56308			42803.09259		228.94600		875.00000 
 43692.65567		 305.27265			43387.38302		69.63800		324.00000 
 43692.65567		 889.56308			42803.09259		228.94600		875.00000 
 43692.65567		 305.27265			43387.38302		69.63800		324.00000 
 43692.65567		 889.56308			42803.09259		228.94600		875.00000 
 43692.65567		 305.27265			43387.38302		69.63800		324.00000 
 43692.65567		 889.56308			42803.09259		228.94600		875.00000 
 43692.65567		 305.27265			43387.38302		69.63800		324.00000 
 43692.65567		 889.56308			42803.09259		228.94600		875.00000 
 43692.65567		 305.27265			43387.38302		69.63800		324.00000 
 43692.65567		 889.56308			42803.09259		228.94600		875.00000 
 43692.65567		 305.27265			43387.38302		69.63800		324.00000 
 43692.65567		 889.56308			42803.09259		228.94600		875.00000 
 43692.65567		 305.27265			43387.38302		69.63800		324.00000 
 43692.65567		 889.56308			42803.09259		228.94600		875.00000 
 43692.65567		 305.27265			43387.38302		69.63800		324.00000 
 43692.65567		 889.56308			42803.09259		228.94600		875.00000 
 43692.65567		 305.27265			43387.38302		69.63800		324.00000 
 43692.65567		 889.56308			42803.09259		228.94600		875.00000 
 43692.65567		 305.27265			43387.38302		69.63800		324.00000 
 43692.65567		 889.56308			42803.09259		228.94600		875.00000 
 43692.65567		 305.27265			43387.38302		69.63800		324.00000 
 43692.65567		 889.56308			42803.09259		228.94600		875.00000 
 43692.65567		 305.27265			43387.38302		69.63800		324.00000 
 43692.65567		 889.56308			42803.09259		228.94600		875.00000 
 43692.65567		 305.27265			43387.38302		69.63800		324.00000 
 43692.65567		 889.56308			42803.09259		228.94600		875.00000 
 43692.65567		 305.27265			43387.38302		69.63800		324.00000 
 43692.65567		 889.56308			42803.09259		228.94600		875.00000 
 43692.65567		 305.27265			43387.38302		69.63800		324.00000 
 43692.65567		 889.56308			42803.09259		228.94600		875.00000 
 43692.65567		 305.27265			43387.38302		69.63800		324.00000 
 43692.65567		 889.56308			42803.09259		228.94600		875.00000 
 43692.65567		 305.27265			43387.38302		69.63800		324.00000 
 43692.65567		 889.56308			42803.09259		228.94600		875.00000 
 43692.65567		 305.27265			43387.38302		69.63800		324.00000 
 43692.65567		 889.56308			42803.09259		228.94600		875.00000 
 43692.65567		 305.27265			43387.38302		69.63800		324.00000 
 43692.65567		 889.56308			42803.09259		228.94600		875.00000 
 43692.65567		 305.27265			43387.38302		69.63800		324.00000 
 43692.65567		 889.56308			42803.09259		228.94600		875.00000 
 43692.65567		 305.27265			43387.38302		69.63800		324.00000 
 43692.65567		 889.56308			42803.09259		228.94600		875.00000 
 43692.65567		 305.27265			43387.38302		69.63800		324.00000 
 43692.65567		 889.56308			42803.09259		228.94600		875.00000 
 43692.65567		 305.27265			43387.38302		69.63800		324.00000 
 43692.65567		 889.56308			42803.09259		228.94600		875.00000 
 43692.65567		 305.27265			43387.38302		69.63800		324.00000 
 43692.65567		 889.56308			42803.09259		228.94600		875.00000 
 43692.65567		 305.27265			43387.38302		69.63800		324.00000 
 43692.65567		 889.56308			42803.09259		228.94600		875.00000 
 43692.65567		 305.27265			43387.38302		69.63800		324.00000 
 43692.65567		 889.56308			42803.09259		228.94600		875.00000 
 43692.65567		 305.27265			43387.38302		69.63800		324.00000 
 43692.65567		 889.56308			42803.09259		228.94600		875.00000 
 43692.65567		 305.27265			43387.38302		69.63800		324.00000 
 43692.65567		 889.56308			42803.09259		228.94600		875.00000 
 43692.65567		 305.27265			43387.38302		69.63800		324.00000 
 43692.65567		 889.56308			42803.09259		228.94600		875.00000 
 43692.65567		 305.27265			43387.38302		69.63800		324.00000 
 43692.65567		 889.56308			42803.09259		228.94600		875.00000 
 43692.65567		 305.27265			43387.38302		69.63800		324.00000 
 43692.65567		 889.56308			42803.09259		228.94600		875.00000 
 43692.65567		 305.27265			43387.38302		69.63800		324.00000 
 43692.65567		 889.56308			42803.09259		228.94600		875.00000 
 43692.65567		 305.27265			43387.38302		69.63800		324.00000 
 43692.65567		 889.56308			42803.09259		228.94600		875.00000 
 43692.65567		 305.27265			43387.38302		69.63800		324.00000 
 43692.65567		 889.56308			42803.09259		228.94600		875.00000 
 43692.65567		 305.27265			43387.38302		69.63800		324.00000 
 43692.65567		 889.56308			42803.09259		228.94600		875.00000 
 43692.65567		 305.27265			43387.38302		69.63800		324.00000 
 43692.65567		 889.56308			42803.09259		228.94600		875.00000 
 43692.65567		 305.27265			43387.38302		69.63800		324.00000 
 43692.65567		 889.56308			42803.09259		228.94600		875.00000 
 43692.65567		 305.27265			43387.38302		69.63800		324.00000 
 43692.65567		 889.56308			42803.09259		228.94600		875.00000 
 43692.65567		 305.27265			43387.38302		69.63800		324.00000 
 43692.65567		 889.56308			42803.09259		228.94600		875.00000 
 43692.65567		 305.27265			43387.38302		69.63800		324.00000 
 43692.65567		 889.56308			42803.09259		228.94600		875.00000 
 43692.65567		 305.27265			43387.38302		69.63800		324.00000 
 43692.65567		 889.56308			42803.09259		228.94600		875.00000 
 43692.65567		 305.27265			43387.38302		69.63800		324.00000 
 43692.65567		 889.56308			42803.09259		228.94600		875.00000 
 43692.65567		 305.27265			43387.38302		69.63800		324.00000 
 43692.65567		 889.56308			42803.09259		228.94600		875.00000 
 43692.65567		 305.27265			43387.38302		69.63800		324.00000 
 43692.65567		 889.56308			42803.09259		228.94600		875.00000 
 43692.65567		 305.27265			43387.38302		69.63800		324.00000 
 43692.65567		 889.56308			42803.09259		228.94600		875.00000 
 43692.65567		 305.27265			43387.38302		69.63800		324.00000 
 43692.65567		 889.56308			42803.09259		228.94600		875.00000 
 43692.65567		 305.27265			43387.38302		69.63800		324.00000 
 43692.65567		 889.56308			42803.09259		228.94600		875.00000 
 43692.65567		 305.27265			43387.38302		69.63800		324.00000 
 43692.65567		 889.56308			42803.09259		228.94600		875.00000 
 43692.65567		 305.27265			43387.38302		69.63800		324.00000 
 43692.65567		 889.56308			42803.09259		228.94600		875.00000 
 43692.65567		 305.27265			43387.38302		69.63800		324.00000 
 43692.65567		 889.56308			42803.09259		228.94600		875.00000 
 43692.65567		 305.27265			43387.38302		69.63800		324.00000 
 43692.65567		 889.56308			42803.09259		228.94600		875.00000 
 43692.65567		 305.27265			43387.38302		69.63800		324.00000 
 43692.65567		 889.56308			42803.09259		228.94600		875.00000 
 43692.65567		 305.27265			43387.38302		69.63800		324.00000 
 43692.65567		 889.56308			42803.09259		228.94600		875.00000 
 43692.65567		 305.27265			43387.38302		69.63800		324.00000 
 43692.65567		 889.56308			42803.09259		228.94600		875.00000 
 43692.65567		 305.27265			43387.38302		69.63800		324.00000 
 43692.65567		 889.56308			42803.09259		228.94600		875.00000 
 43692.65567		 305.27265			43387.38302		69.63800		324.00000 
 43692.65567		 889.56308			42803.09259		228.94600		875.00000 
 43692.65567		 305.27265			43387.38302		69.63800		324.00000 
 43692.65567		 889.56308			42803.09259		228.94600		875.00000 
 43692.65567		 305.27265			43387.38302		69.63800		324.00000 
 43692.65567		 889.56308			42803.09259		228.94600		875.00000 
 43692.65567		 305.27265			43387.38302		69.63800		324.00000 
 43692.65567		 889.56308			42803.09259		228.94600		875.00000 
 43692.65567		 305.27265			43387.38302		69.63800		324.00000 
 43692.65567		 889.56308			42803.09259		228.94600		875.00000 
 43692.65567		 305.27265			43387.38302		69.63800		324.00000 
 43692.65567		 889.56308			42803.09259		228.94600		875.00000 
 43692.65567		 305.27265			43387.38302		69.63800		324.00000 
 43692.65567		 889.56308			42803.09259		228.94600		875.00000 
 43692.65567		 305.27265			43387.38302		69.63800		324.00000 
 43692.65567		 889.56308			42803.09259		228.94600		875.00000 
 43692.65567		 305.27265			43387.38302		69.63800		324.00000 
 43692.65567		 889.56308			42803.09259		228.94600		875.00000 
 43692.65567		 305.27265			43387.38302		69.63800		324.00000 
 43692.65567		 889.56308			42803.09259		228.94600		875.00000 
 43692.65567		 305.27265			43387.38302		69.63800		324.00000 
 43692.65567		 889.56308			42803.09259		228.94600		875.00000 
 43692.65567		 305.27265			43387.38302		69.63800		324.00000 
 43692.65567		 889.56308			42803.09259		228.94600		875.00000 
 43692.65567		 305.27265			43387.38302		69.63800		324.00000 
 43692.65567		 889.56308			42803.09259		228.94600		875.00000 
 43692.65567		 305.27265			43387.38302		69.63800		324.00000 
 43692.65567		 889.56308			42803.09259		228.94600		875.00000 
 43692.65567		 305.27265			43387.38302		69.63800		324.00000 
 43692.65567		 889.56308			42803.09259		228.94600		875.00000 
 43692.65567		 305.27265			43387.38302		69.63800		324.00000 
 43692.65567		 889.56308			42803.09259		228.94600		875.00000 
 43692.65567		 305.27265			43387.38302		69.63800		324.00000 
 43692.65567		 889.56308			42803.09259		228.94600		875.00000 
 43692.65567		 305.27265			43387.38302		69.63800		324.00000 
 43692.65567		 889.56308			42803.09259		228.94600		875.00000 
 43692.65567		 305.27265			43387.38302		69.63800		324.00000 
 43692.65567		 889.56308			42803.09259		228.94600		875.00000 
 43692.65567		 305.27265			43387.38302		69.63800		324.00000 
 43692.65567		 889.56308			42803.09259		228.94600		875.00000 
 43692.65567		 305.27265			43387.38302		69.63800		324.00000 
 43692.65567		 889.56308			42803.09259		228.94600		875.00000 
 43692.65567		 305.27265			43387.38302		69.63800		324.00000 
 43692.65567		 889.56308			42803.09259		228.94600		875.00000 
 43692.65567		 305.27265			43387.38302		69.63800		324.00000 
 43692.65567		 889.56308			42803.09259		228.94600		875.00000 
 43692.65567		 305.27265			43387.38302		69.63800		324.00000 
 43692.65567		 889.56308			42803.09259		228.94600		875.00000 
 43692.65567		 305.27265			43387.38302		69.63800		324.00000 
 43692.65567		 889.56308			42803.09259		228.94600		875.00000 
 43692.65567		 305.27265			43387.38302		69.63800		324.00000 
 43692.65567		 889.56308			42803.09259		228.94600		875.00000 
 43692.65567		 305.27265			43387.38302		69.63800		324.00000 
 43692.65567		 889.56308			42803.09259		228.94600		875.00000 
 43692.65567		 305.27265			43387.38302		69.63800		324.00000 
 43692.65567		 889.56308			42803.09259		228.94600		875.00000 
 43692.65567		 305.27265			43387.38302		69.63800		324.00000 
 43692.65567		 889.56308			42803.09259		228.94600		875.00000 
 43692.65567		 305.27265			43387.38302		69.63800		324.00000 
 43692.65567		 889.56308			42803.09259		228.94600		875.00000 
 43692.65567		 305.27265			43387.38302		69.63800		324.00000 
 43692.65567		 889.56308			42803.09259		228.94600		875.00000 
 43692.65567		 305.27265			43387.38302		69.63800		324.00000 
 43692.65567		 889.56308			42803.09259		228.94600		875.00000 
 43692.65567		 305.27265			43387.38302		69.63800		324.00000 
 43692.65567		 889.56308			42803.09259		228.94600		875.00000 
 43692.65567		 305.27265			43387.38302		69.63800		324.00000 
 43692.65567		 889.56308			42803.09259		228.94600		875.00000 
 43692.65567		 305.27265			43387.38302		69.63800		324.00000 
 43692.65567		 889.56308			42803.09259		228.94600		875.00000 
 43692.65567		 305.27265			43387.38302		69.63800		324.00000 
 43692.65567		 889.56308			42803.09259		228.94600		875.00000 
 43692.65567		 305.27265			43387.38302		69.63800		324.00000 
 43692.65567		 889.56308			42803.09259		228.94600		875.00000 
 43692.65567		 305.27265			43387.38302		69.63800		324.00000 
 43692.65567		 889.56308			42803.09259		228.94600		875.00000 
 43692.65567		 305.27265			43387.38302		69.63800		324.00000 
 43692.65567		 889.56308			42803.09259		228.94600		875.00000 
 43692.65567		 305.27265			43387.38302		69.63800		324.00000 
 43692.65567		 889.56308			42803.09259		228.94600		875.00000 
 43692.65567		 305.27265			43387.38302		69.63800		324.00000 
 43692.65567		 889.56308			42803.09259		228.94600		875.00000 
 43692.65567		 305.27265			43387.38302		69.63800		324.00000 
 43692.65567		 889.56308			42803.09259		228.94600		875.00000 
 43692.65567		 305.27265			43387.38302		69.63800		324.00000 
 43692.65567		 889.56308			42803.09259		228.94600		875.00000 
 43692.65567		 305.27265			43387.38302		69.63800		324.00000 
 43692.65567		 889.56308			42803.09259		228.94600		875.00000 
 43692.65567		 305.27265			43387.38302		69.63800		324.00000 
 43692.65567		 889.56308			42803.09259		228.94600		875.00000 
 43692.65567		 305.27265			43387.38302		69.63800		324.00000 
 43692.65567		 889.56308			42803.09259		228.94600		875.00000 
 43692.65567		 305.27265			43387.38302		69.63800		324.00000 
 43692.65567		 889.56308			42803.09259		228.94600		875.00000 
 43692.65567		 305.27265			43387.38302		69.63800		324.00000 
 43692.65567		 889.56308			42803.09259		228.94600		875.00000 
 43692.65567		 305.27265			43387.38302		69.63800		324.00000 
 43692.65567		 889.56308			42803.09259		228.94600		875.00000 
 43692.65567		 305.27265			43387.38302		69.63800		324.00000 
 43692.65567		 889.56308			42803.09259		228.94600		875.00000 
 43692.65567		 305.27265			43387.38302		69.63800		324.00000 
 43692.65567		 889.56308			42803.09259		228.94600		875.00000 
 43692.65567		 305.27265			43387.38302		69.63800		324.00000 
 43692.65567		 889.56308			42803.09259		228.94600		875.00000 
 43692.65567		 305.27265			43387.38302		69.63800		324.00000 
 43692.65567		 889.56308			42803.09259		228.94600		875.00000 
 43692.65567		 305.27265			43387.38302		69.63800		324.00000 
 43692.65567		 889.56308			42803.09259		228.94600		875.00000 
 43692.65567		 305.27265			43387.38302		69.63800		324.00000 
 43692.65567		 889.56308			42803.09259		228.94600		875.00000 
 43692.65567		 305.27265			43387.38302		69.63800		324.00000 
 43692.65567		 889.56308			42803.09259		228.94600		875.00000 
 43692.65567		 305.27265			43387.38302		69.63800		324.00000 
 43692.65567		 889.56308			42803.09259		228.94600		875.00000 
 43692.65567		 305.27265			43387.38302		69.63800		324.00000 
 43692.65567		 889.56308			42803.09259		228.94600		875.00000 
 43692.65567		 305.27265			43387.38302		69.63800		324.00000 
 43692.65567		 889.56308			42803.09259		228.94600		875.00000 
 43692.65567		 305.27265			43387.38302		69.63800		324.00000 
 43692.65567		 889.56308			42803.09259		228.94600		875.00000 
 43692.65567		 305.27265			43387.38302		69.63800		324.00000 
 43692.65567		 889.56308			42803.09259		228.94600		875.00000 
 43692.65567		 305.27265			43387.38302		69.63800		324.00000 
 43692.65567		 889.56308			42803.09259		228.94600		875.00000 
 43692.65567		 305.27265			43387.38302		69.63800		324.00000 
 43692.65567		 889.56308			42803.09259		228.94600		875.00000 
 43692.65567		 305.27265			43387.38302		69.63800		324.00000 
 43692.65567		 889.56308			42803.09259		228.94600		875.00000 
 43692.65567		 305.27265			43387.38302		69.63800		324.00000 
 43692.65567		 889.56308			42803.09259		228.94600		875.00000 
 43692.65567		 305.27265			43387.38302		69.63800		324.00000 
 43692.65567		 889.56308			42803.09259		228.94600		875.00000 
 43692.65567		 305.27265			43387.38302		69.63800		324.00000 
 43692.65567		 889.56308			42803.09259		228.94600		875.00000 
 43692.65567		 305.27265			43387.38302		69.63800		324.00000 
 43692.65567		 889.56308			42803.09259		228.94600		875.00000 
 43692.65567		 305.27265			43387.38302		69.63800		324.00000 
 43692.65567		 889.56308			42803.09259		228.94600		875.00000 
 43692.65567		 305.27265			43387.38302		69.63800		324.00000 
 43692.65567		 889.56308			42803.09259		228.94600		875.00000 
 43692.65567		 305.27265			43387.38302		69.63800		324.00000 
 43692.65567		 889.56308			42803.09259		228.94600		875.00000 
 43692.65567		 305.27265			43387.38302		69.63800		324.00000 
 43692.65567		 889.56308			42803.09259		228.94600		875.00000 
 43692.65567		 305.27265			43387.38302		69.63800		324.00000 
 43692.65567		 889.56308			42803.09259		228.94600		875.00000 
 43692.65567		 305.27265			43387.38302		69.63800		324.00000 
 43692.65567		 889.56308			42803.09259		228.94600		875.00000 
 43692.65567		 305.27265			43387.38302		69.63800		324.00000 
 43692.65567		 889.56308			42803.09259		228.94600		875.00000 
 43692.65567		 305.27265			43387.38302		69.63800		324.00000 
 43692.65567		 889.56308			42803.09259		228.94600		875.00000 
 43692.65567		 305.27265			43387.38302		69.63800		324.00000 
 43692.65567		 889.56308			42803.09259		228.94600		875.00000 
 43692.65567		 305.27265			43387.38302		69.63800		324.00000 
 43692.65567		 889.56308			42803.09259		228.94600		875.00000 
 43692.65567		 305.27265			43387.38302		69.63800		324.00000 
 43692.65567		 889.56308			42803.09259		228.94600		875.00000 
 43692.65567		 305.27265			43387.38302		69.63800		324.00000 
 43692.65567		 889.56308			42803.09259		228.94600		875.00000 
 43692.65567		 305.27265			43387.38302		69.63800		324.00000 
 43692.65567		 889.56308			42803.09259		228.94600		875.00000 
 43692.65567		 305.27265			43387.38302		69.63800		324.00000 
 43692.65567		 889.56308			42803.09259		228.94600		875.00000 
 43692.65567		 305.27265			43387.38302		69.63800		324.00000 
 43692.65567		 889.56308			42803.09259		228.94600		875.00000 
 43692.65567		 305.27265			43387.38302		69.63800		324.00000 
 43692.65567		 889.56308			42803.09259		228.94600		875.00000 
 43692.65567		 305.27265			43387.38302		69.63800		324.00000 
 43692.65567		 889.56308			42803.09259		228.94600		875.00000 
 43692.65567		 305.27265			43387.38302		69.63800		324.00000 
 43692.65567		 889.56308			42803.09259		228.94600		875.00000 
 43692.65567		 305.27265			43387.38302		69.63800		324.00000 
 43692.65567		 889.56308			42803.09259		228.94600		875.00000 
 43692.65567		 305.27265			43387.38302		69.63800		324.00000 
 43692.65567		 889.56308			42803.09259		228.94600		875.00000 
 43692.65567		 305.27265			43387.38302		69.63800		324.00000 
 43692.65567		 889.56308			42803.09259		228.94600		875.00000 
 43692.65567		 305.27265			43387.38302		69.63800		324.00000 
 43692.65567		 889.56308			42803.09259		228.94600		875.00000 
 43692.65567		 305.27265			43387.38302		69.63800		324.00000 
 43692.65567		 889.56308			42803.09259		228.94600		875.00000 
 43692.65567		 305.27265			43387.38302		69.63800		324.00000 
 43692.65567		 889.56308			42803.09259		228.94600		875.00000 
 43692.65567		 305.27265			43387.38302		69.63800		324.00000 
 43692.65567		 889.56308			42803.09259		228.94600		875.00000 
 43692.65567		 305.27265			43387.38302		69.63800		324.00000 
 43692.65567		 889.56308			42803.09259		228.94600		875.00000 
 43692.65567		 305.27265			43387.38302		69.63800		324.00000 
 43692.65567		 889.56308			42803.09259		228.94600		875.00000 
 43692.65567		 305.27265			43387.38302		69.63800		324.00000 
 43692.65567		 889.56308			42803.09259		228.94600		875.00000 
 43692.65567		 305.27265			43387.38302		69.63800		324.00000 
 43692.65567		 889.56308			42803.09259		228.94600		875.00000 
 43692.65567		 305.27265			43387.38302		69.63800		324.00000 
 43692.65567		 889.56308			42803.09259		228.94600		875.00000 
 43692.65567		 305.27265			43387.38302		69.63800		324.00000 
 43692.65567		 889.56308			42803.09259		228.94600		875.00000 
 43692.65567		 305.27265			43387.38302		69.63800		324.00000 
 43692.65567		 889.56308			42803.09259		228.94600		875.00000 
 43692.65567		 305.27265			43387.38302		69.63800		324.00000 
 43692.65567		 889.56308			42803.09259		228.94600		875.00000 
 43692.65567		 305.27265			43387.38302		69.63800		324.00000 
 43692.65567		 889.56308			42803.09259		228.94600		875.00000 
 43692.65567		 305.27265			43387.38302		69.63800		324.00000 
 43692.65567		 889.56308			42803.09259		228.94600		875.00000 
 43692.65567		 305.27265			43387.38302		69.63800		324.00000 
 43692.65567		 889.56308			42803.09259		228.94600		875.00000 
 43692.65567		 305.27265			43387.38302		69.63800		324.00000 
 43692.65567		 889.56308			42803.09259		228.94600		875.00000 
 43692.65567		 305.27265			43387.38302		69.63800		324.00000 
 43692.65567		 889.56308			42803.09259		228.94600		875.00000 
 43692.65567		 305.27265			43387.38302		69.63800		324.00000 
 43692.65567		 889.56308			42803.09259		228.94600		875.00000 
 43692.65567		 305.27265			43387.38302		69.63800		324.00000 
 43692.65567		 889.56308			42803.09259		228.94600		875.00000 
 43692.65567		 305.27265			43387.38302		69.63800		324.00000 
 43692.65567		 889.56308			42803.09259		228.94600		875.00000 
 43692.65567		 305.27265			43387.38302		69.63800		324.00000 
 43692.65567		 889.56308			42803.09259		228.94600		875.00000 
 43692.65567		 305.27265			43387.38302		69.63800		324.00000 
 43692.65567		 889.56308			42803.09259		228.94600		875.00000 
 43692.65567		 305.27265			43387.38302		69.63800		324.00000 
 43692.65567		 889.56308			42803.09259		228.94600		875.00000 
 43692.65567		 305.27265			43387.38302		69.63800		324.00000 
 43692.65567		 889.56308			42803.09259		228.94600		875.00000 
 43692.65567		 305.27265			43387.38302		69.63800		324.00000 
 43692.65567		 889.56308			42803.09259		228.94600		875.00000 
 43692.65567		 305.27265			43387.38302		69.63800		324.00000 
 43692.65567		 889.56308			42803.09259		228.94600		875.00000 
 43692.65567		 305.27265			43387.38302		69.63800		324.00000 
 43692.65567		 889.56308			42803.09259		228.94600		875.00000 
 43692.65567		 305.27265			43387.38302		69.63800		324.00000 
 43692.65567		 889.56308			42803.09259		228.94600		875.00000 
 43692.65567		 305.27265			43387.38302		69.63800		324.00000 
 43692.65567		 889.56308			42803.09259		228.94600		875.00000 
 43692.65567		 305.27265			43387.38302		69.63800		324.00000 
 43692.65567		 889.56308			42803.09259		228.94600		875.00000 
 43692.65567		 305.27265			43387.38302		69.63800		324.00000 
 43692.65567		 889.56308			42803.09259		228.94600		875.00000 
 43692.65567		 305.27265			43387.38302		69.63800		324.00000 
 43692.65567		 889.56308			42803.09259		228.94600		875.00000 
 43692.65567		 305.27265			43387.38302		69.63800		324.00000 
 43692.65567		 889.56308			42803.09259		228.94600		875.00000 
 43692.65567		 305.27265			43387.38302		69.63800		324.00000 
 43692.65567		 889.56308			42803.09259		228.94600		875.00000 
 43692.65567		 305.27265			43387.38302		69.63800		324.00000 
 43692.65567		 889.56308			42803.09259		228.94600		875.00000 
 43692.65567		 305.27265			43387.38302		69.63800		324.00000 
 43692.65567		 889.56308			42803.09259		228.94600		875.00000 
 43692.65567		 305.27265			43387.38302		69.63800		324.00000 
 43692.65567		 889.56308			42803.09259		228.94600		875.00000 
 43692.65567		 305.27265			43387.38302		69.63800		324.00000 
 43692.65567		 889.56308			42803.09259		228.94600		875.00000 
 43692.65567		 305.27265			43387.38302		69.63800		324.00000 
 43692.65567		 889.56308			42803.09259		228.94600		875.00000 
 43692.65567		 305.27265			43387.38302		69.63800		324.00000 
 43692.65567		 889.56308			42803.09259		228.94600		875.00000 
 43692.65567		 305.27265			43387.38302		69.63800		324.00000 
 43692.65567		 889.56308			42803.09259		228.94600		875.00000 
 43692.65567		 305.27265			43387.38302		69.63800		324.00000 
 43692.65567		 889.56308			42803.09259		228.94600		875.00000 
 43692.65567		 305.27265			43387.38302		69.63800		324.00000 
 43692.65567		 889.56308			42803.09259		228.94600		875.00000 
 43692.65567		 305.27265			43387.38302		69.63800		324.00000 
 43692.65567		 889.56308			42803.09259		228.94600		875.00000 
 43692.65567		 305.27265			43387.38302		69.63800		324.00000 
 43692.65567		 889.56308			42803.09259		228.94600		875.00000 
 43692.65567		 305.27265			43387.38302		69.63800		324.00000 
 43692.65567		 889.56308			42803.09259		228.94600		875.00000 
 43692.65567		 305.27265			43387.38302		69.63800		324.00000 
 43692.65567		 889.56308			42803.09259		228.94600		875.00000 
 43692.65567		 305.27265			43387.38302		69.63800		324.00000 
 43692.65567		 889.56308			42803.09259		228.94600		875.00000 
 43692.65567		 305.27265			43387.38302		69.63800		324.00000 
 43692.65567		 889.56308			42803.09259		228.94600		875.00000 
 43692.65567		 305.27265			43387.38302		69.63800		324.00000 
 43692.65567		 889.56308			42803.09259		228.94600		875.00000 
 43692.65567		 305.27265			43387.38302		69.63800		324.00000 
 43692.65567		 889.56308			42803.09259		228.94600		875.00000 
 43692.65567		 305.27265			43387.38302		69.63800		324.00000 
 43692.65567		 889.56308			42803.09259		228.94600		875.00000 
 43692.65567		 305.27265			43387.38302		69.63800		324.00000 
 43692.65567		 889.56308			42803.09259		228.94600		875.00000 
 43692.65567		 305.27265			43387.38302		69.63800		324.00000 
 43692.65567		 889.56308			42803.09259		228.94600		875.00000 
 43692.65567		 305.27265			43387.38302		69.63800		324.00000 
 43692.65567		 889.56308			42803.09259		228.94600		875.00000 
 43692.65567		 305.27265			43387.38302		69.63800		324.00000 
 43692.65567		 889.56308			42803.09259		228.94600		875.00000 
 43692.65567		 305.27265			43387.38302		69.63800		324.00000 
 43692.65567		 889.56308			42803.09259		228.94600		875.00000 
 43692.65567		 305.27265			43387.38302		69.63800		324.00000 
 43692.65567		 889.56308			42803.09259		228.94600		875.00000 
 43692.65567		 305.27265			43387.38302		69.63800		324.00000 
 43692.65567		 889.56308			42803.09259		228.94600		875.00000 
 43692.65567		 305.27265			43387.38302		69.63800		324.00000 
 43692.65567		 889.56308			42803.09259		228.94600		875.00000 
 43692.65567		 305.27265			43387.38302		69.63800		324.00000 
 43692.65567		 889.56308			42803.09259		228.94600		875.00000 
 43692.65567		 305.27265			43387.38302		69.63800		324.00000 
 43692.65567		 889.56308			42803.09259		228.94600		875.00000 
 43692.65567		 305.27265			43387.38302		69.63800		324.00000 
 43692.65567		 889.56308			42803.09259		228.94600		875.00000 
 43692.65567		 305.27265			43387.38302		69.63800		324.00000 
 43692.65567		 889.56308			42803.09259		228.94600		875.00000 
 43692.65567		 305.27265			43387.38302		69.63800		324.00000 
 43692.65567		 889.56308			42803.09259		228.94600		875.00000 
 43692.65567		 305.27265			43387.38302		69.63800		324.00000 
 43692.65567		 889.56308			42803.09259		228.94600		875.00000 
 43692.65567		 305.27265			43387.38302		69.63800		324.00000 
 43692.65567		 889.56308			42803.09259		228.94600		875.00000 
 43692.65567		 305.27265			43387.38302		69.63800		324.00000 
 43692.65567		 889.56308			42803.09259		228.94600		875.00000 
 43692.65567		 305.27265			43387.38302		69.63800		324.00000 
 43692.65567		 889.56308			42803.09259		228.94600		875.00000 
 43692.65567		 305.27265			43387.38302		69.63800		324.00000 
 43692.65567		 889.56308			42803.09259		228.94600		875.00000 
 43692.65567		 305.27265			43387.38302		69.63800		324.00000 
 43692.65567		 889.56308			42803.09259		228.94600		875.00000 
 43692.65567		 305.27265			43387.38302		69.63800		324.00000 
 43692.65567		 889.56308			42803.09259		228.94600		875.00000 
 43692.65567		 305.27265			43387.38302		69.63800		324.00000 
 43692.65567		 889.56308			42803.09259		228.94600		875.00000 
 43692.65567		 305.27265			43387.38302		69.63800		324.00000 
 43692.65567		 889.56308			42803.09259		228.94600		875.00000 
 43692.65567		 305.27265			43387.38302		69.63800		324.00000 
 43692.65567		 889.56308			42803.09259		228.94600		875.00000 
 43692.65567		 305.27265			43387.38302		69.63800		324.00000 
 43692.65567		 889.56308			42803.09259		228.94600		875.00000 
 43692.65567		 305.27265			43387.38302		69.63800		324.00000 
 43692.65567		 889.56308			42803.09259		228.94600		875.00000 
 43692.65567		 305.27265			43387.38302		69.63800		324.00000 
 43692.65567		 889.56308			42803.09259		228.94600		875.00000 
 43692.65567		 305.27265			43387.38302		69.63800		324.00000 
 43692.65567		 889.56308			42803.09259		228.94600		875.00000 
 43692.65567		 305.27265			43387.38302		69.63800		324.00000 
 43692.65567		 889.56308			42803.09259		228.94600		875.00000 
 43692.65567		 305.27265			43387.38302		69.63800		324.00000 
 43692.65567		 889.56308			42803.09259		228.94600		875.00000 
 43692.65567		 305.27265			43387.38302		69.63800		324.00000 
 43692.65567		 889.56308			42803.09259		228.94600		875.00000 
 43692.65567		 305.27265			43387.38302		69.63800		324.00000 
 43692.65567		 889.56308			42803.09259		228.94600		875.00000 
 43692.65567		 305.27265			43387.38302		69.63800		324.00000 
 43692.65567		 889.56308			42803.09259		228.94600		875.00000 
 43692.65567		 305.27265			43387.38302		69.63800		324.00000 
 43692.65567		 889.56308			42803.09259		228.94600		875.00000 
 43692.65567		 305.27265			43387.38302		69.63800		324.00000 
 43692.65567		 889.56308			42803.09259		228.94600		875.00000 
 43692.65567		 305.27265			43387.38302		69.63800		324.00000 
 43692.65567		 889.56308			42803.09259		228.94600		875.00000 
 43692.65567		 305.27265			43387.38302		69.63800		324.00000 
 43692.65567		 889.56308			42803.09259		228.94600		875.00000 
 43692.65567		 305.27265			43387.38302		69.63800		324.00000 
 43692.65567		 889.56308			42803.09259		228.94600		875.00000 
 43692.65567		 305.27265			43387.38302		69.63800		324.00000 
 43692.65567		 889.56308			42803.09259		228.94600		875.00000 
 43692.65567		 305.27265			43387.38302		69.63800		324.00000 
 43692.65567		 889.56308			42803.09259		228.94600		875.00000 
 43692.65567		 305.27265			43387.38302		69.63800		324.00000 
 43692.65567		 889.56308			42803.09259		228.94600		875.00000 
 43692.65567		 305.27265			43387.38302		69.63800		324.00000 
 43692.65567		 889.56308			42803.09259		228.94600		875.00000 
 43692.65567		 305.27265			43387.38302		69.63800		324.00000 
 43692.65567		 889.56308			42803.09259		228.94600		875.00000 
 43692.65567		 305.27265			43387.38302		69.63800		324.00000 
 43692.65567		 889.56308			42803.09259		228.94600		875.00000 
 43692.65567		 305.27265			43387.38302		69.63800		324.00000 
 43692.65567		 889.56308			42803.09259		228.94600		875.00000 
 43692.65567		 305.27265			43387.38302		69.63800		324.00000 
 43692.65567		 889.56308			42803.09259		228.94600		875.00000 
 43692.65567		 305.27265			43387.38302		69.63800		324.00000 
 43692.65567		 889.56308			42803.09259		228.94600		875.00000 
 43692.65567		 305.27265			43387.38302		69.63800		324.00000 
 43692.65567		 889.56308			42803.09259		228.94600		875.00000 
 43692.65567		 305.27265			43387.38302		69.63800		324.00000 
 43692.65567		 889.56308			42803.09259		228.94600		875.00000 
 43692.65567		 305.27265			43387.38302		69.63800		324.00000 
 43692.65567		 889.56308			42803.09259		228.94600		875.00000 
 43692.65567		 305.27265			43387.38302		69.63800		324.00000 
 43692.65567		 889.56308			42803.09259		228.94600		875.00000 
 43692.65567		 305.27265			43387.38302		69.63800		324.00000 
 43692.65567		 889.56308			42803.09259		228.94600		875.00000 
 43692.65567		 305.27265			43387.38302		69.63800		324.00000 
 43692.65567		 889.56308			42803.09259		228.94600		875.00000 
 43692.65567		 305.27265			43387.38302		69.63800		324.00000 
 43692.65567		 889.56308			42803.09259		228.94600		875.00000 
 43692.65567		 305.27265			43387.38302		69.63800		324.00000 
 43692.65567		 889.56308			42803.09259		228.94600		875.00000 
 43692.65567		 305.27265			43387.38302		69.63800		324.00000 
 43692.65567		 889.56308			42803.09259		228.94600		875.00000 
 43692.65567		 305.27265			43387.38302		69.63800		324.00000 
 43692.65567		 889.56308			42803.09259		228.94600		875.00000 
 43692.65567		 305.27265			43387.38302		69.63800		324.00000 
 43692.65567		 889.56308			42803.09259		228.94600		875.00000 
 43692.65567		 305.27265			43387.38302		69.63800		324.00000 
 43692.65567		 889.56308			42803.09259		228.94600		875.00000 
 43692.65567		 305.27265			43387.38302		69.63800		324.00000 
 43692.65567		 889.56308			42803.09259		228.94600		875.00000 
 43692.65567		 305.27265			43387.38302		69.63800		324.00000 
 43692.65567		 889.56308			42803.09259		228.94600		875.00000 
 43692.65567		 305.27265			43387.38302		69.63800		324.00000 
 43692.65567		 889.56308			42803.09259		228.94600		875.00000 
 43692.65567		 305.27265			43387.38302		69.63800		324.00000 
 43692.65567		 889.56308			42803.09259		228.94600		875.00000 
 43692.65567		 305.27265			43387.38302		69.63800		324.00000 
 43692.65567		 889.56308			42803.09259		228.94600		875.00000 
 43692.65567		 305.27265			43387.38302		69.63800		324.00000 
 43692.65567		 889.56308			42803.09259		228.94600		875.00000 
 43692.65567		 305.27265			43387.38302		69.63800		324.00000 
 43692.65567		 889.56308			42803.09259		228.94600		875.00000 
 43692.65567		 305.27265			43387.38302		69.63800		324.00000 
 43692.65567		 889.56308			42803.09259		228.94600		875.00000 
 43692.65567		 305.27265			43387.38302		69.63800		324.00000 
 43692.65567		 889.56308			42803.09259		228.94600		875.00000 
 43692.65567		 305.27265			43387.38302		69.63800		324.00000 
 43692.65567		 889.56308			42803.09259		228.94600		875.00000 
 43692.65567		 305.27265			43387.38302		69.63800		324.00000 
 43692.65567		 889.56308			42803.09259		228.94600		875.00000 
 43692.65567		 305.27265			43387.38302		69.63800		324.00000 
 43692.65567		 889.56308			42803.09259		228.94600		875.00000 
 43692.65567		 305.27265			43387.38302		69.63800		324.00000 
 43692.65567		 889.56308			42803.09259		228.94600		875.00000 
 43692.65567		 305.27265			43387.38302		69.63800		324.00000 
 43692.65567		 889.56308			42803.09259		228.94600		875.00000 
 43692.65567		 305.27265			43387.38302		69.63800		324.00000 
 43692.65567		 889.56308			42803.09259		228.94600		875.00000 
 43692.65567		 305.27265			43387.38302		69.63800		324.00000 
 43692.65567		 889.56308			42803.09259		228.94600		875.00000 
 43692.65567		 305.27265			43387.38302		69.63800		324.00000 
 43692.65567		 889.56308			42803.09259		228.94600		875.00000 
 43692.65567		 305.27265			43387.38302		69.63800		324.00000 
 43692.65567		 889.56308			42803.09259		228.94600		875.00000 
 43692.65567		 305.27265			43387.38302		69.63800		324.00000 
 43692.65567		 889.56308			42803.09259		228.94600		875.00000 
 43692.65567		 305.27265			43387.38302		69.63800		324.00000 
 43692.65567		 889.56308			42803.09259		228.94600		875.00000 
 43692.65567		 305.27265			43387.38302		69.63800		324.00000 
 43692.65567		 889.56308			42803.09259		228.94600		875.00000 
 43692.65567		 305.27265			43387.38302		69.63800		324.00000 
 43692.65567		 889.56308			42803.09259		228.94600		875.00000 
 43692.65567		 305.27265			43387.38302		69.63800		324.00000 
 43692.65567		 889.56308			42803.09259		228.94600		875.00000 
 43692.65567		 305.27265			43387.38302		69.63800		324.00000 
 43692.65567		 889.56308			42803.09259		228.94600		875.00000 
 43692.65567		 305.27265			43387.38302		69.63800		324.00000 
 43692.65567		 889.56308			42803.09259		228.94600		875.00000 
 43692.65567		 305.27265			43387.38302		69.63800		324.00000 
 43692.65567		 889.56308			42803.09259		228.94600		875.00000 
 43692.65567		 305.27265			43387.38302		69.63800		324.00000 
 43692.65567		 889.56308			42803.09259		228.94600		875.00000 
 43692.65567		 305.27265			43387.38302		69.63800		324.00000 
 43692.65567		 889.56308			42803.09259		228.94600		875.00000 
 43692.65567		 305.27265			43387.38302		69.63800		324.00000 
 43692.65567		 889.56308			42803.09259		228.94600		875.00000 
 43692.65567		 305.27265			43387.38302		69.63800		324.00000 
 43692.65567		 889.56308			42803.09259		228.94600		875.00000 
 43692.65567		 305.27265			43387.38302		69.63800		324.00000 
 43692.65567		 889.56308			42803.09259		228.94600		875.00000 
 43692.65567		 305.27265			43387.38302		69.63800		324.00000 
 43692.65567		 889.56308			42803.09259		228.94600		875.00000 
 43692.65567		 305.27265			43387.38302		69.63800		324.00000 
 43692.65567		 889.56308			42803.09259		228.94600		875.00000 
 43692.65567		 305.27265			43387.38302		69.63800		324.00000 
 43692.65567		 889.56308			42803.09259		228.94600		875.00000 
 43692.65567		 305.27265			43387.38302		69.63800		324.00000 
 43692.65567		 889.56308			42803.09259		228.94600		875.00000 
 43692.65567		 305.27265			43387.38302		69.63800		324.00000 
 43692.65567		 889.56308			42803.09259		228.94600		875.00000 
 43692.65567		 305.27265			43387.38302		69.63800		324.00000 
 43692.65567		 889.56308			42803.09259		228.94600		875.00000 
 43692.65567		 305.27265			43387.38302		69.63800		324.00000 
 43692.65567		 889.56308			42803.09259		228.94600		875.00000 
 43692.65567		 305.27265			43387.38302		69.63800		324.00000 
 43692.65567		 889.56308			42803.09259		228.94600		875.00000 
 43692.65567		 305.27265			43387.38302		69.63800		324.00000 
 43692.65567		 889.56308			42803.09259		228.94600		875.00000 
 43692.65567		 305.27265			43387.38302		69.63800		324.00000 
 43692.65567		 889.56308			42803.09259		228.94600		875.00000 
 43692.65567		 305.27265			43387.38302		69.63800		324.00000 
 43692.65567		 889.56308			42803.09259		228.94600		875.00000 
 43692.65567		 305.27265			43387.38302		69.63800		324.00000 
 43692.65567		 889.56308			42803.09259		228.94600		875.00000 
 43692.65567		 305.27265			43387.38302		69.63800		324.00000 
 43692.65567		 889.56308			42803.09259		228.94600		875.00000 
 43692.65567		 305.27265			43387.38302		69.63800		324.00000 
 43692.65567		 889.56308			42803.09259		228.94600		875.00000 
 43692.65567		 305.27265			43387.38302		69.63800		324.00000 
 43692.65567		 889.56308			42803.09259		228.94600		875.00000 
 43692.65567		 305.27265			43387.38302		69.63800		324.00000 
 43692.65567		 889.56308			42803.09259		228.94600		875.00000 
 43692.65567		 305.27265			43387.38302		69.63800		324.00000 
 43692.65567		 889.56308			42803.09259		228.94600		875.00000 
 43692.65567		 305.27265			43387.38302		69.63800		324.00000 
 43692.65567		 889.56308			42803.09259		228.94600		875.00000 
 43692.65567		 305.27265			43387.38302		69.63800		324.00000 
 43692.65567		 889.56308			42803.09259		228.94600		875.00000 
 43692.65567		 305.27265			43387.38302		69.63800		324.00000 
 43692.65567		 889.56308			42803.09259		228.94600		875.00000 
 43692.65567		 305.27265			43387.38302		69.63800		324.00000 
 43692.65567		 889.56308			42803.09259		228.94600		875.00000 
 43692.65567		 305.27265			43387.38302		69.63800		324.00000 
 43692.65567		 889.56308			42803.09259		228.94600		875.00000 
 43692.65567		 305.27265			43387.38302		69.63800		324.00000 
 43692.65567		 889.56308			42803.09259		228.94600		875.00000 
 43692.65567		 305.27265			43387.38302		69.63800		324.00000 
 43692.65567		 889.56308			42803.09259		228.94600		875.00000 
 43692.65567		 305.27265			43387.38302		69.63800		324.00000 
 43692.65567		 889.56308			42803.09259		228.94600		875.00000 
 43692.65567		 305.27265			43387.38302		69.63800		324.00000 
 43692.65567		 889.56308			42803.09259		228.94600		875.00000 
 43692.65567		 305.27265			43387.38302		69.63800		324.00000 
 43692.65567		 889.56308			42803.09259		228.94600		875.00000 
 43692.65567		 305.27265			43387.38302		69.63800		324.00000 
 43692.65567		 889.56308			42803.09259		228.94600		875.00000 
 43692.65567		 305.27265			43387.38302		69.63800		324.00000 
 43692.65567		 889.56308			42803.09259		228.94600		875.00000 
 43692.65567		 305.27265			43387.38302		69.63800		324.00000 
 43692.65567		 889.56308			42803.09259		228.94600		875.00000 
 43692.65567		 305.27265			43387.38302		69.63800		324.00000 
 43692.65567		 889.56308			42803.09259		228.94600		875.00000 
 43692.65567		 305.27265			43387.38302		69.63800		324.00000 
 43692.65567		 889.56308			42803.09259		228.94600		875.00000 
 43692.65567		 305.27265			43387.38302		69.63800		324.00000 
 43692.65567		 889.56308			42803.09259		228.94600		875.00000 
 43692.65567		 305.27265			43387.38302		69.63800		324.00000 
 43692.65567		 889.56308			42803.09259		228.94600		875.00000 
 43692.65567		 305.27265			43387.38302		69.63800		324.00000 
 43692.65567		 889.56308			42803.09259		228.94600		875.00000 
 43692.65567		 305.27265			43387.38302		69.63800		324.00000 
 43692.65567		 889.56308			42803.09259		228.94600		875.00000 
 43692.65567		 305.27265			43387.38302		69.63800		324.00000 
 43692.65567		 889.56308			42803.09259		228.94600		875.00000 
 43692.65567		 305.27265			43387.38302		69.63800		324.00000 
 43692.65567		 889.56308			42803.09259		228.94600		875.00000 
 43692.65567		 305.27265			43387.38302		69.63800		324.00000 
 43692.65567		 889.56308			42803.09259		228.94600		875.00000 
 43692.65567		 305.27265			43387.38302		69.63800		324.00000 
 43692.65567		 889.56308			42803.09259		228.94600		875.00000 
 43692.65567		 305.27265			43387.38302		69.63800		324.00000 
 43692.65567		 889.56308			42803.09259		228.94600		875.00000 
 43692.65567		 305.27265			43387.38302		69.63800		324.00000 
 43692.65567		 889.56308			42803.09259		228.94600		875.00000 
 43692.65567		 305.27265			43387.38302		69.63800		324.00000 
 43692.65567		 889.56308			42803.09259		228.94600		875.00000 
 43692.65567		 305.27265			43387.38302		69.63800		324.00000 
 43692.65567		 889.56308			42803.09259		228.94600		875.00000 
 43692.65567		 305.27265			43387.38302		69.63800		324.00000 
 43692.65567		 889.56308			42803.09259		228.94600		875.00000 
 43692.65567		 305.27265			43387.38302		69.63800		324.00000 
 43692.65567		 889.56308			42803.09259		228.94600		875.00000 
 43692.65567		 305.27265			43387.38302		69.63800		324.00000 
 43692.65567		 889.56308			42803.09259		228.94600		875.00000 
 43692.65567		 305.27265			43387.38302		69.63800		324.00000 
 43692.65567		 889.56308			42803.09259		228.94600		875.00000 
 43692.65567		 305.27265			43387.38302		69.63800		324.00000 
 43692.65567		 889.56308			42803.09259		228.94600		875.00000 
 43692.65567		 305.27265			43387.38302		69.63800		324.00000 
 43692.65567		 889.56308			42803.09259		228.94600		875.00000 
 43692.65567		 305.27265			43387.38302		69.63800		324.00000 
 43692.65567		 889.56308			42803.09259		228.94600		875.00000 
 43692.65567		 305.27265			43387.38302		69.63800		324.00000 
 43692.65567		 889.56308			42803.09259		228.94600		875.00000 
 43692.65567		 305.27265			43387.38302		69.63800		324.00000 
 43692.65567		 889.56308			42803.09259		228.94600		875.00000 
 43692.65567		 305.27265			43387.38302		69.63800		324.00000 
 43692.65567		 889.56308			42803.09259		228.94600		875.00000 
 43692.65567		 305.27265			43387.38302		69.63800		324.00000 
 43692.65567		 889.56308			42803.09259		228.94600		875.00000 
 43692.65567		 305.27265			43387.38302		69.63800		324.00000 
 43692.65567		 889.56308			42803.09259		228.94600		875.00000 
 43692.65567		 305.27265			43387.38302		69.63800		324.00000 
 43692.65567		 889.56308			42803.09259		228.94600		875.00000 
 43692.65567		 305.27265			43387.38302		69.63800		324.00000 
 43692.65567		 889.56308			42803.09259		228.94600		875.00000 
 43692.65567		 305.27265			43387.38302		69.63800		324.00000 
 43692.65567		 889.56308			42803.09259		228.94600		875.00000 
 43692.65567		 305.27265			43387.38302		69.63800		324.00000 
 43692.65567		 889.56308			42803.09259		228.94600		875.00000 
 43692.65567		 305.27265			43387.38302		69.63800		324.00000 
 43692.65567		 889.56308			42803.09259		228.94600		875.00000 
 43692.65567		 305.27265			43387.38302		69.63800		324.00000 
 43692.65567		 889.56308			42803.09259		228.94600		875.00000 
 43692.65567		 305.27265			43387.38302		69.63800		324.00000 
 43692.65567		 889.56308			42803.09259		228.94600		875.00000 
 43692.65567		 305.27265			43387.38302		69.63800		324.00000 
 43692.65567		 889.56308			42803.09259		228.94600		875.00000 
 43692.65567		 305.27265			43387.38302		69.63800		324.00000 
 43692.65567		 889.56308			42803.09259		228.94600		875.00000 
 43692.65567		 305.27265			43387.38302		69.63800		324.00000 
 43692.65567		 889.56308			42803.09259		228.94600		875.00000 
 43692.65567		 305.27265			43387.38302		69.63800		324.00000 
 43692.65567		 889.56308			42803.09259		228.94600		875.00000 
 43692.65567		 305.27265			43387.38302		69.63800		324.00000 
 43692.65567		 889.56308			42803.09259		228.94600		875.00000 
 43692.65567		 305.27265			43387.38302		69.63800		324.00000 
 43692.65567		 889.56308			42803.09259		228.94600		875.00000 
 43692.65567		 305.27265			43387.38302		69.63800		324.00000 
 43692.65567		 889.56308			42803.09259		228.94600		875.00000 
 43692.65567		 305.27265			43387.38302		69.63800		324.00000 
 43692.65567		 889.56308			42803.09259		228.94600		875.00000 
 43692.65567		 305.27265			43387.38302		69.63800		324.00000 
 43692.65567		 889.56308			42803.09259		228.94600		875.00000 
 43692.65567		 305.27265			43387.38302		69.63800		324.00000 
 43692.65567		 889.56308			42803.09259		228.94600		875.00000 
 43692.65567		 305.27265			43387.38302		69.63800		324.00000 
 43692.65567		 889.56308			42803.09259		228.94600		875.00000 
 43692.65567		 305.27265			43387.38302		69.63800		324.00000 
 43692.65567		 889.56308			42803.09259		228.94600		875.00000 
 43692.65567		 305.27265			43387.38302		69.63800		324.00000 
 43692.65567		 889.56308			42803.09259		228.94600		875.00000 
 43692.65567		 305.27265			43387.38302		69.63800		324.00000 
 43692.65567		 889.56308			42803.09259		228.94600		875.00000 
 43692.65567		 305.27265			43387.38302		69.63800		324.00000 
 43692.65567		 889.56308			42803.09259		228.94600		875.00000 
 43692.65567		 305.27265			43387.38302		69.63800		324.00000 
 43692.65567		 889.56308			42803.09259		228.94600		875.00000 
 43692.65567		 305.27265			43387.38302		69.63800		324.00000 
 43692.65567		 889.56308			42803.09259		228.94600		875.00000 
 43692.65567		 305.27265			43387.38302		69.63800		324.00000 
 43692.65567		 889.56308			42803.09259		228.94600		875.00000 
 43692.65567		 305.27265			43387.38302		69.63800		324.00000 
 43692.65567		 889.56308			42803.09259		228.94600		875.00000 
 43692.65567		 305.27265			43387.38302		69.63800		324.00000 
 43692.65567		 889.56308			42803.09259		228.94600		875.00000 
 43692.65567		 305.27265			43387.38302		69.63800		324.00000 
 43692.65567		 889.56308			42803.09259		228.94600		875.00000 
 43692.65567		 305.27265			43387.38302		69.63800		324.00000 
 43692.65567		 889.56308			42803.09259		228.94600		875.00000 
 43692.65567		 305.27265			43387.38302		69.63800		324.00000 
 43692.65567		 889.56308			42803.09259		228.94600		875.00000 
 43692.65567		 305.27265			43387.38302		69.63800		324.00000 
 43692.65567		 889.56308			42803.09259		228.94600		875.00000 
 43692.65567		 305.27265			43387.38302		69.63800		324.00000 
 43692.65567		 889.56308			42803.09259		228.94600		875.00000 
 43692.65567		 305.27265			43387.38302		69.63800		324.00000 
 43692.65567		 889.56308			42803.09259		228.94600		875.00000 
 43692.65567		 305.27265			43387.38302		69.63800		324.00000 
 43692.65567		 889.56308			42803.09259		228.94600		875.00000 
 43692.65567		 305.27265			43387.38302		69.63800		324.00000 
 43692.65567		 889.56308			42803.09259		228.94600		875.00000 
 43692.65567		 305.27265			43387.38302		69.63800		324.00000 
 43692.65567		 889.56308			42803.09259		228.94600		875.00000 
 43692.65567		 305.27265			43387.38302		69.63800		324.00000 
 43692.65567		 889.56308			42803.09259		228.94600		875.00000 
 43692.65567		 305.27265			43387.38302		69.63800		324.00000 
 43692.65567		 889.56308			42803.09259		228.94600		875.00000 
 43692.65567		 305.27265			43387.38302		69.63800		324.00000 
 43692.65567		 889.56308			42803.09259		228.94600		875.00000 
 43692.65567		 305.27265			43387.38302		69.63800		324.00000 
 43692.65567		 889.56308			42803.09259		228.94600		875.00000 
 43692.65567		 305.27265			43387.38302		69.63800		324.00000 
 43692.65567		 889.56308			42803.09259		228.94600		875.00000 
 43692.65567		 305.27265			43387.38302		69.63800		324.00000 
 43692.65567		 889.56308			42803.09259		228.94600		875.00000 
 43692.65567		 305.27265			43387.38302		69.63800		324.00000 
 43692.65567		 889.56308			42803.09259		228.94600		875.00000 
 43692.65567		 305.27265			43387.38302		69.63800		324.00000 
 43692.65567		 889.56308			42803.09259		228.94600		875.00000 
 43692.65567		 305.27265			43387.38302		69.63800		324.00000 
 43692.65567		 889.56308			42803.09259		228.94600		875.00000 
 43692.65567		 305.27265			43387.38302		69.63800		324.00000 
 43692.65567		 889.56308			42803.09259		228.94600		875.00000 
 43692.65567		 305.27265			43387.38302		69.63800		324.00000 
 43692.65567		 889.56308			42803.09259		228.94600		875.00000 
 43692.65567		 305.27265			43387.38302		69.63800		324.00000 
 43692.65567		 889.56308			42803.09259		228.94600		875.00000 
 43692.65567		 305.27265			43387.38302		69.63800		324.00000 
 43692.65567		 889.56308			42803.09259		228.94600		875.00000 
 43692.65567		 305.27265			43387.38302		69.63800		324.00000 
 43692.65567		 889.56308			42803.09259		228.94600		875.00000 
 43692.65567		 305.27265			43387.38302		69.63800		324.00000 
 43692.65567		 889.56308			42803.09259		228.94600		875.00000 
 43692.65567		 305.27265			43387.38302		69.63800		324.00000 
 43692.65567		 889.56308			42803.09259		228.94600		875.00000 
 43692.65567		 305.27265			43387.38302		69.63800		324.00000 
 43692.65567		 889.56308			42803.09259		228.94600		875.00000 
 43692.65567		 305.27265			43387.38302		69.63800		324.00000 
 43692.65567		 889.56308			42803.09259		228.94600		875.00000 
 43692.65567		 305.27265			43387.38302		69.63800		324.00000 
 43692.65567		 889.56308			42803.09259		228.94600		875.00000 
 43692.65567		 305.27265			43387.38302		69.63800		324.00000 
 43692.65567		 889.56308			42803.09259		228.94600		875.00000 
 43692.65567		 305.27265			43387.38302		69.63800		324.00000 
 43692.65567		 889.56308			42803.09259		228.94600		875.00000 
 43692.65567		 305.27265			43387.38302		69.63800		324.00000 
 43692.65567		 889.56308			42803.09259		228.94600		875.00000 
 43692.65567		 305.27265			43387.38302		69.63800		324.00000 
 43692.65567		 889.56308			42803.09259		228.94600		875.00000 
 43692.65567		 305.27265			43387.38302		69.63800		324.00000 
 43692.65567		 889.56308			42803.09259		228.94600		875.00000 
 43692.65567		 305.27265			43387.38302		69.63800		324.00000 
 43692.65567		 889.56308			42803.09259		228.94600		875.00000 
 43692.65567		 305.27265			43387.38302		69.63800		324.00000 
 43692.65567		 889.56308			42803.09259		228.94600		875.00000 
 43692.65567		 305.27265			43387.38302		69.63800		324.00000 
 43692.65567		 889.56308			42803.09259		228.94600		875.00000 
 43692.65567		 305.27265			43387.38302		69.63800		324.00000 
 43692.65567		 889.56308			42803.09259		228.94600		875.00000 
 43692.65567		 305.27265			43387.38302		69.63800		324.00000 
 43692.65567		 889.56308			42803.09259		228.94600		875.00000 
 43692.65567		 305.27265			43387.38302		69.63800		324.00000 
 43692.65567		 889.56308			42803.09259		228.94600		875.00000 
 43692.65567		 305.27265			43387.38302		69.63800		324.00000 
 43692.65567		 889.56308			42803.09259		228.94600		875.00000 
 43692.65567		 305.27265			43387.38302		69.63800		324.00000 
 43692.65567		 889.56308			42803.09259		228.94600		875.00000 
 43692.65567		 305.27265			43387.38302		69.63800		324.00000 
 43692.65567		 889.56308			42803.09259		228.94600		875.00000 
 43692.65567		 305.27265			43387.38302		69.63800		324.00000 
 43692.65567		 889.56308			42803.09259		228.94600		875.00000 
 43692.65567		 305.27265			43387.38302		69.63800		324.00000 
 43692.65567		 889.56308			42803.09259		228.94600		875.00000 
 43692.65567		 305.27265			43387.38302		69.63800		324.00000 
 43692.65567		 889.56308			42803.09259		228.94600		875.00000 
 43692.65567		 305.27265			43387.38302		69.63800		324.00000 
 43692.65567		 889.56308			42803.09259		228.94600		875.00000 
 43692.65567		 305.27265			43387.38302		69.63800		324.00000 
 43692.65567		 772.13216			42920.52351		228.94600		875.00000 
 43692.65567		 305.27265			43387.38302		69.63800		324.00000 
 43692.65567		 772.13216			42920.52351		228.94600		875.00000 
 43692.65567		 305.27265			43387.38302		69.63800		324.00000 
 43692.65567		 654.70124			43037.95443		228.94600		875.00000 
 43692.65567		 305.27265			43387.38302		69.63800		324.00000 
 43692.65567		 654.70124			43037.95443		228.94600		875.00000 
 43692.65567		 305.27265			43387.38302		69.63800		324.00000 
 43692.65567		 537.27032			43155.38535		228.94600		875.00000 
 43692.65567		 305.27265			43387.38302		69.63800		324.00000 
 43692.65567		 537.27032			43155.38535		228.94600		875.00000 
 43692.65567		 305.27265			43387.38302		69.63800		324.00000 
 43692.65567		 537.27032			43155.38535		228.94600		875.00000 
 43692.65567		 305.27265			43387.38302		69.63800		324.00000 
 43692.65567		 537.27032			43155.38535		228.94600		875.00000 
 43692.65567		 305.27265			43387.38302		69.63800		324.00000 
 43692.65567		 537.27032			43155.38535		228.94600		875.00000 
 43692.65567		 305.27265			43387.38302		69.63800		324.00000 
 43692.65567		 537.27032			43155.38535		228.94600		875.00000 
 43692.65567		 305.27265			43387.38302		69.63800		324.00000 
 43692.65567		 537.27032			43155.38535		228.94600		875.00000 
 43692.65567		 305.27265			43387.38302		69.63800		324.00000 
 43692.65567		 537.27032			43155.38535		228.94600		875.00000 
 43692.65567		 305.27265			43387.38302		69.63800		324.00000 
 43692.65567		 537.27032			43155.38535		228.94600		875.00000 
 43692.65567		 305.27265			43387.38302		69.63800		324.00000 
 43692.65567		 537.27032			43155.38535		228.94600		875.00000 
 43692.65567		 305.27265			43387.38302		69.63800		324.00000 
 43692.65567		 537.27032			43155.38535		228.94600		875.00000 
 43692.65567		 305.27265			43387.38302		69.63800		324.00000 
 43692.65567		 537.27032			43155.38535		228.94600		875.00000 
 43692.65567		 305.27265			43387.38302		69.63800		324.00000 
 43692.65567		 537.27032			43155.38535		228.94600		875.00000 
 43692.65567		 305.27265			43387.38302		69.63800		324.00000 
 43692.65567		 537.27032			43155.38535		228.94600		875.00000 
 43692.65567		 305.27265			43387.38302		69.63800		324.00000 
 43692.65567		 537.27032			43155.38535		228.94600		875.00000 
 43692.65567		 305.27265			43387.38302		69.63800		324.00000 
 43692.65567		 537.27032			43155.38535		228.94600		875.00000 
 43692.65567		 305.27265			43387.38302		69.63800		324.00000 
 43692.65567		 537.27032			43155.38535		228.94600		875.00000 
 43692.65567		 305.27265			43387.38302		69.63800		324.00000 
 43692.65567		 537.27032			43155.38535		228.94600		875.00000 
 43692.65567		 305.27265			43387.38302		69.63800		324.00000 
 43692.65567		 537.27032			43155.38535		228.94600		875.00000 
 43692.65567		 305.27265			43387.38302		69.63800		324.00000 
 43692.65567		 537.27032			43155.38535		228.94600		875.00000 
 43692.65567		 305.27265			43387.38302		69.63800		324.00000 
 43692.65567		 529.63254			43163.02313		228.94600		875.00000 
 43692.65567		 305.27265			43387.38302		69.63800		324.00000 
 43692.65567		 525.81365			43166.84203		228.94600		875.00000 
 43692.65567		 297.63487			43395.02080		69.63800		324.00000 
 43692.65567		 261.35540			43431.30027		184.84200		875.00000 
 43692.65567		 261.35540			43431.30027		69.63800		324.00000 
