Memory Total (MiB) 	 Memory Used (MiB) 	    Memory Free (MiB) 	 Power Drawed (W) 	 Clocks (Mhz) 	 
 43692.65567		 261.35540			43431.30027		192.12800		875.00000 
 43692.65567		 261.35540			43431.30027		67.02200		324.00000 
 43692.65567		 261.35540			43431.30027		192.12800		875.00000 
 43692.65567		 261.35540			43431.30027		67.02200		324.00000 
 43692.65567		 261.35540			43431.30027		192.12800		875.00000 
 43692.65567		 261.35540			43431.30027		67.02200		324.00000 
 43692.65567		 261.35540			43431.30027		192.12800		875.00000 
 43692.65567		 261.35540			43431.30027		67.02200		324.00000 
 43692.65567		 261.35540			43431.30027		192.12800		875.00000 
 43692.65567		 261.35540			43431.30027		67.02200		324.00000 
 43692.65567		 261.35540			43431.30027		192.12800		875.00000 
 43692.65567		 261.35540			43431.30027		67.02200		324.00000 
 43692.65567		 261.35540			43431.30027		192.12800		875.00000 
 43692.65567		 261.35540			43431.30027		67.02200		324.00000 
 43692.65567		 261.35540			43431.30027		192.12800		875.00000 
 43692.65567		 261.35540			43431.30027		67.02200		324.00000 
 43692.65567		 261.35540			43431.30027		192.12800		875.00000 
 43692.65567		 261.35540			43431.30027		67.02200		324.00000 
 43692.65567		 261.35540			43431.30027		192.12800		875.00000 
 43692.65567		 261.35540			43431.30027		67.02200		324.00000 
 43692.65567		 261.35540			43431.30027		192.12800		875.00000 
 43692.65567		 261.35540			43431.30027		67.02200		324.00000 
 43692.65567		 261.35540			43431.30027		192.12800		875.00000 
 43692.65567		 261.35540			43431.30027		67.02200		324.00000 
 43692.65567		 261.35540			43431.30027		192.12800		875.00000 
 43692.65567		 261.35540			43431.30027		67.02200		324.00000 
 43692.65567		 261.35540			43431.30027		192.12800		875.00000 
 43692.65567		 261.35540			43431.30027		67.02200		324.00000 
 43692.65567		 261.35540			43431.30027		192.12800		875.00000 
 43692.65567		 261.35540			43431.30027		67.02200		324.00000 
 43692.65567		 261.35540			43431.30027		192.12800		875.00000 
 43692.65567		 261.35540			43431.30027		67.02200		324.00000 
 43692.65567		 261.35540			43431.30027		153.57400		875.00000 
 43692.65567		 261.35540			43431.30027		67.02200		324.00000 
 43692.65567		 261.35540			43431.30027		153.57400		875.00000 
 43692.65567		 261.35540			43431.30027		67.02200		324.00000 
 43692.65567		 265.17429			43427.48138		153.57400		875.00000 
 43692.65567		 261.35540			43431.30027		67.02200		324.00000 
 43692.65567		 265.17429			43427.48138		153.57400		875.00000 
 43692.65567		 261.35540			43431.30027		67.02200		324.00000 
 43692.65567		 272.81207			43419.84360		153.57400		875.00000 
 43692.65567		 261.35540			43431.30027		67.02200		324.00000 
 43692.65567		 272.81207			43419.84360		153.57400		875.00000 
 43692.65567		 261.35540			43431.30027		67.02200		324.00000 
 43692.65567		 272.81207			43419.84360		153.57400		875.00000 
 43692.65567		 265.17429			43427.48138		67.02200		324.00000 
 43692.65567		 272.81207			43419.84360		153.57400		875.00000 
 43692.65567		 265.17429			43427.48138		67.02200		324.00000 
 43692.65567		 272.81207			43419.84360		153.57400		875.00000 
 43692.65567		 265.17429			43427.48138		67.02200		324.00000 
 43692.65567		 272.81207			43419.84360		153.57400		875.00000 
 43692.65567		 272.81207			43419.84360		67.02200		324.00000 
 43692.65567		 272.81207			43419.84360		153.57400		875.00000 
 43692.65567		 272.81207			43419.84360		67.02200		324.00000 
 43692.65567		 272.81207			43419.84360		153.57400		875.00000 
 43692.65567		 272.81207			43419.84360		67.02200		324.00000 
 43692.65567		 305.27265			43387.38302		153.57400		875.00000 
 43692.65567		 305.27265			43387.38302		67.02200		324.00000 
 43692.65567		 305.27265			43387.38302		153.57400		875.00000 
 43692.65567		 305.27265			43387.38302		67.02200		324.00000 
 43692.65567		 305.27265			43387.38302		153.57400		875.00000 
 43692.65567		 305.27265			43387.38302		67.02200		324.00000 
 43692.65567		 305.27265			43387.38302		153.57400		875.00000 
 43692.65567		 305.27265			43387.38302		67.02200		324.00000 
 43692.65567		 305.27265			43387.38302		153.57400		875.00000 
 43692.65567		 305.27265			43387.38302		67.02200		324.00000 
 43692.65567		 310.04627			43382.60941		153.57400		875.00000 
 43692.65567		 305.27265			43387.38302		67.02200		324.00000 
 43692.65567		 311.00099			43381.65468		153.57400		875.00000 
 43692.65567		 305.27265			43387.38302		67.02200		324.00000 
 43692.65567		 311.00099			43381.65468		153.57400		875.00000 
 43692.65567		 305.27265			43387.38302		67.02200		324.00000 
 43692.65567		 311.00099			43381.65468		153.57400		875.00000 
 43692.65567		 305.27265			43387.38302		67.02200		324.00000 
 43692.65567		 311.00099			43381.65468		153.57400		875.00000 
 43692.65567		 305.27265			43387.38302		67.02200		324.00000 
 43692.65567		 311.00099			43381.65468		153.57400		875.00000 
 43692.65567		 305.27265			43387.38302		67.02200		324.00000 
 43692.65567		 311.00099			43381.65468		153.57400		875.00000 
 43692.65567		 305.27265			43387.38302		67.02200		324.00000 
 43692.65567		 311.00099			43381.65468		153.57400		875.00000 
 43692.65567		 305.27265			43387.38302		67.02200		324.00000 
 43692.65567		 311.00099			43381.65468		153.57400		875.00000 
 43692.65567		 305.27265			43387.38302		67.02200		324.00000 
 43692.65567		 311.00099			43381.65468		153.57400		875.00000 
 43692.65567		 305.27265			43387.38302		67.02200		324.00000 
 43692.65567		 311.00099			43381.65468		153.57400		875.00000 
 43692.65567		 305.27265			43387.38302		67.02200		324.00000 
 43692.65567		 311.00099			43381.65468		153.57400		875.00000 
 43692.65567		 305.27265			43387.38302		67.02200		324.00000 
 43692.65567		 311.00099			43381.65468		153.57400		875.00000 
 43692.65567		 305.27265			43387.38302		67.02200		324.00000 
 43692.65567		 311.00099			43381.65468		138.16000		875.00000 
 43692.65567		 305.27265			43387.38302		67.02200		324.00000 
 43692.65567		 311.00099			43381.65468		138.16000		875.00000 
 43692.65567		 305.27265			43387.38302		65.00400		324.00000 
 43692.65567		 311.00099			43381.65468		138.16000		875.00000 
 43692.65567		 305.27265			43387.38302		65.00400		324.00000 
 43692.65567		 311.00099			43381.65468		138.16000		875.00000 
 43692.65567		 305.27265			43387.38302		65.00400		324.00000 
 43692.65567		 311.00099			43381.65468		138.16000		875.00000 
 43692.65567		 305.27265			43387.38302		65.00400		324.00000 
 43692.65567		 311.00099			43381.65468		138.16000		875.00000 
 43692.65567		 305.27265			43387.38302		65.00400		324.00000 
 43692.65567		 311.00099			43381.65468		138.16000		875.00000 
 43692.65567		 305.27265			43387.38302		65.00400		324.00000 
 43692.65567		 311.00099			43381.65468		138.16000		875.00000 
 43692.65567		 305.27265			43387.38302		65.00400		324.00000 
 43692.65567		 311.00099			43381.65468		138.16000		875.00000 
 43692.65567		 305.27265			43387.38302		65.00400		324.00000 
 43692.65567		 311.00099			43381.65468		138.16000		875.00000 
 43692.65567		 305.27265			43387.38302		65.00400		324.00000 
 43692.65567		 311.00099			43381.65468		138.16000		875.00000 
 43692.65567		 305.27265			43387.38302		65.00400		324.00000 
 43692.65567		 311.00099			43381.65468		138.16000		875.00000 
 43692.65567		 305.27265			43387.38302		65.00400		324.00000 
 43692.65567		 311.00099			43381.65468		138.16000		875.00000 
 43692.65567		 305.27265			43387.38302		65.00400		324.00000 
 43692.65567		 311.00099			43381.65468		138.16000		875.00000 
 43692.65567		 305.27265			43387.38302		65.00400		324.00000 
 43692.65567		 311.00099			43381.65468		138.16000		875.00000 
 43692.65567		 305.27265			43387.38302		65.00400		324.00000 
 43692.65567		 311.00099			43381.65468		138.16000		875.00000 
 43692.65567		 305.27265			43387.38302		65.00400		324.00000 
 43692.65567		 311.00099			43381.65468		138.16000		875.00000 
 43692.65567		 305.27265			43387.38302		65.00400		324.00000 
 43692.65567		 311.00099			43381.65468		138.16000		875.00000 
 43692.65567		 305.27265			43387.38302		65.00400		324.00000 
 43692.65567		 311.00099			43381.65468		138.16000		875.00000 
 43692.65567		 305.27265			43387.38302		65.00400		324.00000 
 43692.65567		 311.00099			43381.65468		138.16000		875.00000 
 43692.65567		 305.27265			43387.38302		65.00400		324.00000 
 43692.65567		 311.00099			43381.65468		138.16000		875.00000 
 43692.65567		 305.27265			43387.38302		65.00400		324.00000 
 43692.65567		 311.00099			43381.65468		138.16000		875.00000 
 43692.65567		 305.27265			43387.38302		65.00400		324.00000 
 43692.65567		 311.00099			43381.65468		138.16000		875.00000 
 43692.65567		 305.27265			43387.38302		65.00400		324.00000 
 43692.65567		 311.00099			43381.65468		138.16000		875.00000 
 43692.65567		 305.27265			43387.38302		65.00400		324.00000 
 43692.65567		 311.00099			43381.65468		138.16000		875.00000 
 43692.65567		 305.27265			43387.38302		65.00400		324.00000 
 43692.65567		 311.00099			43381.65468		138.16000		875.00000 
 43692.65567		 305.27265			43387.38302		65.00400		324.00000 
 43692.65567		 311.00099			43381.65468		138.16000		875.00000 
 43692.65567		 305.27265			43387.38302		65.00400		324.00000 
 43692.65567		 311.00099			43381.65468		138.16000		875.00000 
 43692.65567		 305.27265			43387.38302		65.00400		324.00000 
 43692.65567		 311.00099			43381.65468		132.03400		875.00000 
 43692.65567		 305.27265			43387.38302		65.00400		324.00000 
 43692.65567		 311.00099			43381.65468		132.03400		875.00000 
 43692.65567		 305.27265			43387.38302		65.00400		324.00000 
 43692.65567		 311.00099			43381.65468		132.03400		875.00000 
 43692.65567		 305.27265			43387.38302		65.00400		324.00000 
 43692.65567		 311.00099			43381.65468		132.03400		875.00000 
 43692.65567		 305.27265			43387.38302		65.00400		324.00000 
 43692.65567		 311.00099			43381.65468		132.03400		875.00000 
 43692.65567		 305.27265			43387.38302		65.00400		324.00000 
 43692.65567		 311.00099			43381.65468		132.03400		875.00000 
 43692.65567		 305.27265			43387.38302		65.00400		324.00000 
 43692.65567		 311.00099			43381.65468		132.03400		875.00000 
 43692.65567		 305.27265			43387.38302		65.00400		324.00000 
 43692.65567		 311.00099			43381.65468		132.03400		875.00000 
 43692.65567		 305.27265			43387.38302		65.00400		324.00000 
 43692.65567		 311.00099			43381.65468		132.03400		875.00000 
 43692.65567		 305.27265			43387.38302		65.00400		324.00000 
 43692.65567		 311.00099			43381.65468		132.03400		875.00000 
 43692.65567		 305.27265			43387.38302		65.00400		324.00000 
 43692.65567		 311.00099			43381.65468		132.03400		875.00000 
 43692.65567		 305.27265			43387.38302		65.00400		324.00000 
 43692.65567		 314.81988			43377.83579		132.03400		875.00000 
 43692.65567		 305.27265			43387.38302		65.00400		324.00000 
 43692.65567		 314.81988			43377.83579		132.03400		875.00000 
 43692.65567		 305.27265			43387.38302		65.00400		324.00000 
 43692.65567		 318.63877			43374.01690		132.03400		875.00000 
 43692.65567		 305.27265			43387.38302		65.00400		324.00000 
 43692.65567		 322.45767			43370.19801		132.03400		875.00000 
 43692.65567		 305.27265			43387.38302		65.00400		324.00000 
 43692.65567		 326.27656			43366.37912		132.03400		875.00000 
 43692.65567		 305.27265			43387.38302		65.00400		324.00000 
 43692.65567		 326.27656			43366.37912		132.03400		875.00000 
 43692.65567		 305.27265			43387.38302		65.00400		324.00000 
 43692.65567		 326.27656			43366.37912		132.03400		875.00000 
 43692.65567		 305.27265			43387.38302		65.00400		324.00000 
 43692.65567		 537.27032			43155.38535		132.03400		875.00000 
 43692.65567		 305.27265			43387.38302		65.00400		324.00000 
 43692.65567		 566.86673			43125.78894		132.03400		875.00000 
 43692.65567		 305.27265			43387.38302		65.00400		324.00000 
 43692.65567		 581.66494			43110.99073		132.03400		875.00000 
 43692.65567		 305.27265			43387.38302		65.00400		324.00000 
 43692.65567		 581.66494			43110.99073		132.03400		875.00000 
 43692.65567		 305.27265			43387.38302		65.00400		324.00000 
 43692.65567		 581.66494			43110.99073		132.03400		875.00000 
 43692.65567		 305.27265			43387.38302		65.00400		324.00000 
 43692.65567		 581.66494			43110.99073		132.03400		875.00000 
 43692.65567		 305.27265			43387.38302		65.00400		324.00000 
 43692.65567		 581.66494			43110.99073		132.03400		875.00000 
 43692.65567		 305.27265			43387.38302		65.00400		324.00000 
 43692.65567		 581.66494			43110.99073		132.03400		875.00000 
 43692.65567		 305.27265			43387.38302		65.00400		324.00000 
 43692.65567		 581.66494			43110.99073		132.03400		875.00000 
 43692.65567		 305.27265			43387.38302		65.00400		324.00000 
 43692.65567		 581.66494			43110.99073		132.03400		875.00000 
 43692.65567		 305.27265			43387.38302		65.00400		324.00000 
 43692.65567		 581.66494			43110.99073		132.03400		875.00000 
 43692.65567		 305.27265			43387.38302		65.00400		324.00000 
 43692.65567		 581.66494			43110.99073		132.03400		875.00000 
 43692.65567		 305.27265			43387.38302		65.00400		324.00000 
 43692.65567		 581.66494			43110.99073		132.03400		875.00000 
 43692.65567		 305.27265			43387.38302		65.00400		324.00000 
 43692.65567		 581.66494			43110.99073		132.03400		875.00000 
 43692.65567		 305.27265			43387.38302		65.00400		324.00000 
 43692.65567		 581.66494			43110.99073		132.03400		875.00000 
 43692.65567		 305.27265			43387.38302		65.00400		324.00000 
 43692.65567		 581.66494			43110.99073		132.03400		875.00000 
 43692.65567		 305.27265			43387.38302		65.00400		324.00000 
 43692.65567		 581.66494			43110.99073		132.03400		875.00000 
 43692.65567		 305.27265			43387.38302		65.00400		324.00000 
 43692.65567		 581.66494			43110.99073		132.03400		875.00000 
 43692.65567		 305.27265			43387.38302		65.00400		324.00000 
 43692.65567		 581.66494			43110.99073		132.03400		875.00000 
 43692.65567		 305.27265			43387.38302		65.00400		324.00000 
 43692.65567		 581.66494			43110.99073		132.03400		875.00000 
 43692.65567		 305.27265			43387.38302		65.00400		324.00000 
 43692.65567		 581.66494			43110.99073		132.03400		875.00000 
 43692.65567		 305.27265			43387.38302		65.00400		324.00000 
 43692.65567		 581.66494			43110.99073		132.03400		875.00000 
 43692.65567		 305.27265			43387.38302		65.00400		324.00000 
 43692.65567		 581.66494			43110.99073		132.03400		875.00000 
 43692.65567		 305.27265			43387.38302		65.00400		324.00000 
 43692.65567		 581.66494			43110.99073		132.03400		875.00000 
 43692.65567		 305.27265			43387.38302		65.00400		324.00000 
 43692.65567		 581.66494			43110.99073		132.03400		875.00000 
 43692.65567		 305.27265			43387.38302		65.00400		324.00000 
 43692.65567		 581.66494			43110.99073		132.03400		875.00000 
 43692.65567		 305.27265			43387.38302		65.00400		324.00000 
 43692.65567		 581.66494			43110.99073		132.03400		875.00000 
 43692.65567		 305.27265			43387.38302		65.00400		324.00000 
 43692.65567		 581.66494			43110.99073		132.03400		875.00000 
 43692.65567		 305.27265			43387.38302		65.00400		324.00000 
 43692.65567		 581.66494			43110.99073		132.03400		875.00000 
 43692.65567		 305.27265			43387.38302		65.00400		324.00000 
 43692.65567		 581.66494			43110.99073		132.03400		875.00000 
 43692.65567		 305.27265			43387.38302		65.00400		324.00000 
 43692.65567		 581.66494			43110.99073		158.20400		875.00000 
 43692.65567		 305.27265			43387.38302		65.00400		324.00000 
 43692.65567		 581.66494			43110.99073		158.20400		875.00000 
 43692.65567		 305.27265			43387.38302		65.00400		324.00000 
 43692.65567		 581.66494			43110.99073		158.20400		875.00000 
 43692.65567		 305.27265			43387.38302		65.00400		324.00000 
 43692.65567		 581.66494			43110.99073		158.20400		875.00000 
 43692.65567		 305.27265			43387.38302		65.00400		324.00000 
 43692.65567		 581.66494			43110.99073		158.20400		875.00000 
 43692.65567		 305.27265			43387.38302		65.00400		324.00000 
 43692.65567		 581.66494			43110.99073		158.20400		875.00000 
 43692.65567		 305.27265			43387.38302		65.00400		324.00000 
 43692.65567		 581.66494			43110.99073		158.20400		875.00000 
 43692.65567		 305.27265			43387.38302		65.00400		324.00000 
 43692.65567		 581.66494			43110.99073		158.20400		875.00000 
 43692.65567		 305.27265			43387.38302		65.00400		324.00000 
 43692.65567		 581.66494			43110.99073		158.20400		875.00000 
 43692.65567		 305.27265			43387.38302		65.00400		324.00000 
 43692.65567		 581.66494			43110.99073		158.20400		875.00000 
 43692.65567		 305.27265			43387.38302		65.00400		324.00000 
 43692.65567		 581.66494			43110.99073		158.20400		875.00000 
 43692.65567		 305.27265			43387.38302		65.00400		324.00000 
 43692.65567		 581.66494			43110.99073		158.20400		875.00000 
 43692.65567		 305.27265			43387.38302		65.00400		324.00000 
 43692.65567		 581.66494			43110.99073		158.20400		875.00000 
 43692.65567		 305.27265			43387.38302		65.00400		324.00000 
 43692.65567		 581.66494			43110.99073		158.20400		875.00000 
 43692.65567		 305.27265			43387.38302		65.00400		324.00000 
 43692.65567		 581.66494			43110.99073		158.20400		875.00000 
 43692.65567		 305.27265			43387.38302		65.00400		324.00000 
 43692.65567		 581.66494			43110.99073		158.20400		875.00000 
 43692.65567		 305.27265			43387.38302		65.00400		324.00000 
 43692.65567		 581.66494			43110.99073		158.20400		875.00000 
 43692.65567		 305.27265			43387.38302		65.00400		324.00000 
 43692.65567		 581.66494			43110.99073		158.20400		875.00000 
 43692.65567		 305.27265			43387.38302		65.00400		324.00000 
 43692.65567		 581.66494			43110.99073		158.20400		875.00000 
 43692.65567		 305.27265			43387.38302		65.00400		324.00000 
 43692.65567		 581.66494			43110.99073		158.20400		875.00000 
 43692.65567		 305.27265			43387.38302		65.00400		324.00000 
 43692.65567		 581.66494			43110.99073		158.20400		875.00000 
 43692.65567		 305.27265			43387.38302		65.00400		324.00000 
 43692.65567		 581.66494			43110.99073		158.20400		875.00000 
 43692.65567		 305.27265			43387.38302		65.00400		324.00000 
 43692.65567		 581.66494			43110.99073		158.20400		875.00000 
 43692.65567		 305.27265			43387.38302		65.00400		324.00000 
 43692.65567		 581.66494			43110.99073		158.20400		875.00000 
 43692.65567		 305.27265			43387.38302		65.00400		324.00000 
 43692.65567		 581.66494			43110.99073		158.20400		875.00000 
 43692.65567		 305.27265			43387.38302		65.00400		324.00000 
 43692.65567		 581.66494			43110.99073		158.20400		875.00000 
 43692.65567		 305.27265			43387.38302		65.00400		324.00000 
 43692.65567		 581.66494			43110.99073		158.20400		875.00000 
 43692.65567		 305.27265			43387.38302		65.00400		324.00000 
 43692.65567		 581.66494			43110.99073		158.20400		875.00000 
 43692.65567		 305.27265			43387.38302		65.00400		324.00000 
 43692.65567		 581.66494			43110.99073		158.20400		875.00000 
 43692.65567		 305.27265			43387.38302		65.00400		324.00000 
 43692.65567		 581.66494			43110.99073		158.20400		875.00000 
 43692.65567		 305.27265			43387.38302		65.00400		324.00000 
 43692.65567		 581.66494			43110.99073		158.20400		875.00000 
 43692.65567		 305.27265			43387.38302		65.00400		324.00000 
 43692.65567		 581.66494			43110.99073		158.20400		875.00000 
 43692.65567		 305.27265			43387.38302		65.00400		324.00000 
 43692.65567		 581.66494			43110.99073		158.20400		875.00000 
 43692.65567		 305.27265			43387.38302		65.00400		324.00000 
 43692.65567		 581.66494			43110.99073		158.20400		875.00000 
 43692.65567		 305.27265			43387.38302		65.00400		324.00000 
 43692.65567		 581.66494			43110.99073		158.20400		875.00000 
 43692.65567		 305.27265			43387.38302		65.00400		324.00000 
 43692.65567		 581.66494			43110.99073		158.20400		875.00000 
 43692.65567		 305.27265			43387.38302		65.00400		324.00000 
 43692.65567		 581.66494			43110.99073		158.20400		875.00000 
 43692.65567		 305.27265			43387.38302		65.00400		324.00000 
 43692.65567		 581.66494			43110.99073		158.20400		875.00000 
 43692.65567		 305.27265			43387.38302		65.00400		324.00000 
 43692.65567		 581.66494			43110.99073		158.20400		875.00000 
 43692.65567		 305.27265			43387.38302		65.00400		324.00000 
 43692.65567		 581.66494			43110.99073		158.20400		875.00000 
 43692.65567		 305.27265			43387.38302		65.00400		324.00000 
 43692.65567		 581.66494			43110.99073		158.20400		875.00000 
 43692.65567		 305.27265			43387.38302		65.00400		324.00000 
 43692.65567		 581.66494			43110.99073		158.20400		875.00000 
 43692.65567		 305.27265			43387.38302		65.00400		324.00000 
 43692.65567		 581.66494			43110.99073		158.20400		875.00000 
 43692.65567		 305.27265			43387.38302		65.00400		324.00000 
 43692.65567		 581.66494			43110.99073		158.20400		875.00000 
 43692.65567		 305.27265			43387.38302		65.00400		324.00000 
 43692.65567		 581.66494			43110.99073		158.20400		875.00000 
 43692.65567		 305.27265			43387.38302		65.00400		324.00000 
 43692.65567		 581.66494			43110.99073		158.20400		875.00000 
 43692.65567		 305.27265			43387.38302		65.00400		324.00000 
 43692.65567		 581.66494			43110.99073		158.20400		875.00000 
 43692.65567		 305.27265			43387.38302		65.00400		324.00000 
 43692.65567		 581.66494			43110.99073		158.20400		875.00000 
 43692.65567		 305.27265			43387.38302		65.00400		324.00000 
 43692.65567		 581.66494			43110.99073		158.20400		875.00000 
 43692.65567		 305.27265			43387.38302		65.00400		324.00000 
 43692.65567		 581.66494			43110.99073		158.20400		875.00000 
 43692.65567		 305.27265			43387.38302		65.00400		324.00000 
 43692.65567		 581.66494			43110.99073		158.20400		875.00000 
 43692.65567		 305.27265			43387.38302		65.00400		324.00000 
 43692.65567		 581.66494			43110.99073		158.20400		875.00000 
 43692.65567		 305.27265			43387.38302		65.00400		324.00000 
 43692.65567		 581.66494			43110.99073		158.20400		875.00000 
 43692.65567		 305.27265			43387.38302		65.00400		324.00000 
 43692.65567		 581.66494			43110.99073		158.20400		875.00000 
 43692.65567		 305.27265			43387.38302		65.00400		324.00000 
 43692.65567		 581.66494			43110.99073		158.20400		875.00000 
 43692.65567		 305.27265			43387.38302		65.00400		324.00000 
 43692.65567		 581.66494			43110.99073		158.20400		875.00000 
 43692.65567		 305.27265			43387.38302		65.00400		324.00000 
 43692.65567		 581.66494			43110.99073		158.20400		875.00000 
 43692.65567		 305.27265			43387.38302		65.00400		324.00000 
 43692.65567		 581.66494			43110.99073		158.20400		875.00000 
 43692.65567		 305.27265			43387.38302		65.00400		324.00000 
 43692.65567		 581.66494			43110.99073		158.20400		875.00000 
 43692.65567		 305.27265			43387.38302		65.00400		324.00000 
 43692.65567		 581.66494			43110.99073		158.20400		875.00000 
 43692.65567		 305.27265			43387.38302		65.00400		324.00000 
 43692.65567		 581.66494			43110.99073		158.20400		875.00000 
 43692.65567		 305.27265			43387.38302		65.00400		324.00000 
 43692.65567		 581.66494			43110.99073		158.20400		875.00000 
 43692.65567		 305.27265			43387.38302		65.00400		324.00000 
 43692.65567		 581.66494			43110.99073		158.20400		875.00000 
 43692.65567		 305.27265			43387.38302		65.00400		324.00000 
 43692.65567		 581.66494			43110.99073		187.79800		875.00000 
 43692.65567		 305.27265			43387.38302		65.00400		324.00000 
 43692.65567		 581.66494			43110.99073		187.79800		875.00000 
 43692.65567		 305.27265			43387.38302		65.00400		324.00000 
 43692.65567		 581.66494			43110.99073		187.79800		875.00000 
 43692.65567		 305.27265			43387.38302		65.00400		324.00000 
 43692.65567		 581.66494			43110.99073		187.79800		875.00000 
 43692.65567		 305.27265			43387.38302		65.00400		324.00000 
 43692.65567		 581.66494			43110.99073		187.79800		875.00000 
 43692.65567		 305.27265			43387.38302		65.00400		324.00000 
 43692.65567		 581.66494			43110.99073		187.79800		875.00000 
 43692.65567		 305.27265			43387.38302		65.00400		324.00000 
 43692.65567		 581.66494			43110.99073		187.79800		875.00000 
 43692.65567		 305.27265			43387.38302		65.00400		324.00000 
 43692.65567		 581.66494			43110.99073		187.79800		875.00000 
 43692.65567		 305.27265			43387.38302		65.00400		324.00000 
 43692.65567		 581.66494			43110.99073		187.79800		875.00000 
 43692.65567		 305.27265			43387.38302		65.00400		324.00000 
 43692.65567		 581.66494			43110.99073		187.79800		875.00000 
 43692.65567		 305.27265			43387.38302		65.00400		324.00000 
 43692.65567		 581.66494			43110.99073		187.79800		875.00000 
 43692.65567		 305.27265			43387.38302		65.00400		324.00000 
 43692.65567		 581.66494			43110.99073		187.79800		875.00000 
 43692.65567		 305.27265			43387.38302		65.00400		324.00000 
 43692.65567		 581.66494			43110.99073		187.79800		875.00000 
 43692.65567		 305.27265			43387.38302		65.00400		324.00000 
 43692.65567		 581.66494			43110.99073		187.79800		875.00000 
 43692.65567		 305.27265			43387.38302		65.00400		324.00000 
 43692.65567		 581.66494			43110.99073		187.79800		875.00000 
 43692.65567		 305.27265			43387.38302		65.00400		324.00000 
 43692.65567		 581.66494			43110.99073		187.79800		875.00000 
 43692.65567		 305.27265			43387.38302		65.00400		324.00000 
 43692.65567		 581.66494			43110.99073		187.79800		875.00000 
 43692.65567		 305.27265			43387.38302		65.00400		324.00000 
 43692.65567		 581.66494			43110.99073		187.79800		875.00000 
 43692.65567		 305.27265			43387.38302		65.00400		324.00000 
 43692.65567		 581.66494			43110.99073		187.79800		875.00000 
 43692.65567		 305.27265			43387.38302		65.00400		324.00000 
 43692.65567		 581.66494			43110.99073		187.79800		875.00000 
 43692.65567		 305.27265			43387.38302		65.00400		324.00000 
 43692.65567		 581.66494			43110.99073		187.79800		875.00000 
 43692.65567		 305.27265			43387.38302		65.00400		324.00000 
 43692.65567		 581.66494			43110.99073		187.79800		875.00000 
 43692.65567		 305.27265			43387.38302		65.00400		324.00000 
 43692.65567		 581.66494			43110.99073		187.79800		875.00000 
 43692.65567		 305.27265			43387.38302		65.00400		324.00000 
 43692.65567		 581.66494			43110.99073		187.79800		875.00000 
 43692.65567		 305.27265			43387.38302		65.00400		324.00000 
 43692.65567		 581.66494			43110.99073		187.79800		875.00000 
 43692.65567		 305.27265			43387.38302		65.00400		324.00000 
 43692.65567		 581.66494			43110.99073		187.79800		875.00000 
 43692.65567		 305.27265			43387.38302		65.00400		324.00000 
 43692.65567		 581.66494			43110.99073		187.79800		875.00000 
 43692.65567		 305.27265			43387.38302		65.00400		324.00000 
 43692.65567		 581.66494			43110.99073		187.79800		875.00000 
 43692.65567		 305.27265			43387.38302		65.00400		324.00000 
 43692.65567		 581.66494			43110.99073		187.79800		875.00000 
 43692.65567		 305.27265			43387.38302		65.00400		324.00000 
 43692.65567		 581.66494			43110.99073		187.79800		875.00000 
 43692.65567		 305.27265			43387.38302		65.00400		324.00000 
 43692.65567		 581.66494			43110.99073		187.79800		875.00000 
 43692.65567		 305.27265			43387.38302		65.00400		324.00000 
 43692.65567		 581.66494			43110.99073		187.79800		875.00000 
 43692.65567		 305.27265			43387.38302		65.00400		324.00000 
 43692.65567		 581.66494			43110.99073		187.79800		875.00000 
 43692.65567		 305.27265			43387.38302		65.00400		324.00000 
 43692.65567		 581.66494			43110.99073		187.79800		875.00000 
 43692.65567		 305.27265			43387.38302		65.00400		324.00000 
 43692.65567		 581.66494			43110.99073		187.79800		875.00000 
 43692.65567		 305.27265			43387.38302		65.00400		324.00000 
 43692.65567		 581.66494			43110.99073		187.79800		875.00000 
 43692.65567		 305.27265			43387.38302		65.00400		324.00000 
 43692.65567		 581.66494			43110.99073		187.79800		875.00000 
 43692.65567		 305.27265			43387.38302		65.00400		324.00000 
 43692.65567		 581.66494			43110.99073		187.79800		875.00000 
 43692.65567		 305.27265			43387.38302		65.00400		324.00000 
 43692.65567		 581.66494			43110.99073		187.79800		875.00000 
 43692.65567		 305.27265			43387.38302		65.00400		324.00000 
 43692.65567		 581.66494			43110.99073		187.79800		875.00000 
 43692.65567		 305.27265			43387.38302		65.00400		324.00000 
 43692.65567		 581.66494			43110.99073		187.79800		875.00000 
 43692.65567		 305.27265			43387.38302		65.00400		324.00000 
 43692.65567		 581.66494			43110.99073		187.79800		875.00000 
 43692.65567		 305.27265			43387.38302		65.00400		324.00000 
 43692.65567		 581.66494			43110.99073		187.79800		875.00000 
 43692.65567		 305.27265			43387.38302		65.00400		324.00000 
 43692.65567		 581.66494			43110.99073		187.79800		875.00000 
 43692.65567		 305.27265			43387.38302		65.00400		324.00000 
 43692.65567		 581.66494			43110.99073		187.79800		875.00000 
 43692.65567		 305.27265			43387.38302		65.00400		324.00000 
 43692.65567		 581.66494			43110.99073		187.79800		875.00000 
 43692.65567		 305.27265			43387.38302		65.00400		324.00000 
 43692.65567		 581.66494			43110.99073		187.79800		875.00000 
 43692.65567		 305.27265			43387.38302		65.00400		324.00000 
 43692.65567		 581.66494			43110.99073		187.79800		875.00000 
 43692.65567		 305.27265			43387.38302		65.00400		324.00000 
 43692.65567		 581.66494			43110.99073		187.79800		875.00000 
 43692.65567		 305.27265			43387.38302		65.00400		324.00000 
 43692.65567		 581.66494			43110.99073		187.79800		875.00000 
 43692.65567		 305.27265			43387.38302		65.00400		324.00000 
 43692.65567		 581.66494			43110.99073		187.79800		875.00000 
 43692.65567		 305.27265			43387.38302		65.00400		324.00000 
 43692.65567		 581.66494			43110.99073		187.79800		875.00000 
 43692.65567		 305.27265			43387.38302		65.00400		324.00000 
 43692.65567		 581.66494			43110.99073		187.79800		875.00000 
 43692.65567		 305.27265			43387.38302		65.00400		324.00000 
 43692.65567		 581.66494			43110.99073		187.79800		875.00000 
 43692.65567		 305.27265			43387.38302		65.00400		324.00000 
 43692.65567		 581.66494			43110.99073		187.79800		875.00000 
 43692.65567		 305.27265			43387.38302		65.00400		324.00000 
 43692.65567		 581.66494			43110.99073		187.79800		875.00000 
 43692.65567		 305.27265			43387.38302		65.00400		324.00000 
 43692.65567		 581.66494			43110.99073		187.79800		875.00000 
 43692.65567		 305.27265			43387.38302		65.00400		324.00000 
 43692.65567		 581.66494			43110.99073		187.79800		875.00000 
 43692.65567		 305.27265			43387.38302		65.00400		324.00000 
 43692.65567		 581.66494			43110.99073		187.79800		875.00000 
 43692.65567		 305.27265			43387.38302		65.00400		324.00000 
 43692.65567		 581.66494			43110.99073		187.79800		875.00000 
 43692.65567		 305.27265			43387.38302		65.00400		324.00000 
 43692.65567		 581.66494			43110.99073		187.79800		875.00000 
 43692.65567		 305.27265			43387.38302		65.00400		324.00000 
 43692.65567		 581.66494			43110.99073		187.79800		875.00000 
 43692.65567		 305.27265			43387.38302		65.00400		324.00000 
 43692.65567		 581.66494			43110.99073		187.79800		875.00000 
 43692.65567		 305.27265			43387.38302		65.00400		324.00000 
 43692.65567		 581.66494			43110.99073		187.79800		875.00000 
 43692.65567		 305.27265			43387.38302		65.00400		324.00000 
 43692.65567		 581.66494			43110.99073		200.58200		875.00000 
 43692.65567		 305.27265			43387.38302		65.00400		324.00000 
 43692.65567		 581.66494			43110.99073		200.58200		875.00000 
 43692.65567		 305.27265			43387.38302		65.00400		324.00000 
 43692.65567		 581.66494			43110.99073		200.58200		875.00000 
 43692.65567		 305.27265			43387.38302		65.00400		324.00000 
 43692.65567		 581.66494			43110.99073		200.58200		875.00000 
 43692.65567		 305.27265			43387.38302		65.00400		324.00000 
 43692.65567		 581.66494			43110.99073		200.58200		875.00000 
 43692.65567		 305.27265			43387.38302		65.00400		324.00000 
 43692.65567		 581.66494			43110.99073		200.58200		875.00000 
 43692.65567		 305.27265			43387.38302		65.00400		324.00000 
 43692.65567		 581.66494			43110.99073		200.58200		875.00000 
 43692.65567		 305.27265			43387.38302		65.00400		324.00000 
 43692.65567		 581.66494			43110.99073		200.58200		875.00000 
 43692.65567		 305.27265			43387.38302		65.00400		324.00000 
 43692.65567		 581.66494			43110.99073		200.58200		875.00000 
 43692.65567		 305.27265			43387.38302		65.00400		324.00000 
 43692.65567		 581.66494			43110.99073		200.58200		875.00000 
 43692.65567		 305.27265			43387.38302		65.00400		324.00000 
 43692.65567		 581.66494			43110.99073		200.58200		875.00000 
 43692.65567		 305.27265			43387.38302		65.00400		324.00000 
 43692.65567		 581.66494			43110.99073		200.58200		875.00000 
 43692.65567		 305.27265			43387.38302		65.00400		324.00000 
 43692.65567		 581.66494			43110.99073		200.58200		875.00000 
 43692.65567		 305.27265			43387.38302		65.00400		324.00000 
 43692.65567		 581.66494			43110.99073		200.58200		875.00000 
 43692.65567		 305.27265			43387.38302		65.00400		324.00000 
 43692.65567		 581.66494			43110.99073		200.58200		875.00000 
 43692.65567		 305.27265			43387.38302		65.00400		324.00000 
 43692.65567		 581.66494			43110.99073		200.58200		875.00000 
 43692.65567		 305.27265			43387.38302		65.00400		324.00000 
 43692.65567		 581.66494			43110.99073		200.58200		875.00000 
 43692.65567		 305.27265			43387.38302		65.00400		324.00000 
 43692.65567		 581.66494			43110.99073		200.58200		875.00000 
 43692.65567		 305.27265			43387.38302		65.00400		324.00000 
 43692.65567		 581.66494			43110.99073		200.58200		875.00000 
 43692.65567		 305.27265			43387.38302		65.00400		324.00000 
 43692.65567		 581.66494			43110.99073		200.58200		875.00000 
 43692.65567		 305.27265			43387.38302		65.00400		324.00000 
 43692.65567		 581.66494			43110.99073		200.58200		875.00000 
 43692.65567		 305.27265			43387.38302		65.00400		324.00000 
 43692.65567		 581.66494			43110.99073		200.58200		875.00000 
 43692.65567		 305.27265			43387.38302		65.00400		324.00000 
 43692.65567		 581.66494			43110.99073		200.58200		875.00000 
 43692.65567		 305.27265			43387.38302		65.00400		324.00000 
 43692.65567		 581.66494			43110.99073		200.58200		875.00000 
 43692.65567		 305.27265			43387.38302		65.00400		324.00000 
 43692.65567		 581.66494			43110.99073		200.58200		875.00000 
 43692.65567		 305.27265			43387.38302		65.00400		324.00000 
 43692.65567		 581.66494			43110.99073		200.58200		875.00000 
 43692.65567		 305.27265			43387.38302		65.00400		324.00000 
 43692.65567		 581.66494			43110.99073		200.58200		875.00000 
 43692.65567		 305.27265			43387.38302		65.00400		324.00000 
 43692.65567		 581.66494			43110.99073		200.58200		875.00000 
 43692.65567		 305.27265			43387.38302		65.00400		324.00000 
 43692.65567		 566.86673			43125.78894		200.58200		875.00000 
 43692.65567		 305.27265			43387.38302		65.00400		324.00000 
 43692.65567		 537.27032			43155.38535		200.58200		875.00000 
 43692.65567		 305.27265			43387.38302		65.00400		324.00000 
 43692.65567		 537.27032			43155.38535		200.58200		875.00000 
 43692.65567		 305.27265			43387.38302		65.00400		324.00000 
 43692.65567		 537.27032			43155.38535		200.58200		875.00000 
 43692.65567		 305.27265			43387.38302		65.00400		324.00000 
 43692.65567		 537.27032			43155.38535		200.58200		875.00000 
 43692.65567		 305.27265			43387.38302		65.00400		324.00000 
 43692.65567		 537.27032			43155.38535		200.58200		875.00000 
 43692.65567		 305.27265			43387.38302		65.00400		324.00000 
 43692.65567		 537.27032			43155.38535		200.58200		875.00000 
 43692.65567		 305.27265			43387.38302		65.00400		324.00000 
 43692.65567		 537.27032			43155.38535		200.58200		875.00000 
 43692.65567		 305.27265			43387.38302		65.00400		324.00000 
 43692.65567		 537.27032			43155.38535		200.58200		875.00000 
 43692.65567		 305.27265			43387.38302		65.00400		324.00000 
 43692.65567		 537.27032			43155.38535		200.58200		875.00000 
 43692.65567		 305.27265			43387.38302		65.00400		324.00000 
 43692.65567		 537.27032			43155.38535		200.58200		875.00000 
 43692.65567		 305.27265			43387.38302		65.00400		324.00000 
 43692.65567		 537.27032			43155.38535		200.58200		875.00000 
 43692.65567		 305.27265			43387.38302		65.00400		324.00000 
 43692.65567		 537.27032			43155.38535		200.58200		875.00000 
 43692.65567		 305.27265			43387.38302		65.00400		324.00000 
 43692.65567		 537.27032			43155.38535		200.58200		875.00000 
 43692.65567		 305.27265			43387.38302		65.00400		324.00000 
 43692.65567		 537.27032			43155.38535		200.58200		875.00000 
 43692.65567		 305.27265			43387.38302		65.00400		324.00000 
 43692.65567		 537.27032			43155.38535		200.58200		875.00000 
 43692.65567		 305.27265			43387.38302		65.00400		324.00000 
 43692.65567		 537.27032			43155.38535		200.58200		875.00000 
 43692.65567		 305.27265			43387.38302		65.00400		324.00000 
 43692.65567		 537.27032			43155.38535		200.58200		875.00000 
 43692.65567		 305.27265			43387.38302		65.00400		324.00000 
 43692.65567		 537.27032			43155.38535		200.58200		875.00000 
 43692.65567		 305.27265			43387.38302		65.00400		324.00000 
 43692.65567		 537.27032			43155.38535		200.58200		875.00000 
 43692.65567		 305.27265			43387.38302		65.00400		324.00000 
 43692.65567		 537.27032			43155.38535		200.58200		875.00000 
 43692.65567		 305.27265			43387.38302		65.00400		324.00000 
 43692.65567		 525.81365			43166.84203		200.58200		875.00000 
 43692.65567		 305.27265			43387.38302		65.00400		324.00000 
 43692.65567		 525.81365			43166.84203		200.58200		875.00000 
 43692.65567		 261.35540			43431.30027		65.00400		324.00000 
 43692.65567		 261.35540			43431.30027		172.80200		875.00000 
 43692.65567		 261.35540			43431.30027		65.00400		324.00000 
