Memory Total (MiB) 	 Memory Used (MiB) 	    Memory Free (MiB) 	 Power Drawed (W) 	 Clocks (Mhz) 	 
 43692.65567		 261.35540			43431.30027		208.17400		875.00000 
 43692.65567		 261.35540			43431.30027		67.64400		324.00000 
 43692.65567		 261.35540			43431.30027		208.17400		875.00000 
 43692.65567		 261.35540			43431.30027		67.64400		324.00000 
 43692.65567		 261.35540			43431.30027		208.17400		875.00000 
 43692.65567		 261.35540			43431.30027		67.64400		324.00000 
 43692.65567		 261.35540			43431.30027		208.17400		875.00000 
 43692.65567		 261.35540			43431.30027		67.64400		324.00000 
 43692.65567		 261.35540			43431.30027		208.17400		875.00000 
 43692.65567		 261.35540			43431.30027		67.64400		324.00000 
 43692.65567		 261.35540			43431.30027		208.17400		875.00000 
 43692.65567		 261.35540			43431.30027		67.64400		324.00000 
 43692.65567		 261.35540			43431.30027		208.17400		875.00000 
 43692.65567		 261.35540			43431.30027		67.64400		324.00000 
 43692.65567		 261.35540			43431.30027		208.17400		875.00000 
 43692.65567		 261.35540			43431.30027		67.64400		324.00000 
 43692.65567		 261.35540			43431.30027		208.17400		875.00000 
 43692.65567		 261.35540			43431.30027		67.64400		324.00000 
 43692.65567		 261.35540			43431.30027		208.17400		875.00000 
 43692.65567		 261.35540			43431.30027		67.64400		324.00000 
 43692.65567		 261.35540			43431.30027		208.17400		875.00000 
 43692.65567		 261.35540			43431.30027		67.64400		324.00000 
 43692.65567		 261.35540			43431.30027		208.17400		875.00000 
 43692.65567		 261.35540			43431.30027		67.64400		324.00000 
 43692.65567		 261.35540			43431.30027		161.25000		875.00000 
 43692.65567		 261.35540			43431.30027		67.64400		324.00000 
 43692.65567		 261.35540			43431.30027		161.25000		875.00000 
 43692.65567		 261.35540			43431.30027		67.64400		324.00000 
 43692.65567		 261.35540			43431.30027		161.25000		875.00000 
 43692.65567		 261.35540			43431.30027		67.64400		324.00000 
 43692.65567		 261.35540			43431.30027		161.25000		875.00000 
 43692.65567		 261.35540			43431.30027		67.64400		324.00000 
 43692.65567		 261.35540			43431.30027		161.25000		875.00000 
 43692.65567		 261.35540			43431.30027		67.64400		324.00000 
 43692.65567		 261.35540			43431.30027		161.25000		875.00000 
 43692.65567		 261.35540			43431.30027		67.64400		324.00000 
 43692.65567		 265.17429			43427.48138		161.25000		875.00000 
 43692.65567		 261.35540			43431.30027		67.64400		324.00000 
 43692.65567		 265.17429			43427.48138		161.25000		875.00000 
 43692.65567		 261.35540			43431.30027		67.64400		324.00000 
 43692.65567		 272.81207			43419.84360		161.25000		875.00000 
 43692.65567		 261.35540			43431.30027		67.64400		324.00000 
 43692.65567		 272.81207			43419.84360		161.25000		875.00000 
 43692.65567		 261.35540			43431.30027		67.64400		324.00000 
 43692.65567		 272.81207			43419.84360		161.25000		875.00000 
 43692.65567		 265.17429			43427.48138		67.64400		324.00000 
 43692.65567		 272.81207			43419.84360		161.25000		875.00000 
 43692.65567		 265.17429			43427.48138		67.64400		324.00000 
 43692.65567		 272.81207			43419.84360		161.25000		875.00000 
 43692.65567		 265.17429			43427.48138		67.64400		324.00000 
 43692.65567		 272.81207			43419.84360		161.25000		875.00000 
 43692.65567		 272.81207			43419.84360		67.64400		324.00000 
 43692.65567		 272.81207			43419.84360		161.25000		875.00000 
 43692.65567		 272.81207			43419.84360		67.64400		324.00000 
 43692.65567		 272.81207			43419.84360		161.25000		875.00000 
 43692.65567		 272.81207			43419.84360		67.64400		324.00000 
 43692.65567		 305.27265			43387.38302		161.25000		875.00000 
 43692.65567		 305.27265			43387.38302		67.64400		324.00000 
 43692.65567		 305.27265			43387.38302		161.25000		875.00000 
 43692.65567		 305.27265			43387.38302		67.64400		324.00000 
 43692.65567		 305.27265			43387.38302		161.25000		875.00000 
 43692.65567		 305.27265			43387.38302		67.64400		324.00000 
 43692.65567		 305.27265			43387.38302		161.25000		875.00000 
 43692.65567		 305.27265			43387.38302		67.64400		324.00000 
 43692.65567		 305.27265			43387.38302		161.25000		875.00000 
 43692.65567		 305.27265			43387.38302		67.64400		324.00000 
 43692.65567		 309.09154			43383.56413		161.25000		875.00000 
 43692.65567		 305.27265			43387.38302		67.64400		324.00000 
 43692.65567		 310.52363			43382.13204		161.25000		875.00000 
 43692.65567		 305.27265			43387.38302		67.64400		324.00000 
 43692.65567		 311.00099			43381.65468		161.25000		875.00000 
 43692.65567		 305.27265			43387.38302		67.64400		324.00000 
 43692.65567		 311.00099			43381.65468		161.25000		875.00000 
 43692.65567		 305.27265			43387.38302		67.64400		324.00000 
 43692.65567		 311.00099			43381.65468		161.25000		875.00000 
 43692.65567		 305.27265			43387.38302		67.64400		324.00000 
 43692.65567		 311.00099			43381.65468		161.25000		875.00000 
 43692.65567		 305.27265			43387.38302		67.64400		324.00000 
 43692.65567		 311.00099			43381.65468		161.25000		875.00000 
 43692.65567		 305.27265			43387.38302		67.64400		324.00000 
 43692.65567		 311.00099			43381.65468		161.25000		875.00000 
 43692.65567		 305.27265			43387.38302		67.64400		324.00000 
 43692.65567		 311.00099			43381.65468		161.25000		875.00000 
 43692.65567		 305.27265			43387.38302		67.64400		324.00000 
 43692.65567		 311.00099			43381.65468		161.25000		875.00000 
 43692.65567		 305.27265			43387.38302		67.64400		324.00000 
 43692.65567		 311.00099			43381.65468		161.25000		875.00000 
 43692.65567		 305.27265			43387.38302		67.64400		324.00000 
 43692.65567		 311.00099			43381.65468		142.35000		875.00000 
 43692.65567		 305.27265			43387.38302		67.64400		324.00000 
 43692.65567		 311.00099			43381.65468		142.35000		875.00000 
 43692.65567		 305.27265			43387.38302		67.64400		324.00000 
 43692.65567		 311.00099			43381.65468		142.35000		875.00000 
 43692.65567		 305.27265			43387.38302		67.64400		324.00000 
 43692.65567		 311.00099			43381.65468		142.35000		875.00000 
 43692.65567		 305.27265			43387.38302		67.64400		324.00000 
 43692.65567		 311.00099			43381.65468		142.35000		875.00000 
 43692.65567		 305.27265			43387.38302		67.64400		324.00000 
 43692.65567		 311.00099			43381.65468		142.35000		875.00000 
 43692.65567		 305.27265			43387.38302		67.64400		324.00000 
 43692.65567		 311.00099			43381.65468		142.35000		875.00000 
 43692.65567		 305.27265			43387.38302		67.64400		324.00000 
 43692.65567		 311.00099			43381.65468		142.35000		875.00000 
 43692.65567		 305.27265			43387.38302		67.64400		324.00000 
 43692.65567		 311.00099			43381.65468		142.35000		875.00000 
 43692.65567		 305.27265			43387.38302		67.64400		324.00000 
 43692.65567		 311.00099			43381.65468		142.35000		875.00000 
 43692.65567		 305.27265			43387.38302		67.64400		324.00000 
 43692.65567		 311.00099			43381.65468		142.35000		875.00000 
 43692.65567		 305.27265			43387.38302		67.64400		324.00000 
 43692.65567		 311.00099			43381.65468		142.35000		875.00000 
 43692.65567		 305.27265			43387.38302		67.64400		324.00000 
 43692.65567		 311.00099			43381.65468		142.35000		875.00000 
 43692.65567		 305.27265			43387.38302		67.64400		324.00000 
 43692.65567		 311.00099			43381.65468		142.35000		875.00000 
 43692.65567		 305.27265			43387.38302		67.64400		324.00000 
 43692.65567		 311.00099			43381.65468		142.35000		875.00000 
 43692.65567		 305.27265			43387.38302		67.64400		324.00000 
 43692.65567		 311.00099			43381.65468		142.35000		875.00000 
 43692.65567		 305.27265			43387.38302		67.64400		324.00000 
 43692.65567		 311.00099			43381.65468		142.35000		875.00000 
 43692.65567		 305.27265			43387.38302		67.64400		324.00000 
 43692.65567		 311.00099			43381.65468		142.35000		875.00000 
 43692.65567		 305.27265			43387.38302		67.64400		324.00000 
 43692.65567		 311.00099			43381.65468		142.35000		875.00000 
 43692.65567		 305.27265			43387.38302		67.64400		324.00000 
 43692.65567		 311.00099			43381.65468		142.35000		875.00000 
 43692.65567		 305.27265			43387.38302		67.64400		324.00000 
 43692.65567		 311.00099			43381.65468		142.35000		875.00000 
 43692.65567		 305.27265			43387.38302		67.64400		324.00000 
 43692.65567		 311.00099			43381.65468		142.35000		875.00000 
 43692.65567		 305.27265			43387.38302		67.64400		324.00000 
 43692.65567		 311.00099			43381.65468		142.35000		875.00000 
 43692.65567		 305.27265			43387.38302		67.64400		324.00000 
 43692.65567		 311.00099			43381.65468		142.35000		875.00000 
 43692.65567		 305.27265			43387.38302		67.64400		324.00000 
 43692.65567		 311.00099			43381.65468		142.35000		875.00000 
 43692.65567		 305.27265			43387.38302		67.64400		324.00000 
 43692.65567		 311.00099			43381.65468		142.35000		875.00000 
 43692.65567		 305.27265			43387.38302		65.61600		324.00000 
 43692.65567		 311.00099			43381.65468		142.35000		875.00000 
 43692.65567		 305.27265			43387.38302		65.61600		324.00000 
 43692.65567		 311.00099			43381.65468		142.35000		875.00000 
 43692.65567		 305.27265			43387.38302		65.61600		324.00000 
 43692.65567		 311.00099			43381.65468		142.35000		875.00000 
 43692.65567		 305.27265			43387.38302		65.61600		324.00000 
 43692.65567		 311.00099			43381.65468		142.35000		875.00000 
 43692.65567		 305.27265			43387.38302		65.61600		324.00000 
 43692.65567		 311.00099			43381.65468		142.35000		875.00000 
 43692.65567		 305.27265			43387.38302		65.61600		324.00000 
 43692.65567		 311.00099			43381.65468		134.75200		875.00000 
 43692.65567		 305.27265			43387.38302		65.61600		324.00000 
 43692.65567		 311.00099			43381.65468		134.75200		875.00000 
 43692.65567		 305.27265			43387.38302		65.61600		324.00000 
 43692.65567		 311.00099			43381.65468		134.75200		875.00000 
 43692.65567		 305.27265			43387.38302		65.61600		324.00000 
 43692.65567		 311.00099			43381.65468		134.75200		875.00000 
 43692.65567		 305.27265			43387.38302		65.61600		324.00000 
 43692.65567		 311.00099			43381.65468		134.75200		875.00000 
 43692.65567		 305.27265			43387.38302		65.61600		324.00000 
 43692.65567		 311.00099			43381.65468		134.75200		875.00000 
 43692.65567		 305.27265			43387.38302		65.61600		324.00000 
 43692.65567		 311.00099			43381.65468		134.75200		875.00000 
 43692.65567		 305.27265			43387.38302		65.61600		324.00000 
 43692.65567		 311.00099			43381.65468		134.75200		875.00000 
 43692.65567		 305.27265			43387.38302		65.61600		324.00000 
 43692.65567		 311.00099			43381.65468		134.75200		875.00000 
 43692.65567		 305.27265			43387.38302		65.61600		324.00000 
 43692.65567		 311.00099			43381.65468		134.75200		875.00000 
 43692.65567		 305.27265			43387.38302		65.61600		324.00000 
 43692.65567		 314.81988			43377.83579		134.75200		875.00000 
 43692.65567		 305.27265			43387.38302		65.61600		324.00000 
 43692.65567		 314.81988			43377.83579		134.75200		875.00000 
 43692.65567		 305.27265			43387.38302		65.61600		324.00000 
 43692.65567		 314.81988			43377.83579		134.75200		875.00000 
 43692.65567		 305.27265			43387.38302		65.61600		324.00000 
 43692.65567		 318.63877			43374.01690		134.75200		875.00000 
 43692.65567		 305.27265			43387.38302		65.61600		324.00000 
 43692.65567		 322.45767			43370.19801		134.75200		875.00000 
 43692.65567		 305.27265			43387.38302		65.61600		324.00000 
 43692.65567		 326.27656			43366.37912		134.75200		875.00000 
 43692.65567		 305.27265			43387.38302		65.61600		324.00000 
 43692.65567		 326.27656			43366.37912		134.75200		875.00000 
 43692.65567		 305.27265			43387.38302		65.61600		324.00000 
 43692.65567		 326.27656			43366.37912		134.75200		875.00000 
 43692.65567		 305.27265			43387.38302		65.61600		324.00000 
 43692.65567		 537.27032			43155.38535		134.75200		875.00000 
 43692.65567		 305.27265			43387.38302		65.61600		324.00000 
 43692.65567		 564.00256			43128.65311		134.75200		875.00000 
 43692.65567		 305.27265			43387.38302		65.61600		324.00000 
 43692.65567		 617.46705			43075.18863		134.75200		875.00000 
 43692.65567		 305.27265			43387.38302		65.61600		324.00000 
 43692.65567		 617.46705			43075.18863		134.75200		875.00000 
 43692.65567		 305.27265			43387.38302		65.61600		324.00000 
 43692.65567		 617.46705			43075.18863		134.75200		875.00000 
 43692.65567		 305.27265			43387.38302		65.61600		324.00000 
 43692.65567		 617.46705			43075.18863		134.75200		875.00000 
 43692.65567		 305.27265			43387.38302		65.61600		324.00000 
 43692.65567		 617.46705			43075.18863		134.75200		875.00000 
 43692.65567		 305.27265			43387.38302		65.61600		324.00000 
 43692.65567		 617.46705			43075.18863		134.75200		875.00000 
 43692.65567		 305.27265			43387.38302		65.61600		324.00000 
 43692.65567		 617.46705			43075.18863		134.75200		875.00000 
 43692.65567		 305.27265			43387.38302		65.61600		324.00000 
 43692.65567		 617.46705			43075.18863		134.75200		875.00000 
 43692.65567		 305.27265			43387.38302		65.61600		324.00000 
 43692.65567		 617.46705			43075.18863		134.75200		875.00000 
 43692.65567		 305.27265			43387.38302		65.61600		324.00000 
 43692.65567		 617.46705			43075.18863		134.75200		875.00000 
 43692.65567		 305.27265			43387.38302		65.61600		324.00000 
 43692.65567		 617.46705			43075.18863		134.75200		875.00000 
 43692.65567		 305.27265			43387.38302		65.61600		324.00000 
 43692.65567		 617.46705			43075.18863		134.75200		875.00000 
 43692.65567		 305.27265			43387.38302		65.61600		324.00000 
 43692.65567		 617.46705			43075.18863		134.75200		875.00000 
 43692.65567		 305.27265			43387.38302		65.61600		324.00000 
 43692.65567		 617.46705			43075.18863		134.75200		875.00000 
 43692.65567		 305.27265			43387.38302		65.61600		324.00000 
 43692.65567		 617.46705			43075.18863		134.75200		875.00000 
 43692.65567		 305.27265			43387.38302		65.61600		324.00000 
 43692.65567		 617.46705			43075.18863		134.75200		875.00000 
 43692.65567		 305.27265			43387.38302		65.61600		324.00000 
 43692.65567		 617.46705			43075.18863		134.75200		875.00000 
 43692.65567		 305.27265			43387.38302		65.61600		324.00000 
 43692.65567		 617.46705			43075.18863		134.75200		875.00000 
 43692.65567		 305.27265			43387.38302		65.61600		324.00000 
 43692.65567		 617.46705			43075.18863		134.75200		875.00000 
 43692.65567		 305.27265			43387.38302		65.61600		324.00000 
 43692.65567		 617.46705			43075.18863		134.75200		875.00000 
 43692.65567		 305.27265			43387.38302		65.61600		324.00000 
 43692.65567		 617.46705			43075.18863		134.75200		875.00000 
 43692.65567		 305.27265			43387.38302		65.61600		324.00000 
 43692.65567		 617.46705			43075.18863		134.75200		875.00000 
 43692.65567		 305.27265			43387.38302		65.61600		324.00000 
 43692.65567		 617.46705			43075.18863		134.75200		875.00000 
 43692.65567		 305.27265			43387.38302		65.61600		324.00000 
 43692.65567		 617.46705			43075.18863		134.75200		875.00000 
 43692.65567		 305.27265			43387.38302		65.61600		324.00000 
 43692.65567		 617.46705			43075.18863		134.75200		875.00000 
 43692.65567		 305.27265			43387.38302		65.61600		324.00000 
 43692.65567		 617.46705			43075.18863		134.75200		875.00000 
 43692.65567		 305.27265			43387.38302		65.61600		324.00000 
 43692.65567		 617.46705			43075.18863		134.75200		875.00000 
 43692.65567		 305.27265			43387.38302		65.61600		324.00000 
 43692.65567		 617.46705			43075.18863		134.75200		875.00000 
 43692.65567		 305.27265			43387.38302		65.61600		324.00000 
 43692.65567		 617.46705			43075.18863		134.75200		875.00000 
 43692.65567		 305.27265			43387.38302		65.61600		324.00000 
 43692.65567		 617.46705			43075.18863		134.75200		875.00000 
 43692.65567		 305.27265			43387.38302		65.61600		324.00000 
 43692.65567		 617.46705			43075.18863		163.76200		875.00000 
 43692.65567		 305.27265			43387.38302		65.61600		324.00000 
 43692.65567		 617.46705			43075.18863		163.76200		875.00000 
 43692.65567		 305.27265			43387.38302		65.61600		324.00000 
 43692.65567		 617.46705			43075.18863		163.76200		875.00000 
 43692.65567		 305.27265			43387.38302		65.61600		324.00000 
 43692.65567		 617.46705			43075.18863		163.76200		875.00000 
 43692.65567		 305.27265			43387.38302		65.61600		324.00000 
 43692.65567		 617.46705			43075.18863		163.76200		875.00000 
 43692.65567		 305.27265			43387.38302		65.61600		324.00000 
 43692.65567		 617.46705			43075.18863		163.76200		875.00000 
 43692.65567		 305.27265			43387.38302		65.61600		324.00000 
 43692.65567		 617.46705			43075.18863		163.76200		875.00000 
 43692.65567		 305.27265			43387.38302		65.61600		324.00000 
 43692.65567		 617.46705			43075.18863		163.76200		875.00000 
 43692.65567		 305.27265			43387.38302		65.61600		324.00000 
 43692.65567		 617.46705			43075.18863		163.76200		875.00000 
 43692.65567		 305.27265			43387.38302		65.61600		324.00000 
 43692.65567		 617.46705			43075.18863		163.76200		875.00000 
 43692.65567		 305.27265			43387.38302		65.61600		324.00000 
 43692.65567		 617.46705			43075.18863		163.76200		875.00000 
 43692.65567		 305.27265			43387.38302		65.61600		324.00000 
 43692.65567		 617.46705			43075.18863		163.76200		875.00000 
 43692.65567		 305.27265			43387.38302		65.61600		324.00000 
 43692.65567		 617.46705			43075.18863		163.76200		875.00000 
 43692.65567		 305.27265			43387.38302		65.61600		324.00000 
 43692.65567		 617.46705			43075.18863		163.76200		875.00000 
 43692.65567		 305.27265			43387.38302		65.61600		324.00000 
 43692.65567		 617.46705			43075.18863		163.76200		875.00000 
 43692.65567		 305.27265			43387.38302		65.61600		324.00000 
 43692.65567		 617.46705			43075.18863		163.76200		875.00000 
 43692.65567		 305.27265			43387.38302		65.61600		324.00000 
 43692.65567		 617.46705			43075.18863		163.76200		875.00000 
 43692.65567		 305.27265			43387.38302		65.61600		324.00000 
 43692.65567		 617.46705			43075.18863		163.76200		875.00000 
 43692.65567		 305.27265			43387.38302		65.61600		324.00000 
 43692.65567		 617.46705			43075.18863		163.76200		875.00000 
 43692.65567		 305.27265			43387.38302		65.61600		324.00000 
 43692.65567		 617.46705			43075.18863		163.76200		875.00000 
 43692.65567		 305.27265			43387.38302		65.61600		324.00000 
 43692.65567		 617.46705			43075.18863		163.76200		875.00000 
 43692.65567		 305.27265			43387.38302		65.61600		324.00000 
 43692.65567		 617.46705			43075.18863		163.76200		875.00000 
 43692.65567		 305.27265			43387.38302		65.61600		324.00000 
 43692.65567		 617.46705			43075.18863		163.76200		875.00000 
 43692.65567		 305.27265			43387.38302		65.61600		324.00000 
 43692.65567		 617.46705			43075.18863		163.76200		875.00000 
 43692.65567		 305.27265			43387.38302		65.61600		324.00000 
 43692.65567		 617.46705			43075.18863		163.76200		875.00000 
 43692.65567		 305.27265			43387.38302		65.61600		324.00000 
 43692.65567		 617.46705			43075.18863		163.76200		875.00000 
 43692.65567		 305.27265			43387.38302		65.61600		324.00000 
 43692.65567		 617.46705			43075.18863		163.76200		875.00000 
 43692.65567		 305.27265			43387.38302		65.61600		324.00000 
 43692.65567		 617.46705			43075.18863		163.76200		875.00000 
 43692.65567		 305.27265			43387.38302		65.61600		324.00000 
 43692.65567		 617.46705			43075.18863		163.76200		875.00000 
 43692.65567		 305.27265			43387.38302		65.61600		324.00000 
 43692.65567		 617.46705			43075.18863		163.76200		875.00000 
 43692.65567		 305.27265			43387.38302		65.61600		324.00000 
 43692.65567		 617.46705			43075.18863		163.76200		875.00000 
 43692.65567		 305.27265			43387.38302		65.61600		324.00000 
 43692.65567		 617.46705			43075.18863		163.76200		875.00000 
 43692.65567		 305.27265			43387.38302		65.61600		324.00000 
 43692.65567		 617.46705			43075.18863		163.76200		875.00000 
 43692.65567		 305.27265			43387.38302		65.61600		324.00000 
 43692.65567		 617.46705			43075.18863		163.76200		875.00000 
 43692.65567		 305.27265			43387.38302		65.61600		324.00000 
 43692.65567		 617.46705			43075.18863		163.76200		875.00000 
 43692.65567		 305.27265			43387.38302		65.61600		324.00000 
 43692.65567		 617.46705			43075.18863		163.76200		875.00000 
 43692.65567		 305.27265			43387.38302		65.61600		324.00000 
 43692.65567		 617.46705			43075.18863		163.76200		875.00000 
 43692.65567		 305.27265			43387.38302		65.61600		324.00000 
 43692.65567		 617.46705			43075.18863		163.76200		875.00000 
 43692.65567		 305.27265			43387.38302		65.61600		324.00000 
 43692.65567		 617.46705			43075.18863		163.76200		875.00000 
 43692.65567		 305.27265			43387.38302		65.61600		324.00000 
 43692.65567		 617.46705			43075.18863		163.76200		875.00000 
 43692.65567		 305.27265			43387.38302		65.61600		324.00000 
 43692.65567		 617.46705			43075.18863		163.76200		875.00000 
 43692.65567		 305.27265			43387.38302		65.61600		324.00000 
 43692.65567		 617.46705			43075.18863		163.76200		875.00000 
 43692.65567		 305.27265			43387.38302		65.61600		324.00000 
 43692.65567		 617.46705			43075.18863		163.76200		875.00000 
 43692.65567		 305.27265			43387.38302		65.61600		324.00000 
 43692.65567		 617.46705			43075.18863		163.76200		875.00000 
 43692.65567		 305.27265			43387.38302		65.61600		324.00000 
 43692.65567		 617.46705			43075.18863		163.76200		875.00000 
 43692.65567		 305.27265			43387.38302		65.61600		324.00000 
 43692.65567		 617.46705			43075.18863		163.76200		875.00000 
 43692.65567		 305.27265			43387.38302		65.61600		324.00000 
 43692.65567		 617.46705			43075.18863		163.76200		875.00000 
 43692.65567		 305.27265			43387.38302		65.61600		324.00000 
 43692.65567		 617.46705			43075.18863		163.76200		875.00000 
 43692.65567		 305.27265			43387.38302		65.61600		324.00000 
 43692.65567		 617.46705			43075.18863		163.76200		875.00000 
 43692.65567		 305.27265			43387.38302		65.61600		324.00000 
 43692.65567		 617.46705			43075.18863		163.76200		875.00000 
 43692.65567		 305.27265			43387.38302		65.61600		324.00000 
 43692.65567		 617.46705			43075.18863		163.76200		875.00000 
 43692.65567		 305.27265			43387.38302		65.61600		324.00000 
 43692.65567		 617.46705			43075.18863		163.76200		875.00000 
 43692.65567		 305.27265			43387.38302		65.61600		324.00000 
 43692.65567		 617.46705			43075.18863		163.76200		875.00000 
 43692.65567		 305.27265			43387.38302		65.61600		324.00000 
 43692.65567		 617.46705			43075.18863		163.76200		875.00000 
 43692.65567		 305.27265			43387.38302		65.61600		324.00000 
 43692.65567		 617.46705			43075.18863		163.76200		875.00000 
 43692.65567		 305.27265			43387.38302		65.61600		324.00000 
 43692.65567		 617.46705			43075.18863		163.76200		875.00000 
 43692.65567		 305.27265			43387.38302		65.61600		324.00000 
 43692.65567		 617.46705			43075.18863		163.76200		875.00000 
 43692.65567		 305.27265			43387.38302		65.61600		324.00000 
 43692.65567		 617.46705			43075.18863		163.76200		875.00000 
 43692.65567		 305.27265			43387.38302		65.61600		324.00000 
 43692.65567		 617.46705			43075.18863		163.76200		875.00000 
 43692.65567		 305.27265			43387.38302		65.61600		324.00000 
 43692.65567		 617.46705			43075.18863		163.76200		875.00000 
 43692.65567		 305.27265			43387.38302		65.61600		324.00000 
 43692.65567		 617.46705			43075.18863		163.76200		875.00000 
 43692.65567		 305.27265			43387.38302		65.61600		324.00000 
 43692.65567		 617.46705			43075.18863		163.76200		875.00000 
 43692.65567		 305.27265			43387.38302		65.61600		324.00000 
 43692.65567		 617.46705			43075.18863		163.76200		875.00000 
 43692.65567		 305.27265			43387.38302		65.61600		324.00000 
 43692.65567		 617.46705			43075.18863		163.76200		875.00000 
 43692.65567		 305.27265			43387.38302		65.61600		324.00000 
 43692.65567		 617.46705			43075.18863		163.76200		875.00000 
 43692.65567		 305.27265			43387.38302		65.61600		324.00000 
 43692.65567		 617.46705			43075.18863		163.76200		875.00000 
 43692.65567		 305.27265			43387.38302		65.61600		324.00000 
 43692.65567		 617.46705			43075.18863		163.76200		875.00000 
 43692.65567		 305.27265			43387.38302		65.61600		324.00000 
 43692.65567		 617.46705			43075.18863		197.90000		875.00000 
 43692.65567		 305.27265			43387.38302		65.61600		324.00000 
 43692.65567		 617.46705			43075.18863		197.90000		875.00000 
 43692.65567		 305.27265			43387.38302		65.61600		324.00000 
 43692.65567		 617.46705			43075.18863		197.90000		875.00000 
 43692.65567		 305.27265			43387.38302		65.61600		324.00000 
 43692.65567		 617.46705			43075.18863		197.90000		875.00000 
 43692.65567		 305.27265			43387.38302		65.61600		324.00000 
 43692.65567		 617.46705			43075.18863		197.90000		875.00000 
 43692.65567		 305.27265			43387.38302		65.61600		324.00000 
 43692.65567		 617.46705			43075.18863		197.90000		875.00000 
 43692.65567		 305.27265			43387.38302		65.61600		324.00000 
 43692.65567		 617.46705			43075.18863		197.90000		875.00000 
 43692.65567		 305.27265			43387.38302		65.61600		324.00000 
 43692.65567		 617.46705			43075.18863		197.90000		875.00000 
 43692.65567		 305.27265			43387.38302		65.61600		324.00000 
 43692.65567		 617.46705			43075.18863		197.90000		875.00000 
 43692.65567		 305.27265			43387.38302		65.61600		324.00000 
 43692.65567		 617.46705			43075.18863		197.90000		875.00000 
 43692.65567		 305.27265			43387.38302		65.61600		324.00000 
 43692.65567		 617.46705			43075.18863		197.90000		875.00000 
 43692.65567		 305.27265			43387.38302		65.61600		324.00000 
 43692.65567		 617.46705			43075.18863		197.90000		875.00000 
 43692.65567		 305.27265			43387.38302		65.61600		324.00000 
 43692.65567		 617.46705			43075.18863		197.90000		875.00000 
 43692.65567		 305.27265			43387.38302		65.61600		324.00000 
 43692.65567		 617.46705			43075.18863		197.90000		875.00000 
 43692.65567		 305.27265			43387.38302		65.61600		324.00000 
 43692.65567		 617.46705			43075.18863		197.90000		875.00000 
 43692.65567		 305.27265			43387.38302		65.61600		324.00000 
 43692.65567		 617.46705			43075.18863		197.90000		875.00000 
 43692.65567		 305.27265			43387.38302		65.61600		324.00000 
 43692.65567		 617.46705			43075.18863		197.90000		875.00000 
 43692.65567		 305.27265			43387.38302		65.61600		324.00000 
 43692.65567		 617.46705			43075.18863		197.90000		875.00000 
 43692.65567		 305.27265			43387.38302		65.61600		324.00000 
 43692.65567		 617.46705			43075.18863		197.90000		875.00000 
 43692.65567		 305.27265			43387.38302		65.61600		324.00000 
 43692.65567		 617.46705			43075.18863		197.90000		875.00000 
 43692.65567		 305.27265			43387.38302		65.61600		324.00000 
 43692.65567		 617.46705			43075.18863		197.90000		875.00000 
 43692.65567		 305.27265			43387.38302		65.61600		324.00000 
 43692.65567		 617.46705			43075.18863		197.90000		875.00000 
 43692.65567		 305.27265			43387.38302		65.61600		324.00000 
 43692.65567		 617.46705			43075.18863		197.90000		875.00000 
 43692.65567		 305.27265			43387.38302		65.61600		324.00000 
 43692.65567		 617.46705			43075.18863		197.90000		875.00000 
 43692.65567		 305.27265			43387.38302		65.61600		324.00000 
 43692.65567		 617.46705			43075.18863		197.90000		875.00000 
 43692.65567		 305.27265			43387.38302		65.61600		324.00000 
 43692.65567		 617.46705			43075.18863		197.90000		875.00000 
 43692.65567		 305.27265			43387.38302		65.61600		324.00000 
 43692.65567		 617.46705			43075.18863		197.90000		875.00000 
 43692.65567		 305.27265			43387.38302		65.61600		324.00000 
 43692.65567		 617.46705			43075.18863		197.90000		875.00000 
 43692.65567		 305.27265			43387.38302		65.61600		324.00000 
 43692.65567		 617.46705			43075.18863		197.90000		875.00000 
 43692.65567		 305.27265			43387.38302		65.61600		324.00000 
 43692.65567		 617.46705			43075.18863		197.90000		875.00000 
 43692.65567		 305.27265			43387.38302		65.61600		324.00000 
 43692.65567		 617.46705			43075.18863		197.90000		875.00000 
 43692.65567		 305.27265			43387.38302		65.61600		324.00000 
 43692.65567		 617.46705			43075.18863		197.90000		875.00000 
 43692.65567		 305.27265			43387.38302		65.61600		324.00000 
 43692.65567		 617.46705			43075.18863		197.90000		875.00000 
 43692.65567		 305.27265			43387.38302		65.61600		324.00000 
 43692.65567		 617.46705			43075.18863		197.90000		875.00000 
 43692.65567		 305.27265			43387.38302		65.61600		324.00000 
 43692.65567		 617.46705			43075.18863		197.90000		875.00000 
 43692.65567		 305.27265			43387.38302		65.61600		324.00000 
 43692.65567		 617.46705			43075.18863		197.90000		875.00000 
 43692.65567		 305.27265			43387.38302		65.61600		324.00000 
 43692.65567		 617.46705			43075.18863		197.90000		875.00000 
 43692.65567		 305.27265			43387.38302		65.61600		324.00000 
 43692.65567		 617.46705			43075.18863		197.90000		875.00000 
 43692.65567		 305.27265			43387.38302		65.61600		324.00000 
 43692.65567		 617.46705			43075.18863		197.90000		875.00000 
 43692.65567		 305.27265			43387.38302		65.61600		324.00000 
 43692.65567		 617.46705			43075.18863		197.90000		875.00000 
 43692.65567		 305.27265			43387.38302		65.61600		324.00000 
 43692.65567		 617.46705			43075.18863		197.90000		875.00000 
 43692.65567		 305.27265			43387.38302		65.61600		324.00000 
 43692.65567		 617.46705			43075.18863		197.90000		875.00000 
 43692.65567		 305.27265			43387.38302		65.61600		324.00000 
 43692.65567		 617.46705			43075.18863		197.90000		875.00000 
 43692.65567		 305.27265			43387.38302		65.61600		324.00000 
 43692.65567		 617.46705			43075.18863		197.90000		875.00000 
 43692.65567		 305.27265			43387.38302		65.61600		324.00000 
 43692.65567		 617.46705			43075.18863		197.90000		875.00000 
 43692.65567		 305.27265			43387.38302		65.61600		324.00000 
 43692.65567		 617.46705			43075.18863		197.90000		875.00000 
 43692.65567		 305.27265			43387.38302		65.61600		324.00000 
 43692.65567		 617.46705			43075.18863		197.90000		875.00000 
 43692.65567		 305.27265			43387.38302		65.61600		324.00000 
 43692.65567		 617.46705			43075.18863		197.90000		875.00000 
 43692.65567		 305.27265			43387.38302		65.61600		324.00000 
 43692.65567		 617.46705			43075.18863		197.90000		875.00000 
 43692.65567		 305.27265			43387.38302		65.61600		324.00000 
 43692.65567		 617.46705			43075.18863		197.90000		875.00000 
 43692.65567		 305.27265			43387.38302		65.61600		324.00000 
 43692.65567		 617.46705			43075.18863		197.90000		875.00000 
 43692.65567		 305.27265			43387.38302		65.61600		324.00000 
 43692.65567		 617.46705			43075.18863		197.90000		875.00000 
 43692.65567		 305.27265			43387.38302		65.61600		324.00000 
 43692.65567		 617.46705			43075.18863		197.90000		875.00000 
 43692.65567		 305.27265			43387.38302		65.61600		324.00000 
 43692.65567		 617.46705			43075.18863		197.90000		875.00000 
 43692.65567		 305.27265			43387.38302		65.61600		324.00000 
 43692.65567		 617.46705			43075.18863		197.90000		875.00000 
 43692.65567		 305.27265			43387.38302		65.61600		324.00000 
 43692.65567		 617.46705			43075.18863		197.90000		875.00000 
 43692.65567		 305.27265			43387.38302		65.61600		324.00000 
 43692.65567		 617.46705			43075.18863		197.90000		875.00000 
 43692.65567		 305.27265			43387.38302		65.61600		324.00000 
 43692.65567		 617.46705			43075.18863		197.90000		875.00000 
 43692.65567		 305.27265			43387.38302		65.61600		324.00000 
 43692.65567		 617.46705			43075.18863		197.90000		875.00000 
 43692.65567		 305.27265			43387.38302		65.61600		324.00000 
 43692.65567		 617.46705			43075.18863		197.90000		875.00000 
 43692.65567		 305.27265			43387.38302		65.61600		324.00000 
 43692.65567		 617.46705			43075.18863		197.90000		875.00000 
 43692.65567		 305.27265			43387.38302		65.61600		324.00000 
 43692.65567		 617.46705			43075.18863		197.90000		875.00000 
 43692.65567		 305.27265			43387.38302		65.61600		324.00000 
 43692.65567		 617.46705			43075.18863		197.90000		875.00000 
 43692.65567		 305.27265			43387.38302		65.61600		324.00000 
 43692.65567		 617.46705			43075.18863		197.90000		875.00000 
 43692.65567		 305.27265			43387.38302		65.61600		324.00000 
 43692.65567		 617.46705			43075.18863		197.90000		875.00000 
 43692.65567		 305.27265			43387.38302		65.61600		324.00000 
 43692.65567		 617.46705			43075.18863		210.59400		875.00000 
 43692.65567		 305.27265			43387.38302		65.61600		324.00000 
 43692.65567		 617.46705			43075.18863		210.59400		875.00000 
 43692.65567		 305.27265			43387.38302		65.61600		324.00000 
 43692.65567		 617.46705			43075.18863		210.59400		875.00000 
 43692.65567		 305.27265			43387.38302		65.61600		324.00000 
 43692.65567		 617.46705			43075.18863		210.59400		875.00000 
 43692.65567		 305.27265			43387.38302		65.61600		324.00000 
 43692.65567		 617.46705			43075.18863		210.59400		875.00000 
 43692.65567		 305.27265			43387.38302		65.61600		324.00000 
 43692.65567		 617.46705			43075.18863		210.59400		875.00000 
 43692.65567		 305.27265			43387.38302		65.61600		324.00000 
 43692.65567		 617.46705			43075.18863		210.59400		875.00000 
 43692.65567		 305.27265			43387.38302		65.61600		324.00000 
 43692.65567		 617.46705			43075.18863		210.59400		875.00000 
 43692.65567		 305.27265			43387.38302		65.61600		324.00000 
 43692.65567		 617.46705			43075.18863		210.59400		875.00000 
 43692.65567		 305.27265			43387.38302		65.61600		324.00000 
 43692.65567		 617.46705			43075.18863		210.59400		875.00000 
 43692.65567		 305.27265			43387.38302		65.61600		324.00000 
 43692.65567		 617.46705			43075.18863		210.59400		875.00000 
 43692.65567		 305.27265			43387.38302		65.61600		324.00000 
 43692.65567		 617.46705			43075.18863		210.59400		875.00000 
 43692.65567		 305.27265			43387.38302		65.61600		324.00000 
 43692.65567		 617.46705			43075.18863		210.59400		875.00000 
 43692.65567		 305.27265			43387.38302		65.61600		324.00000 
 43692.65567		 617.46705			43075.18863		210.59400		875.00000 
 43692.65567		 305.27265			43387.38302		65.61600		324.00000 
 43692.65567		 617.46705			43075.18863		210.59400		875.00000 
 43692.65567		 305.27265			43387.38302		65.61600		324.00000 
 43692.65567		 617.46705			43075.18863		210.59400		875.00000 
 43692.65567		 305.27265			43387.38302		65.61600		324.00000 
 43692.65567		 617.46705			43075.18863		210.59400		875.00000 
 43692.65567		 305.27265			43387.38302		65.61600		324.00000 
 43692.65567		 617.46705			43075.18863		210.59400		875.00000 
 43692.65567		 305.27265			43387.38302		65.61600		324.00000 
 43692.65567		 617.46705			43075.18863		210.59400		875.00000 
 43692.65567		 305.27265			43387.38302		65.61600		324.00000 
 43692.65567		 617.46705			43075.18863		210.59400		875.00000 
 43692.65567		 305.27265			43387.38302		65.61600		324.00000 
 43692.65567		 617.46705			43075.18863		210.59400		875.00000 
 43692.65567		 305.27265			43387.38302		65.61600		324.00000 
 43692.65567		 617.46705			43075.18863		210.59400		875.00000 
 43692.65567		 305.27265			43387.38302		65.61600		324.00000 
 43692.65567		 617.46705			43075.18863		210.59400		875.00000 
 43692.65567		 305.27265			43387.38302		65.61600		324.00000 
 43692.65567		 617.46705			43075.18863		210.59400		875.00000 
 43692.65567		 305.27265			43387.38302		65.61600		324.00000 
 43692.65567		 617.46705			43075.18863		210.59400		875.00000 
 43692.65567		 305.27265			43387.38302		65.61600		324.00000 
 43692.65567		 617.46705			43075.18863		210.59400		875.00000 
 43692.65567		 305.27265			43387.38302		65.61600		324.00000 
 43692.65567		 617.46705			43075.18863		210.59400		875.00000 
 43692.65567		 305.27265			43387.38302		65.61600		324.00000 
 43692.65567		 617.46705			43075.18863		210.59400		875.00000 
 43692.65567		 305.27265			43387.38302		65.61600		324.00000 
 43692.65567		 617.46705			43075.18863		210.59400		875.00000 
 43692.65567		 305.27265			43387.38302		65.61600		324.00000 
 43692.65567		 617.46705			43075.18863		210.59400		875.00000 
 43692.65567		 305.27265			43387.38302		65.61600		324.00000 
 43692.65567		 617.46705			43075.18863		210.59400		875.00000 
 43692.65567		 305.27265			43387.38302		65.61600		324.00000 
 43692.65567		 617.46705			43075.18863		210.59400		875.00000 
 43692.65567		 305.27265			43387.38302		65.61600		324.00000 
 43692.65567		 617.46705			43075.18863		210.59400		875.00000 
 43692.65567		 305.27265			43387.38302		65.61600		324.00000 
 43692.65567		 617.46705			43075.18863		210.59400		875.00000 
 43692.65567		 305.27265			43387.38302		65.61600		324.00000 
 43692.65567		 617.46705			43075.18863		210.59400		875.00000 
 43692.65567		 305.27265			43387.38302		65.61600		324.00000 
 43692.65567		 617.46705			43075.18863		210.59400		875.00000 
 43692.65567		 305.27265			43387.38302		65.61600		324.00000 
 43692.65567		 617.46705			43075.18863		210.59400		875.00000 
 43692.65567		 305.27265			43387.38302		65.61600		324.00000 
 43692.65567		 617.46705			43075.18863		210.59400		875.00000 
 43692.65567		 305.27265			43387.38302		65.61600		324.00000 
 43692.65567		 617.46705			43075.18863		210.59400		875.00000 
 43692.65567		 305.27265			43387.38302		65.61600		324.00000 
 43692.65567		 617.46705			43075.18863		210.59400		875.00000 
 43692.65567		 305.27265			43387.38302		65.61600		324.00000 
 43692.65567		 617.46705			43075.18863		210.59400		875.00000 
 43692.65567		 305.27265			43387.38302		65.61600		324.00000 
 43692.65567		 617.46705			43075.18863		210.59400		875.00000 
 43692.65567		 305.27265			43387.38302		65.61600		324.00000 
 43692.65567		 617.46705			43075.18863		210.59400		875.00000 
 43692.65567		 305.27265			43387.38302		65.61600		324.00000 
 43692.65567		 617.46705			43075.18863		210.59400		875.00000 
 43692.65567		 305.27265			43387.38302		65.61600		324.00000 
 43692.65567		 617.46705			43075.18863		210.59400		875.00000 
 43692.65567		 305.27265			43387.38302		65.61600		324.00000 
 43692.65567		 617.46705			43075.18863		210.59400		875.00000 
 43692.65567		 305.27265			43387.38302		65.61600		324.00000 
 43692.65567		 617.46705			43075.18863		210.59400		875.00000 
 43692.65567		 305.27265			43387.38302		65.61600		324.00000 
 43692.65567		 617.46705			43075.18863		210.59400		875.00000 
 43692.65567		 305.27265			43387.38302		65.61600		324.00000 
 43692.65567		 617.46705			43075.18863		210.59400		875.00000 
 43692.65567		 305.27265			43387.38302		65.61600		324.00000 
 43692.65567		 617.46705			43075.18863		210.59400		875.00000 
 43692.65567		 305.27265			43387.38302		65.61600		324.00000 
 43692.65567		 617.46705			43075.18863		210.59400		875.00000 
 43692.65567		 305.27265			43387.38302		65.61600		324.00000 
 43692.65567		 617.46705			43075.18863		210.59400		875.00000 
 43692.65567		 305.27265			43387.38302		65.61600		324.00000 
 43692.65567		 617.46705			43075.18863		210.59400		875.00000 
 43692.65567		 305.27265			43387.38302		65.61600		324.00000 
 43692.65567		 617.46705			43075.18863		210.59400		875.00000 
 43692.65567		 305.27265			43387.38302		65.61600		324.00000 
 43692.65567		 617.46705			43075.18863		210.59400		875.00000 
 43692.65567		 305.27265			43387.38302		65.61600		324.00000 
 43692.65567		 617.46705			43075.18863		210.59400		875.00000 
 43692.65567		 305.27265			43387.38302		65.61600		324.00000 
 43692.65567		 617.46705			43075.18863		210.59400		875.00000 
 43692.65567		 305.27265			43387.38302		65.61600		324.00000 
 43692.65567		 617.46705			43075.18863		210.59400		875.00000 
 43692.65567		 305.27265			43387.38302		65.61600		324.00000 
 43692.65567		 617.46705			43075.18863		210.59400		875.00000 
 43692.65567		 305.27265			43387.38302		65.61600		324.00000 
 43692.65567		 617.46705			43075.18863		210.59400		875.00000 
 43692.65567		 305.27265			43387.38302		65.61600		324.00000 
 43692.65567		 617.46705			43075.18863		210.59400		875.00000 
 43692.65567		 305.27265			43387.38302		65.61600		324.00000 
 43692.65567		 617.46705			43075.18863		210.59400		875.00000 
 43692.65567		 305.27265			43387.38302		65.61600		324.00000 
 43692.65567		 617.46705			43075.18863		210.59400		875.00000 
 43692.65567		 305.27265			43387.38302		65.61600		324.00000 
 43692.65567		 617.46705			43075.18863		215.60800		875.00000 
 43692.65567		 305.27265			43387.38302		65.61600		324.00000 
 43692.65567		 617.46705			43075.18863		215.60800		875.00000 
 43692.65567		 305.27265			43387.38302		65.61600		324.00000 
 43692.65567		 617.46705			43075.18863		215.60800		875.00000 
 43692.65567		 305.27265			43387.38302		65.61600		324.00000 
 43692.65567		 617.46705			43075.18863		215.60800		875.00000 
 43692.65567		 305.27265			43387.38302		65.61600		324.00000 
 43692.65567		 617.46705			43075.18863		215.60800		875.00000 
 43692.65567		 305.27265			43387.38302		65.61600		324.00000 
 43692.65567		 617.46705			43075.18863		215.60800		875.00000 
 43692.65567		 305.27265			43387.38302		65.61600		324.00000 
 43692.65567		 617.46705			43075.18863		215.60800		875.00000 
 43692.65567		 305.27265			43387.38302		65.61600		324.00000 
 43692.65567		 617.46705			43075.18863		215.60800		875.00000 
 43692.65567		 305.27265			43387.38302		65.61600		324.00000 
 43692.65567		 617.46705			43075.18863		215.60800		875.00000 
 43692.65567		 305.27265			43387.38302		65.61600		324.00000 
 43692.65567		 617.46705			43075.18863		215.60800		875.00000 
 43692.65567		 305.27265			43387.38302		65.61600		324.00000 
 43692.65567		 617.46705			43075.18863		215.60800		875.00000 
 43692.65567		 305.27265			43387.38302		65.61600		324.00000 
 43692.65567		 617.46705			43075.18863		215.60800		875.00000 
 43692.65567		 305.27265			43387.38302		65.61600		324.00000 
 43692.65567		 617.46705			43075.18863		215.60800		875.00000 
 43692.65567		 305.27265			43387.38302		65.61600		324.00000 
 43692.65567		 617.46705			43075.18863		215.60800		875.00000 
 43692.65567		 305.27265			43387.38302		65.61600		324.00000 
 43692.65567		 617.46705			43075.18863		215.60800		875.00000 
 43692.65567		 305.27265			43387.38302		65.61600		324.00000 
 43692.65567		 617.46705			43075.18863		215.60800		875.00000 
 43692.65567		 305.27265			43387.38302		65.61600		324.00000 
 43692.65567		 617.46705			43075.18863		215.60800		875.00000 
 43692.65567		 305.27265			43387.38302		65.61600		324.00000 
 43692.65567		 617.46705			43075.18863		215.60800		875.00000 
 43692.65567		 305.27265			43387.38302		65.61600		324.00000 
 43692.65567		 617.46705			43075.18863		215.60800		875.00000 
 43692.65567		 305.27265			43387.38302		65.61600		324.00000 
 43692.65567		 617.46705			43075.18863		215.60800		875.00000 
 43692.65567		 305.27265			43387.38302		65.61600		324.00000 
 43692.65567		 617.46705			43075.18863		215.60800		875.00000 
 43692.65567		 305.27265			43387.38302		65.61600		324.00000 
 43692.65567		 617.46705			43075.18863		215.60800		875.00000 
 43692.65567		 305.27265			43387.38302		65.61600		324.00000 
 43692.65567		 617.46705			43075.18863		215.60800		875.00000 
 43692.65567		 305.27265			43387.38302		65.61600		324.00000 
 43692.65567		 617.46705			43075.18863		215.60800		875.00000 
 43692.65567		 305.27265			43387.38302		65.61600		324.00000 
 43692.65567		 617.46705			43075.18863		215.60800		875.00000 
 43692.65567		 305.27265			43387.38302		65.61600		324.00000 
 43692.65567		 617.46705			43075.18863		215.60800		875.00000 
 43692.65567		 305.27265			43387.38302		65.61600		324.00000 
 43692.65567		 617.46705			43075.18863		215.60800		875.00000 
 43692.65567		 305.27265			43387.38302		65.61600		324.00000 
 43692.65567		 617.46705			43075.18863		215.60800		875.00000 
 43692.65567		 305.27265			43387.38302		65.61600		324.00000 
 43692.65567		 617.46705			43075.18863		215.60800		875.00000 
 43692.65567		 305.27265			43387.38302		65.61600		324.00000 
 43692.65567		 617.46705			43075.18863		215.60800		875.00000 
 43692.65567		 305.27265			43387.38302		65.61600		324.00000 
 43692.65567		 617.46705			43075.18863		215.60800		875.00000 
 43692.65567		 305.27265			43387.38302		65.61600		324.00000 
 43692.65567		 617.46705			43075.18863		215.60800		875.00000 
 43692.65567		 305.27265			43387.38302		65.61600		324.00000 
 43692.65567		 617.46705			43075.18863		215.60800		875.00000 
 43692.65567		 305.27265			43387.38302		65.61600		324.00000 
 43692.65567		 617.46705			43075.18863		215.60800		875.00000 
 43692.65567		 305.27265			43387.38302		65.61600		324.00000 
 43692.65567		 617.46705			43075.18863		215.60800		875.00000 
 43692.65567		 305.27265			43387.38302		65.61600		324.00000 
 43692.65567		 617.46705			43075.18863		215.60800		875.00000 
 43692.65567		 305.27265			43387.38302		65.61600		324.00000 
 43692.65567		 617.46705			43075.18863		215.60800		875.00000 
 43692.65567		 305.27265			43387.38302		65.61600		324.00000 
 43692.65567		 617.46705			43075.18863		215.60800		875.00000 
 43692.65567		 305.27265			43387.38302		65.61600		324.00000 
 43692.65567		 617.46705			43075.18863		215.60800		875.00000 
 43692.65567		 305.27265			43387.38302		65.61600		324.00000 
 43692.65567		 617.46705			43075.18863		215.60800		875.00000 
 43692.65567		 305.27265			43387.38302		65.61600		324.00000 
 43692.65567		 617.46705			43075.18863		215.60800		875.00000 
 43692.65567		 305.27265			43387.38302		65.61600		324.00000 
 43692.65567		 617.46705			43075.18863		215.60800		875.00000 
 43692.65567		 305.27265			43387.38302		65.61600		324.00000 
 43692.65567		 617.46705			43075.18863		215.60800		875.00000 
 43692.65567		 305.27265			43387.38302		65.61600		324.00000 
 43692.65567		 617.46705			43075.18863		215.60800		875.00000 
 43692.65567		 305.27265			43387.38302		65.61600		324.00000 
 43692.65567		 617.46705			43075.18863		215.60800		875.00000 
 43692.65567		 305.27265			43387.38302		65.61600		324.00000 
 43692.65567		 617.46705			43075.18863		215.60800		875.00000 
 43692.65567		 305.27265			43387.38302		65.61600		324.00000 
 43692.65567		 617.46705			43075.18863		215.60800		875.00000 
 43692.65567		 305.27265			43387.38302		65.61600		324.00000 
 43692.65567		 617.46705			43075.18863		215.60800		875.00000 
 43692.65567		 305.27265			43387.38302		65.61600		324.00000 
 43692.65567		 617.46705			43075.18863		215.60800		875.00000 
 43692.65567		 305.27265			43387.38302		65.61600		324.00000 
 43692.65567		 617.46705			43075.18863		215.60800		875.00000 
 43692.65567		 305.27265			43387.38302		65.61600		324.00000 
 43692.65567		 617.46705			43075.18863		215.60800		875.00000 
 43692.65567		 305.27265			43387.38302		65.61600		324.00000 
 43692.65567		 617.46705			43075.18863		215.60800		875.00000 
 43692.65567		 305.27265			43387.38302		65.61600		324.00000 
 43692.65567		 617.46705			43075.18863		215.60800		875.00000 
 43692.65567		 305.27265			43387.38302		65.61600		324.00000 
 43692.65567		 617.46705			43075.18863		215.60800		875.00000 
 43692.65567		 305.27265			43387.38302		65.61600		324.00000 
 43692.65567		 617.46705			43075.18863		215.60800		875.00000 
 43692.65567		 305.27265			43387.38302		65.61600		324.00000 
 43692.65567		 617.46705			43075.18863		215.60800		875.00000 
 43692.65567		 305.27265			43387.38302		65.61600		324.00000 
 43692.65567		 617.46705			43075.18863		215.60800		875.00000 
 43692.65567		 305.27265			43387.38302		65.61600		324.00000 
 43692.65567		 617.46705			43075.18863		215.60800		875.00000 
 43692.65567		 305.27265			43387.38302		65.61600		324.00000 
 43692.65567		 617.46705			43075.18863		215.60800		875.00000 
 43692.65567		 305.27265			43387.38302		65.61600		324.00000 
 43692.65567		 617.46705			43075.18863		216.96800		875.00000 
 43692.65567		 305.27265			43387.38302		65.61600		324.00000 
 43692.65567		 617.46705			43075.18863		216.96800		875.00000 
 43692.65567		 305.27265			43387.38302		65.61600		324.00000 
 43692.65567		 617.46705			43075.18863		216.96800		875.00000 
 43692.65567		 305.27265			43387.38302		65.61600		324.00000 
 43692.65567		 617.46705			43075.18863		216.96800		875.00000 
 43692.65567		 305.27265			43387.38302		65.61600		324.00000 
 43692.65567		 617.46705			43075.18863		216.96800		875.00000 
 43692.65567		 305.27265			43387.38302		65.61600		324.00000 
 43692.65567		 617.46705			43075.18863		216.96800		875.00000 
 43692.65567		 305.27265			43387.38302		65.61600		324.00000 
 43692.65567		 617.46705			43075.18863		216.96800		875.00000 
 43692.65567		 305.27265			43387.38302		65.61600		324.00000 
 43692.65567		 617.46705			43075.18863		216.96800		875.00000 
 43692.65567		 305.27265			43387.38302		65.61600		324.00000 
 43692.65567		 617.46705			43075.18863		216.96800		875.00000 
 43692.65567		 305.27265			43387.38302		65.61600		324.00000 
 43692.65567		 617.46705			43075.18863		216.96800		875.00000 
 43692.65567		 305.27265			43387.38302		65.61600		324.00000 
 43692.65567		 617.46705			43075.18863		216.96800		875.00000 
 43692.65567		 305.27265			43387.38302		65.61600		324.00000 
 43692.65567		 617.46705			43075.18863		216.96800		875.00000 
 43692.65567		 305.27265			43387.38302		65.61600		324.00000 
 43692.65567		 617.46705			43075.18863		216.96800		875.00000 
 43692.65567		 305.27265			43387.38302		65.61600		324.00000 
 43692.65567		 617.46705			43075.18863		216.96800		875.00000 
 43692.65567		 305.27265			43387.38302		65.61600		324.00000 
 43692.65567		 617.46705			43075.18863		216.96800		875.00000 
 43692.65567		 305.27265			43387.38302		65.61600		324.00000 
 43692.65567		 617.46705			43075.18863		216.96800		875.00000 
 43692.65567		 305.27265			43387.38302		65.61600		324.00000 
 43692.65567		 617.46705			43075.18863		216.96800		875.00000 
 43692.65567		 305.27265			43387.38302		65.61600		324.00000 
 43692.65567		 617.46705			43075.18863		216.96800		875.00000 
 43692.65567		 305.27265			43387.38302		65.61600		324.00000 
 43692.65567		 617.46705			43075.18863		216.96800		875.00000 
 43692.65567		 305.27265			43387.38302		65.61600		324.00000 
 43692.65567		 617.46705			43075.18863		216.96800		875.00000 
 43692.65567		 305.27265			43387.38302		65.61600		324.00000 
 43692.65567		 617.46705			43075.18863		216.96800		875.00000 
 43692.65567		 305.27265			43387.38302		65.61600		324.00000 
 43692.65567		 537.27032			43155.38535		216.96800		875.00000 
 43692.65567		 305.27265			43387.38302		65.61600		324.00000 
 43692.65567		 537.27032			43155.38535		216.96800		875.00000 
 43692.65567		 305.27265			43387.38302		65.61600		324.00000 
 43692.65567		 537.27032			43155.38535		216.96800		875.00000 
 43692.65567		 305.27265			43387.38302		65.61600		324.00000 
 43692.65567		 537.27032			43155.38535		216.96800		875.00000 
 43692.65567		 305.27265			43387.38302		65.61600		324.00000 
 43692.65567		 537.27032			43155.38535		216.96800		875.00000 
 43692.65567		 305.27265			43387.38302		65.61600		324.00000 
 43692.65567		 537.27032			43155.38535		216.96800		875.00000 
 43692.65567		 305.27265			43387.38302		65.61600		324.00000 
 43692.65567		 537.27032			43155.38535		216.96800		875.00000 
 43692.65567		 305.27265			43387.38302		65.61600		324.00000 
 43692.65567		 537.27032			43155.38535		216.96800		875.00000 
 43692.65567		 305.27265			43387.38302		65.61600		324.00000 
 43692.65567		 537.27032			43155.38535		216.96800		875.00000 
 43692.65567		 305.27265			43387.38302		65.61600		324.00000 
 43692.65567		 537.27032			43155.38535		216.96800		875.00000 
 43692.65567		 305.27265			43387.38302		65.61600		324.00000 
 43692.65567		 537.27032			43155.38535		216.96800		875.00000 
 43692.65567		 305.27265			43387.38302		65.61600		324.00000 
 43692.65567		 537.27032			43155.38535		216.96800		875.00000 
 43692.65567		 305.27265			43387.38302		65.61600		324.00000 
 43692.65567		 537.27032			43155.38535		216.96800		875.00000 
 43692.65567		 305.27265			43387.38302		65.61600		324.00000 
 43692.65567		 537.27032			43155.38535		216.96800		875.00000 
 43692.65567		 305.27265			43387.38302		65.61600		324.00000 
 43692.65567		 537.27032			43155.38535		216.96800		875.00000 
 43692.65567		 305.27265			43387.38302		65.61600		324.00000 
 43692.65567		 537.27032			43155.38535		216.96800		875.00000 
 43692.65567		 305.27265			43387.38302		65.61600		324.00000 
 43692.65567		 537.27032			43155.38535		216.96800		875.00000 
 43692.65567		 305.27265			43387.38302		65.61600		324.00000 
 43692.65567		 537.27032			43155.38535		216.96800		875.00000 
 43692.65567		 305.27265			43387.38302		65.61600		324.00000 
 43692.65567		 537.27032			43155.38535		216.96800		875.00000 
 43692.65567		 305.27265			43387.38302		65.61600		324.00000 
 43692.65567		 529.63254			43163.02313		216.96800		875.00000 
 43692.65567		 305.27265			43387.38302		65.61600		324.00000 
 43692.65567		 525.81365			43166.84203		216.96800		875.00000 
 43692.65567		 305.27265			43387.38302		65.61600		324.00000 
 43692.65567		 525.81365			43166.84203		216.96800		875.00000 
 43692.65567		 261.35540			43431.30027		65.61600		324.00000 
 43692.65567		 261.35540			43431.30027		176.95800		875.00000 
 43692.65567		 261.35540			43431.30027		65.61600		324.00000 
