Memory Total (MiB) 	 Memory Used (MiB) 	    Memory Free (MiB) 	 Power Drawed (W) 	 Clocks (Mhz) 	 
 43692.65567		 261.35540			43431.30027		188.57200		875.00000 
 43692.65567		 261.35540			43431.30027		67.63800		324.00000 
 43692.65567		 261.35540			43431.30027		188.57200		875.00000 
 43692.65567		 261.35540			43431.30027		67.63800		324.00000 
 43692.65567		 261.35540			43431.30027		188.57200		875.00000 
 43692.65567		 261.35540			43431.30027		67.63800		324.00000 
 43692.65567		 261.35540			43431.30027		188.57200		875.00000 
 43692.65567		 261.35540			43431.30027		67.63800		324.00000 
 43692.65567		 261.35540			43431.30027		188.57200		875.00000 
 43692.65567		 261.35540			43431.30027		67.63800		324.00000 
 43692.65567		 261.35540			43431.30027		188.57200		875.00000 
 43692.65567		 261.35540			43431.30027		67.63800		324.00000 
 43692.65567		 261.35540			43431.30027		188.57200		875.00000 
 43692.65567		 261.35540			43431.30027		67.63800		324.00000 
 43692.65567		 261.35540			43431.30027		188.57200		875.00000 
 43692.65567		 261.35540			43431.30027		67.63800		324.00000 
 43692.65567		 261.35540			43431.30027		188.57200		875.00000 
 43692.65567		 261.35540			43431.30027		67.63800		324.00000 
 43692.65567		 261.35540			43431.30027		188.57200		875.00000 
 43692.65567		 261.35540			43431.30027		67.63800		324.00000 
 43692.65567		 261.35540			43431.30027		188.57200		875.00000 
 43692.65567		 261.35540			43431.30027		67.63800		324.00000 
 43692.65567		 261.35540			43431.30027		188.57200		875.00000 
 43692.65567		 261.35540			43431.30027		67.63800		324.00000 
 43692.65567		 261.35540			43431.30027		188.57200		875.00000 
 43692.65567		 261.35540			43431.30027		67.63800		324.00000 
 43692.65567		 261.35540			43431.30027		188.57200		875.00000 
 43692.65567		 261.35540			43431.30027		67.63800		324.00000 
 43692.65567		 261.35540			43431.30027		188.57200		875.00000 
 43692.65567		 261.35540			43431.30027		67.63800		324.00000 
 43692.65567		 261.35540			43431.30027		188.57200		875.00000 
 43692.65567		 261.35540			43431.30027		67.63800		324.00000 
 43692.65567		 265.17429			43427.48138		188.57200		875.00000 
 43692.65567		 261.35540			43431.30027		67.63800		324.00000 
 43692.65567		 272.81207			43419.84360		188.57200		875.00000 
 43692.65567		 261.35540			43431.30027		67.63800		324.00000 
 43692.65567		 272.81207			43419.84360		153.49000		875.00000 
 43692.65567		 265.17429			43427.48138		67.63800		324.00000 
 43692.65567		 272.81207			43419.84360		153.49000		875.00000 
 43692.65567		 265.17429			43427.48138		67.63800		324.00000 
 43692.65567		 272.81207			43419.84360		153.49000		875.00000 
 43692.65567		 272.81207			43419.84360		67.63800		324.00000 
 43692.65567		 272.81207			43419.84360		153.49000		875.00000 
 43692.65567		 272.81207			43419.84360		67.63800		324.00000 
 43692.65567		 272.81207			43419.84360		153.49000		875.00000 
 43692.65567		 272.81207			43419.84360		67.63800		324.00000 
 43692.65567		 272.81207			43419.84360		153.49000		875.00000 
 43692.65567		 305.27265			43387.38302		67.63800		324.00000 
 43692.65567		 305.27265			43387.38302		153.49000		875.00000 
 43692.65567		 305.27265			43387.38302		67.63800		324.00000 
 43692.65567		 305.27265			43387.38302		153.49000		875.00000 
 43692.65567		 305.27265			43387.38302		67.63800		324.00000 
 43692.65567		 305.27265			43387.38302		153.49000		875.00000 
 43692.65567		 305.27265			43387.38302		67.63800		324.00000 
 43692.65567		 305.27265			43387.38302		153.49000		875.00000 
 43692.65567		 305.27265			43387.38302		67.63800		324.00000 
 43692.65567		 309.09154			43383.56413		153.49000		875.00000 
 43692.65567		 305.27265			43387.38302		67.63800		324.00000 
 43692.65567		 310.52363			43382.13204		153.49000		875.00000 
 43692.65567		 305.27265			43387.38302		67.63800		324.00000 
 43692.65567		 311.00099			43381.65468		153.49000		875.00000 
 43692.65567		 305.27265			43387.38302		67.63800		324.00000 
 43692.65567		 311.00099			43381.65468		153.49000		875.00000 
 43692.65567		 305.27265			43387.38302		67.63800		324.00000 
 43692.65567		 311.00099			43381.65468		153.49000		875.00000 
 43692.65567		 305.27265			43387.38302		67.63800		324.00000 
 43692.65567		 311.00099			43381.65468		153.49000		875.00000 
 43692.65567		 305.27265			43387.38302		67.63800		324.00000 
 43692.65567		 311.00099			43381.65468		153.49000		875.00000 
 43692.65567		 305.27265			43387.38302		67.63800		324.00000 
 43692.65567		 311.00099			43381.65468		153.49000		875.00000 
 43692.65567		 305.27265			43387.38302		67.63800		324.00000 
 43692.65567		 311.00099			43381.65468		153.49000		875.00000 
 43692.65567		 305.27265			43387.38302		67.63800		324.00000 
 43692.65567		 311.00099			43381.65468		153.49000		875.00000 
 43692.65567		 305.27265			43387.38302		67.63800		324.00000 
 43692.65567		 311.00099			43381.65468		153.49000		875.00000 
 43692.65567		 305.27265			43387.38302		67.63800		324.00000 
 43692.65567		 311.00099			43381.65468		153.49000		875.00000 
 43692.65567		 305.27265			43387.38302		67.63800		324.00000 
 43692.65567		 311.00099			43381.65468		153.49000		875.00000 
 43692.65567		 305.27265			43387.38302		67.63800		324.00000 
 43692.65567		 311.00099			43381.65468		153.49000		875.00000 
 43692.65567		 305.27265			43387.38302		67.63800		324.00000 
 43692.65567		 311.00099			43381.65468		153.49000		875.00000 
 43692.65567		 305.27265			43387.38302		67.63800		324.00000 
 43692.65567		 311.00099			43381.65468		153.49000		875.00000 
 43692.65567		 305.27265			43387.38302		67.63800		324.00000 
 43692.65567		 311.00099			43381.65468		153.49000		875.00000 
 43692.65567		 305.27265			43387.38302		67.63800		324.00000 
 43692.65567		 311.00099			43381.65468		153.49000		875.00000 
 43692.65567		 305.27265			43387.38302		67.63800		324.00000 
 43692.65567		 311.00099			43381.65468		153.49000		875.00000 
 43692.65567		 305.27265			43387.38302		67.63800		324.00000 
 43692.65567		 311.00099			43381.65468		153.49000		875.00000 
 43692.65567		 305.27265			43387.38302		67.63800		324.00000 
 43692.65567		 311.00099			43381.65468		153.49000		875.00000 
 43692.65567		 305.27265			43387.38302		67.63800		324.00000 
 43692.65567		 311.00099			43381.65468		139.28000		875.00000 
 43692.65567		 305.27265			43387.38302		67.63800		324.00000 
 43692.65567		 311.00099			43381.65468		139.28000		875.00000 
 43692.65567		 305.27265			43387.38302		67.63800		324.00000 
 43692.65567		 311.00099			43381.65468		139.28000		875.00000 
 43692.65567		 305.27265			43387.38302		67.63800		324.00000 
 43692.65567		 311.00099			43381.65468		139.28000		875.00000 
 43692.65567		 305.27265			43387.38302		67.63800		324.00000 
 43692.65567		 311.00099			43381.65468		139.28000		875.00000 
 43692.65567		 305.27265			43387.38302		67.63800		324.00000 
 43692.65567		 311.00099			43381.65468		139.28000		875.00000 
 43692.65567		 305.27265			43387.38302		67.63800		324.00000 
 43692.65567		 311.00099			43381.65468		139.28000		875.00000 
 43692.65567		 305.27265			43387.38302		67.63800		324.00000 
 43692.65567		 311.00099			43381.65468		139.28000		875.00000 
 43692.65567		 305.27265			43387.38302		67.63800		324.00000 
 43692.65567		 311.00099			43381.65468		139.28000		875.00000 
 43692.65567		 305.27265			43387.38302		67.63800		324.00000 
 43692.65567		 311.00099			43381.65468		139.28000		875.00000 
 43692.65567		 305.27265			43387.38302		67.63800		324.00000 
 43692.65567		 311.00099			43381.65468		139.28000		875.00000 
 43692.65567		 305.27265			43387.38302		67.63800		324.00000 
 43692.65567		 311.00099			43381.65468		139.28000		875.00000 
 43692.65567		 305.27265			43387.38302		67.63800		324.00000 
 43692.65567		 311.00099			43381.65468		139.28000		875.00000 
 43692.65567		 305.27265			43387.38302		67.63800		324.00000 
 43692.65567		 311.00099			43381.65468		139.28000		875.00000 
 43692.65567		 305.27265			43387.38302		67.63800		324.00000 
 43692.65567		 311.00099			43381.65468		139.28000		875.00000 
 43692.65567		 305.27265			43387.38302		67.63800		324.00000 
 43692.65567		 311.00099			43381.65468		139.28000		875.00000 
 43692.65567		 305.27265			43387.38302		67.63800		324.00000 
 43692.65567		 311.00099			43381.65468		139.28000		875.00000 
 43692.65567		 305.27265			43387.38302		67.63800		324.00000 
 43692.65567		 311.00099			43381.65468		139.28000		875.00000 
 43692.65567		 305.27265			43387.38302		67.63800		324.00000 
 43692.65567		 311.00099			43381.65468		139.28000		875.00000 
 43692.65567		 305.27265			43387.38302		67.63800		324.00000 
 43692.65567		 311.00099			43381.65468		139.28000		875.00000 
 43692.65567		 305.27265			43387.38302		67.63800		324.00000 
 43692.65567		 311.00099			43381.65468		139.28000		875.00000 
 43692.65567		 305.27265			43387.38302		67.63800		324.00000 
 43692.65567		 311.00099			43381.65468		139.28000		875.00000 
 43692.65567		 305.27265			43387.38302		67.63800		324.00000 
 43692.65567		 311.00099			43381.65468		139.28000		875.00000 
 43692.65567		 305.27265			43387.38302		67.63800		324.00000 
 43692.65567		 311.00099			43381.65468		139.28000		875.00000 
 43692.65567		 305.27265			43387.38302		67.63800		324.00000 
 43692.65567		 311.00099			43381.65468		139.28000		875.00000 
 43692.65567		 305.27265			43387.38302		67.63800		324.00000 
 43692.65567		 311.00099			43381.65468		139.28000		875.00000 
 43692.65567		 305.27265			43387.38302		67.63800		324.00000 
 43692.65567		 311.00099			43381.65468		139.28000		875.00000 
 43692.65567		 305.27265			43387.38302		67.63800		324.00000 
 43692.65567		 311.00099			43381.65468		139.28000		875.00000 
 43692.65567		 305.27265			43387.38302		67.63800		324.00000 
 43692.65567		 311.00099			43381.65468		139.28000		875.00000 
 43692.65567		 305.27265			43387.38302		67.63800		324.00000 
 43692.65567		 311.00099			43381.65468		139.28000		875.00000 
 43692.65567		 305.27265			43387.38302		67.63800		324.00000 
 43692.65567		 311.00099			43381.65468		139.28000		875.00000 
 43692.65567		 305.27265			43387.38302		67.63800		324.00000 
 43692.65567		 314.81988			43377.83579		135.03600		875.00000 
 43692.65567		 305.27265			43387.38302		67.63800		324.00000 
 43692.65567		 314.81988			43377.83579		135.03600		875.00000 
 43692.65567		 305.27265			43387.38302		67.63800		324.00000 
 43692.65567		 314.81988			43377.83579		135.03600		875.00000 
 43692.65567		 305.27265			43387.38302		67.63800		324.00000 
 43692.65567		 318.63877			43374.01690		135.03600		875.00000 
 43692.65567		 305.27265			43387.38302		67.63800		324.00000 
 43692.65567		 322.45767			43370.19801		135.03600		875.00000 
 43692.65567		 305.27265			43387.38302		67.63800		324.00000 
 43692.65567		 326.27656			43366.37912		135.03600		875.00000 
 43692.65567		 305.27265			43387.38302		67.63800		324.00000 
 43692.65567		 326.27656			43366.37912		135.03600		875.00000 
 43692.65567		 305.27265			43387.38302		67.63800		324.00000 
 43692.65567		 326.27656			43366.37912		135.03600		875.00000 
 43692.65567		 305.27265			43387.38302		67.63800		324.00000 
 43692.65567		 326.27656			43366.37912		135.03600		875.00000 
 43692.65567		 305.27265			43387.38302		67.63800		324.00000 
 43692.65567		 537.27032			43155.38535		135.03600		875.00000 
 43692.65567		 305.27265			43387.38302		67.63800		324.00000 
 43692.65567		 639.42567			43053.23000		135.03600		875.00000 
 43692.65567		 305.27265			43387.38302		67.63800		324.00000 
 43692.65567		 690.50335			43002.15232		135.03600		875.00000 
 43692.65567		 305.27265			43387.38302		67.63800		324.00000 
 43692.65567		 690.50335			43002.15232		135.03600		875.00000 
 43692.65567		 305.27265			43387.38302		67.63800		324.00000 
 43692.65567		 690.50335			43002.15232		135.03600		875.00000 
 43692.65567		 305.27265			43387.38302		67.63800		324.00000 
 43692.65567		 690.50335			43002.15232		135.03600		875.00000 
 43692.65567		 305.27265			43387.38302		67.63800		324.00000 
 43692.65567		 690.50335			43002.15232		135.03600		875.00000 
 43692.65567		 305.27265			43387.38302		67.63800		324.00000 
 43692.65567		 690.50335			43002.15232		135.03600		875.00000 
 43692.65567		 305.27265			43387.38302		67.63800		324.00000 
 43692.65567		 690.50335			43002.15232		135.03600		875.00000 
 43692.65567		 305.27265			43387.38302		67.63800		324.00000 
 43692.65567		 690.50335			43002.15232		135.03600		875.00000 
 43692.65567		 305.27265			43387.38302		67.63800		324.00000 
 43692.65567		 690.50335			43002.15232		135.03600		875.00000 
 43692.65567		 305.27265			43387.38302		67.63800		324.00000 
 43692.65567		 690.50335			43002.15232		135.03600		875.00000 
 43692.65567		 305.27265			43387.38302		67.63800		324.00000 
 43692.65567		 690.50335			43002.15232		135.03600		875.00000 
 43692.65567		 305.27265			43387.38302		67.63800		324.00000 
 43692.65567		 690.50335			43002.15232		135.03600		875.00000 
 43692.65567		 305.27265			43387.38302		67.63800		324.00000 
 43692.65567		 690.50335			43002.15232		135.03600		875.00000 
 43692.65567		 305.27265			43387.38302		67.63800		324.00000 
 43692.65567		 690.50335			43002.15232		135.03600		875.00000 
 43692.65567		 305.27265			43387.38302		67.63800		324.00000 
 43692.65567		 690.50335			43002.15232		135.03600		875.00000 
 43692.65567		 305.27265			43387.38302		67.63800		324.00000 
 43692.65567		 690.50335			43002.15232		135.03600		875.00000 
 43692.65567		 305.27265			43387.38302		67.63800		324.00000 
 43692.65567		 690.50335			43002.15232		135.03600		875.00000 
 43692.65567		 305.27265			43387.38302		67.63800		324.00000 
 43692.65567		 690.50335			43002.15232		135.03600		875.00000 
 43692.65567		 305.27265			43387.38302		67.63800		324.00000 
 43692.65567		 690.50335			43002.15232		135.03600		875.00000 
 43692.65567		 305.27265			43387.38302		67.63800		324.00000 
 43692.65567		 690.50335			43002.15232		135.03600		875.00000 
 43692.65567		 305.27265			43387.38302		67.63800		324.00000 
 43692.65567		 690.50335			43002.15232		135.03600		875.00000 
 43692.65567		 305.27265			43387.38302		67.63800		324.00000 
 43692.65567		 690.50335			43002.15232		135.03600		875.00000 
 43692.65567		 305.27265			43387.38302		67.63800		324.00000 
 43692.65567		 690.50335			43002.15232		135.03600		875.00000 
 43692.65567		 305.27265			43387.38302		67.63800		324.00000 
 43692.65567		 690.50335			43002.15232		135.03600		875.00000 
 43692.65567		 305.27265			43387.38302		67.63800		324.00000 
 43692.65567		 690.50335			43002.15232		135.03600		875.00000 
 43692.65567		 305.27265			43387.38302		67.63800		324.00000 
 43692.65567		 690.50335			43002.15232		135.03600		875.00000 
 43692.65567		 305.27265			43387.38302		67.63800		324.00000 
 43692.65567		 690.50335			43002.15232		135.03600		875.00000 
 43692.65567		 305.27265			43387.38302		67.63800		324.00000 
 43692.65567		 690.50335			43002.15232		135.03600		875.00000 
 43692.65567		 305.27265			43387.38302		67.63800		324.00000 
 43692.65567		 690.50335			43002.15232		135.03600		875.00000 
 43692.65567		 305.27265			43387.38302		67.63800		324.00000 
 43692.65567		 690.50335			43002.15232		135.03600		875.00000 
 43692.65567		 305.27265			43387.38302		67.63800		324.00000 
 43692.65567		 690.50335			43002.15232		135.03600		875.00000 
 43692.65567		 305.27265			43387.38302		67.63800		324.00000 
 43692.65567		 690.50335			43002.15232		135.03600		875.00000 
 43692.65567		 305.27265			43387.38302		67.63800		324.00000 
 43692.65567		 690.50335			43002.15232		135.03600		875.00000 
 43692.65567		 305.27265			43387.38302		67.63800		324.00000 
 43692.65567		 690.50335			43002.15232		135.03600		875.00000 
 43692.65567		 305.27265			43387.38302		67.63800		324.00000 
 43692.65567		 690.50335			43002.15232		135.03600		875.00000 
 43692.65567		 305.27265			43387.38302		67.63800		324.00000 
 43692.65567		 690.50335			43002.15232		135.03600		875.00000 
 43692.65567		 305.27265			43387.38302		67.63800		324.00000 
 43692.65567		 690.50335			43002.15232		135.03600		875.00000 
 43692.65567		 305.27265			43387.38302		67.63800		324.00000 
 43692.65567		 690.50335			43002.15232		135.03600		875.00000 
 43692.65567		 305.27265			43387.38302		67.63800		324.00000 
 43692.65567		 690.50335			43002.15232		135.03600		875.00000 
 43692.65567		 305.27265			43387.38302		67.63800		324.00000 
 43692.65567		 690.50335			43002.15232		135.03600		875.00000 
 43692.65567		 305.27265			43387.38302		67.63800		324.00000 
 43692.65567		 690.50335			43002.15232		135.03600		875.00000 
 43692.65567		 305.27265			43387.38302		67.63800		324.00000 
 43692.65567		 690.50335			43002.15232		135.03600		875.00000 
 43692.65567		 305.27265			43387.38302		67.63800		324.00000 
 43692.65567		 690.50335			43002.15232		181.57400		875.00000 
 43692.65567		 305.27265			43387.38302		67.63800		324.00000 
 43692.65567		 690.50335			43002.15232		181.57400		875.00000 
 43692.65567		 305.27265			43387.38302		67.63800		324.00000 
 43692.65567		 690.50335			43002.15232		181.57400		875.00000 
 43692.65567		 305.27265			43387.38302		67.63800		324.00000 
 43692.65567		 690.50335			43002.15232		181.57400		875.00000 
 43692.65567		 305.27265			43387.38302		67.63800		324.00000 
 43692.65567		 690.50335			43002.15232		181.57400		875.00000 
 43692.65567		 305.27265			43387.38302		67.63800		324.00000 
 43692.65567		 690.50335			43002.15232		181.57400		875.00000 
 43692.65567		 305.27265			43387.38302		67.63800		324.00000 
 43692.65567		 690.50335			43002.15232		181.57400		875.00000 
 43692.65567		 305.27265			43387.38302		67.63800		324.00000 
 43692.65567		 690.50335			43002.15232		181.57400		875.00000 
 43692.65567		 305.27265			43387.38302		67.63800		324.00000 
 43692.65567		 690.50335			43002.15232		181.57400		875.00000 
 43692.65567		 305.27265			43387.38302		67.63800		324.00000 
 43692.65567		 690.50335			43002.15232		181.57400		875.00000 
 43692.65567		 305.27265			43387.38302		67.63800		324.00000 
 43692.65567		 690.50335			43002.15232		181.57400		875.00000 
 43692.65567		 305.27265			43387.38302		67.63800		324.00000 
 43692.65567		 690.50335			43002.15232		181.57400		875.00000 
 43692.65567		 305.27265			43387.38302		67.63800		324.00000 
 43692.65567		 690.50335			43002.15232		181.57400		875.00000 
 43692.65567		 305.27265			43387.38302		67.63800		324.00000 
 43692.65567		 690.50335			43002.15232		181.57400		875.00000 
 43692.65567		 305.27265			43387.38302		67.63800		324.00000 
 43692.65567		 690.50335			43002.15232		181.57400		875.00000 
 43692.65567		 305.27265			43387.38302		67.63800		324.00000 
 43692.65567		 690.50335			43002.15232		181.57400		875.00000 
 43692.65567		 305.27265			43387.38302		67.63800		324.00000 
 43692.65567		 690.50335			43002.15232		181.57400		875.00000 
 43692.65567		 305.27265			43387.38302		67.63800		324.00000 
 43692.65567		 690.50335			43002.15232		181.57400		875.00000 
 43692.65567		 305.27265			43387.38302		67.63800		324.00000 
 43692.65567		 690.50335			43002.15232		181.57400		875.00000 
 43692.65567		 305.27265			43387.38302		67.63800		324.00000 
 43692.65567		 690.50335			43002.15232		181.57400		875.00000 
 43692.65567		 305.27265			43387.38302		67.63800		324.00000 
 43692.65567		 690.50335			43002.15232		181.57400		875.00000 
 43692.65567		 305.27265			43387.38302		67.63800		324.00000 
 43692.65567		 690.50335			43002.15232		181.57400		875.00000 
 43692.65567		 305.27265			43387.38302		67.63800		324.00000 
 43692.65567		 690.50335			43002.15232		181.57400		875.00000 
 43692.65567		 305.27265			43387.38302		67.63800		324.00000 
 43692.65567		 690.50335			43002.15232		181.57400		875.00000 
 43692.65567		 305.27265			43387.38302		67.63800		324.00000 
 43692.65567		 690.50335			43002.15232		181.57400		875.00000 
 43692.65567		 305.27265			43387.38302		67.63800		324.00000 
 43692.65567		 690.50335			43002.15232		181.57400		875.00000 
 43692.65567		 305.27265			43387.38302		67.63800		324.00000 
 43692.65567		 690.50335			43002.15232		181.57400		875.00000 
 43692.65567		 305.27265			43387.38302		67.63800		324.00000 
 43692.65567		 690.50335			43002.15232		181.57400		875.00000 
 43692.65567		 305.27265			43387.38302		67.63800		324.00000 
 43692.65567		 690.50335			43002.15232		181.57400		875.00000 
 43692.65567		 305.27265			43387.38302		67.63800		324.00000 
 43692.65567		 690.50335			43002.15232		181.57400		875.00000 
 43692.65567		 305.27265			43387.38302		67.63800		324.00000 
 43692.65567		 690.50335			43002.15232		181.57400		875.00000 
 43692.65567		 305.27265			43387.38302		67.63800		324.00000 
 43692.65567		 690.50335			43002.15232		181.57400		875.00000 
 43692.65567		 305.27265			43387.38302		67.63800		324.00000 
 43692.65567		 690.50335			43002.15232		181.57400		875.00000 
 43692.65567		 305.27265			43387.38302		67.63800		324.00000 
 43692.65567		 690.50335			43002.15232		181.57400		875.00000 
 43692.65567		 305.27265			43387.38302		67.63800		324.00000 
 43692.65567		 690.50335			43002.15232		181.57400		875.00000 
 43692.65567		 305.27265			43387.38302		67.63800		324.00000 
 43692.65567		 690.50335			43002.15232		181.57400		875.00000 
 43692.65567		 305.27265			43387.38302		67.63800		324.00000 
 43692.65567		 690.50335			43002.15232		181.57400		875.00000 
 43692.65567		 305.27265			43387.38302		67.63800		324.00000 
 43692.65567		 690.50335			43002.15232		181.57400		875.00000 
 43692.65567		 305.27265			43387.38302		67.63800		324.00000 
 43692.65567		 690.50335			43002.15232		181.57400		875.00000 
 43692.65567		 305.27265			43387.38302		67.63800		324.00000 
 43692.65567		 690.50335			43002.15232		181.57400		875.00000 
 43692.65567		 305.27265			43387.38302		67.63800		324.00000 
 43692.65567		 690.50335			43002.15232		181.57400		875.00000 
 43692.65567		 305.27265			43387.38302		67.63800		324.00000 
 43692.65567		 690.50335			43002.15232		181.57400		875.00000 
 43692.65567		 305.27265			43387.38302		67.63800		324.00000 
 43692.65567		 690.50335			43002.15232		181.57400		875.00000 
 43692.65567		 305.27265			43387.38302		67.63800		324.00000 
 43692.65567		 690.50335			43002.15232		181.57400		875.00000 
 43692.65567		 305.27265			43387.38302		67.63800		324.00000 
 43692.65567		 690.50335			43002.15232		181.57400		875.00000 
 43692.65567		 305.27265			43387.38302		67.63800		324.00000 
 43692.65567		 690.50335			43002.15232		181.57400		875.00000 
 43692.65567		 305.27265			43387.38302		67.63800		324.00000 
 43692.65567		 690.50335			43002.15232		181.57400		875.00000 
 43692.65567		 305.27265			43387.38302		67.63800		324.00000 
 43692.65567		 690.50335			43002.15232		181.57400		875.00000 
 43692.65567		 305.27265			43387.38302		67.63800		324.00000 
 43692.65567		 690.50335			43002.15232		181.57400		875.00000 
 43692.65567		 305.27265			43387.38302		67.63800		324.00000 
 43692.65567		 690.50335			43002.15232		181.57400		875.00000 
 43692.65567		 305.27265			43387.38302		67.63800		324.00000 
 43692.65567		 690.50335			43002.15232		181.57400		875.00000 
 43692.65567		 305.27265			43387.38302		67.63800		324.00000 
 43692.65567		 690.50335			43002.15232		181.57400		875.00000 
 43692.65567		 305.27265			43387.38302		67.63800		324.00000 
 43692.65567		 690.50335			43002.15232		181.57400		875.00000 
 43692.65567		 305.27265			43387.38302		67.63800		324.00000 
 43692.65567		 690.50335			43002.15232		181.57400		875.00000 
 43692.65567		 305.27265			43387.38302		67.63800		324.00000 
 43692.65567		 690.50335			43002.15232		181.57400		875.00000 
 43692.65567		 305.27265			43387.38302		67.63800		324.00000 
 43692.65567		 690.50335			43002.15232		181.57400		875.00000 
 43692.65567		 305.27265			43387.38302		67.63800		324.00000 
 43692.65567		 690.50335			43002.15232		181.57400		875.00000 
 43692.65567		 305.27265			43387.38302		67.63800		324.00000 
 43692.65567		 690.50335			43002.15232		181.57400		875.00000 
 43692.65567		 305.27265			43387.38302		67.63800		324.00000 
 43692.65567		 690.50335			43002.15232		209.10800		875.00000 
 43692.65567		 305.27265			43387.38302		67.63800		324.00000 
 43692.65567		 690.50335			43002.15232		209.10800		875.00000 
 43692.65567		 305.27265			43387.38302		67.63800		324.00000 
 43692.65567		 690.50335			43002.15232		209.10800		875.00000 
 43692.65567		 305.27265			43387.38302		67.63800		324.00000 
 43692.65567		 690.50335			43002.15232		209.10800		875.00000 
 43692.65567		 305.27265			43387.38302		67.63800		324.00000 
 43692.65567		 690.50335			43002.15232		209.10800		875.00000 
 43692.65567		 305.27265			43387.38302		67.63800		324.00000 
 43692.65567		 690.50335			43002.15232		209.10800		875.00000 
 43692.65567		 305.27265			43387.38302		67.63800		324.00000 
 43692.65567		 690.50335			43002.15232		209.10800		875.00000 
 43692.65567		 305.27265			43387.38302		67.63800		324.00000 
 43692.65567		 690.50335			43002.15232		209.10800		875.00000 
 43692.65567		 305.27265			43387.38302		67.63800		324.00000 
 43692.65567		 690.50335			43002.15232		209.10800		875.00000 
 43692.65567		 305.27265			43387.38302		67.63800		324.00000 
 43692.65567		 690.50335			43002.15232		209.10800		875.00000 
 43692.65567		 305.27265			43387.38302		67.63800		324.00000 
 43692.65567		 690.50335			43002.15232		209.10800		875.00000 
 43692.65567		 305.27265			43387.38302		67.63800		324.00000 
 43692.65567		 690.50335			43002.15232		209.10800		875.00000 
 43692.65567		 305.27265			43387.38302		67.63800		324.00000 
 43692.65567		 690.50335			43002.15232		209.10800		875.00000 
 43692.65567		 305.27265			43387.38302		67.63800		324.00000 
 43692.65567		 690.50335			43002.15232		209.10800		875.00000 
 43692.65567		 305.27265			43387.38302		67.63800		324.00000 
 43692.65567		 690.50335			43002.15232		209.10800		875.00000 
 43692.65567		 305.27265			43387.38302		67.63800		324.00000 
 43692.65567		 690.50335			43002.15232		209.10800		875.00000 
 43692.65567		 305.27265			43387.38302		67.63800		324.00000 
 43692.65567		 690.50335			43002.15232		209.10800		875.00000 
 43692.65567		 305.27265			43387.38302		67.63800		324.00000 
 43692.65567		 690.50335			43002.15232		209.10800		875.00000 
 43692.65567		 305.27265			43387.38302		67.63800		324.00000 
 43692.65567		 690.50335			43002.15232		209.10800		875.00000 
 43692.65567		 305.27265			43387.38302		67.63800		324.00000 
 43692.65567		 690.50335			43002.15232		209.10800		875.00000 
 43692.65567		 305.27265			43387.38302		67.63800		324.00000 
 43692.65567		 690.50335			43002.15232		209.10800		875.00000 
 43692.65567		 305.27265			43387.38302		67.63800		324.00000 
 43692.65567		 690.50335			43002.15232		209.10800		875.00000 
 43692.65567		 305.27265			43387.38302		67.63800		324.00000 
 43692.65567		 690.50335			43002.15232		209.10800		875.00000 
 43692.65567		 305.27265			43387.38302		67.63800		324.00000 
 43692.65567		 690.50335			43002.15232		209.10800		875.00000 
 43692.65567		 305.27265			43387.38302		67.63800		324.00000 
 43692.65567		 690.50335			43002.15232		209.10800		875.00000 
 43692.65567		 305.27265			43387.38302		67.63800		324.00000 
 43692.65567		 690.50335			43002.15232		209.10800		875.00000 
 43692.65567		 305.27265			43387.38302		67.63800		324.00000 
 43692.65567		 690.50335			43002.15232		209.10800		875.00000 
 43692.65567		 305.27265			43387.38302		67.63800		324.00000 
 43692.65567		 690.50335			43002.15232		209.10800		875.00000 
 43692.65567		 305.27265			43387.38302		67.63800		324.00000 
 43692.65567		 690.50335			43002.15232		209.10800		875.00000 
 43692.65567		 305.27265			43387.38302		67.63800		324.00000 
 43692.65567		 690.50335			43002.15232		209.10800		875.00000 
 43692.65567		 305.27265			43387.38302		67.63800		324.00000 
 43692.65567		 690.50335			43002.15232		209.10800		875.00000 
 43692.65567		 305.27265			43387.38302		67.63800		324.00000 
 43692.65567		 690.50335			43002.15232		209.10800		875.00000 
 43692.65567		 305.27265			43387.38302		67.63800		324.00000 
 43692.65567		 690.50335			43002.15232		209.10800		875.00000 
 43692.65567		 305.27265			43387.38302		67.63800		324.00000 
 43692.65567		 690.50335			43002.15232		209.10800		875.00000 
 43692.65567		 305.27265			43387.38302		67.63800		324.00000 
 43692.65567		 690.50335			43002.15232		209.10800		875.00000 
 43692.65567		 305.27265			43387.38302		67.63800		324.00000 
 43692.65567		 690.50335			43002.15232		209.10800		875.00000 
 43692.65567		 305.27265			43387.38302		67.63800		324.00000 
 43692.65567		 690.50335			43002.15232		209.10800		875.00000 
 43692.65567		 305.27265			43387.38302		67.63800		324.00000 
 43692.65567		 690.50335			43002.15232		209.10800		875.00000 
 43692.65567		 305.27265			43387.38302		67.63800		324.00000 
 43692.65567		 690.50335			43002.15232		209.10800		875.00000 
 43692.65567		 305.27265			43387.38302		67.63800		324.00000 
 43692.65567		 690.50335			43002.15232		209.10800		875.00000 
 43692.65567		 305.27265			43387.38302		67.63800		324.00000 
 43692.65567		 690.50335			43002.15232		209.10800		875.00000 
 43692.65567		 305.27265			43387.38302		67.63800		324.00000 
 43692.65567		 690.50335			43002.15232		209.10800		875.00000 
 43692.65567		 305.27265			43387.38302		67.63800		324.00000 
 43692.65567		 690.50335			43002.15232		209.10800		875.00000 
 43692.65567		 305.27265			43387.38302		67.63800		324.00000 
 43692.65567		 690.50335			43002.15232		209.10800		875.00000 
 43692.65567		 305.27265			43387.38302		67.63800		324.00000 
 43692.65567		 690.50335			43002.15232		209.10800		875.00000 
 43692.65567		 305.27265			43387.38302		67.63800		324.00000 
 43692.65567		 690.50335			43002.15232		209.10800		875.00000 
 43692.65567		 305.27265			43387.38302		67.63800		324.00000 
 43692.65567		 690.50335			43002.15232		209.10800		875.00000 
 43692.65567		 305.27265			43387.38302		67.63800		324.00000 
 43692.65567		 690.50335			43002.15232		209.10800		875.00000 
 43692.65567		 305.27265			43387.38302		67.63800		324.00000 
 43692.65567		 690.50335			43002.15232		209.10800		875.00000 
 43692.65567		 305.27265			43387.38302		67.63800		324.00000 
 43692.65567		 690.50335			43002.15232		209.10800		875.00000 
 43692.65567		 305.27265			43387.38302		67.63800		324.00000 
 43692.65567		 690.50335			43002.15232		209.10800		875.00000 
 43692.65567		 305.27265			43387.38302		67.63800		324.00000 
 43692.65567		 690.50335			43002.15232		209.10800		875.00000 
 43692.65567		 305.27265			43387.38302		67.63800		324.00000 
 43692.65567		 690.50335			43002.15232		209.10800		875.00000 
 43692.65567		 305.27265			43387.38302		67.63800		324.00000 
 43692.65567		 690.50335			43002.15232		209.10800		875.00000 
 43692.65567		 305.27265			43387.38302		67.63800		324.00000 
 43692.65567		 690.50335			43002.15232		209.10800		875.00000 
 43692.65567		 305.27265			43387.38302		67.63800		324.00000 
 43692.65567		 690.50335			43002.15232		209.10800		875.00000 
 43692.65567		 305.27265			43387.38302		67.63800		324.00000 
 43692.65567		 690.50335			43002.15232		209.10800		875.00000 
 43692.65567		 305.27265			43387.38302		67.63800		324.00000 
 43692.65567		 690.50335			43002.15232		209.10800		875.00000 
 43692.65567		 305.27265			43387.38302		67.63800		324.00000 
 43692.65567		 690.50335			43002.15232		219.74200		875.00000 
 43692.65567		 305.27265			43387.38302		67.63800		324.00000 
 43692.65567		 690.50335			43002.15232		219.74200		875.00000 
 43692.65567		 305.27265			43387.38302		67.63800		324.00000 
 43692.65567		 690.50335			43002.15232		219.74200		875.00000 
 43692.65567		 305.27265			43387.38302		67.63800		324.00000 
 43692.65567		 690.50335			43002.15232		219.74200		875.00000 
 43692.65567		 305.27265			43387.38302		67.63800		324.00000 
 43692.65567		 690.50335			43002.15232		219.74200		875.00000 
 43692.65567		 305.27265			43387.38302		67.63800		324.00000 
 43692.65567		 690.50335			43002.15232		219.74200		875.00000 
 43692.65567		 305.27265			43387.38302		67.63800		324.00000 
 43692.65567		 690.50335			43002.15232		219.74200		875.00000 
 43692.65567		 305.27265			43387.38302		67.63800		324.00000 
 43692.65567		 690.50335			43002.15232		219.74200		875.00000 
 43692.65567		 305.27265			43387.38302		67.63800		324.00000 
 43692.65567		 690.50335			43002.15232		219.74200		875.00000 
 43692.65567		 305.27265			43387.38302		67.63800		324.00000 
 43692.65567		 690.50335			43002.15232		219.74200		875.00000 
 43692.65567		 305.27265			43387.38302		67.63800		324.00000 
 43692.65567		 690.50335			43002.15232		219.74200		875.00000 
 43692.65567		 305.27265			43387.38302		67.63800		324.00000 
 43692.65567		 690.50335			43002.15232		219.74200		875.00000 
 43692.65567		 305.27265			43387.38302		67.63800		324.00000 
 43692.65567		 690.50335			43002.15232		219.74200		875.00000 
 43692.65567		 305.27265			43387.38302		67.63800		324.00000 
 43692.65567		 690.50335			43002.15232		219.74200		875.00000 
 43692.65567		 305.27265			43387.38302		67.63800		324.00000 
 43692.65567		 690.50335			43002.15232		219.74200		875.00000 
 43692.65567		 305.27265			43387.38302		67.63800		324.00000 
 43692.65567		 690.50335			43002.15232		219.74200		875.00000 
 43692.65567		 305.27265			43387.38302		67.63800		324.00000 
 43692.65567		 690.50335			43002.15232		219.74200		875.00000 
 43692.65567		 305.27265			43387.38302		67.63800		324.00000 
 43692.65567		 690.50335			43002.15232		219.74200		875.00000 
 43692.65567		 305.27265			43387.38302		67.63800		324.00000 
 43692.65567		 690.50335			43002.15232		219.74200		875.00000 
 43692.65567		 305.27265			43387.38302		67.63800		324.00000 
 43692.65567		 690.50335			43002.15232		219.74200		875.00000 
 43692.65567		 305.27265			43387.38302		67.63800		324.00000 
 43692.65567		 690.50335			43002.15232		219.74200		875.00000 
 43692.65567		 305.27265			43387.38302		67.63800		324.00000 
 43692.65567		 690.50335			43002.15232		219.74200		875.00000 
 43692.65567		 305.27265			43387.38302		67.63800		324.00000 
 43692.65567		 690.50335			43002.15232		219.74200		875.00000 
 43692.65567		 305.27265			43387.38302		67.63800		324.00000 
 43692.65567		 690.50335			43002.15232		219.74200		875.00000 
 43692.65567		 305.27265			43387.38302		67.63800		324.00000 
 43692.65567		 690.50335			43002.15232		219.74200		875.00000 
 43692.65567		 305.27265			43387.38302		67.63800		324.00000 
 43692.65567		 690.50335			43002.15232		219.74200		875.00000 
 43692.65567		 305.27265			43387.38302		67.63800		324.00000 
 43692.65567		 690.50335			43002.15232		219.74200		875.00000 
 43692.65567		 305.27265			43387.38302		67.63800		324.00000 
 43692.65567		 690.50335			43002.15232		219.74200		875.00000 
 43692.65567		 305.27265			43387.38302		67.63800		324.00000 
 43692.65567		 690.50335			43002.15232		219.74200		875.00000 
 43692.65567		 305.27265			43387.38302		67.63800		324.00000 
 43692.65567		 690.50335			43002.15232		219.74200		875.00000 
 43692.65567		 305.27265			43387.38302		67.63800		324.00000 
 43692.65567		 690.50335			43002.15232		219.74200		875.00000 
 43692.65567		 305.27265			43387.38302		67.63800		324.00000 
 43692.65567		 690.50335			43002.15232		219.74200		875.00000 
 43692.65567		 305.27265			43387.38302		67.63800		324.00000 
 43692.65567		 690.50335			43002.15232		219.74200		875.00000 
 43692.65567		 305.27265			43387.38302		67.63800		324.00000 
 43692.65567		 690.50335			43002.15232		219.74200		875.00000 
 43692.65567		 305.27265			43387.38302		67.63800		324.00000 
 43692.65567		 690.50335			43002.15232		219.74200		875.00000 
 43692.65567		 305.27265			43387.38302		67.63800		324.00000 
 43692.65567		 690.50335			43002.15232		219.74200		875.00000 
 43692.65567		 305.27265			43387.38302		67.63800		324.00000 
 43692.65567		 690.50335			43002.15232		219.74200		875.00000 
 43692.65567		 305.27265			43387.38302		67.63800		324.00000 
 43692.65567		 690.50335			43002.15232		219.74200		875.00000 
 43692.65567		 305.27265			43387.38302		67.63800		324.00000 
 43692.65567		 690.50335			43002.15232		219.74200		875.00000 
 43692.65567		 305.27265			43387.38302		67.63800		324.00000 
 43692.65567		 690.50335			43002.15232		219.74200		875.00000 
 43692.65567		 305.27265			43387.38302		67.63800		324.00000 
 43692.65567		 690.50335			43002.15232		219.74200		875.00000 
 43692.65567		 305.27265			43387.38302		67.63800		324.00000 
 43692.65567		 690.50335			43002.15232		219.74200		875.00000 
 43692.65567		 305.27265			43387.38302		67.63800		324.00000 
 43692.65567		 690.50335			43002.15232		219.74200		875.00000 
 43692.65567		 305.27265			43387.38302		67.63800		324.00000 
 43692.65567		 690.50335			43002.15232		219.74200		875.00000 
 43692.65567		 305.27265			43387.38302		67.63800		324.00000 
 43692.65567		 690.50335			43002.15232		219.74200		875.00000 
 43692.65567		 305.27265			43387.38302		67.63800		324.00000 
 43692.65567		 690.50335			43002.15232		219.74200		875.00000 
 43692.65567		 305.27265			43387.38302		67.63800		324.00000 
 43692.65567		 690.50335			43002.15232		219.74200		875.00000 
 43692.65567		 305.27265			43387.38302		67.63800		324.00000 
 43692.65567		 690.50335			43002.15232		219.74200		875.00000 
 43692.65567		 305.27265			43387.38302		67.63800		324.00000 
 43692.65567		 690.50335			43002.15232		219.74200		875.00000 
 43692.65567		 305.27265			43387.38302		67.63800		324.00000 
 43692.65567		 690.50335			43002.15232		219.74200		875.00000 
 43692.65567		 305.27265			43387.38302		67.63800		324.00000 
 43692.65567		 690.50335			43002.15232		219.74200		875.00000 
 43692.65567		 305.27265			43387.38302		67.63800		324.00000 
 43692.65567		 690.50335			43002.15232		219.74200		875.00000 
 43692.65567		 305.27265			43387.38302		67.63800		324.00000 
 43692.65567		 690.50335			43002.15232		219.74200		875.00000 
 43692.65567		 305.27265			43387.38302		67.63800		324.00000 
 43692.65567		 690.50335			43002.15232		219.74200		875.00000 
 43692.65567		 305.27265			43387.38302		67.63800		324.00000 
 43692.65567		 690.50335			43002.15232		219.74200		875.00000 
 43692.65567		 305.27265			43387.38302		67.63800		324.00000 
 43692.65567		 690.50335			43002.15232		219.74200		875.00000 
 43692.65567		 305.27265			43387.38302		67.63800		324.00000 
 43692.65567		 690.50335			43002.15232		219.74200		875.00000 
 43692.65567		 305.27265			43387.38302		67.63800		324.00000 
 43692.65567		 690.50335			43002.15232		219.74200		875.00000 
 43692.65567		 305.27265			43387.38302		67.63800		324.00000 
 43692.65567		 690.50335			43002.15232		219.74200		875.00000 
 43692.65567		 305.27265			43387.38302		67.63800		324.00000 
 43692.65567		 690.50335			43002.15232		219.74200		875.00000 
 43692.65567		 305.27265			43387.38302		67.63800		324.00000 
 43692.65567		 690.50335			43002.15232		219.74200		875.00000 
 43692.65567		 305.27265			43387.38302		67.63800		324.00000 
 43692.65567		 690.50335			43002.15232		223.81000		875.00000 
 43692.65567		 305.27265			43387.38302		67.63800		324.00000 
 43692.65567		 690.50335			43002.15232		223.81000		875.00000 
 43692.65567		 305.27265			43387.38302		67.63800		324.00000 
 43692.65567		 690.50335			43002.15232		223.81000		875.00000 
 43692.65567		 305.27265			43387.38302		67.63800		324.00000 
 43692.65567		 690.50335			43002.15232		223.81000		875.00000 
 43692.65567		 305.27265			43387.38302		67.63800		324.00000 
 43692.65567		 690.50335			43002.15232		223.81000		875.00000 
 43692.65567		 305.27265			43387.38302		67.63800		324.00000 
 43692.65567		 690.50335			43002.15232		223.81000		875.00000 
 43692.65567		 305.27265			43387.38302		67.63800		324.00000 
 43692.65567		 690.50335			43002.15232		223.81000		875.00000 
 43692.65567		 305.27265			43387.38302		67.63800		324.00000 
 43692.65567		 690.50335			43002.15232		223.81000		875.00000 
 43692.65567		 305.27265			43387.38302		67.63800		324.00000 
 43692.65567		 690.50335			43002.15232		223.81000		875.00000 
 43692.65567		 305.27265			43387.38302		67.63800		324.00000 
 43692.65567		 690.50335			43002.15232		223.81000		875.00000 
 43692.65567		 305.27265			43387.38302		67.63800		324.00000 
 43692.65567		 690.50335			43002.15232		223.81000		875.00000 
 43692.65567		 305.27265			43387.38302		67.63800		324.00000 
 43692.65567		 690.50335			43002.15232		223.81000		875.00000 
 43692.65567		 305.27265			43387.38302		67.63800		324.00000 
 43692.65567		 690.50335			43002.15232		223.81000		875.00000 
 43692.65567		 305.27265			43387.38302		67.63800		324.00000 
 43692.65567		 690.50335			43002.15232		223.81000		875.00000 
 43692.65567		 305.27265			43387.38302		67.63800		324.00000 
 43692.65567		 690.50335			43002.15232		223.81000		875.00000 
 43692.65567		 305.27265			43387.38302		67.63800		324.00000 
 43692.65567		 690.50335			43002.15232		223.81000		875.00000 
 43692.65567		 305.27265			43387.38302		67.63800		324.00000 
 43692.65567		 690.50335			43002.15232		223.81000		875.00000 
 43692.65567		 305.27265			43387.38302		67.63800		324.00000 
 43692.65567		 690.50335			43002.15232		223.81000		875.00000 
 43692.65567		 305.27265			43387.38302		67.63800		324.00000 
 43692.65567		 690.50335			43002.15232		223.81000		875.00000 
 43692.65567		 305.27265			43387.38302		67.63800		324.00000 
 43692.65567		 690.50335			43002.15232		223.81000		875.00000 
 43692.65567		 305.27265			43387.38302		67.63800		324.00000 
 43692.65567		 690.50335			43002.15232		223.81000		875.00000 
 43692.65567		 305.27265			43387.38302		67.63800		324.00000 
 43692.65567		 690.50335			43002.15232		223.81000		875.00000 
 43692.65567		 305.27265			43387.38302		67.63800		324.00000 
 43692.65567		 690.50335			43002.15232		223.81000		875.00000 
 43692.65567		 305.27265			43387.38302		67.63800		324.00000 
 43692.65567		 690.50335			43002.15232		223.81000		875.00000 
 43692.65567		 305.27265			43387.38302		67.63800		324.00000 
 43692.65567		 690.50335			43002.15232		223.81000		875.00000 
 43692.65567		 305.27265			43387.38302		67.63800		324.00000 
 43692.65567		 690.50335			43002.15232		223.81000		875.00000 
 43692.65567		 305.27265			43387.38302		67.63800		324.00000 
 43692.65567		 690.50335			43002.15232		223.81000		875.00000 
 43692.65567		 305.27265			43387.38302		67.63800		324.00000 
 43692.65567		 690.50335			43002.15232		223.81000		875.00000 
 43692.65567		 305.27265			43387.38302		67.63800		324.00000 
 43692.65567		 690.50335			43002.15232		223.81000		875.00000 
 43692.65567		 305.27265			43387.38302		67.63800		324.00000 
 43692.65567		 690.50335			43002.15232		223.81000		875.00000 
 43692.65567		 305.27265			43387.38302		67.63800		324.00000 
 43692.65567		 690.50335			43002.15232		223.81000		875.00000 
 43692.65567		 305.27265			43387.38302		67.63800		324.00000 
 43692.65567		 690.50335			43002.15232		223.81000		875.00000 
 43692.65567		 305.27265			43387.38302		67.63800		324.00000 
 43692.65567		 690.50335			43002.15232		223.81000		875.00000 
 43692.65567		 305.27265			43387.38302		67.63800		324.00000 
 43692.65567		 690.50335			43002.15232		223.81000		875.00000 
 43692.65567		 305.27265			43387.38302		67.63800		324.00000 
 43692.65567		 690.50335			43002.15232		223.81000		875.00000 
 43692.65567		 305.27265			43387.38302		67.63800		324.00000 
 43692.65567		 690.50335			43002.15232		223.81000		875.00000 
 43692.65567		 305.27265			43387.38302		67.63800		324.00000 
 43692.65567		 690.50335			43002.15232		223.81000		875.00000 
 43692.65567		 305.27265			43387.38302		67.63800		324.00000 
 43692.65567		 690.50335			43002.15232		223.81000		875.00000 
 43692.65567		 305.27265			43387.38302		67.63800		324.00000 
 43692.65567		 690.50335			43002.15232		223.81000		875.00000 
 43692.65567		 305.27265			43387.38302		67.63800		324.00000 
 43692.65567		 690.50335			43002.15232		223.81000		875.00000 
 43692.65567		 305.27265			43387.38302		67.63800		324.00000 
 43692.65567		 690.50335			43002.15232		223.81000		875.00000 
 43692.65567		 305.27265			43387.38302		67.63800		324.00000 
 43692.65567		 690.50335			43002.15232		223.81000		875.00000 
 43692.65567		 305.27265			43387.38302		67.63800		324.00000 
 43692.65567		 690.50335			43002.15232		223.81000		875.00000 
 43692.65567		 305.27265			43387.38302		67.63800		324.00000 
 43692.65567		 690.50335			43002.15232		223.81000		875.00000 
 43692.65567		 305.27265			43387.38302		67.63800		324.00000 
 43692.65567		 690.50335			43002.15232		223.81000		875.00000 
 43692.65567		 305.27265			43387.38302		67.63800		324.00000 
 43692.65567		 690.50335			43002.15232		223.81000		875.00000 
 43692.65567		 305.27265			43387.38302		67.63800		324.00000 
 43692.65567		 690.50335			43002.15232		223.81000		875.00000 
 43692.65567		 305.27265			43387.38302		67.63800		324.00000 
 43692.65567		 690.50335			43002.15232		223.81000		875.00000 
 43692.65567		 305.27265			43387.38302		67.63800		324.00000 
 43692.65567		 690.50335			43002.15232		223.81000		875.00000 
 43692.65567		 305.27265			43387.38302		67.63800		324.00000 
 43692.65567		 690.50335			43002.15232		223.81000		875.00000 
 43692.65567		 305.27265			43387.38302		67.63800		324.00000 
 43692.65567		 690.50335			43002.15232		223.81000		875.00000 
 43692.65567		 305.27265			43387.38302		67.63800		324.00000 
 43692.65567		 690.50335			43002.15232		223.81000		875.00000 
 43692.65567		 305.27265			43387.38302		67.63800		324.00000 
 43692.65567		 690.50335			43002.15232		223.81000		875.00000 
 43692.65567		 305.27265			43387.38302		67.63800		324.00000 
 43692.65567		 690.50335			43002.15232		223.81000		875.00000 
 43692.65567		 305.27265			43387.38302		67.63800		324.00000 
 43692.65567		 690.50335			43002.15232		223.81000		875.00000 
 43692.65567		 305.27265			43387.38302		67.63800		324.00000 
 43692.65567		 690.50335			43002.15232		223.81000		875.00000 
 43692.65567		 305.27265			43387.38302		67.63800		324.00000 
 43692.65567		 690.50335			43002.15232		223.81000		875.00000 
 43692.65567		 305.27265			43387.38302		67.63800		324.00000 
 43692.65567		 690.50335			43002.15232		223.81000		875.00000 
 43692.65567		 305.27265			43387.38302		67.63800		324.00000 
 43692.65567		 690.50335			43002.15232		223.81000		875.00000 
 43692.65567		 305.27265			43387.38302		67.63800		324.00000 
 43692.65567		 690.50335			43002.15232		223.81000		875.00000 
 43692.65567		 305.27265			43387.38302		67.63800		324.00000 
 43692.65567		 690.50335			43002.15232		223.81000		875.00000 
 43692.65567		 305.27265			43387.38302		67.63800		324.00000 
 43692.65567		 690.50335			43002.15232		223.81000		875.00000 
 43692.65567		 305.27265			43387.38302		67.63800		324.00000 
 43692.65567		 690.50335			43002.15232		225.58400		875.00000 
 43692.65567		 305.27265			43387.38302		67.63800		324.00000 
 43692.65567		 690.50335			43002.15232		225.58400		875.00000 
 43692.65567		 305.27265			43387.38302		67.63800		324.00000 
 43692.65567		 690.50335			43002.15232		225.58400		875.00000 
 43692.65567		 305.27265			43387.38302		67.63800		324.00000 
 43692.65567		 690.50335			43002.15232		225.58400		875.00000 
 43692.65567		 305.27265			43387.38302		67.63800		324.00000 
 43692.65567		 690.50335			43002.15232		225.58400		875.00000 
 43692.65567		 305.27265			43387.38302		67.63800		324.00000 
 43692.65567		 690.50335			43002.15232		225.58400		875.00000 
 43692.65567		 305.27265			43387.38302		67.63800		324.00000 
 43692.65567		 690.50335			43002.15232		225.58400		875.00000 
 43692.65567		 305.27265			43387.38302		67.63800		324.00000 
 43692.65567		 690.50335			43002.15232		225.58400		875.00000 
 43692.65567		 305.27265			43387.38302		67.63800		324.00000 
 43692.65567		 690.50335			43002.15232		225.58400		875.00000 
 43692.65567		 305.27265			43387.38302		67.63800		324.00000 
 43692.65567		 690.50335			43002.15232		225.58400		875.00000 
 43692.65567		 305.27265			43387.38302		67.63800		324.00000 
 43692.65567		 690.50335			43002.15232		225.58400		875.00000 
 43692.65567		 305.27265			43387.38302		67.63800		324.00000 
 43692.65567		 690.50335			43002.15232		225.58400		875.00000 
 43692.65567		 305.27265			43387.38302		67.63800		324.00000 
 43692.65567		 690.50335			43002.15232		225.58400		875.00000 
 43692.65567		 305.27265			43387.38302		67.63800		324.00000 
 43692.65567		 690.50335			43002.15232		225.58400		875.00000 
 43692.65567		 305.27265			43387.38302		67.63800		324.00000 
 43692.65567		 690.50335			43002.15232		225.58400		875.00000 
 43692.65567		 305.27265			43387.38302		67.63800		324.00000 
 43692.65567		 690.50335			43002.15232		225.58400		875.00000 
 43692.65567		 305.27265			43387.38302		67.63800		324.00000 
 43692.65567		 690.50335			43002.15232		225.58400		875.00000 
 43692.65567		 305.27265			43387.38302		67.63800		324.00000 
 43692.65567		 690.50335			43002.15232		225.58400		875.00000 
 43692.65567		 305.27265			43387.38302		67.63800		324.00000 
 43692.65567		 690.50335			43002.15232		225.58400		875.00000 
 43692.65567		 305.27265			43387.38302		67.63800		324.00000 
 43692.65567		 690.50335			43002.15232		225.58400		875.00000 
 43692.65567		 305.27265			43387.38302		67.63800		324.00000 
 43692.65567		 690.50335			43002.15232		225.58400		875.00000 
 43692.65567		 305.27265			43387.38302		67.63800		324.00000 
 43692.65567		 690.50335			43002.15232		225.58400		875.00000 
 43692.65567		 305.27265			43387.38302		67.63800		324.00000 
 43692.65567		 690.50335			43002.15232		225.58400		875.00000 
 43692.65567		 305.27265			43387.38302		67.63800		324.00000 
 43692.65567		 690.50335			43002.15232		225.58400		875.00000 
 43692.65567		 305.27265			43387.38302		67.63800		324.00000 
 43692.65567		 690.50335			43002.15232		225.58400		875.00000 
 43692.65567		 305.27265			43387.38302		67.63800		324.00000 
 43692.65567		 690.50335			43002.15232		225.58400		875.00000 
 43692.65567		 305.27265			43387.38302		67.63800		324.00000 
 43692.65567		 690.50335			43002.15232		225.58400		875.00000 
 43692.65567		 305.27265			43387.38302		67.63800		324.00000 
 43692.65567		 690.50335			43002.15232		225.58400		875.00000 
 43692.65567		 305.27265			43387.38302		67.63800		324.00000 
 43692.65567		 690.50335			43002.15232		225.58400		875.00000 
 43692.65567		 305.27265			43387.38302		67.63800		324.00000 
 43692.65567		 690.50335			43002.15232		225.58400		875.00000 
 43692.65567		 305.27265			43387.38302		67.63800		324.00000 
 43692.65567		 690.50335			43002.15232		225.58400		875.00000 
 43692.65567		 305.27265			43387.38302		67.63800		324.00000 
 43692.65567		 690.50335			43002.15232		225.58400		875.00000 
 43692.65567		 305.27265			43387.38302		67.63800		324.00000 
 43692.65567		 690.50335			43002.15232		225.58400		875.00000 
 43692.65567		 305.27265			43387.38302		67.63800		324.00000 
 43692.65567		 690.50335			43002.15232		225.58400		875.00000 
 43692.65567		 305.27265			43387.38302		67.63800		324.00000 
 43692.65567		 690.50335			43002.15232		225.58400		875.00000 
 43692.65567		 305.27265			43387.38302		67.63800		324.00000 
 43692.65567		 690.50335			43002.15232		225.58400		875.00000 
 43692.65567		 305.27265			43387.38302		67.63800		324.00000 
 43692.65567		 690.50335			43002.15232		225.58400		875.00000 
 43692.65567		 305.27265			43387.38302		67.63800		324.00000 
 43692.65567		 690.50335			43002.15232		225.58400		875.00000 
 43692.65567		 305.27265			43387.38302		67.63800		324.00000 
 43692.65567		 690.50335			43002.15232		225.58400		875.00000 
 43692.65567		 305.27265			43387.38302		67.63800		324.00000 
 43692.65567		 690.50335			43002.15232		225.58400		875.00000 
 43692.65567		 305.27265			43387.38302		67.63800		324.00000 
 43692.65567		 690.50335			43002.15232		225.58400		875.00000 
 43692.65567		 305.27265			43387.38302		67.63800		324.00000 
 43692.65567		 690.50335			43002.15232		225.58400		875.00000 
 43692.65567		 305.27265			43387.38302		67.63800		324.00000 
 43692.65567		 690.50335			43002.15232		225.58400		875.00000 
 43692.65567		 305.27265			43387.38302		67.63800		324.00000 
 43692.65567		 690.50335			43002.15232		225.58400		875.00000 
 43692.65567		 305.27265			43387.38302		67.63800		324.00000 
 43692.65567		 690.50335			43002.15232		225.58400		875.00000 
 43692.65567		 305.27265			43387.38302		67.63800		324.00000 
 43692.65567		 690.50335			43002.15232		225.58400		875.00000 
 43692.65567		 305.27265			43387.38302		67.63800		324.00000 
 43692.65567		 690.50335			43002.15232		225.58400		875.00000 
 43692.65567		 305.27265			43387.38302		67.63800		324.00000 
 43692.65567		 690.50335			43002.15232		225.58400		875.00000 
 43692.65567		 305.27265			43387.38302		67.63800		324.00000 
 43692.65567		 690.50335			43002.15232		225.58400		875.00000 
 43692.65567		 305.27265			43387.38302		67.63800		324.00000 
 43692.65567		 690.50335			43002.15232		225.58400		875.00000 
 43692.65567		 305.27265			43387.38302		67.63800		324.00000 
 43692.65567		 690.50335			43002.15232		225.58400		875.00000 
 43692.65567		 305.27265			43387.38302		67.63800		324.00000 
 43692.65567		 690.50335			43002.15232		225.58400		875.00000 
 43692.65567		 305.27265			43387.38302		67.63800		324.00000 
 43692.65567		 690.50335			43002.15232		225.58400		875.00000 
 43692.65567		 305.27265			43387.38302		67.63800		324.00000 
 43692.65567		 690.50335			43002.15232		225.58400		875.00000 
 43692.65567		 305.27265			43387.38302		67.63800		324.00000 
 43692.65567		 690.50335			43002.15232		225.58400		875.00000 
 43692.65567		 305.27265			43387.38302		67.63800		324.00000 
 43692.65567		 690.50335			43002.15232		225.58400		875.00000 
 43692.65567		 305.27265			43387.38302		67.63800		324.00000 
 43692.65567		 690.50335			43002.15232		225.58400		875.00000 
 43692.65567		 305.27265			43387.38302		67.63800		324.00000 
 43692.65567		 690.50335			43002.15232		225.58400		875.00000 
 43692.65567		 305.27265			43387.38302		67.63800		324.00000 
 43692.65567		 690.50335			43002.15232		225.58400		875.00000 
 43692.65567		 305.27265			43387.38302		67.63800		324.00000 
 43692.65567		 690.50335			43002.15232		225.58400		875.00000 
 43692.65567		 305.27265			43387.38302		67.63800		324.00000 
 43692.65567		 690.50335			43002.15232		225.58400		875.00000 
 43692.65567		 305.27265			43387.38302		67.63800		324.00000 
 43692.65567		 690.50335			43002.15232		225.58400		875.00000 
 43692.65567		 305.27265			43387.38302		67.63800		324.00000 
 43692.65567		 690.50335			43002.15232		225.58400		875.00000 
 43692.65567		 305.27265			43387.38302		67.63800		324.00000 
 43692.65567		 690.50335			43002.15232		225.58400		875.00000 
 43692.65567		 305.27265			43387.38302		67.63800		324.00000 
 43692.65567		 690.50335			43002.15232		225.58400		875.00000 
 43692.65567		 305.27265			43387.38302		67.63800		324.00000 
 43692.65567		 690.50335			43002.15232		225.58400		875.00000 
 43692.65567		 305.27265			43387.38302		67.63800		324.00000 
 43692.65567		 690.50335			43002.15232		225.58400		875.00000 
 43692.65567		 305.27265			43387.38302		67.63800		324.00000 
 43692.65567		 690.50335			43002.15232		225.58400		875.00000 
 43692.65567		 305.27265			43387.38302		67.63800		324.00000 
 43692.65567		 690.50335			43002.15232		225.58400		875.00000 
 43692.65567		 305.27265			43387.38302		67.63800		324.00000 
 43692.65567		 690.50335			43002.15232		225.58400		875.00000 
 43692.65567		 305.27265			43387.38302		67.63800		324.00000 
 43692.65567		 690.50335			43002.15232		225.58400		875.00000 
 43692.65567		 305.27265			43387.38302		67.63800		324.00000 
 43692.65567		 690.50335			43002.15232		225.58400		875.00000 
 43692.65567		 305.27265			43387.38302		67.63800		324.00000 
 43692.65567		 690.50335			43002.15232		225.58400		875.00000 
 43692.65567		 305.27265			43387.38302		67.63800		324.00000 
 43692.65567		 690.50335			43002.15232		225.58400		875.00000 
 43692.65567		 305.27265			43387.38302		67.63800		324.00000 
 43692.65567		 690.50335			43002.15232		225.58400		875.00000 
 43692.65567		 305.27265			43387.38302		67.63800		324.00000 
 43692.65567		 690.50335			43002.15232		225.58400		875.00000 
 43692.65567		 305.27265			43387.38302		67.63800		324.00000 
 43692.65567		 690.50335			43002.15232		225.58400		875.00000 
 43692.65567		 305.27265			43387.38302		67.63800		324.00000 
 43692.65567		 690.50335			43002.15232		225.58400		875.00000 
 43692.65567		 305.27265			43387.38302		67.63800		324.00000 
 43692.65567		 690.50335			43002.15232		225.58400		875.00000 
 43692.65567		 305.27265			43387.38302		67.63800		324.00000 
 43692.65567		 690.50335			43002.15232		225.58400		875.00000 
 43692.65567		 305.27265			43387.38302		67.63800		324.00000 
 43692.65567		 690.50335			43002.15232		225.58400		875.00000 
 43692.65567		 305.27265			43387.38302		67.63800		324.00000 
 43692.65567		 690.50335			43002.15232		225.58400		875.00000 
 43692.65567		 305.27265			43387.38302		67.63800		324.00000 
 43692.65567		 690.50335			43002.15232		225.58400		875.00000 
 43692.65567		 305.27265			43387.38302		67.63800		324.00000 
 43692.65567		 690.50335			43002.15232		225.58400		875.00000 
 43692.65567		 305.27265			43387.38302		67.63800		324.00000 
 43692.65567		 690.50335			43002.15232		225.58400		875.00000 
 43692.65567		 305.27265			43387.38302		67.63800		324.00000 
 43692.65567		 690.50335			43002.15232		225.58400		875.00000 
 43692.65567		 305.27265			43387.38302		67.63800		324.00000 
 43692.65567		 690.50335			43002.15232		225.58400		875.00000 
 43692.65567		 305.27265			43387.38302		67.63800		324.00000 
 43692.65567		 690.50335			43002.15232		225.58400		875.00000 
 43692.65567		 305.27265			43387.38302		67.63800		324.00000 
 43692.65567		 690.50335			43002.15232		225.58400		875.00000 
 43692.65567		 305.27265			43387.38302		67.63800		324.00000 
 43692.65567		 690.50335			43002.15232		225.58400		875.00000 
 43692.65567		 305.27265			43387.38302		67.63800		324.00000 
 43692.65567		 690.50335			43002.15232		225.58400		875.00000 
 43692.65567		 305.27265			43387.38302		67.63800		324.00000 
 43692.65567		 690.50335			43002.15232		225.58400		875.00000 
 43692.65567		 305.27265			43387.38302		67.63800		324.00000 
 43692.65567		 690.50335			43002.15232		225.58400		875.00000 
 43692.65567		 305.27265			43387.38302		67.63800		324.00000 
 43692.65567		 690.50335			43002.15232		225.58400		875.00000 
 43692.65567		 305.27265			43387.38302		67.63800		324.00000 
 43692.65567		 690.50335			43002.15232		225.58400		875.00000 
 43692.65567		 305.27265			43387.38302		67.63800		324.00000 
 43692.65567		 690.50335			43002.15232		225.58400		875.00000 
 43692.65567		 305.27265			43387.38302		67.63800		324.00000 
 43692.65567		 690.50335			43002.15232		225.58400		875.00000 
 43692.65567		 305.27265			43387.38302		67.63800		324.00000 
 43692.65567		 690.50335			43002.15232		225.58400		875.00000 
 43692.65567		 305.27265			43387.38302		67.63800		324.00000 
 43692.65567		 690.50335			43002.15232		225.58400		875.00000 
 43692.65567		 305.27265			43387.38302		67.63800		324.00000 
 43692.65567		 690.50335			43002.15232		225.58400		875.00000 
 43692.65567		 305.27265			43387.38302		67.63800		324.00000 
 43692.65567		 690.50335			43002.15232		225.58400		875.00000 
 43692.65567		 305.27265			43387.38302		67.63800		324.00000 
 43692.65567		 690.50335			43002.15232		225.58400		875.00000 
 43692.65567		 305.27265			43387.38302		67.63800		324.00000 
 43692.65567		 690.50335			43002.15232		225.58400		875.00000 
 43692.65567		 305.27265			43387.38302		67.63800		324.00000 
 43692.65567		 690.50335			43002.15232		225.58400		875.00000 
 43692.65567		 305.27265			43387.38302		67.63800		324.00000 
 43692.65567		 690.50335			43002.15232		225.58400		875.00000 
 43692.65567		 305.27265			43387.38302		67.63800		324.00000 
 43692.65567		 690.50335			43002.15232		225.58400		875.00000 
 43692.65567		 305.27265			43387.38302		67.63800		324.00000 
 43692.65567		 690.50335			43002.15232		225.58400		875.00000 
 43692.65567		 305.27265			43387.38302		67.63800		324.00000 
 43692.65567		 690.50335			43002.15232		225.58400		875.00000 
 43692.65567		 305.27265			43387.38302		67.63800		324.00000 
 43692.65567		 690.50335			43002.15232		225.58400		875.00000 
 43692.65567		 305.27265			43387.38302		67.63800		324.00000 
 43692.65567		 690.50335			43002.15232		225.58400		875.00000 
 43692.65567		 305.27265			43387.38302		67.63800		324.00000 
 43692.65567		 690.50335			43002.15232		225.58400		875.00000 
 43692.65567		 305.27265			43387.38302		67.63800		324.00000 
 43692.65567		 690.50335			43002.15232		225.58400		875.00000 
 43692.65567		 305.27265			43387.38302		67.63800		324.00000 
 43692.65567		 690.50335			43002.15232		225.58400		875.00000 
 43692.65567		 305.27265			43387.38302		67.63800		324.00000 
 43692.65567		 690.50335			43002.15232		225.58400		875.00000 
 43692.65567		 305.27265			43387.38302		67.63800		324.00000 
 43692.65567		 690.50335			43002.15232		225.58400		875.00000 
 43692.65567		 305.27265			43387.38302		67.63800		324.00000 
 43692.65567		 690.50335			43002.15232		225.58400		875.00000 
 43692.65567		 305.27265			43387.38302		67.63800		324.00000 
 43692.65567		 690.50335			43002.15232		225.58400		875.00000 
 43692.65567		 305.27265			43387.38302		67.63800		324.00000 
 43692.65567		 690.50335			43002.15232		225.58400		875.00000 
 43692.65567		 305.27265			43387.38302		67.63800		324.00000 
 43692.65567		 690.50335			43002.15232		225.58400		875.00000 
 43692.65567		 305.27265			43387.38302		67.63800		324.00000 
 43692.65567		 690.50335			43002.15232		225.58400		875.00000 
 43692.65567		 305.27265			43387.38302		67.63800		324.00000 
 43692.65567		 690.50335			43002.15232		225.58400		875.00000 
 43692.65567		 305.27265			43387.38302		67.63800		324.00000 
 43692.65567		 690.50335			43002.15232		225.58400		875.00000 
 43692.65567		 305.27265			43387.38302		67.63800		324.00000 
 43692.65567		 690.50335			43002.15232		225.58400		875.00000 
 43692.65567		 305.27265			43387.38302		67.63800		324.00000 
 43692.65567		 690.50335			43002.15232		225.58400		875.00000 
 43692.65567		 305.27265			43387.38302		67.63800		324.00000 
 43692.65567		 690.50335			43002.15232		225.58400		875.00000 
 43692.65567		 305.27265			43387.38302		67.63800		324.00000 
 43692.65567		 690.50335			43002.15232		225.58400		875.00000 
 43692.65567		 305.27265			43387.38302		67.63800		324.00000 
 43692.65567		 690.50335			43002.15232		225.58400		875.00000 
 43692.65567		 305.27265			43387.38302		67.63800		324.00000 
 43692.65567		 690.50335			43002.15232		225.58400		875.00000 
 43692.65567		 305.27265			43387.38302		67.63800		324.00000 
 43692.65567		 690.50335			43002.15232		225.58400		875.00000 
 43692.65567		 305.27265			43387.38302		67.63800		324.00000 
 43692.65567		 690.50335			43002.15232		225.58400		875.00000 
 43692.65567		 305.27265			43387.38302		67.63800		324.00000 
 43692.65567		 690.50335			43002.15232		225.58400		875.00000 
 43692.65567		 305.27265			43387.38302		67.63800		324.00000 
 43692.65567		 690.50335			43002.15232		225.58400		875.00000 
 43692.65567		 305.27265			43387.38302		67.63800		324.00000 
 43692.65567		 690.50335			43002.15232		225.58400		875.00000 
 43692.65567		 305.27265			43387.38302		67.63800		324.00000 
 43692.65567		 690.50335			43002.15232		225.58400		875.00000 
 43692.65567		 305.27265			43387.38302		67.63800		324.00000 
 43692.65567		 690.50335			43002.15232		225.58400		875.00000 
 43692.65567		 305.27265			43387.38302		67.63800		324.00000 
 43692.65567		 690.50335			43002.15232		225.58400		875.00000 
 43692.65567		 305.27265			43387.38302		67.63800		324.00000 
 43692.65567		 690.50335			43002.15232		225.58400		875.00000 
 43692.65567		 305.27265			43387.38302		67.63800		324.00000 
 43692.65567		 690.50335			43002.15232		225.58400		875.00000 
 43692.65567		 305.27265			43387.38302		67.63800		324.00000 
 43692.65567		 690.50335			43002.15232		225.58400		875.00000 
 43692.65567		 305.27265			43387.38302		67.63800		324.00000 
 43692.65567		 690.50335			43002.15232		225.58400		875.00000 
 43692.65567		 305.27265			43387.38302		67.63800		324.00000 
 43692.65567		 690.50335			43002.15232		225.58400		875.00000 
 43692.65567		 305.27265			43387.38302		67.63800		324.00000 
 43692.65567		 690.50335			43002.15232		225.58400		875.00000 
 43692.65567		 305.27265			43387.38302		67.63800		324.00000 
 43692.65567		 690.50335			43002.15232		225.58400		875.00000 
 43692.65567		 305.27265			43387.38302		67.63800		324.00000 
 43692.65567		 690.50335			43002.15232		225.58400		875.00000 
 43692.65567		 305.27265			43387.38302		67.63800		324.00000 
 43692.65567		 690.50335			43002.15232		225.58400		875.00000 
 43692.65567		 305.27265			43387.38302		67.63800		324.00000 
 43692.65567		 690.50335			43002.15232		225.58400		875.00000 
 43692.65567		 305.27265			43387.38302		67.63800		324.00000 
 43692.65567		 690.50335			43002.15232		225.58400		875.00000 
 43692.65567		 305.27265			43387.38302		67.63800		324.00000 
 43692.65567		 690.50335			43002.15232		225.58400		875.00000 
 43692.65567		 305.27265			43387.38302		67.63800		324.00000 
 43692.65567		 690.50335			43002.15232		225.58400		875.00000 
 43692.65567		 305.27265			43387.38302		67.63800		324.00000 
 43692.65567		 690.50335			43002.15232		225.58400		875.00000 
 43692.65567		 305.27265			43387.38302		67.63800		324.00000 
 43692.65567		 690.50335			43002.15232		225.58400		875.00000 
 43692.65567		 305.27265			43387.38302		67.63800		324.00000 
 43692.65567		 690.50335			43002.15232		225.58400		875.00000 
 43692.65567		 305.27265			43387.38302		67.63800		324.00000 
 43692.65567		 690.50335			43002.15232		225.58400		875.00000 
 43692.65567		 305.27265			43387.38302		67.63800		324.00000 
 43692.65567		 690.50335			43002.15232		225.58400		875.00000 
 43692.65567		 305.27265			43387.38302		67.63800		324.00000 
 43692.65567		 690.50335			43002.15232		225.58400		875.00000 
 43692.65567		 305.27265			43387.38302		67.63800		324.00000 
 43692.65567		 690.50335			43002.15232		225.58400		875.00000 
 43692.65567		 305.27265			43387.38302		67.63800		324.00000 
 43692.65567		 690.50335			43002.15232		225.58400		875.00000 
 43692.65567		 305.27265			43387.38302		67.63800		324.00000 
 43692.65567		 690.50335			43002.15232		225.58400		875.00000 
 43692.65567		 305.27265			43387.38302		67.63800		324.00000 
 43692.65567		 690.50335			43002.15232		225.58400		875.00000 
 43692.65567		 305.27265			43387.38302		67.63800		324.00000 
 43692.65567		 690.50335			43002.15232		225.58400		875.00000 
 43692.65567		 305.27265			43387.38302		67.63800		324.00000 
 43692.65567		 690.50335			43002.15232		225.58400		875.00000 
 43692.65567		 305.27265			43387.38302		67.63800		324.00000 
 43692.65567		 690.50335			43002.15232		225.58400		875.00000 
 43692.65567		 305.27265			43387.38302		67.63800		324.00000 
 43692.65567		 690.50335			43002.15232		225.58400		875.00000 
 43692.65567		 305.27265			43387.38302		67.63800		324.00000 
 43692.65567		 690.50335			43002.15232		225.58400		875.00000 
 43692.65567		 305.27265			43387.38302		67.63800		324.00000 
 43692.65567		 690.50335			43002.15232		225.58400		875.00000 
 43692.65567		 305.27265			43387.38302		67.63800		324.00000 
 43692.65567		 690.50335			43002.15232		225.58400		875.00000 
 43692.65567		 305.27265			43387.38302		67.63800		324.00000 
 43692.65567		 690.50335			43002.15232		225.58400		875.00000 
 43692.65567		 305.27265			43387.38302		67.63800		324.00000 
 43692.65567		 690.50335			43002.15232		225.58400		875.00000 
 43692.65567		 305.27265			43387.38302		69.64400		324.00000 
 43692.65567		 690.50335			43002.15232		225.58400		875.00000 
 43692.65567		 305.27265			43387.38302		69.64400		324.00000 
 43692.65567		 690.50335			43002.15232		225.58400		875.00000 
 43692.65567		 305.27265			43387.38302		69.64400		324.00000 
 43692.65567		 690.50335			43002.15232		225.58400		875.00000 
 43692.65567		 305.27265			43387.38302		69.64400		324.00000 
 43692.65567		 690.50335			43002.15232		225.58400		875.00000 
 43692.65567		 305.27265			43387.38302		69.64400		324.00000 
 43692.65567		 690.50335			43002.15232		225.58400		875.00000 
 43692.65567		 305.27265			43387.38302		69.64400		324.00000 
 43692.65567		 690.50335			43002.15232		225.58400		875.00000 
 43692.65567		 305.27265			43387.38302		69.64400		324.00000 
 43692.65567		 690.50335			43002.15232		225.58400		875.00000 
 43692.65567		 305.27265			43387.38302		69.64400		324.00000 
 43692.65567		 690.50335			43002.15232		225.58400		875.00000 
 43692.65567		 305.27265			43387.38302		69.64400		324.00000 
 43692.65567		 690.50335			43002.15232		225.58400		875.00000 
 43692.65567		 305.27265			43387.38302		69.64400		324.00000 
 43692.65567		 690.50335			43002.15232		225.58400		875.00000 
 43692.65567		 305.27265			43387.38302		69.64400		324.00000 
 43692.65567		 690.50335			43002.15232		225.58400		875.00000 
 43692.65567		 305.27265			43387.38302		69.64400		324.00000 
 43692.65567		 690.50335			43002.15232		225.58400		875.00000 
 43692.65567		 305.27265			43387.38302		69.64400		324.00000 
 43692.65567		 690.50335			43002.15232		225.58400		875.00000 
 43692.65567		 305.27265			43387.38302		69.64400		324.00000 
 43692.65567		 690.50335			43002.15232		225.58400		875.00000 
 43692.65567		 305.27265			43387.38302		69.64400		324.00000 
 43692.65567		 690.50335			43002.15232		225.58400		875.00000 
 43692.65567		 305.27265			43387.38302		69.64400		324.00000 
 43692.65567		 690.50335			43002.15232		225.58400		875.00000 
 43692.65567		 305.27265			43387.38302		69.64400		324.00000 
 43692.65567		 690.50335			43002.15232		225.58400		875.00000 
 43692.65567		 305.27265			43387.38302		69.64400		324.00000 
 43692.65567		 690.50335			43002.15232		225.58400		875.00000 
 43692.65567		 305.27265			43387.38302		69.64400		324.00000 
 43692.65567		 690.50335			43002.15232		225.58400		875.00000 
 43692.65567		 305.27265			43387.38302		69.64400		324.00000 
 43692.65567		 690.50335			43002.15232		225.58400		875.00000 
 43692.65567		 305.27265			43387.38302		69.64400		324.00000 
 43692.65567		 690.50335			43002.15232		225.58400		875.00000 
 43692.65567		 305.27265			43387.38302		69.64400		324.00000 
 43692.65567		 690.50335			43002.15232		225.58400		875.00000 
 43692.65567		 305.27265			43387.38302		69.64400		324.00000 
 43692.65567		 690.50335			43002.15232		225.58400		875.00000 
 43692.65567		 305.27265			43387.38302		69.64400		324.00000 
 43692.65567		 690.50335			43002.15232		225.58400		875.00000 
 43692.65567		 305.27265			43387.38302		69.64400		324.00000 
 43692.65567		 690.50335			43002.15232		225.58400		875.00000 
 43692.65567		 305.27265			43387.38302		69.64400		324.00000 
 43692.65567		 690.50335			43002.15232		225.58400		875.00000 
 43692.65567		 305.27265			43387.38302		69.64400		324.00000 
 43692.65567		 690.50335			43002.15232		225.58400		875.00000 
 43692.65567		 305.27265			43387.38302		69.64400		324.00000 
 43692.65567		 690.50335			43002.15232		225.58400		875.00000 
 43692.65567		 305.27265			43387.38302		69.64400		324.00000 
 43692.65567		 690.50335			43002.15232		225.58400		875.00000 
 43692.65567		 305.27265			43387.38302		69.64400		324.00000 
 43692.65567		 690.50335			43002.15232		225.58400		875.00000 
 43692.65567		 305.27265			43387.38302		69.64400		324.00000 
 43692.65567		 690.50335			43002.15232		225.58400		875.00000 
 43692.65567		 305.27265			43387.38302		69.64400		324.00000 
 43692.65567		 690.50335			43002.15232		225.58400		875.00000 
 43692.65567		 305.27265			43387.38302		69.64400		324.00000 
 43692.65567		 690.50335			43002.15232		225.58400		875.00000 
 43692.65567		 305.27265			43387.38302		69.64400		324.00000 
 43692.65567		 690.50335			43002.15232		225.58400		875.00000 
 43692.65567		 305.27265			43387.38302		69.64400		324.00000 
 43692.65567		 690.50335			43002.15232		225.58400		875.00000 
 43692.65567		 305.27265			43387.38302		69.64400		324.00000 
 43692.65567		 690.50335			43002.15232		225.58400		875.00000 
 43692.65567		 305.27265			43387.38302		69.64400		324.00000 
 43692.65567		 690.50335			43002.15232		225.58400		875.00000 
 43692.65567		 305.27265			43387.38302		69.64400		324.00000 
 43692.65567		 690.50335			43002.15232		225.58400		875.00000 
 43692.65567		 305.27265			43387.38302		69.64400		324.00000 
 43692.65567		 690.50335			43002.15232		225.58400		875.00000 
 43692.65567		 305.27265			43387.38302		69.64400		324.00000 
 43692.65567		 690.50335			43002.15232		225.58400		875.00000 
 43692.65567		 305.27265			43387.38302		69.64400		324.00000 
 43692.65567		 690.50335			43002.15232		225.58400		875.00000 
 43692.65567		 305.27265			43387.38302		69.64400		324.00000 
 43692.65567		 690.50335			43002.15232		225.58400		875.00000 
 43692.65567		 305.27265			43387.38302		69.64400		324.00000 
 43692.65567		 690.50335			43002.15232		225.58400		875.00000 
 43692.65567		 305.27265			43387.38302		69.64400		324.00000 
 43692.65567		 690.50335			43002.15232		225.58400		875.00000 
 43692.65567		 305.27265			43387.38302		69.64400		324.00000 
 43692.65567		 690.50335			43002.15232		225.58400		875.00000 
 43692.65567		 305.27265			43387.38302		69.64400		324.00000 
 43692.65567		 690.50335			43002.15232		225.58400		875.00000 
 43692.65567		 305.27265			43387.38302		69.64400		324.00000 
 43692.65567		 690.50335			43002.15232		225.58400		875.00000 
 43692.65567		 305.27265			43387.38302		69.64400		324.00000 
 43692.65567		 690.50335			43002.15232		225.58400		875.00000 
 43692.65567		 305.27265			43387.38302		69.64400		324.00000 
 43692.65567		 690.50335			43002.15232		225.58400		875.00000 
 43692.65567		 305.27265			43387.38302		69.64400		324.00000 
 43692.65567		 690.50335			43002.15232		225.58400		875.00000 
 43692.65567		 305.27265			43387.38302		69.64400		324.00000 
 43692.65567		 690.50335			43002.15232		225.58400		875.00000 
 43692.65567		 305.27265			43387.38302		69.64400		324.00000 
 43692.65567		 690.50335			43002.15232		225.58400		875.00000 
 43692.65567		 305.27265			43387.38302		69.64400		324.00000 
 43692.65567		 690.50335			43002.15232		225.58400		875.00000 
 43692.65567		 305.27265			43387.38302		69.64400		324.00000 
 43692.65567		 690.50335			43002.15232		225.58400		875.00000 
 43692.65567		 305.27265			43387.38302		69.64400		324.00000 
 43692.65567		 690.50335			43002.15232		225.58400		875.00000 
 43692.65567		 305.27265			43387.38302		69.64400		324.00000 
 43692.65567		 690.50335			43002.15232		225.58400		875.00000 
 43692.65567		 305.27265			43387.38302		69.64400		324.00000 
 43692.65567		 690.50335			43002.15232		225.58400		875.00000 
 43692.65567		 305.27265			43387.38302		69.64400		324.00000 
 43692.65567		 690.50335			43002.15232		225.58400		875.00000 
 43692.65567		 305.27265			43387.38302		69.64400		324.00000 
 43692.65567		 690.50335			43002.15232		225.58400		875.00000 
 43692.65567		 305.27265			43387.38302		69.64400		324.00000 
 43692.65567		 690.50335			43002.15232		225.58400		875.00000 
 43692.65567		 305.27265			43387.38302		69.64400		324.00000 
 43692.65567		 690.50335			43002.15232		225.58400		875.00000 
 43692.65567		 305.27265			43387.38302		69.64400		324.00000 
 43692.65567		 690.50335			43002.15232		225.58400		875.00000 
 43692.65567		 305.27265			43387.38302		69.64400		324.00000 
 43692.65567		 690.50335			43002.15232		225.58400		875.00000 
 43692.65567		 305.27265			43387.38302		69.64400		324.00000 
 43692.65567		 690.50335			43002.15232		225.58400		875.00000 
 43692.65567		 305.27265			43387.38302		69.64400		324.00000 
 43692.65567		 690.50335			43002.15232		225.58400		875.00000 
 43692.65567		 305.27265			43387.38302		69.64400		324.00000 
 43692.65567		 690.50335			43002.15232		225.58400		875.00000 
 43692.65567		 305.27265			43387.38302		69.64400		324.00000 
 43692.65567		 690.50335			43002.15232		225.58400		875.00000 
 43692.65567		 305.27265			43387.38302		69.64400		324.00000 
 43692.65567		 639.42567			43053.23000		225.58400		875.00000 
 43692.65567		 305.27265			43387.38302		69.64400		324.00000 
 43692.65567		 588.34800			43104.30767		225.58400		875.00000 
 43692.65567		 305.27265			43387.38302		69.64400		324.00000 
 43692.65567		 537.27032			43155.38535		225.58400		875.00000 
 43692.65567		 305.27265			43387.38302		69.64400		324.00000 
 43692.65567		 537.27032			43155.38535		225.58400		875.00000 
 43692.65567		 305.27265			43387.38302		69.64400		324.00000 
 43692.65567		 537.27032			43155.38535		225.58400		875.00000 
 43692.65567		 305.27265			43387.38302		69.64400		324.00000 
 43692.65567		 537.27032			43155.38535		225.58400		875.00000 
 43692.65567		 305.27265			43387.38302		69.64400		324.00000 
 43692.65567		 537.27032			43155.38535		225.58400		875.00000 
 43692.65567		 305.27265			43387.38302		69.64400		324.00000 
 43692.65567		 537.27032			43155.38535		225.58400		875.00000 
 43692.65567		 305.27265			43387.38302		69.64400		324.00000 
 43692.65567		 537.27032			43155.38535		211.61600		875.00000 
 43692.65567		 305.27265			43387.38302		69.64400		324.00000 
 43692.65567		 537.27032			43155.38535		211.61600		875.00000 
 43692.65567		 305.27265			43387.38302		69.64400		324.00000 
 43692.65567		 537.27032			43155.38535		211.61600		875.00000 
 43692.65567		 305.27265			43387.38302		69.64400		324.00000 
 43692.65567		 537.27032			43155.38535		211.61600		875.00000 
 43692.65567		 305.27265			43387.38302		69.64400		324.00000 
 43692.65567		 537.27032			43155.38535		211.61600		875.00000 
 43692.65567		 305.27265			43387.38302		69.64400		324.00000 
 43692.65567		 537.27032			43155.38535		211.61600		875.00000 
 43692.65567		 305.27265			43387.38302		69.64400		324.00000 
 43692.65567		 537.27032			43155.38535		211.61600		875.00000 
 43692.65567		 305.27265			43387.38302		69.64400		324.00000 
 43692.65567		 537.27032			43155.38535		211.61600		875.00000 
 43692.65567		 305.27265			43387.38302		69.64400		324.00000 
 43692.65567		 537.27032			43155.38535		211.61600		875.00000 
 43692.65567		 305.27265			43387.38302		69.64400		324.00000 
 43692.65567		 537.27032			43155.38535		211.61600		875.00000 
 43692.65567		 305.27265			43387.38302		69.64400		324.00000 
 43692.65567		 537.27032			43155.38535		211.61600		875.00000 
 43692.65567		 305.27265			43387.38302		69.64400		324.00000 
 43692.65567		 537.27032			43155.38535		211.61600		875.00000 
 43692.65567		 305.27265			43387.38302		69.64400		324.00000 
 43692.65567		 537.27032			43155.38535		211.61600		875.00000 
 43692.65567		 305.27265			43387.38302		69.64400		324.00000 
 43692.65567		 537.27032			43155.38535		211.61600		875.00000 
 43692.65567		 305.27265			43387.38302		69.64400		324.00000 
 43692.65567		 537.27032			43155.38535		211.61600		875.00000 
 43692.65567		 305.27265			43387.38302		69.64400		324.00000 
 43692.65567		 525.81365			43166.84203		211.61600		875.00000 
 43692.65567		 305.27265			43387.38302		69.64400		324.00000 
 43692.65567		 525.81365			43166.84203		211.61600		875.00000 
 43692.65567		 261.35540			43431.30027		69.64400		324.00000 
 43692.65567		 261.35540			43431.30027		211.61600		875.00000 
 43692.65567		 261.35540			43431.30027		69.64400		324.00000 
