Memory Total (MiB) 	 Memory Used (MiB) 	    Memory Free (MiB) 	 Power Drawed (W) 	 Clocks (Mhz) 	 
 43692.65567		 261.35540			43431.30027		184.84200		875.00000 
 43692.65567		 261.35540			43431.30027		69.67800		324.00000 
 43692.65567		 261.35540			43431.30027		184.84200		875.00000 
 43692.65567		 261.35540			43431.30027		69.67800		324.00000 
 43692.65567		 261.35540			43431.30027		184.84200		875.00000 
 43692.65567		 261.35540			43431.30027		69.67800		324.00000 
 43692.65567		 261.35540			43431.30027		184.84200		875.00000 
 43692.65567		 261.35540			43431.30027		69.67800		324.00000 
 43692.65567		 261.35540			43431.30027		184.84200		875.00000 
 43692.65567		 261.35540			43431.30027		69.67800		324.00000 
 43692.65567		 261.35540			43431.30027		184.84200		875.00000 
 43692.65567		 261.35540			43431.30027		69.67800		324.00000 
 43692.65567		 261.35540			43431.30027		184.84200		875.00000 
 43692.65567		 261.35540			43431.30027		69.67800		324.00000 
 43692.65567		 261.35540			43431.30027		184.84200		875.00000 
 43692.65567		 261.35540			43431.30027		69.67800		324.00000 
 43692.65567		 261.35540			43431.30027		184.84200		875.00000 
 43692.65567		 261.35540			43431.30027		69.67800		324.00000 
 43692.65567		 261.35540			43431.30027		184.84200		875.00000 
 43692.65567		 261.35540			43431.30027		69.67800		324.00000 
 43692.65567		 261.35540			43431.30027		184.84200		875.00000 
 43692.65567		 261.35540			43431.30027		69.67800		324.00000 
 43692.65567		 261.35540			43431.30027		184.84200		875.00000 
 43692.65567		 261.35540			43431.30027		69.67800		324.00000 
 43692.65567		 261.35540			43431.30027		184.84200		875.00000 
 43692.65567		 261.35540			43431.30027		69.67800		324.00000 
 43692.65567		 261.35540			43431.30027		184.84200		875.00000 
 43692.65567		 261.35540			43431.30027		69.67800		324.00000 
 43692.65567		 261.35540			43431.30027		184.84200		875.00000 
 43692.65567		 261.35540			43431.30027		69.67800		324.00000 
 43692.65567		 261.35540			43431.30027		184.84200		875.00000 
 43692.65567		 261.35540			43431.30027		69.67800		324.00000 
 43692.65567		 261.35540			43431.30027		184.84200		875.00000 
 43692.65567		 261.35540			43431.30027		69.67800		324.00000 
 43692.65567		 261.35540			43431.30027		184.84200		875.00000 
 43692.65567		 261.35540			43431.30027		69.67800		324.00000 
 43692.65567		 265.17429			43427.48138		184.84200		875.00000 
 43692.65567		 261.35540			43431.30027		69.67800		324.00000 
 43692.65567		 265.17429			43427.48138		184.84200		875.00000 
 43692.65567		 261.35540			43431.30027		69.67800		324.00000 
 43692.65567		 272.81207			43419.84360		184.84200		875.00000 
 43692.65567		 261.35540			43431.30027		69.67800		324.00000 
 43692.65567		 272.81207			43419.84360		184.84200		875.00000 
 43692.65567		 265.17429			43427.48138		69.67800		324.00000 
 43692.65567		 272.81207			43419.84360		184.84200		875.00000 
 43692.65567		 265.17429			43427.48138		69.67800		324.00000 
 43692.65567		 272.81207			43419.84360		184.84200		875.00000 
 43692.65567		 265.17429			43427.48138		69.67800		324.00000 
 43692.65567		 272.81207			43419.84360		151.33000		875.00000 
 43692.65567		 272.81207			43419.84360		69.67800		324.00000 
 43692.65567		 272.81207			43419.84360		151.33000		875.00000 
 43692.65567		 272.81207			43419.84360		69.67800		324.00000 
 43692.65567		 272.81207			43419.84360		151.33000		875.00000 
 43692.65567		 272.81207			43419.84360		69.67800		324.00000 
 43692.65567		 305.27265			43387.38302		151.33000		875.00000 
 43692.65567		 305.27265			43387.38302		69.67800		324.00000 
 43692.65567		 305.27265			43387.38302		151.33000		875.00000 
 43692.65567		 305.27265			43387.38302		69.67800		324.00000 
 43692.65567		 305.27265			43387.38302		151.33000		875.00000 
 43692.65567		 305.27265			43387.38302		69.67800		324.00000 
 43692.65567		 305.27265			43387.38302		151.33000		875.00000 
 43692.65567		 305.27265			43387.38302		69.67800		324.00000 
 43692.65567		 305.27265			43387.38302		151.33000		875.00000 
 43692.65567		 305.27265			43387.38302		69.67800		324.00000 
 43692.65567		 310.04627			43382.60941		151.33000		875.00000 
 43692.65567		 305.27265			43387.38302		69.67800		324.00000 
 43692.65567		 311.00099			43381.65468		151.33000		875.00000 
 43692.65567		 305.27265			43387.38302		69.67800		324.00000 
 43692.65567		 311.00099			43381.65468		151.33000		875.00000 
 43692.65567		 305.27265			43387.38302		69.67800		324.00000 
 43692.65567		 311.00099			43381.65468		151.33000		875.00000 
 43692.65567		 305.27265			43387.38302		69.67800		324.00000 
 43692.65567		 311.00099			43381.65468		151.33000		875.00000 
 43692.65567		 305.27265			43387.38302		69.67800		324.00000 
 43692.65567		 311.00099			43381.65468		151.33000		875.00000 
 43692.65567		 305.27265			43387.38302		69.67800		324.00000 
 43692.65567		 311.00099			43381.65468		151.33000		875.00000 
 43692.65567		 305.27265			43387.38302		69.67800		324.00000 
 43692.65567		 311.00099			43381.65468		151.33000		875.00000 
 43692.65567		 305.27265			43387.38302		69.67800		324.00000 
 43692.65567		 311.00099			43381.65468		151.33000		875.00000 
 43692.65567		 305.27265			43387.38302		69.67800		324.00000 
 43692.65567		 311.00099			43381.65468		151.33000		875.00000 
 43692.65567		 305.27265			43387.38302		69.67800		324.00000 
 43692.65567		 311.00099			43381.65468		151.33000		875.00000 
 43692.65567		 305.27265			43387.38302		69.67800		324.00000 
 43692.65567		 311.00099			43381.65468		151.33000		875.00000 
 43692.65567		 305.27265			43387.38302		69.67800		324.00000 
 43692.65567		 311.00099			43381.65468		151.33000		875.00000 
 43692.65567		 305.27265			43387.38302		69.67800		324.00000 
 43692.65567		 311.00099			43381.65468		151.33000		875.00000 
 43692.65567		 305.27265			43387.38302		69.67800		324.00000 
 43692.65567		 311.00099			43381.65468		151.33000		875.00000 
 43692.65567		 305.27265			43387.38302		69.67800		324.00000 
 43692.65567		 311.00099			43381.65468		151.33000		875.00000 
 43692.65567		 305.27265			43387.38302		69.67800		324.00000 
 43692.65567		 311.00099			43381.65468		151.33000		875.00000 
 43692.65567		 305.27265			43387.38302		69.67800		324.00000 
 43692.65567		 311.00099			43381.65468		151.33000		875.00000 
 43692.65567		 305.27265			43387.38302		69.67800		324.00000 
 43692.65567		 311.00099			43381.65468		151.33000		875.00000 
 43692.65567		 305.27265			43387.38302		69.67800		324.00000 
 43692.65567		 311.00099			43381.65468		151.33000		875.00000 
 43692.65567		 305.27265			43387.38302		69.67800		324.00000 
 43692.65567		 311.00099			43381.65468		151.33000		875.00000 
 43692.65567		 305.27265			43387.38302		69.67800		324.00000 
 43692.65567		 311.00099			43381.65468		151.33000		875.00000 
 43692.65567		 305.27265			43387.38302		69.67800		324.00000 
 43692.65567		 311.00099			43381.65468		151.33000		875.00000 
 43692.65567		 305.27265			43387.38302		69.67800		324.00000 
 43692.65567		 311.00099			43381.65468		151.33000		875.00000 
 43692.65567		 305.27265			43387.38302		69.67800		324.00000 
 43692.65567		 311.00099			43381.65468		151.33000		875.00000 
 43692.65567		 305.27265			43387.38302		69.67800		324.00000 
 43692.65567		 311.00099			43381.65468		139.28000		875.00000 
 43692.65567		 305.27265			43387.38302		69.67800		324.00000 
 43692.65567		 311.00099			43381.65468		139.28000		875.00000 
 43692.65567		 305.27265			43387.38302		69.67800		324.00000 
 43692.65567		 311.00099			43381.65468		139.28000		875.00000 
 43692.65567		 305.27265			43387.38302		69.67800		324.00000 
 43692.65567		 311.00099			43381.65468		139.28000		875.00000 
 43692.65567		 305.27265			43387.38302		69.67800		324.00000 
 43692.65567		 311.00099			43381.65468		139.28000		875.00000 
 43692.65567		 305.27265			43387.38302		69.67800		324.00000 
 43692.65567		 311.00099			43381.65468		139.28000		875.00000 
 43692.65567		 305.27265			43387.38302		69.67800		324.00000 
 43692.65567		 311.00099			43381.65468		139.28000		875.00000 
 43692.65567		 305.27265			43387.38302		69.67800		324.00000 
 43692.65567		 311.00099			43381.65468		139.28000		875.00000 
 43692.65567		 305.27265			43387.38302		69.67800		324.00000 
 43692.65567		 311.00099			43381.65468		139.28000		875.00000 
 43692.65567		 305.27265			43387.38302		69.67800		324.00000 
 43692.65567		 311.00099			43381.65468		139.28000		875.00000 
 43692.65567		 305.27265			43387.38302		69.67800		324.00000 
 43692.65567		 311.00099			43381.65468		139.28000		875.00000 
 43692.65567		 305.27265			43387.38302		69.67800		324.00000 
 43692.65567		 311.00099			43381.65468		139.28000		875.00000 
 43692.65567		 305.27265			43387.38302		69.67800		324.00000 
 43692.65567		 311.00099			43381.65468		139.28000		875.00000 
 43692.65567		 305.27265			43387.38302		69.67800		324.00000 
 43692.65567		 311.00099			43381.65468		139.28000		875.00000 
 43692.65567		 305.27265			43387.38302		69.67800		324.00000 
 43692.65567		 311.00099			43381.65468		139.28000		875.00000 
 43692.65567		 305.27265			43387.38302		69.67800		324.00000 
 43692.65567		 311.00099			43381.65468		139.28000		875.00000 
 43692.65567		 305.27265			43387.38302		69.67800		324.00000 
 43692.65567		 311.00099			43381.65468		139.28000		875.00000 
 43692.65567		 305.27265			43387.38302		69.67800		324.00000 
 43692.65567		 311.00099			43381.65468		139.28000		875.00000 
 43692.65567		 305.27265			43387.38302		69.67800		324.00000 
 43692.65567		 311.00099			43381.65468		139.28000		875.00000 
 43692.65567		 305.27265			43387.38302		69.67800		324.00000 
 43692.65567		 311.00099			43381.65468		139.28000		875.00000 
 43692.65567		 305.27265			43387.38302		69.67800		324.00000 
 43692.65567		 311.00099			43381.65468		139.28000		875.00000 
 43692.65567		 305.27265			43387.38302		69.67800		324.00000 
 43692.65567		 311.00099			43381.65468		139.28000		875.00000 
 43692.65567		 305.27265			43387.38302		69.67800		324.00000 
 43692.65567		 311.00099			43381.65468		139.28000		875.00000 
 43692.65567		 305.27265			43387.38302		69.67800		324.00000 
 43692.65567		 311.00099			43381.65468		139.28000		875.00000 
 43692.65567		 305.27265			43387.38302		69.67800		324.00000 
 43692.65567		 311.00099			43381.65468		139.28000		875.00000 
 43692.65567		 305.27265			43387.38302		69.67800		324.00000 
 43692.65567		 311.00099			43381.65468		139.28000		875.00000 
 43692.65567		 305.27265			43387.38302		69.67800		324.00000 
 43692.65567		 311.00099			43381.65468		139.28000		875.00000 
 43692.65567		 305.27265			43387.38302		69.67800		324.00000 
 43692.65567		 314.81988			43377.83579		139.28000		875.00000 
 43692.65567		 305.27265			43387.38302		69.67800		324.00000 
 43692.65567		 314.81988			43377.83579		139.28000		875.00000 
 43692.65567		 305.27265			43387.38302		69.67800		324.00000 
 43692.65567		 314.81988			43377.83579		139.28000		875.00000 
 43692.65567		 305.27265			43387.38302		69.67800		324.00000 
 43692.65567		 318.63877			43374.01690		139.28000		875.00000 
 43692.65567		 305.27265			43387.38302		69.67800		324.00000 
 43692.65567		 322.45767			43370.19801		139.28000		875.00000 
 43692.65567		 305.27265			43387.38302		69.67800		324.00000 
 43692.65567		 326.27656			43366.37912		134.44800		875.00000 
 43692.65567		 305.27265			43387.38302		69.67800		324.00000 
 43692.65567		 537.27032			43155.38535		134.44800		875.00000 
 43692.65567		 305.27265			43387.38302		69.67800		324.00000 
 43692.65567		 576.41396			43116.24171		134.44800		875.00000 
 43692.65567		 305.27265			43387.38302		69.67800		324.00000 
 43692.65567		 654.70124			43037.95443		134.44800		875.00000 
 43692.65567		 305.27265			43387.38302		69.67800		324.00000 
 43692.65567		 654.70124			43037.95443		134.44800		875.00000 
 43692.65567		 305.27265			43387.38302		69.67800		324.00000 
 43692.65567		 654.70124			43037.95443		134.44800		875.00000 
 43692.65567		 305.27265			43387.38302		69.67800		324.00000 
 43692.65567		 654.70124			43037.95443		134.44800		875.00000 
 43692.65567		 305.27265			43387.38302		69.67800		324.00000 
 43692.65567		 654.70124			43037.95443		134.44800		875.00000 
 43692.65567		 305.27265			43387.38302		69.67800		324.00000 
 43692.65567		 654.70124			43037.95443		134.44800		875.00000 
 43692.65567		 305.27265			43387.38302		69.67800		324.00000 
 43692.65567		 654.70124			43037.95443		134.44800		875.00000 
 43692.65567		 305.27265			43387.38302		69.67800		324.00000 
 43692.65567		 654.70124			43037.95443		134.44800		875.00000 
 43692.65567		 305.27265			43387.38302		69.67800		324.00000 
 43692.65567		 654.70124			43037.95443		134.44800		875.00000 
 43692.65567		 305.27265			43387.38302		69.67800		324.00000 
 43692.65567		 654.70124			43037.95443		134.44800		875.00000 
 43692.65567		 305.27265			43387.38302		69.67800		324.00000 
 43692.65567		 654.70124			43037.95443		134.44800		875.00000 
 43692.65567		 305.27265			43387.38302		69.67800		324.00000 
 43692.65567		 654.70124			43037.95443		134.44800		875.00000 
 43692.65567		 305.27265			43387.38302		69.67800		324.00000 
 43692.65567		 654.70124			43037.95443		134.44800		875.00000 
 43692.65567		 305.27265			43387.38302		69.67800		324.00000 
 43692.65567		 654.70124			43037.95443		134.44800		875.00000 
 43692.65567		 305.27265			43387.38302		69.67800		324.00000 
 43692.65567		 654.70124			43037.95443		134.44800		875.00000 
 43692.65567		 305.27265			43387.38302		69.67800		324.00000 
 43692.65567		 654.70124			43037.95443		134.44800		875.00000 
 43692.65567		 305.27265			43387.38302		69.67800		324.00000 
 43692.65567		 654.70124			43037.95443		134.44800		875.00000 
 43692.65567		 305.27265			43387.38302		69.67800		324.00000 
 43692.65567		 654.70124			43037.95443		134.44800		875.00000 
 43692.65567		 305.27265			43387.38302		69.67800		324.00000 
 43692.65567		 654.70124			43037.95443		134.44800		875.00000 
 43692.65567		 305.27265			43387.38302		69.67800		324.00000 
 43692.65567		 654.70124			43037.95443		134.44800		875.00000 
 43692.65567		 305.27265			43387.38302		69.67800		324.00000 
 43692.65567		 654.70124			43037.95443		134.44800		875.00000 
 43692.65567		 305.27265			43387.38302		69.67800		324.00000 
 43692.65567		 654.70124			43037.95443		134.44800		875.00000 
 43692.65567		 305.27265			43387.38302		69.67800		324.00000 
 43692.65567		 654.70124			43037.95443		134.44800		875.00000 
 43692.65567		 305.27265			43387.38302		69.67800		324.00000 
 43692.65567		 654.70124			43037.95443		134.44800		875.00000 
 43692.65567		 305.27265			43387.38302		69.67800		324.00000 
 43692.65567		 654.70124			43037.95443		134.44800		875.00000 
 43692.65567		 305.27265			43387.38302		69.67800		324.00000 
 43692.65567		 654.70124			43037.95443		134.44800		875.00000 
 43692.65567		 305.27265			43387.38302		69.67800		324.00000 
 43692.65567		 654.70124			43037.95443		134.44800		875.00000 
 43692.65567		 305.27265			43387.38302		69.67800		324.00000 
 43692.65567		 654.70124			43037.95443		134.44800		875.00000 
 43692.65567		 305.27265			43387.38302		69.67800		324.00000 
 43692.65567		 654.70124			43037.95443		134.44800		875.00000 
 43692.65567		 305.27265			43387.38302		69.67800		324.00000 
 43692.65567		 654.70124			43037.95443		134.44800		875.00000 
 43692.65567		 305.27265			43387.38302		69.67800		324.00000 
 43692.65567		 654.70124			43037.95443		134.44800		875.00000 
 43692.65567		 305.27265			43387.38302		69.67800		324.00000 
 43692.65567		 654.70124			43037.95443		134.44800		875.00000 
 43692.65567		 305.27265			43387.38302		69.67800		324.00000 
 43692.65567		 654.70124			43037.95443		134.44800		875.00000 
 43692.65567		 305.27265			43387.38302		69.67800		324.00000 
 43692.65567		 654.70124			43037.95443		134.44800		875.00000 
 43692.65567		 305.27265			43387.38302		69.67800		324.00000 
 43692.65567		 654.70124			43037.95443		134.44800		875.00000 
 43692.65567		 305.27265			43387.38302		69.67800		324.00000 
 43692.65567		 654.70124			43037.95443		134.44800		875.00000 
 43692.65567		 305.27265			43387.38302		69.67800		324.00000 
 43692.65567		 654.70124			43037.95443		134.44800		875.00000 
 43692.65567		 305.27265			43387.38302		69.67800		324.00000 
 43692.65567		 654.70124			43037.95443		134.44800		875.00000 
 43692.65567		 305.27265			43387.38302		69.67800		324.00000 
 43692.65567		 654.70124			43037.95443		134.44800		875.00000 
 43692.65567		 305.27265			43387.38302		69.67800		324.00000 
 43692.65567		 654.70124			43037.95443		134.44800		875.00000 
 43692.65567		 305.27265			43387.38302		69.67800		324.00000 
 43692.65567		 654.70124			43037.95443		134.44800		875.00000 
 43692.65567		 305.27265			43387.38302		69.67800		324.00000 
 43692.65567		 654.70124			43037.95443		134.44800		875.00000 
 43692.65567		 305.27265			43387.38302		69.67800		324.00000 
 43692.65567		 654.70124			43037.95443		134.44800		875.00000 
 43692.65567		 305.27265			43387.38302		69.67800		324.00000 
 43692.65567		 654.70124			43037.95443		134.44800		875.00000 
 43692.65567		 305.27265			43387.38302		69.67800		324.00000 
 43692.65567		 654.70124			43037.95443		134.44800		875.00000 
 43692.65567		 305.27265			43387.38302		69.67800		324.00000 
 43692.65567		 654.70124			43037.95443		134.44800		875.00000 
 43692.65567		 305.27265			43387.38302		69.67800		324.00000 
 43692.65567		 654.70124			43037.95443		134.44800		875.00000 
 43692.65567		 305.27265			43387.38302		69.67800		324.00000 
 43692.65567		 654.70124			43037.95443		134.44800		875.00000 
 43692.65567		 305.27265			43387.38302		69.67800		324.00000 
 43692.65567		 654.70124			43037.95443		134.44800		875.00000 
 43692.65567		 305.27265			43387.38302		69.67800		324.00000 
 43692.65567		 654.70124			43037.95443		134.44800		875.00000 
 43692.65567		 305.27265			43387.38302		69.67800		324.00000 
 43692.65567		 654.70124			43037.95443		134.44800		875.00000 
 43692.65567		 305.27265			43387.38302		69.67800		324.00000 
 43692.65567		 654.70124			43037.95443		134.44800		875.00000 
 43692.65567		 305.27265			43387.38302		69.67800		324.00000 
 43692.65567		 654.70124			43037.95443		134.44800		875.00000 
 43692.65567		 305.27265			43387.38302		69.67800		324.00000 
 43692.65567		 654.70124			43037.95443		134.44800		875.00000 
 43692.65567		 305.27265			43387.38302		69.67800		324.00000 
 43692.65567		 654.70124			43037.95443		134.44800		875.00000 
 43692.65567		 305.27265			43387.38302		69.67800		324.00000 
 43692.65567		 654.70124			43037.95443		134.44800		875.00000 
 43692.65567		 305.27265			43387.38302		69.67800		324.00000 
 43692.65567		 654.70124			43037.95443		134.44800		875.00000 
 43692.65567		 305.27265			43387.38302		69.67800		324.00000 
 43692.65567		 654.70124			43037.95443		134.44800		875.00000 
 43692.65567		 305.27265			43387.38302		69.67800		324.00000 
 43692.65567		 654.70124			43037.95443		134.44800		875.00000 
 43692.65567		 305.27265			43387.38302		69.67800		324.00000 
 43692.65567		 654.70124			43037.95443		183.11600		875.00000 
 43692.65567		 305.27265			43387.38302		69.67800		324.00000 
 43692.65567		 654.70124			43037.95443		183.11600		875.00000 
 43692.65567		 305.27265			43387.38302		69.67800		324.00000 
 43692.65567		 654.70124			43037.95443		183.11600		875.00000 
 43692.65567		 305.27265			43387.38302		69.67800		324.00000 
 43692.65567		 654.70124			43037.95443		183.11600		875.00000 
 43692.65567		 305.27265			43387.38302		69.67800		324.00000 
 43692.65567		 654.70124			43037.95443		183.11600		875.00000 
 43692.65567		 305.27265			43387.38302		69.67800		324.00000 
 43692.65567		 654.70124			43037.95443		183.11600		875.00000 
 43692.65567		 305.27265			43387.38302		69.67800		324.00000 
 43692.65567		 654.70124			43037.95443		183.11600		875.00000 
 43692.65567		 305.27265			43387.38302		69.67800		324.00000 
 43692.65567		 654.70124			43037.95443		183.11600		875.00000 
 43692.65567		 305.27265			43387.38302		69.67800		324.00000 
 43692.65567		 654.70124			43037.95443		183.11600		875.00000 
 43692.65567		 305.27265			43387.38302		69.67800		324.00000 
 43692.65567		 654.70124			43037.95443		183.11600		875.00000 
 43692.65567		 305.27265			43387.38302		69.67800		324.00000 
 43692.65567		 654.70124			43037.95443		183.11600		875.00000 
 43692.65567		 305.27265			43387.38302		69.67800		324.00000 
 43692.65567		 654.70124			43037.95443		183.11600		875.00000 
 43692.65567		 305.27265			43387.38302		69.67800		324.00000 
 43692.65567		 654.70124			43037.95443		183.11600		875.00000 
 43692.65567		 305.27265			43387.38302		69.67800		324.00000 
 43692.65567		 654.70124			43037.95443		183.11600		875.00000 
 43692.65567		 305.27265			43387.38302		69.67800		324.00000 
 43692.65567		 654.70124			43037.95443		183.11600		875.00000 
 43692.65567		 305.27265			43387.38302		69.67800		324.00000 
 43692.65567		 654.70124			43037.95443		183.11600		875.00000 
 43692.65567		 305.27265			43387.38302		69.67800		324.00000 
 43692.65567		 654.70124			43037.95443		183.11600		875.00000 
 43692.65567		 305.27265			43387.38302		69.67800		324.00000 
 43692.65567		 654.70124			43037.95443		183.11600		875.00000 
 43692.65567		 305.27265			43387.38302		69.67800		324.00000 
 43692.65567		 654.70124			43037.95443		183.11600		875.00000 
 43692.65567		 305.27265			43387.38302		69.67800		324.00000 
 43692.65567		 654.70124			43037.95443		183.11600		875.00000 
 43692.65567		 305.27265			43387.38302		69.67800		324.00000 
 43692.65567		 654.70124			43037.95443		183.11600		875.00000 
 43692.65567		 305.27265			43387.38302		69.67800		324.00000 
 43692.65567		 654.70124			43037.95443		183.11600		875.00000 
 43692.65567		 305.27265			43387.38302		69.67800		324.00000 
 43692.65567		 654.70124			43037.95443		183.11600		875.00000 
 43692.65567		 305.27265			43387.38302		69.67800		324.00000 
 43692.65567		 654.70124			43037.95443		183.11600		875.00000 
 43692.65567		 305.27265			43387.38302		69.67800		324.00000 
 43692.65567		 654.70124			43037.95443		183.11600		875.00000 
 43692.65567		 305.27265			43387.38302		69.67800		324.00000 
 43692.65567		 654.70124			43037.95443		183.11600		875.00000 
 43692.65567		 305.27265			43387.38302		69.67800		324.00000 
 43692.65567		 654.70124			43037.95443		183.11600		875.00000 
 43692.65567		 305.27265			43387.38302		69.67800		324.00000 
 43692.65567		 654.70124			43037.95443		183.11600		875.00000 
 43692.65567		 305.27265			43387.38302		69.67800		324.00000 
 43692.65567		 654.70124			43037.95443		183.11600		875.00000 
 43692.65567		 305.27265			43387.38302		69.67800		324.00000 
 43692.65567		 654.70124			43037.95443		183.11600		875.00000 
 43692.65567		 305.27265			43387.38302		69.67800		324.00000 
 43692.65567		 654.70124			43037.95443		183.11600		875.00000 
 43692.65567		 305.27265			43387.38302		69.67800		324.00000 
 43692.65567		 654.70124			43037.95443		183.11600		875.00000 
 43692.65567		 305.27265			43387.38302		69.67800		324.00000 
 43692.65567		 654.70124			43037.95443		183.11600		875.00000 
 43692.65567		 305.27265			43387.38302		69.67800		324.00000 
 43692.65567		 654.70124			43037.95443		183.11600		875.00000 
 43692.65567		 305.27265			43387.38302		69.67800		324.00000 
 43692.65567		 654.70124			43037.95443		183.11600		875.00000 
 43692.65567		 305.27265			43387.38302		69.67800		324.00000 
 43692.65567		 654.70124			43037.95443		183.11600		875.00000 
 43692.65567		 305.27265			43387.38302		69.67800		324.00000 
 43692.65567		 654.70124			43037.95443		183.11600		875.00000 
 43692.65567		 305.27265			43387.38302		69.67800		324.00000 
 43692.65567		 654.70124			43037.95443		183.11600		875.00000 
 43692.65567		 305.27265			43387.38302		69.67800		324.00000 
 43692.65567		 654.70124			43037.95443		183.11600		875.00000 
 43692.65567		 305.27265			43387.38302		69.67800		324.00000 
 43692.65567		 654.70124			43037.95443		183.11600		875.00000 
 43692.65567		 305.27265			43387.38302		69.67800		324.00000 
 43692.65567		 654.70124			43037.95443		183.11600		875.00000 
 43692.65567		 305.27265			43387.38302		69.67800		324.00000 
 43692.65567		 654.70124			43037.95443		183.11600		875.00000 
 43692.65567		 305.27265			43387.38302		69.67800		324.00000 
 43692.65567		 654.70124			43037.95443		183.11600		875.00000 
 43692.65567		 305.27265			43387.38302		69.67800		324.00000 
 43692.65567		 654.70124			43037.95443		183.11600		875.00000 
 43692.65567		 305.27265			43387.38302		69.67800		324.00000 
 43692.65567		 654.70124			43037.95443		183.11600		875.00000 
 43692.65567		 305.27265			43387.38302		69.67800		324.00000 
 43692.65567		 654.70124			43037.95443		183.11600		875.00000 
 43692.65567		 305.27265			43387.38302		69.67800		324.00000 
 43692.65567		 654.70124			43037.95443		183.11600		875.00000 
 43692.65567		 305.27265			43387.38302		69.67800		324.00000 
 43692.65567		 654.70124			43037.95443		183.11600		875.00000 
 43692.65567		 305.27265			43387.38302		69.67800		324.00000 
 43692.65567		 654.70124			43037.95443		183.11600		875.00000 
 43692.65567		 305.27265			43387.38302		69.67800		324.00000 
 43692.65567		 654.70124			43037.95443		183.11600		875.00000 
 43692.65567		 305.27265			43387.38302		69.67800		324.00000 
 43692.65567		 654.70124			43037.95443		183.11600		875.00000 
 43692.65567		 305.27265			43387.38302		69.67800		324.00000 
 43692.65567		 654.70124			43037.95443		183.11600		875.00000 
 43692.65567		 305.27265			43387.38302		69.67800		324.00000 
 43692.65567		 654.70124			43037.95443		183.11600		875.00000 
 43692.65567		 305.27265			43387.38302		69.67800		324.00000 
 43692.65567		 654.70124			43037.95443		183.11600		875.00000 
 43692.65567		 305.27265			43387.38302		69.67800		324.00000 
 43692.65567		 654.70124			43037.95443		183.11600		875.00000 
 43692.65567		 305.27265			43387.38302		69.67800		324.00000 
 43692.65567		 654.70124			43037.95443		183.11600		875.00000 
 43692.65567		 305.27265			43387.38302		69.67800		324.00000 
 43692.65567		 654.70124			43037.95443		183.11600		875.00000 
 43692.65567		 305.27265			43387.38302		69.67800		324.00000 
 43692.65567		 654.70124			43037.95443		183.11600		875.00000 
 43692.65567		 305.27265			43387.38302		69.67800		324.00000 
 43692.65567		 654.70124			43037.95443		183.11600		875.00000 
 43692.65567		 305.27265			43387.38302		69.67800		324.00000 
 43692.65567		 654.70124			43037.95443		183.11600		875.00000 
 43692.65567		 305.27265			43387.38302		69.67800		324.00000 
 43692.65567		 654.70124			43037.95443		183.11600		875.00000 
 43692.65567		 305.27265			43387.38302		69.67800		324.00000 
 43692.65567		 654.70124			43037.95443		183.11600		875.00000 
 43692.65567		 305.27265			43387.38302		69.67800		324.00000 
 43692.65567		 654.70124			43037.95443		183.11600		875.00000 
 43692.65567		 305.27265			43387.38302		69.67800		324.00000 
 43692.65567		 654.70124			43037.95443		183.11600		875.00000 
 43692.65567		 305.27265			43387.38302		69.67800		324.00000 
 43692.65567		 654.70124			43037.95443		204.51400		875.00000 
 43692.65567		 305.27265			43387.38302		69.67800		324.00000 
 43692.65567		 654.70124			43037.95443		204.51400		875.00000 
 43692.65567		 305.27265			43387.38302		69.67800		324.00000 
 43692.65567		 654.70124			43037.95443		204.51400		875.00000 
 43692.65567		 305.27265			43387.38302		69.67800		324.00000 
 43692.65567		 654.70124			43037.95443		204.51400		875.00000 
 43692.65567		 305.27265			43387.38302		69.67800		324.00000 
 43692.65567		 654.70124			43037.95443		204.51400		875.00000 
 43692.65567		 305.27265			43387.38302		69.67800		324.00000 
 43692.65567		 654.70124			43037.95443		204.51400		875.00000 
 43692.65567		 305.27265			43387.38302		69.67800		324.00000 
 43692.65567		 654.70124			43037.95443		204.51400		875.00000 
 43692.65567		 305.27265			43387.38302		69.67800		324.00000 
 43692.65567		 654.70124			43037.95443		204.51400		875.00000 
 43692.65567		 305.27265			43387.38302		69.67800		324.00000 
 43692.65567		 654.70124			43037.95443		204.51400		875.00000 
 43692.65567		 305.27265			43387.38302		69.67800		324.00000 
 43692.65567		 654.70124			43037.95443		204.51400		875.00000 
 43692.65567		 305.27265			43387.38302		69.67800		324.00000 
 43692.65567		 654.70124			43037.95443		204.51400		875.00000 
 43692.65567		 305.27265			43387.38302		69.67800		324.00000 
 43692.65567		 654.70124			43037.95443		204.51400		875.00000 
 43692.65567		 305.27265			43387.38302		69.67800		324.00000 
 43692.65567		 654.70124			43037.95443		204.51400		875.00000 
 43692.65567		 305.27265			43387.38302		69.67800		324.00000 
 43692.65567		 654.70124			43037.95443		204.51400		875.00000 
 43692.65567		 305.27265			43387.38302		69.67800		324.00000 
 43692.65567		 654.70124			43037.95443		204.51400		875.00000 
 43692.65567		 305.27265			43387.38302		69.67800		324.00000 
 43692.65567		 654.70124			43037.95443		204.51400		875.00000 
 43692.65567		 305.27265			43387.38302		69.67800		324.00000 
 43692.65567		 654.70124			43037.95443		204.51400		875.00000 
 43692.65567		 305.27265			43387.38302		69.67800		324.00000 
 43692.65567		 654.70124			43037.95443		204.51400		875.00000 
 43692.65567		 305.27265			43387.38302		69.67800		324.00000 
 43692.65567		 654.70124			43037.95443		204.51400		875.00000 
 43692.65567		 305.27265			43387.38302		69.67800		324.00000 
 43692.65567		 654.70124			43037.95443		204.51400		875.00000 
 43692.65567		 305.27265			43387.38302		69.67800		324.00000 
 43692.65567		 654.70124			43037.95443		204.51400		875.00000 
 43692.65567		 305.27265			43387.38302		69.67800		324.00000 
 43692.65567		 654.70124			43037.95443		204.51400		875.00000 
 43692.65567		 305.27265			43387.38302		69.67800		324.00000 
 43692.65567		 654.70124			43037.95443		204.51400		875.00000 
 43692.65567		 305.27265			43387.38302		69.67800		324.00000 
 43692.65567		 654.70124			43037.95443		204.51400		875.00000 
 43692.65567		 305.27265			43387.38302		69.67800		324.00000 
 43692.65567		 654.70124			43037.95443		204.51400		875.00000 
 43692.65567		 305.27265			43387.38302		69.67800		324.00000 
 43692.65567		 654.70124			43037.95443		204.51400		875.00000 
 43692.65567		 305.27265			43387.38302		69.67800		324.00000 
 43692.65567		 654.70124			43037.95443		204.51400		875.00000 
 43692.65567		 305.27265			43387.38302		69.67800		324.00000 
 43692.65567		 654.70124			43037.95443		204.51400		875.00000 
 43692.65567		 305.27265			43387.38302		69.67800		324.00000 
 43692.65567		 654.70124			43037.95443		204.51400		875.00000 
 43692.65567		 305.27265			43387.38302		69.67800		324.00000 
 43692.65567		 654.70124			43037.95443		204.51400		875.00000 
 43692.65567		 305.27265			43387.38302		69.67800		324.00000 
 43692.65567		 654.70124			43037.95443		204.51400		875.00000 
 43692.65567		 305.27265			43387.38302		69.67800		324.00000 
 43692.65567		 654.70124			43037.95443		204.51400		875.00000 
 43692.65567		 305.27265			43387.38302		69.67800		324.00000 
 43692.65567		 654.70124			43037.95443		204.51400		875.00000 
 43692.65567		 305.27265			43387.38302		69.67800		324.00000 
 43692.65567		 654.70124			43037.95443		204.51400		875.00000 
 43692.65567		 305.27265			43387.38302		69.67800		324.00000 
 43692.65567		 654.70124			43037.95443		204.51400		875.00000 
 43692.65567		 305.27265			43387.38302		69.67800		324.00000 
 43692.65567		 654.70124			43037.95443		204.51400		875.00000 
 43692.65567		 305.27265			43387.38302		69.67800		324.00000 
 43692.65567		 654.70124			43037.95443		204.51400		875.00000 
 43692.65567		 305.27265			43387.38302		69.67800		324.00000 
 43692.65567		 654.70124			43037.95443		204.51400		875.00000 
 43692.65567		 305.27265			43387.38302		69.67800		324.00000 
 43692.65567		 654.70124			43037.95443		204.51400		875.00000 
 43692.65567		 305.27265			43387.38302		69.67800		324.00000 
 43692.65567		 654.70124			43037.95443		204.51400		875.00000 
 43692.65567		 305.27265			43387.38302		69.67800		324.00000 
 43692.65567		 654.70124			43037.95443		204.51400		875.00000 
 43692.65567		 305.27265			43387.38302		69.67800		324.00000 
 43692.65567		 654.70124			43037.95443		204.51400		875.00000 
 43692.65567		 305.27265			43387.38302		69.67800		324.00000 
 43692.65567		 654.70124			43037.95443		204.51400		875.00000 
 43692.65567		 305.27265			43387.38302		69.67800		324.00000 
 43692.65567		 654.70124			43037.95443		204.51400		875.00000 
 43692.65567		 305.27265			43387.38302		69.67800		324.00000 
 43692.65567		 654.70124			43037.95443		204.51400		875.00000 
 43692.65567		 305.27265			43387.38302		69.67800		324.00000 
 43692.65567		 654.70124			43037.95443		204.51400		875.00000 
 43692.65567		 305.27265			43387.38302		69.67800		324.00000 
 43692.65567		 654.70124			43037.95443		204.51400		875.00000 
 43692.65567		 305.27265			43387.38302		69.67800		324.00000 
 43692.65567		 654.70124			43037.95443		204.51400		875.00000 
 43692.65567		 305.27265			43387.38302		69.67800		324.00000 
 43692.65567		 654.70124			43037.95443		204.51400		875.00000 
 43692.65567		 305.27265			43387.38302		69.67800		324.00000 
 43692.65567		 654.70124			43037.95443		204.51400		875.00000 
 43692.65567		 305.27265			43387.38302		69.67800		324.00000 
 43692.65567		 654.70124			43037.95443		204.51400		875.00000 
 43692.65567		 305.27265			43387.38302		69.67800		324.00000 
 43692.65567		 654.70124			43037.95443		204.51400		875.00000 
 43692.65567		 305.27265			43387.38302		69.67800		324.00000 
 43692.65567		 654.70124			43037.95443		204.51400		875.00000 
 43692.65567		 305.27265			43387.38302		69.67800		324.00000 
 43692.65567		 654.70124			43037.95443		204.51400		875.00000 
 43692.65567		 305.27265			43387.38302		69.67800		324.00000 
 43692.65567		 654.70124			43037.95443		204.51400		875.00000 
 43692.65567		 305.27265			43387.38302		69.67800		324.00000 
 43692.65567		 654.70124			43037.95443		204.51400		875.00000 
 43692.65567		 305.27265			43387.38302		69.67800		324.00000 
 43692.65567		 654.70124			43037.95443		204.51400		875.00000 
 43692.65567		 305.27265			43387.38302		69.67800		324.00000 
 43692.65567		 654.70124			43037.95443		204.51400		875.00000 
 43692.65567		 305.27265			43387.38302		69.67800		324.00000 
 43692.65567		 654.70124			43037.95443		204.51400		875.00000 
 43692.65567		 305.27265			43387.38302		69.67800		324.00000 
 43692.65567		 654.70124			43037.95443		204.51400		875.00000 
 43692.65567		 305.27265			43387.38302		69.67800		324.00000 
 43692.65567		 654.70124			43037.95443		204.51400		875.00000 
 43692.65567		 305.27265			43387.38302		69.67800		324.00000 
 43692.65567		 654.70124			43037.95443		204.51400		875.00000 
 43692.65567		 305.27265			43387.38302		69.67800		324.00000 
 43692.65567		 654.70124			43037.95443		204.51400		875.00000 
 43692.65567		 305.27265			43387.38302		69.67800		324.00000 
 43692.65567		 654.70124			43037.95443		204.51400		875.00000 
 43692.65567		 305.27265			43387.38302		69.67800		324.00000 
 43692.65567		 654.70124			43037.95443		214.42400		875.00000 
 43692.65567		 305.27265			43387.38302		69.67800		324.00000 
 43692.65567		 654.70124			43037.95443		214.42400		875.00000 
 43692.65567		 305.27265			43387.38302		69.67800		324.00000 
 43692.65567		 654.70124			43037.95443		214.42400		875.00000 
 43692.65567		 305.27265			43387.38302		69.67800		324.00000 
 43692.65567		 654.70124			43037.95443		214.42400		875.00000 
 43692.65567		 305.27265			43387.38302		69.67800		324.00000 
 43692.65567		 654.70124			43037.95443		214.42400		875.00000 
 43692.65567		 305.27265			43387.38302		69.67800		324.00000 
 43692.65567		 654.70124			43037.95443		214.42400		875.00000 
 43692.65567		 305.27265			43387.38302		69.67800		324.00000 
 43692.65567		 654.70124			43037.95443		214.42400		875.00000 
 43692.65567		 305.27265			43387.38302		69.67800		324.00000 
 43692.65567		 654.70124			43037.95443		214.42400		875.00000 
 43692.65567		 305.27265			43387.38302		69.67800		324.00000 
 43692.65567		 654.70124			43037.95443		214.42400		875.00000 
 43692.65567		 305.27265			43387.38302		69.67800		324.00000 
 43692.65567		 654.70124			43037.95443		214.42400		875.00000 
 43692.65567		 305.27265			43387.38302		69.67800		324.00000 
 43692.65567		 654.70124			43037.95443		214.42400		875.00000 
 43692.65567		 305.27265			43387.38302		69.67800		324.00000 
 43692.65567		 654.70124			43037.95443		214.42400		875.00000 
 43692.65567		 305.27265			43387.38302		69.67800		324.00000 
 43692.65567		 654.70124			43037.95443		214.42400		875.00000 
 43692.65567		 305.27265			43387.38302		69.67800		324.00000 
 43692.65567		 654.70124			43037.95443		214.42400		875.00000 
 43692.65567		 305.27265			43387.38302		69.67800		324.00000 
 43692.65567		 654.70124			43037.95443		214.42400		875.00000 
 43692.65567		 305.27265			43387.38302		69.67800		324.00000 
 43692.65567		 654.70124			43037.95443		214.42400		875.00000 
 43692.65567		 305.27265			43387.38302		69.67800		324.00000 
 43692.65567		 654.70124			43037.95443		214.42400		875.00000 
 43692.65567		 305.27265			43387.38302		69.67800		324.00000 
 43692.65567		 654.70124			43037.95443		214.42400		875.00000 
 43692.65567		 305.27265			43387.38302		69.67800		324.00000 
 43692.65567		 654.70124			43037.95443		214.42400		875.00000 
 43692.65567		 305.27265			43387.38302		69.67800		324.00000 
 43692.65567		 654.70124			43037.95443		214.42400		875.00000 
 43692.65567		 305.27265			43387.38302		69.67800		324.00000 
 43692.65567		 654.70124			43037.95443		214.42400		875.00000 
 43692.65567		 305.27265			43387.38302		69.67800		324.00000 
 43692.65567		 654.70124			43037.95443		214.42400		875.00000 
 43692.65567		 305.27265			43387.38302		69.67800		324.00000 
 43692.65567		 654.70124			43037.95443		214.42400		875.00000 
 43692.65567		 305.27265			43387.38302		69.67800		324.00000 
 43692.65567		 654.70124			43037.95443		214.42400		875.00000 
 43692.65567		 305.27265			43387.38302		69.67800		324.00000 
 43692.65567		 654.70124			43037.95443		214.42400		875.00000 
 43692.65567		 305.27265			43387.38302		69.67800		324.00000 
 43692.65567		 654.70124			43037.95443		214.42400		875.00000 
 43692.65567		 305.27265			43387.38302		69.67800		324.00000 
 43692.65567		 654.70124			43037.95443		214.42400		875.00000 
 43692.65567		 305.27265			43387.38302		69.67800		324.00000 
 43692.65567		 654.70124			43037.95443		214.42400		875.00000 
 43692.65567		 305.27265			43387.38302		69.67800		324.00000 
 43692.65567		 654.70124			43037.95443		214.42400		875.00000 
 43692.65567		 305.27265			43387.38302		69.67800		324.00000 
 43692.65567		 654.70124			43037.95443		214.42400		875.00000 
 43692.65567		 305.27265			43387.38302		69.67800		324.00000 
 43692.65567		 654.70124			43037.95443		214.42400		875.00000 
 43692.65567		 305.27265			43387.38302		69.67800		324.00000 
 43692.65567		 654.70124			43037.95443		214.42400		875.00000 
 43692.65567		 305.27265			43387.38302		69.67800		324.00000 
 43692.65567		 654.70124			43037.95443		214.42400		875.00000 
 43692.65567		 305.27265			43387.38302		69.67800		324.00000 
 43692.65567		 654.70124			43037.95443		214.42400		875.00000 
 43692.65567		 305.27265			43387.38302		69.67800		324.00000 
 43692.65567		 654.70124			43037.95443		214.42400		875.00000 
 43692.65567		 305.27265			43387.38302		69.67800		324.00000 
 43692.65567		 654.70124			43037.95443		214.42400		875.00000 
 43692.65567		 305.27265			43387.38302		69.67800		324.00000 
 43692.65567		 654.70124			43037.95443		214.42400		875.00000 
 43692.65567		 305.27265			43387.38302		69.67800		324.00000 
 43692.65567		 654.70124			43037.95443		214.42400		875.00000 
 43692.65567		 305.27265			43387.38302		69.67800		324.00000 
 43692.65567		 654.70124			43037.95443		214.42400		875.00000 
 43692.65567		 305.27265			43387.38302		69.67800		324.00000 
 43692.65567		 654.70124			43037.95443		214.42400		875.00000 
 43692.65567		 305.27265			43387.38302		69.67800		324.00000 
 43692.65567		 654.70124			43037.95443		214.42400		875.00000 
 43692.65567		 305.27265			43387.38302		69.67800		324.00000 
 43692.65567		 654.70124			43037.95443		214.42400		875.00000 
 43692.65567		 305.27265			43387.38302		69.67800		324.00000 
 43692.65567		 654.70124			43037.95443		214.42400		875.00000 
 43692.65567		 305.27265			43387.38302		69.67800		324.00000 
 43692.65567		 654.70124			43037.95443		214.42400		875.00000 
 43692.65567		 305.27265			43387.38302		69.67800		324.00000 
 43692.65567		 654.70124			43037.95443		214.42400		875.00000 
 43692.65567		 305.27265			43387.38302		69.67800		324.00000 
 43692.65567		 654.70124			43037.95443		214.42400		875.00000 
 43692.65567		 305.27265			43387.38302		69.67800		324.00000 
 43692.65567		 654.70124			43037.95443		214.42400		875.00000 
 43692.65567		 305.27265			43387.38302		69.67800		324.00000 
 43692.65567		 654.70124			43037.95443		214.42400		875.00000 
 43692.65567		 305.27265			43387.38302		69.67800		324.00000 
 43692.65567		 654.70124			43037.95443		214.42400		875.00000 
 43692.65567		 305.27265			43387.38302		69.67800		324.00000 
 43692.65567		 654.70124			43037.95443		214.42400		875.00000 
 43692.65567		 305.27265			43387.38302		69.67800		324.00000 
 43692.65567		 654.70124			43037.95443		214.42400		875.00000 
 43692.65567		 305.27265			43387.38302		69.67800		324.00000 
 43692.65567		 654.70124			43037.95443		214.42400		875.00000 
 43692.65567		 305.27265			43387.38302		69.67800		324.00000 
 43692.65567		 654.70124			43037.95443		214.42400		875.00000 
 43692.65567		 305.27265			43387.38302		69.67800		324.00000 
 43692.65567		 654.70124			43037.95443		214.42400		875.00000 
 43692.65567		 305.27265			43387.38302		69.67800		324.00000 
 43692.65567		 654.70124			43037.95443		214.42400		875.00000 
 43692.65567		 305.27265			43387.38302		69.67800		324.00000 
 43692.65567		 654.70124			43037.95443		214.42400		875.00000 
 43692.65567		 305.27265			43387.38302		69.67800		324.00000 
 43692.65567		 654.70124			43037.95443		214.42400		875.00000 
 43692.65567		 305.27265			43387.38302		69.67800		324.00000 
 43692.65567		 654.70124			43037.95443		214.42400		875.00000 
 43692.65567		 305.27265			43387.38302		69.67800		324.00000 
 43692.65567		 654.70124			43037.95443		214.42400		875.00000 
 43692.65567		 305.27265			43387.38302		69.67800		324.00000 
 43692.65567		 654.70124			43037.95443		214.42400		875.00000 
 43692.65567		 305.27265			43387.38302		69.67800		324.00000 
 43692.65567		 654.70124			43037.95443		214.42400		875.00000 
 43692.65567		 305.27265			43387.38302		69.67800		324.00000 
 43692.65567		 654.70124			43037.95443		214.42400		875.00000 
 43692.65567		 305.27265			43387.38302		69.67800		324.00000 
 43692.65567		 654.70124			43037.95443		214.42400		875.00000 
 43692.65567		 305.27265			43387.38302		69.67800		324.00000 
 43692.65567		 654.70124			43037.95443		214.42400		875.00000 
 43692.65567		 305.27265			43387.38302		69.67800		324.00000 
 43692.65567		 654.70124			43037.95443		217.93200		875.00000 
 43692.65567		 305.27265			43387.38302		69.67800		324.00000 
 43692.65567		 654.70124			43037.95443		217.93200		875.00000 
 43692.65567		 305.27265			43387.38302		69.67800		324.00000 
 43692.65567		 654.70124			43037.95443		217.93200		875.00000 
 43692.65567		 305.27265			43387.38302		69.67800		324.00000 
 43692.65567		 654.70124			43037.95443		217.93200		875.00000 
 43692.65567		 305.27265			43387.38302		69.67800		324.00000 
 43692.65567		 654.70124			43037.95443		217.93200		875.00000 
 43692.65567		 305.27265			43387.38302		69.67800		324.00000 
 43692.65567		 654.70124			43037.95443		217.93200		875.00000 
 43692.65567		 305.27265			43387.38302		69.67800		324.00000 
 43692.65567		 654.70124			43037.95443		217.93200		875.00000 
 43692.65567		 305.27265			43387.38302		69.67800		324.00000 
 43692.65567		 654.70124			43037.95443		217.93200		875.00000 
 43692.65567		 305.27265			43387.38302		69.67800		324.00000 
 43692.65567		 654.70124			43037.95443		217.93200		875.00000 
 43692.65567		 305.27265			43387.38302		69.67800		324.00000 
 43692.65567		 654.70124			43037.95443		217.93200		875.00000 
 43692.65567		 305.27265			43387.38302		69.67800		324.00000 
 43692.65567		 654.70124			43037.95443		217.93200		875.00000 
 43692.65567		 305.27265			43387.38302		69.67800		324.00000 
 43692.65567		 654.70124			43037.95443		217.93200		875.00000 
 43692.65567		 305.27265			43387.38302		69.67800		324.00000 
 43692.65567		 654.70124			43037.95443		217.93200		875.00000 
 43692.65567		 305.27265			43387.38302		69.67800		324.00000 
 43692.65567		 654.70124			43037.95443		217.93200		875.00000 
 43692.65567		 305.27265			43387.38302		69.67800		324.00000 
 43692.65567		 654.70124			43037.95443		217.93200		875.00000 
 43692.65567		 305.27265			43387.38302		69.67800		324.00000 
 43692.65567		 654.70124			43037.95443		217.93200		875.00000 
 43692.65567		 305.27265			43387.38302		69.67800		324.00000 
 43692.65567		 654.70124			43037.95443		217.93200		875.00000 
 43692.65567		 305.27265			43387.38302		69.67800		324.00000 
 43692.65567		 654.70124			43037.95443		217.93200		875.00000 
 43692.65567		 305.27265			43387.38302		69.67800		324.00000 
 43692.65567		 654.70124			43037.95443		217.93200		875.00000 
 43692.65567		 305.27265			43387.38302		69.67800		324.00000 
 43692.65567		 654.70124			43037.95443		217.93200		875.00000 
 43692.65567		 305.27265			43387.38302		69.67800		324.00000 
 43692.65567		 654.70124			43037.95443		217.93200		875.00000 
 43692.65567		 305.27265			43387.38302		69.67800		324.00000 
 43692.65567		 654.70124			43037.95443		217.93200		875.00000 
 43692.65567		 305.27265			43387.38302		69.67800		324.00000 
 43692.65567		 654.70124			43037.95443		217.93200		875.00000 
 43692.65567		 305.27265			43387.38302		69.67800		324.00000 
 43692.65567		 654.70124			43037.95443		217.93200		875.00000 
 43692.65567		 305.27265			43387.38302		69.67800		324.00000 
 43692.65567		 654.70124			43037.95443		217.93200		875.00000 
 43692.65567		 305.27265			43387.38302		69.67800		324.00000 
 43692.65567		 654.70124			43037.95443		217.93200		875.00000 
 43692.65567		 305.27265			43387.38302		69.67800		324.00000 
 43692.65567		 654.70124			43037.95443		217.93200		875.00000 
 43692.65567		 305.27265			43387.38302		69.67800		324.00000 
 43692.65567		 654.70124			43037.95443		217.93200		875.00000 
 43692.65567		 305.27265			43387.38302		69.67800		324.00000 
 43692.65567		 654.70124			43037.95443		217.93200		875.00000 
 43692.65567		 305.27265			43387.38302		69.67800		324.00000 
 43692.65567		 654.70124			43037.95443		217.93200		875.00000 
 43692.65567		 305.27265			43387.38302		69.67800		324.00000 
 43692.65567		 654.70124			43037.95443		217.93200		875.00000 
 43692.65567		 305.27265			43387.38302		69.67800		324.00000 
 43692.65567		 654.70124			43037.95443		217.93200		875.00000 
 43692.65567		 305.27265			43387.38302		69.67800		324.00000 
 43692.65567		 654.70124			43037.95443		217.93200		875.00000 
 43692.65567		 305.27265			43387.38302		69.67800		324.00000 
 43692.65567		 654.70124			43037.95443		217.93200		875.00000 
 43692.65567		 305.27265			43387.38302		69.67800		324.00000 
 43692.65567		 654.70124			43037.95443		217.93200		875.00000 
 43692.65567		 305.27265			43387.38302		69.67800		324.00000 
 43692.65567		 654.70124			43037.95443		217.93200		875.00000 
 43692.65567		 305.27265			43387.38302		69.67800		324.00000 
 43692.65567		 654.70124			43037.95443		217.93200		875.00000 
 43692.65567		 305.27265			43387.38302		69.67800		324.00000 
 43692.65567		 654.70124			43037.95443		217.93200		875.00000 
 43692.65567		 305.27265			43387.38302		69.67800		324.00000 
 43692.65567		 654.70124			43037.95443		217.93200		875.00000 
 43692.65567		 305.27265			43387.38302		69.67800		324.00000 
 43692.65567		 654.70124			43037.95443		217.93200		875.00000 
 43692.65567		 305.27265			43387.38302		69.67800		324.00000 
 43692.65567		 654.70124			43037.95443		217.93200		875.00000 
 43692.65567		 305.27265			43387.38302		69.67800		324.00000 
 43692.65567		 654.70124			43037.95443		217.93200		875.00000 
 43692.65567		 305.27265			43387.38302		69.67800		324.00000 
 43692.65567		 654.70124			43037.95443		217.93200		875.00000 
 43692.65567		 305.27265			43387.38302		69.67800		324.00000 
 43692.65567		 654.70124			43037.95443		217.93200		875.00000 
 43692.65567		 305.27265			43387.38302		69.67800		324.00000 
 43692.65567		 654.70124			43037.95443		217.93200		875.00000 
 43692.65567		 305.27265			43387.38302		69.67800		324.00000 
 43692.65567		 654.70124			43037.95443		217.93200		875.00000 
 43692.65567		 305.27265			43387.38302		69.67800		324.00000 
 43692.65567		 654.70124			43037.95443		217.93200		875.00000 
 43692.65567		 305.27265			43387.38302		69.67800		324.00000 
 43692.65567		 654.70124			43037.95443		217.93200		875.00000 
 43692.65567		 305.27265			43387.38302		69.67800		324.00000 
 43692.65567		 654.70124			43037.95443		217.93200		875.00000 
 43692.65567		 305.27265			43387.38302		69.67800		324.00000 
 43692.65567		 654.70124			43037.95443		217.93200		875.00000 
 43692.65567		 305.27265			43387.38302		69.67800		324.00000 
 43692.65567		 654.70124			43037.95443		217.93200		875.00000 
 43692.65567		 305.27265			43387.38302		69.67800		324.00000 
 43692.65567		 654.70124			43037.95443		217.93200		875.00000 
 43692.65567		 305.27265			43387.38302		69.67800		324.00000 
 43692.65567		 654.70124			43037.95443		217.93200		875.00000 
 43692.65567		 305.27265			43387.38302		69.67800		324.00000 
 43692.65567		 654.70124			43037.95443		217.93200		875.00000 
 43692.65567		 305.27265			43387.38302		69.67800		324.00000 
 43692.65567		 654.70124			43037.95443		217.93200		875.00000 
 43692.65567		 305.27265			43387.38302		69.67800		324.00000 
 43692.65567		 654.70124			43037.95443		217.93200		875.00000 
 43692.65567		 305.27265			43387.38302		69.67800		324.00000 
 43692.65567		 654.70124			43037.95443		217.93200		875.00000 
 43692.65567		 305.27265			43387.38302		69.67800		324.00000 
 43692.65567		 654.70124			43037.95443		217.93200		875.00000 
 43692.65567		 305.27265			43387.38302		69.67800		324.00000 
 43692.65567		 654.70124			43037.95443		217.93200		875.00000 
 43692.65567		 305.27265			43387.38302		69.67800		324.00000 
 43692.65567		 654.70124			43037.95443		217.93200		875.00000 
 43692.65567		 305.27265			43387.38302		69.67800		324.00000 
 43692.65567		 654.70124			43037.95443		217.93200		875.00000 
 43692.65567		 305.27265			43387.38302		69.67800		324.00000 
 43692.65567		 654.70124			43037.95443		217.93200		875.00000 
 43692.65567		 305.27265			43387.38302		69.67800		324.00000 
 43692.65567		 654.70124			43037.95443		217.93200		875.00000 
 43692.65567		 305.27265			43387.38302		69.67800		324.00000 
 43692.65567		 654.70124			43037.95443		218.10200		875.00000 
 43692.65567		 305.27265			43387.38302		69.67800		324.00000 
 43692.65567		 654.70124			43037.95443		218.10200		875.00000 
 43692.65567		 305.27265			43387.38302		69.67800		324.00000 
 43692.65567		 654.70124			43037.95443		218.10200		875.00000 
 43692.65567		 305.27265			43387.38302		69.67800		324.00000 
 43692.65567		 654.70124			43037.95443		218.10200		875.00000 
 43692.65567		 305.27265			43387.38302		69.67800		324.00000 
 43692.65567		 654.70124			43037.95443		218.10200		875.00000 
 43692.65567		 305.27265			43387.38302		69.67800		324.00000 
 43692.65567		 654.70124			43037.95443		218.10200		875.00000 
 43692.65567		 305.27265			43387.38302		69.67800		324.00000 
 43692.65567		 654.70124			43037.95443		218.10200		875.00000 
 43692.65567		 305.27265			43387.38302		69.67800		324.00000 
 43692.65567		 654.70124			43037.95443		218.10200		875.00000 
 43692.65567		 305.27265			43387.38302		69.67800		324.00000 
 43692.65567		 654.70124			43037.95443		218.10200		875.00000 
 43692.65567		 305.27265			43387.38302		69.67800		324.00000 
 43692.65567		 654.70124			43037.95443		218.10200		875.00000 
 43692.65567		 305.27265			43387.38302		69.67800		324.00000 
 43692.65567		 654.70124			43037.95443		218.10200		875.00000 
 43692.65567		 305.27265			43387.38302		69.67800		324.00000 
 43692.65567		 654.70124			43037.95443		218.10200		875.00000 
 43692.65567		 305.27265			43387.38302		69.67800		324.00000 
 43692.65567		 654.70124			43037.95443		218.10200		875.00000 
 43692.65567		 305.27265			43387.38302		69.67800		324.00000 
 43692.65567		 654.70124			43037.95443		218.10200		875.00000 
 43692.65567		 305.27265			43387.38302		69.67800		324.00000 
 43692.65567		 654.70124			43037.95443		218.10200		875.00000 
 43692.65567		 305.27265			43387.38302		69.67800		324.00000 
 43692.65567		 654.70124			43037.95443		218.10200		875.00000 
 43692.65567		 305.27265			43387.38302		69.67800		324.00000 
 43692.65567		 654.70124			43037.95443		218.10200		875.00000 
 43692.65567		 305.27265			43387.38302		69.67800		324.00000 
 43692.65567		 654.70124			43037.95443		218.10200		875.00000 
 43692.65567		 305.27265			43387.38302		69.67800		324.00000 
 43692.65567		 654.70124			43037.95443		218.10200		875.00000 
 43692.65567		 305.27265			43387.38302		69.67800		324.00000 
 43692.65567		 654.70124			43037.95443		218.10200		875.00000 
 43692.65567		 305.27265			43387.38302		69.67800		324.00000 
 43692.65567		 654.70124			43037.95443		218.10200		875.00000 
 43692.65567		 305.27265			43387.38302		69.67800		324.00000 
 43692.65567		 654.70124			43037.95443		218.10200		875.00000 
 43692.65567		 305.27265			43387.38302		69.67800		324.00000 
 43692.65567		 654.70124			43037.95443		218.10200		875.00000 
 43692.65567		 305.27265			43387.38302		69.67800		324.00000 
 43692.65567		 654.70124			43037.95443		218.10200		875.00000 
 43692.65567		 305.27265			43387.38302		69.67800		324.00000 
 43692.65567		 654.70124			43037.95443		218.10200		875.00000 
 43692.65567		 305.27265			43387.38302		69.67800		324.00000 
 43692.65567		 654.70124			43037.95443		218.10200		875.00000 
 43692.65567		 305.27265			43387.38302		69.67800		324.00000 
 43692.65567		 654.70124			43037.95443		218.10200		875.00000 
 43692.65567		 305.27265			43387.38302		69.67800		324.00000 
 43692.65567		 654.70124			43037.95443		218.10200		875.00000 
 43692.65567		 305.27265			43387.38302		69.67800		324.00000 
 43692.65567		 654.70124			43037.95443		218.10200		875.00000 
 43692.65567		 305.27265			43387.38302		69.67800		324.00000 
 43692.65567		 654.70124			43037.95443		218.10200		875.00000 
 43692.65567		 305.27265			43387.38302		69.67800		324.00000 
 43692.65567		 654.70124			43037.95443		218.10200		875.00000 
 43692.65567		 305.27265			43387.38302		69.67800		324.00000 
 43692.65567		 654.70124			43037.95443		218.10200		875.00000 
 43692.65567		 305.27265			43387.38302		69.67800		324.00000 
 43692.65567		 654.70124			43037.95443		218.10200		875.00000 
 43692.65567		 305.27265			43387.38302		69.67800		324.00000 
 43692.65567		 654.70124			43037.95443		218.10200		875.00000 
 43692.65567		 305.27265			43387.38302		69.67800		324.00000 
 43692.65567		 654.70124			43037.95443		218.10200		875.00000 
 43692.65567		 305.27265			43387.38302		69.67800		324.00000 
 43692.65567		 654.70124			43037.95443		218.10200		875.00000 
 43692.65567		 305.27265			43387.38302		69.67800		324.00000 
 43692.65567		 654.70124			43037.95443		218.10200		875.00000 
 43692.65567		 305.27265			43387.38302		69.67800		324.00000 
 43692.65567		 654.70124			43037.95443		218.10200		875.00000 
 43692.65567		 305.27265			43387.38302		69.67800		324.00000 
 43692.65567		 654.70124			43037.95443		218.10200		875.00000 
 43692.65567		 305.27265			43387.38302		69.67800		324.00000 
 43692.65567		 654.70124			43037.95443		218.10200		875.00000 
 43692.65567		 305.27265			43387.38302		69.67800		324.00000 
 43692.65567		 654.70124			43037.95443		218.10200		875.00000 
 43692.65567		 305.27265			43387.38302		69.67800		324.00000 
 43692.65567		 654.70124			43037.95443		218.10200		875.00000 
 43692.65567		 305.27265			43387.38302		69.67800		324.00000 
 43692.65567		 654.70124			43037.95443		218.10200		875.00000 
 43692.65567		 305.27265			43387.38302		69.67800		324.00000 
 43692.65567		 654.70124			43037.95443		218.10200		875.00000 
 43692.65567		 305.27265			43387.38302		69.67800		324.00000 
 43692.65567		 654.70124			43037.95443		218.10200		875.00000 
 43692.65567		 305.27265			43387.38302		69.67800		324.00000 
 43692.65567		 654.70124			43037.95443		218.10200		875.00000 
 43692.65567		 305.27265			43387.38302		69.67800		324.00000 
 43692.65567		 654.70124			43037.95443		218.10200		875.00000 
 43692.65567		 305.27265			43387.38302		69.67800		324.00000 
 43692.65567		 654.70124			43037.95443		218.10200		875.00000 
 43692.65567		 305.27265			43387.38302		69.67800		324.00000 
 43692.65567		 654.70124			43037.95443		218.10200		875.00000 
 43692.65567		 305.27265			43387.38302		69.67800		324.00000 
 43692.65567		 654.70124			43037.95443		218.10200		875.00000 
 43692.65567		 305.27265			43387.38302		69.67800		324.00000 
 43692.65567		 654.70124			43037.95443		218.10200		875.00000 
 43692.65567		 305.27265			43387.38302		69.67800		324.00000 
 43692.65567		 654.70124			43037.95443		218.10200		875.00000 
 43692.65567		 305.27265			43387.38302		69.67800		324.00000 
 43692.65567		 654.70124			43037.95443		218.10200		875.00000 
 43692.65567		 305.27265			43387.38302		69.67800		324.00000 
 43692.65567		 654.70124			43037.95443		218.10200		875.00000 
 43692.65567		 305.27265			43387.38302		69.67800		324.00000 
 43692.65567		 654.70124			43037.95443		218.10200		875.00000 
 43692.65567		 305.27265			43387.38302		69.67800		324.00000 
 43692.65567		 654.70124			43037.95443		218.10200		875.00000 
 43692.65567		 305.27265			43387.38302		69.67800		324.00000 
 43692.65567		 654.70124			43037.95443		218.10200		875.00000 
 43692.65567		 305.27265			43387.38302		69.67800		324.00000 
 43692.65567		 654.70124			43037.95443		218.10200		875.00000 
 43692.65567		 305.27265			43387.38302		69.67800		324.00000 
 43692.65567		 654.70124			43037.95443		218.10200		875.00000 
 43692.65567		 305.27265			43387.38302		69.67800		324.00000 
 43692.65567		 654.70124			43037.95443		218.10200		875.00000 
 43692.65567		 305.27265			43387.38302		69.67800		324.00000 
 43692.65567		 654.70124			43037.95443		218.10200		875.00000 
 43692.65567		 305.27265			43387.38302		69.67800		324.00000 
 43692.65567		 654.70124			43037.95443		218.10200		875.00000 
 43692.65567		 305.27265			43387.38302		69.67800		324.00000 
 43692.65567		 654.70124			43037.95443		218.10200		875.00000 
 43692.65567		 305.27265			43387.38302		69.67800		324.00000 
 43692.65567		 654.70124			43037.95443		218.10200		875.00000 
 43692.65567		 305.27265			43387.38302		69.67800		324.00000 
 43692.65567		 654.70124			43037.95443		218.70200		875.00000 
 43692.65567		 305.27265			43387.38302		69.67800		324.00000 
 43692.65567		 654.70124			43037.95443		218.70200		875.00000 
 43692.65567		 305.27265			43387.38302		69.67800		324.00000 
 43692.65567		 654.70124			43037.95443		218.70200		875.00000 
 43692.65567		 305.27265			43387.38302		69.67800		324.00000 
 43692.65567		 654.70124			43037.95443		218.70200		875.00000 
 43692.65567		 305.27265			43387.38302		69.67800		324.00000 
 43692.65567		 654.70124			43037.95443		218.70200		875.00000 
 43692.65567		 305.27265			43387.38302		69.67800		324.00000 
 43692.65567		 654.70124			43037.95443		218.70200		875.00000 
 43692.65567		 305.27265			43387.38302		69.67800		324.00000 
 43692.65567		 654.70124			43037.95443		218.70200		875.00000 
 43692.65567		 305.27265			43387.38302		69.67800		324.00000 
 43692.65567		 654.70124			43037.95443		218.70200		875.00000 
 43692.65567		 305.27265			43387.38302		69.67800		324.00000 
 43692.65567		 654.70124			43037.95443		218.70200		875.00000 
 43692.65567		 305.27265			43387.38302		69.67800		324.00000 
 43692.65567		 654.70124			43037.95443		218.70200		875.00000 
 43692.65567		 305.27265			43387.38302		69.67800		324.00000 
 43692.65567		 654.70124			43037.95443		218.70200		875.00000 
 43692.65567		 305.27265			43387.38302		69.67800		324.00000 
 43692.65567		 654.70124			43037.95443		218.70200		875.00000 
 43692.65567		 305.27265			43387.38302		69.67800		324.00000 
 43692.65567		 654.70124			43037.95443		218.70200		875.00000 
 43692.65567		 305.27265			43387.38302		69.67800		324.00000 
 43692.65567		 654.70124			43037.95443		218.70200		875.00000 
 43692.65567		 305.27265			43387.38302		69.67800		324.00000 
 43692.65567		 654.70124			43037.95443		218.70200		875.00000 
 43692.65567		 305.27265			43387.38302		69.67800		324.00000 
 43692.65567		 654.70124			43037.95443		218.70200		875.00000 
 43692.65567		 305.27265			43387.38302		69.67800		324.00000 
 43692.65567		 654.70124			43037.95443		218.70200		875.00000 
 43692.65567		 305.27265			43387.38302		69.67800		324.00000 
 43692.65567		 654.70124			43037.95443		218.70200		875.00000 
 43692.65567		 305.27265			43387.38302		69.67800		324.00000 
 43692.65567		 654.70124			43037.95443		218.70200		875.00000 
 43692.65567		 305.27265			43387.38302		69.67800		324.00000 
 43692.65567		 654.70124			43037.95443		218.70200		875.00000 
 43692.65567		 305.27265			43387.38302		69.67800		324.00000 
 43692.65567		 654.70124			43037.95443		218.70200		875.00000 
 43692.65567		 305.27265			43387.38302		69.67800		324.00000 
 43692.65567		 654.70124			43037.95443		218.70200		875.00000 
 43692.65567		 305.27265			43387.38302		69.67800		324.00000 
 43692.65567		 654.70124			43037.95443		218.70200		875.00000 
 43692.65567		 305.27265			43387.38302		69.67800		324.00000 
 43692.65567		 654.70124			43037.95443		218.70200		875.00000 
 43692.65567		 305.27265			43387.38302		69.67800		324.00000 
 43692.65567		 654.70124			43037.95443		218.70200		875.00000 
 43692.65567		 305.27265			43387.38302		69.67800		324.00000 
 43692.65567		 654.70124			43037.95443		218.70200		875.00000 
 43692.65567		 305.27265			43387.38302		69.67800		324.00000 
 43692.65567		 654.70124			43037.95443		218.70200		875.00000 
 43692.65567		 305.27265			43387.38302		69.67800		324.00000 
 43692.65567		 654.70124			43037.95443		218.70200		875.00000 
 43692.65567		 305.27265			43387.38302		69.67800		324.00000 
 43692.65567		 654.70124			43037.95443		218.70200		875.00000 
 43692.65567		 305.27265			43387.38302		69.67800		324.00000 
 43692.65567		 654.70124			43037.95443		218.70200		875.00000 
 43692.65567		 305.27265			43387.38302		69.67800		324.00000 
 43692.65567		 654.70124			43037.95443		218.70200		875.00000 
 43692.65567		 305.27265			43387.38302		69.67800		324.00000 
 43692.65567		 654.70124			43037.95443		218.70200		875.00000 
 43692.65567		 305.27265			43387.38302		69.67800		324.00000 
 43692.65567		 654.70124			43037.95443		218.70200		875.00000 
 43692.65567		 305.27265			43387.38302		69.67800		324.00000 
 43692.65567		 654.70124			43037.95443		218.70200		875.00000 
 43692.65567		 305.27265			43387.38302		69.67800		324.00000 
 43692.65567		 654.70124			43037.95443		218.70200		875.00000 
 43692.65567		 305.27265			43387.38302		69.67800		324.00000 
 43692.65567		 654.70124			43037.95443		218.70200		875.00000 
 43692.65567		 305.27265			43387.38302		69.67800		324.00000 
 43692.65567		 654.70124			43037.95443		218.70200		875.00000 
 43692.65567		 305.27265			43387.38302		69.67800		324.00000 
 43692.65567		 654.70124			43037.95443		218.70200		875.00000 
 43692.65567		 305.27265			43387.38302		69.67800		324.00000 
 43692.65567		 654.70124			43037.95443		218.70200		875.00000 
 43692.65567		 305.27265			43387.38302		69.67800		324.00000 
 43692.65567		 654.70124			43037.95443		218.70200		875.00000 
 43692.65567		 305.27265			43387.38302		69.67800		324.00000 
 43692.65567		 654.70124			43037.95443		218.70200		875.00000 
 43692.65567		 305.27265			43387.38302		69.67800		324.00000 
 43692.65567		 654.70124			43037.95443		218.70200		875.00000 
 43692.65567		 305.27265			43387.38302		69.67800		324.00000 
 43692.65567		 654.70124			43037.95443		218.70200		875.00000 
 43692.65567		 305.27265			43387.38302		69.67800		324.00000 
 43692.65567		 654.70124			43037.95443		218.70200		875.00000 
 43692.65567		 305.27265			43387.38302		69.67800		324.00000 
 43692.65567		 654.70124			43037.95443		218.70200		875.00000 
 43692.65567		 305.27265			43387.38302		69.67800		324.00000 
 43692.65567		 654.70124			43037.95443		218.70200		875.00000 
 43692.65567		 305.27265			43387.38302		69.67800		324.00000 
 43692.65567		 654.70124			43037.95443		218.70200		875.00000 
 43692.65567		 305.27265			43387.38302		69.67800		324.00000 
 43692.65567		 654.70124			43037.95443		218.70200		875.00000 
 43692.65567		 305.27265			43387.38302		69.67800		324.00000 
 43692.65567		 654.70124			43037.95443		218.70200		875.00000 
 43692.65567		 305.27265			43387.38302		69.67800		324.00000 
 43692.65567		 654.70124			43037.95443		218.70200		875.00000 
 43692.65567		 305.27265			43387.38302		69.67800		324.00000 
 43692.65567		 654.70124			43037.95443		218.70200		875.00000 
 43692.65567		 305.27265			43387.38302		69.67800		324.00000 
 43692.65567		 654.70124			43037.95443		218.70200		875.00000 
 43692.65567		 305.27265			43387.38302		69.67800		324.00000 
 43692.65567		 654.70124			43037.95443		218.70200		875.00000 
 43692.65567		 305.27265			43387.38302		69.67800		324.00000 
 43692.65567		 654.70124			43037.95443		218.70200		875.00000 
 43692.65567		 305.27265			43387.38302		69.67800		324.00000 
 43692.65567		 654.70124			43037.95443		218.70200		875.00000 
 43692.65567		 305.27265			43387.38302		69.67800		324.00000 
 43692.65567		 654.70124			43037.95443		218.70200		875.00000 
 43692.65567		 305.27265			43387.38302		69.67800		324.00000 
 43692.65567		 654.70124			43037.95443		218.70200		875.00000 
 43692.65567		 305.27265			43387.38302		69.67800		324.00000 
 43692.65567		 654.70124			43037.95443		218.70200		875.00000 
 43692.65567		 305.27265			43387.38302		69.67800		324.00000 
 43692.65567		 654.70124			43037.95443		218.70200		875.00000 
 43692.65567		 305.27265			43387.38302		69.67800		324.00000 
 43692.65567		 654.70124			43037.95443		218.70200		875.00000 
 43692.65567		 305.27265			43387.38302		69.67800		324.00000 
 43692.65567		 654.70124			43037.95443		218.70200		875.00000 
 43692.65567		 305.27265			43387.38302		69.67800		324.00000 
 43692.65567		 654.70124			43037.95443		218.70200		875.00000 
 43692.65567		 305.27265			43387.38302		69.67800		324.00000 
 43692.65567		 654.70124			43037.95443		218.70200		875.00000 
 43692.65567		 305.27265			43387.38302		69.67800		324.00000 
 43692.65567		 654.70124			43037.95443		218.70200		875.00000 
 43692.65567		 305.27265			43387.38302		69.67800		324.00000 
 43692.65567		 576.41396			43116.24171		216.90200		875.00000 
 43692.65567		 305.27265			43387.38302		69.67800		324.00000 
 43692.65567		 537.27032			43155.38535		216.90200		875.00000 
 43692.65567		 305.27265			43387.38302		69.67800		324.00000 
 43692.65567		 537.27032			43155.38535		216.90200		875.00000 
 43692.65567		 305.27265			43387.38302		69.67800		324.00000 
 43692.65567		 537.27032			43155.38535		216.90200		875.00000 
 43692.65567		 305.27265			43387.38302		69.67800		324.00000 
 43692.65567		 537.27032			43155.38535		216.90200		875.00000 
 43692.65567		 305.27265			43387.38302		69.67800		324.00000 
 43692.65567		 537.27032			43155.38535		216.90200		875.00000 
 43692.65567		 305.27265			43387.38302		69.67800		324.00000 
 43692.65567		 537.27032			43155.38535		216.90200		875.00000 
 43692.65567		 305.27265			43387.38302		69.67800		324.00000 
 43692.65567		 537.27032			43155.38535		216.90200		875.00000 
 43692.65567		 305.27265			43387.38302		69.67800		324.00000 
 43692.65567		 537.27032			43155.38535		216.90200		875.00000 
 43692.65567		 305.27265			43387.38302		69.67800		324.00000 
 43692.65567		 537.27032			43155.38535		216.90200		875.00000 
 43692.65567		 305.27265			43387.38302		68.70800		324.00000 
 43692.65567		 537.27032			43155.38535		216.90200		875.00000 
 43692.65567		 305.27265			43387.38302		68.70800		324.00000 
 43692.65567		 537.27032			43155.38535		216.90200		875.00000 
 43692.65567		 305.27265			43387.38302		68.70800		324.00000 
 43692.65567		 537.27032			43155.38535		216.90200		875.00000 
 43692.65567		 305.27265			43387.38302		68.70800		324.00000 
 43692.65567		 537.27032			43155.38535		216.90200		875.00000 
 43692.65567		 305.27265			43387.38302		68.70800		324.00000 
 43692.65567		 537.27032			43155.38535		216.90200		875.00000 
 43692.65567		 305.27265			43387.38302		68.70800		324.00000 
 43692.65567		 537.27032			43155.38535		216.90200		875.00000 
 43692.65567		 305.27265			43387.38302		68.70800		324.00000 
 43692.65567		 537.27032			43155.38535		216.90200		875.00000 
 43692.65567		 305.27265			43387.38302		68.70800		324.00000 
 43692.65567		 537.27032			43155.38535		216.90200		875.00000 
 43692.65567		 305.27265			43387.38302		68.70800		324.00000 
 43692.65567		 537.27032			43155.38535		216.90200		875.00000 
 43692.65567		 305.27265			43387.38302		68.70800		324.00000 
 43692.65567		 537.27032			43155.38535		216.90200		875.00000 
 43692.65567		 305.27265			43387.38302		68.70800		324.00000 
 43692.65567		 537.27032			43155.38535		216.90200		875.00000 
 43692.65567		 305.27265			43387.38302		68.70800		324.00000 
 43692.65567		 537.27032			43155.38535		216.90200		875.00000 
 43692.65567		 305.27265			43387.38302		68.70800		324.00000 
 43692.65567		 537.27032			43155.38535		216.90200		875.00000 
 43692.65567		 305.27265			43387.38302		68.70800		324.00000 
 43692.65567		 525.81365			43166.84203		216.90200		875.00000 
 43692.65567		 305.27265			43387.38302		68.70800		324.00000 
 43692.65567		 525.81365			43166.84203		216.90200		875.00000 
 43692.65567		 261.35540			43431.30027		68.70800		324.00000 
 43692.65567		 261.35540			43431.30027		216.90200		875.00000 
 43692.65567		 261.35540			43431.30027		68.70800		324.00000 
