Memory Total (MiB) 	 Memory Used (MiB) 	    Memory Free (MiB) 	 Power Drawed (W) 	 Clocks (Mhz) 	 
 43692.65567		 261.35540			43431.30027		171.94800		875.00000 
 43692.65567		 261.35540			43431.30027		68.55800		324.00000 
 43692.65567		 261.35540			43431.30027		171.94800		875.00000 
 43692.65567		 261.35540			43431.30027		68.55800		324.00000 
 43692.65567		 261.35540			43431.30027		171.94800		875.00000 
 43692.65567		 261.35540			43431.30027		68.55800		324.00000 
 43692.65567		 261.35540			43431.30027		171.94800		875.00000 
 43692.65567		 261.35540			43431.30027		68.55800		324.00000 
 43692.65567		 261.35540			43431.30027		171.94800		875.00000 
 43692.65567		 261.35540			43431.30027		68.55800		324.00000 
 43692.65567		 261.35540			43431.30027		171.94800		875.00000 
 43692.65567		 261.35540			43431.30027		68.55800		324.00000 
 43692.65567		 261.35540			43431.30027		171.94800		875.00000 
 43692.65567		 261.35540			43431.30027		68.55800		324.00000 
 43692.65567		 261.35540			43431.30027		171.94800		875.00000 
 43692.65567		 261.35540			43431.30027		68.55800		324.00000 
 43692.65567		 261.35540			43431.30027		171.94800		875.00000 
 43692.65567		 261.35540			43431.30027		68.55800		324.00000 
 43692.65567		 261.35540			43431.30027		171.94800		875.00000 
 43692.65567		 261.35540			43431.30027		68.55800		324.00000 
 43692.65567		 261.35540			43431.30027		171.94800		875.00000 
 43692.65567		 261.35540			43431.30027		68.55800		324.00000 
 43692.65567		 261.35540			43431.30027		171.94800		875.00000 
 43692.65567		 261.35540			43431.30027		68.55800		324.00000 
 43692.65567		 261.35540			43431.30027		171.94800		875.00000 
 43692.65567		 261.35540			43431.30027		68.55800		324.00000 
 43692.65567		 261.35540			43431.30027		171.94800		875.00000 
 43692.65567		 261.35540			43431.30027		68.55800		324.00000 
 43692.65567		 261.35540			43431.30027		171.94800		875.00000 
 43692.65567		 261.35540			43431.30027		68.55800		324.00000 
 43692.65567		 261.35540			43431.30027		171.94800		875.00000 
 43692.65567		 261.35540			43431.30027		68.55800		324.00000 
 43692.65567		 265.17429			43427.48138		171.94800		875.00000 
 43692.65567		 261.35540			43431.30027		68.55800		324.00000 
 43692.65567		 265.17429			43427.48138		171.94800		875.00000 
 43692.65567		 261.35540			43431.30027		68.55800		324.00000 
 43692.65567		 272.81207			43419.84360		171.94800		875.00000 
 43692.65567		 261.35540			43431.30027		68.55800		324.00000 
 43692.65567		 272.81207			43419.84360		171.94800		875.00000 
 43692.65567		 261.35540			43431.30027		68.55800		324.00000 
 43692.65567		 272.81207			43419.84360		171.94800		875.00000 
 43692.65567		 265.17429			43427.48138		68.55800		324.00000 
 43692.65567		 272.81207			43419.84360		171.94800		875.00000 
 43692.65567		 265.17429			43427.48138		68.55800		324.00000 
 43692.65567		 272.81207			43419.84360		171.94800		875.00000 
 43692.65567		 272.81207			43419.84360		68.55800		324.00000 
 43692.65567		 272.81207			43419.84360		171.94800		875.00000 
 43692.65567		 272.81207			43419.84360		68.55800		324.00000 
 43692.65567		 272.81207			43419.84360		171.94800		875.00000 
 43692.65567		 272.81207			43419.84360		68.55800		324.00000 
 43692.65567		 272.81207			43419.84360		171.94800		875.00000 
 43692.65567		 305.27265			43387.38302		68.55800		324.00000 
 43692.65567		 305.27265			43387.38302		171.94800		875.00000 
 43692.65567		 305.27265			43387.38302		68.55800		324.00000 
 43692.65567		 305.27265			43387.38302		171.94800		875.00000 
 43692.65567		 305.27265			43387.38302		68.55800		324.00000 
 43692.65567		 305.27265			43387.38302		171.94800		875.00000 
 43692.65567		 305.27265			43387.38302		68.55800		324.00000 
 43692.65567		 305.27265			43387.38302		171.94800		875.00000 
 43692.65567		 305.27265			43387.38302		68.55800		324.00000 
 43692.65567		 305.27265			43387.38302		171.94800		875.00000 
 43692.65567		 305.27265			43387.38302		68.55800		324.00000 
 43692.65567		 310.04627			43382.60941		171.94800		875.00000 
 43692.65567		 305.27265			43387.38302		68.55800		324.00000 
 43692.65567		 311.00099			43381.65468		171.94800		875.00000 
 43692.65567		 305.27265			43387.38302		68.55800		324.00000 
 43692.65567		 311.00099			43381.65468		171.94800		875.00000 
 43692.65567		 305.27265			43387.38302		68.55800		324.00000 
 43692.65567		 311.00099			43381.65468		171.94800		875.00000 
 43692.65567		 305.27265			43387.38302		68.55800		324.00000 
 43692.65567		 311.00099			43381.65468		171.94800		875.00000 
 43692.65567		 305.27265			43387.38302		68.55800		324.00000 
 43692.65567		 311.00099			43381.65468		147.35600		875.00000 
 43692.65567		 305.27265			43387.38302		68.55800		324.00000 
 43692.65567		 311.00099			43381.65468		147.35600		875.00000 
 43692.65567		 305.27265			43387.38302		68.55800		324.00000 
 43692.65567		 311.00099			43381.65468		147.35600		875.00000 
 43692.65567		 305.27265			43387.38302		68.55800		324.00000 
 43692.65567		 311.00099			43381.65468		147.35600		875.00000 
 43692.65567		 305.27265			43387.38302		68.55800		324.00000 
 43692.65567		 311.00099			43381.65468		147.35600		875.00000 
 43692.65567		 305.27265			43387.38302		68.55800		324.00000 
 43692.65567		 311.00099			43381.65468		147.35600		875.00000 
 43692.65567		 305.27265			43387.38302		68.55800		324.00000 
 43692.65567		 311.00099			43381.65468		147.35600		875.00000 
 43692.65567		 305.27265			43387.38302		68.55800		324.00000 
 43692.65567		 311.00099			43381.65468		147.35600		875.00000 
 43692.65567		 305.27265			43387.38302		68.55800		324.00000 
 43692.65567		 311.00099			43381.65468		147.35600		875.00000 
 43692.65567		 305.27265			43387.38302		68.55800		324.00000 
 43692.65567		 311.00099			43381.65468		147.35600		875.00000 
 43692.65567		 305.27265			43387.38302		68.55800		324.00000 
 43692.65567		 311.00099			43381.65468		147.35600		875.00000 
 43692.65567		 305.27265			43387.38302		68.55800		324.00000 
 43692.65567		 311.00099			43381.65468		147.35600		875.00000 
 43692.65567		 305.27265			43387.38302		68.55800		324.00000 
 43692.65567		 311.00099			43381.65468		147.35600		875.00000 
 43692.65567		 305.27265			43387.38302		68.55800		324.00000 
 43692.65567		 311.00099			43381.65468		147.35600		875.00000 
 43692.65567		 305.27265			43387.38302		68.55800		324.00000 
 43692.65567		 311.00099			43381.65468		147.35600		875.00000 
 43692.65567		 305.27265			43387.38302		68.55800		324.00000 
 43692.65567		 311.00099			43381.65468		147.35600		875.00000 
 43692.65567		 305.27265			43387.38302		68.55800		324.00000 
 43692.65567		 311.00099			43381.65468		147.35600		875.00000 
 43692.65567		 305.27265			43387.38302		68.55800		324.00000 
 43692.65567		 311.00099			43381.65468		147.35600		875.00000 
 43692.65567		 305.27265			43387.38302		68.55800		324.00000 
 43692.65567		 311.00099			43381.65468		147.35600		875.00000 
 43692.65567		 305.27265			43387.38302		68.55800		324.00000 
 43692.65567		 311.00099			43381.65468		147.35600		875.00000 
 43692.65567		 305.27265			43387.38302		68.55800		324.00000 
 43692.65567		 311.00099			43381.65468		147.35600		875.00000 
 43692.65567		 305.27265			43387.38302		68.55800		324.00000 
 43692.65567		 311.00099			43381.65468		147.35600		875.00000 
 43692.65567		 305.27265			43387.38302		68.55800		324.00000 
 43692.65567		 311.00099			43381.65468		147.35600		875.00000 
 43692.65567		 305.27265			43387.38302		68.55800		324.00000 
 43692.65567		 311.00099			43381.65468		147.35600		875.00000 
 43692.65567		 305.27265			43387.38302		68.55800		324.00000 
 43692.65567		 311.00099			43381.65468		147.35600		875.00000 
 43692.65567		 305.27265			43387.38302		68.55800		324.00000 
 43692.65567		 311.00099			43381.65468		147.35600		875.00000 
 43692.65567		 305.27265			43387.38302		68.55800		324.00000 
 43692.65567		 311.00099			43381.65468		147.35600		875.00000 
 43692.65567		 305.27265			43387.38302		68.55800		324.00000 
 43692.65567		 311.00099			43381.65468		147.35600		875.00000 
 43692.65567		 305.27265			43387.38302		68.55800		324.00000 
 43692.65567		 311.00099			43381.65468		147.35600		875.00000 
 43692.65567		 305.27265			43387.38302		68.55800		324.00000 
 43692.65567		 311.00099			43381.65468		147.35600		875.00000 
 43692.65567		 305.27265			43387.38302		68.55800		324.00000 
 43692.65567		 311.00099			43381.65468		147.35600		875.00000 
 43692.65567		 305.27265			43387.38302		68.55800		324.00000 
 43692.65567		 311.00099			43381.65468		147.35600		875.00000 
 43692.65567		 305.27265			43387.38302		68.55800		324.00000 
 43692.65567		 311.00099			43381.65468		136.71400		875.00000 
 43692.65567		 305.27265			43387.38302		68.55800		324.00000 
 43692.65567		 311.00099			43381.65468		136.71400		875.00000 
 43692.65567		 305.27265			43387.38302		68.55800		324.00000 
 43692.65567		 311.00099			43381.65468		136.71400		875.00000 
 43692.65567		 305.27265			43387.38302		68.55800		324.00000 
 43692.65567		 311.00099			43381.65468		136.71400		875.00000 
 43692.65567		 305.27265			43387.38302		68.55800		324.00000 
 43692.65567		 311.00099			43381.65468		136.71400		875.00000 
 43692.65567		 305.27265			43387.38302		68.55800		324.00000 
 43692.65567		 311.00099			43381.65468		136.71400		875.00000 
 43692.65567		 305.27265			43387.38302		68.55800		324.00000 
 43692.65567		 311.00099			43381.65468		136.71400		875.00000 
 43692.65567		 305.27265			43387.38302		68.55800		324.00000 
 43692.65567		 311.00099			43381.65468		136.71400		875.00000 
 43692.65567		 305.27265			43387.38302		68.55800		324.00000 
 43692.65567		 311.00099			43381.65468		136.71400		875.00000 
 43692.65567		 305.27265			43387.38302		68.55800		324.00000 
 43692.65567		 311.00099			43381.65468		136.71400		875.00000 
 43692.65567		 305.27265			43387.38302		68.55800		324.00000 
 43692.65567		 311.00099			43381.65468		136.71400		875.00000 
 43692.65567		 305.27265			43387.38302		68.55800		324.00000 
 43692.65567		 311.00099			43381.65468		136.71400		875.00000 
 43692.65567		 305.27265			43387.38302		68.55800		324.00000 
 43692.65567		 311.00099			43381.65468		136.71400		875.00000 
 43692.65567		 305.27265			43387.38302		68.55800		324.00000 
 43692.65567		 311.00099			43381.65468		136.71400		875.00000 
 43692.65567		 305.27265			43387.38302		68.55800		324.00000 
 43692.65567		 311.00099			43381.65468		136.71400		875.00000 
 43692.65567		 305.27265			43387.38302		68.55800		324.00000 
 43692.65567		 311.00099			43381.65468		136.71400		875.00000 
 43692.65567		 305.27265			43387.38302		68.55800		324.00000 
 43692.65567		 314.81988			43377.83579		136.71400		875.00000 
 43692.65567		 305.27265			43387.38302		68.55800		324.00000 
 43692.65567		 314.81988			43377.83579		136.71400		875.00000 
 43692.65567		 305.27265			43387.38302		68.55800		324.00000 
 43692.65567		 314.81988			43377.83579		136.71400		875.00000 
 43692.65567		 305.27265			43387.38302		68.55800		324.00000 
 43692.65567		 318.63877			43374.01690		136.71400		875.00000 
 43692.65567		 305.27265			43387.38302		68.55800		324.00000 
 43692.65567		 322.45767			43370.19801		136.71400		875.00000 
 43692.65567		 305.27265			43387.38302		68.55800		324.00000 
 43692.65567		 326.27656			43366.37912		136.71400		875.00000 
 43692.65567		 305.27265			43387.38302		68.55800		324.00000 
 43692.65567		 326.27656			43366.37912		136.71400		875.00000 
 43692.65567		 305.27265			43387.38302		68.55800		324.00000 
 43692.65567		 326.27656			43366.37912		136.71400		875.00000 
 43692.65567		 305.27265			43387.38302		68.55800		324.00000 
 43692.65567		 537.27032			43155.38535		136.71400		875.00000 
 43692.65567		 305.27265			43387.38302		68.55800		324.00000 
 43692.65567		 556.36478			43136.29089		136.71400		875.00000 
 43692.65567		 305.27265			43387.38302		68.55800		324.00000 
 43692.65567		 594.55370			43098.10198		136.71400		875.00000 
 43692.65567		 305.27265			43387.38302		68.55800		324.00000 
 43692.65567		 594.55370			43098.10198		136.71400		875.00000 
 43692.65567		 305.27265			43387.38302		68.55800		324.00000 
 43692.65567		 594.55370			43098.10198		136.71400		875.00000 
 43692.65567		 305.27265			43387.38302		68.55800		324.00000 
 43692.65567		 594.55370			43098.10198		136.71400		875.00000 
 43692.65567		 305.27265			43387.38302		68.55800		324.00000 
 43692.65567		 594.55370			43098.10198		136.71400		875.00000 
 43692.65567		 305.27265			43387.38302		68.55800		324.00000 
 43692.65567		 594.55370			43098.10198		136.71400		875.00000 
 43692.65567		 305.27265			43387.38302		68.55800		324.00000 
 43692.65567		 594.55370			43098.10198		136.71400		875.00000 
 43692.65567		 305.27265			43387.38302		68.55800		324.00000 
 43692.65567		 594.55370			43098.10198		136.71400		875.00000 
 43692.65567		 305.27265			43387.38302		68.55800		324.00000 
 43692.65567		 594.55370			43098.10198		136.71400		875.00000 
 43692.65567		 305.27265			43387.38302		68.55800		324.00000 
 43692.65567		 594.55370			43098.10198		136.71400		875.00000 
 43692.65567		 305.27265			43387.38302		68.55800		324.00000 
 43692.65567		 594.55370			43098.10198		136.71400		875.00000 
 43692.65567		 305.27265			43387.38302		68.55800		324.00000 
 43692.65567		 594.55370			43098.10198		136.71400		875.00000 
 43692.65567		 305.27265			43387.38302		68.55800		324.00000 
 43692.65567		 594.55370			43098.10198		136.71400		875.00000 
 43692.65567		 305.27265			43387.38302		68.55800		324.00000 
 43692.65567		 594.55370			43098.10198		136.71400		875.00000 
 43692.65567		 305.27265			43387.38302		68.55800		324.00000 
 43692.65567		 594.55370			43098.10198		136.71400		875.00000 
 43692.65567		 305.27265			43387.38302		68.55800		324.00000 
 43692.65567		 594.55370			43098.10198		136.71400		875.00000 
 43692.65567		 305.27265			43387.38302		68.55800		324.00000 
 43692.65567		 594.55370			43098.10198		136.71400		875.00000 
 43692.65567		 305.27265			43387.38302		68.55800		324.00000 
 43692.65567		 594.55370			43098.10198		136.71400		875.00000 
 43692.65567		 305.27265			43387.38302		68.55800		324.00000 
 43692.65567		 594.55370			43098.10198		153.57400		875.00000 
 43692.65567		 305.27265			43387.38302		68.55800		324.00000 
 43692.65567		 594.55370			43098.10198		153.57400		875.00000 
 43692.65567		 305.27265			43387.38302		68.55800		324.00000 
 43692.65567		 594.55370			43098.10198		153.57400		875.00000 
 43692.65567		 305.27265			43387.38302		68.55800		324.00000 
 43692.65567		 594.55370			43098.10198		153.57400		875.00000 
 43692.65567		 305.27265			43387.38302		68.55800		324.00000 
 43692.65567		 594.55370			43098.10198		153.57400		875.00000 
 43692.65567		 305.27265			43387.38302		68.55800		324.00000 
 43692.65567		 594.55370			43098.10198		153.57400		875.00000 
 43692.65567		 305.27265			43387.38302		68.55800		324.00000 
 43692.65567		 594.55370			43098.10198		153.57400		875.00000 
 43692.65567		 305.27265			43387.38302		68.55800		324.00000 
 43692.65567		 594.55370			43098.10198		153.57400		875.00000 
 43692.65567		 305.27265			43387.38302		68.55800		324.00000 
 43692.65567		 594.55370			43098.10198		153.57400		875.00000 
 43692.65567		 305.27265			43387.38302		68.55800		324.00000 
 43692.65567		 594.55370			43098.10198		153.57400		875.00000 
 43692.65567		 305.27265			43387.38302		68.55800		324.00000 
 43692.65567		 594.55370			43098.10198		153.57400		875.00000 
 43692.65567		 305.27265			43387.38302		68.55800		324.00000 
 43692.65567		 594.55370			43098.10198		153.57400		875.00000 
 43692.65567		 305.27265			43387.38302		68.55800		324.00000 
 43692.65567		 594.55370			43098.10198		153.57400		875.00000 
 43692.65567		 305.27265			43387.38302		68.55800		324.00000 
 43692.65567		 594.55370			43098.10198		153.57400		875.00000 
 43692.65567		 305.27265			43387.38302		68.55800		324.00000 
 43692.65567		 594.55370			43098.10198		153.57400		875.00000 
 43692.65567		 305.27265			43387.38302		68.55800		324.00000 
 43692.65567		 594.55370			43098.10198		153.57400		875.00000 
 43692.65567		 305.27265			43387.38302		68.55800		324.00000 
 43692.65567		 594.55370			43098.10198		153.57400		875.00000 
 43692.65567		 305.27265			43387.38302		68.55800		324.00000 
 43692.65567		 594.55370			43098.10198		153.57400		875.00000 
 43692.65567		 305.27265			43387.38302		68.55800		324.00000 
 43692.65567		 594.55370			43098.10198		153.57400		875.00000 
 43692.65567		 305.27265			43387.38302		68.55800		324.00000 
 43692.65567		 594.55370			43098.10198		153.57400		875.00000 
 43692.65567		 305.27265			43387.38302		68.55800		324.00000 
 43692.65567		 594.55370			43098.10198		153.57400		875.00000 
 43692.65567		 305.27265			43387.38302		68.55800		324.00000 
 43692.65567		 594.55370			43098.10198		153.57400		875.00000 
 43692.65567		 305.27265			43387.38302		68.55800		324.00000 
 43692.65567		 594.55370			43098.10198		153.57400		875.00000 
 43692.65567		 305.27265			43387.38302		68.55800		324.00000 
 43692.65567		 594.55370			43098.10198		153.57400		875.00000 
 43692.65567		 305.27265			43387.38302		68.55800		324.00000 
 43692.65567		 594.55370			43098.10198		153.57400		875.00000 
 43692.65567		 305.27265			43387.38302		68.55800		324.00000 
 43692.65567		 594.55370			43098.10198		153.57400		875.00000 
 43692.65567		 305.27265			43387.38302		68.55800		324.00000 
 43692.65567		 594.55370			43098.10198		153.57400		875.00000 
 43692.65567		 305.27265			43387.38302		68.55800		324.00000 
 43692.65567		 594.55370			43098.10198		153.57400		875.00000 
 43692.65567		 305.27265			43387.38302		68.55800		324.00000 
 43692.65567		 594.55370			43098.10198		153.57400		875.00000 
 43692.65567		 305.27265			43387.38302		68.55800		324.00000 
 43692.65567		 594.55370			43098.10198		153.57400		875.00000 
 43692.65567		 305.27265			43387.38302		68.55800		324.00000 
 43692.65567		 594.55370			43098.10198		153.57400		875.00000 
 43692.65567		 305.27265			43387.38302		68.55800		324.00000 
 43692.65567		 594.55370			43098.10198		153.57400		875.00000 
 43692.65567		 305.27265			43387.38302		68.55800		324.00000 
 43692.65567		 594.55370			43098.10198		153.57400		875.00000 
 43692.65567		 305.27265			43387.38302		68.55800		324.00000 
 43692.65567		 594.55370			43098.10198		153.57400		875.00000 
 43692.65567		 305.27265			43387.38302		68.55800		324.00000 
 43692.65567		 594.55370			43098.10198		153.57400		875.00000 
 43692.65567		 305.27265			43387.38302		68.55800		324.00000 
 43692.65567		 594.55370			43098.10198		153.57400		875.00000 
 43692.65567		 305.27265			43387.38302		68.55800		324.00000 
 43692.65567		 594.55370			43098.10198		153.57400		875.00000 
 43692.65567		 305.27265			43387.38302		68.55800		324.00000 
 43692.65567		 594.55370			43098.10198		153.57400		875.00000 
 43692.65567		 305.27265			43387.38302		68.55800		324.00000 
 43692.65567		 594.55370			43098.10198		153.57400		875.00000 
 43692.65567		 305.27265			43387.38302		68.55800		324.00000 
 43692.65567		 594.55370			43098.10198		153.57400		875.00000 
 43692.65567		 305.27265			43387.38302		68.55800		324.00000 
 43692.65567		 594.55370			43098.10198		153.57400		875.00000 
 43692.65567		 305.27265			43387.38302		68.55800		324.00000 
 43692.65567		 594.55370			43098.10198		153.57400		875.00000 
 43692.65567		 305.27265			43387.38302		68.55800		324.00000 
 43692.65567		 594.55370			43098.10198		153.57400		875.00000 
 43692.65567		 305.27265			43387.38302		68.55800		324.00000 
 43692.65567		 594.55370			43098.10198		153.57400		875.00000 
 43692.65567		 305.27265			43387.38302		68.55800		324.00000 
 43692.65567		 594.55370			43098.10198		153.57400		875.00000 
 43692.65567		 305.27265			43387.38302		68.55800		324.00000 
 43692.65567		 594.55370			43098.10198		153.57400		875.00000 
 43692.65567		 305.27265			43387.38302		68.55800		324.00000 
 43692.65567		 594.55370			43098.10198		153.57400		875.00000 
 43692.65567		 305.27265			43387.38302		68.55800		324.00000 
 43692.65567		 594.55370			43098.10198		153.57400		875.00000 
 43692.65567		 305.27265			43387.38302		68.55800		324.00000 
 43692.65567		 594.55370			43098.10198		153.57400		875.00000 
 43692.65567		 305.27265			43387.38302		68.55800		324.00000 
 43692.65567		 594.55370			43098.10198		153.57400		875.00000 
 43692.65567		 305.27265			43387.38302		68.55800		324.00000 
 43692.65567		 594.55370			43098.10198		153.57400		875.00000 
 43692.65567		 305.27265			43387.38302		68.55800		324.00000 
 43692.65567		 594.55370			43098.10198		153.57400		875.00000 
 43692.65567		 305.27265			43387.38302		68.55800		324.00000 
 43692.65567		 594.55370			43098.10198		153.57400		875.00000 
 43692.65567		 305.27265			43387.38302		68.55800		324.00000 
 43692.65567		 594.55370			43098.10198		153.57400		875.00000 
 43692.65567		 305.27265			43387.38302		68.55800		324.00000 
 43692.65567		 594.55370			43098.10198		153.57400		875.00000 
 43692.65567		 305.27265			43387.38302		68.55800		324.00000 
 43692.65567		 594.55370			43098.10198		153.57400		875.00000 
 43692.65567		 305.27265			43387.38302		68.55800		324.00000 
 43692.65567		 594.55370			43098.10198		153.57400		875.00000 
 43692.65567		 305.27265			43387.38302		68.55800		324.00000 
 43692.65567		 594.55370			43098.10198		153.57400		875.00000 
 43692.65567		 305.27265			43387.38302		68.55800		324.00000 
 43692.65567		 594.55370			43098.10198		153.57400		875.00000 
 43692.65567		 305.27265			43387.38302		68.55800		324.00000 
 43692.65567		 594.55370			43098.10198		153.57400		875.00000 
 43692.65567		 305.27265			43387.38302		68.55800		324.00000 
 43692.65567		 594.55370			43098.10198		153.57400		875.00000 
 43692.65567		 305.27265			43387.38302		68.55800		324.00000 
 43692.65567		 594.55370			43098.10198		153.57400		875.00000 
 43692.65567		 305.27265			43387.38302		68.55800		324.00000 
 43692.65567		 594.55370			43098.10198		153.57400		875.00000 
 43692.65567		 305.27265			43387.38302		68.55800		324.00000 
 43692.65567		 594.55370			43098.10198		153.57400		875.00000 
 43692.65567		 305.27265			43387.38302		68.55800		324.00000 
 43692.65567		 594.55370			43098.10198		191.72800		875.00000 
 43692.65567		 305.27265			43387.38302		68.55800		324.00000 
 43692.65567		 594.55370			43098.10198		191.72800		875.00000 
 43692.65567		 305.27265			43387.38302		68.55800		324.00000 
 43692.65567		 594.55370			43098.10198		191.72800		875.00000 
 43692.65567		 305.27265			43387.38302		68.55800		324.00000 
 43692.65567		 594.55370			43098.10198		191.72800		875.00000 
 43692.65567		 305.27265			43387.38302		68.55800		324.00000 
 43692.65567		 594.55370			43098.10198		191.72800		875.00000 
 43692.65567		 305.27265			43387.38302		68.55800		324.00000 
 43692.65567		 594.55370			43098.10198		191.72800		875.00000 
 43692.65567		 305.27265			43387.38302		68.55800		324.00000 
 43692.65567		 594.55370			43098.10198		191.72800		875.00000 
 43692.65567		 305.27265			43387.38302		68.55800		324.00000 
 43692.65567		 594.55370			43098.10198		191.72800		875.00000 
 43692.65567		 305.27265			43387.38302		68.55800		324.00000 
 43692.65567		 594.55370			43098.10198		191.72800		875.00000 
 43692.65567		 305.27265			43387.38302		68.55800		324.00000 
 43692.65567		 594.55370			43098.10198		191.72800		875.00000 
 43692.65567		 305.27265			43387.38302		68.55800		324.00000 
 43692.65567		 594.55370			43098.10198		191.72800		875.00000 
 43692.65567		 305.27265			43387.38302		68.55800		324.00000 
 43692.65567		 594.55370			43098.10198		191.72800		875.00000 
 43692.65567		 305.27265			43387.38302		68.55800		324.00000 
 43692.65567		 594.55370			43098.10198		191.72800		875.00000 
 43692.65567		 305.27265			43387.38302		68.55800		324.00000 
 43692.65567		 594.55370			43098.10198		191.72800		875.00000 
 43692.65567		 305.27265			43387.38302		68.55800		324.00000 
 43692.65567		 594.55370			43098.10198		191.72800		875.00000 
 43692.65567		 305.27265			43387.38302		68.55800		324.00000 
 43692.65567		 594.55370			43098.10198		191.72800		875.00000 
 43692.65567		 305.27265			43387.38302		68.55800		324.00000 
 43692.65567		 594.55370			43098.10198		191.72800		875.00000 
 43692.65567		 305.27265			43387.38302		68.55800		324.00000 
 43692.65567		 594.55370			43098.10198		191.72800		875.00000 
 43692.65567		 305.27265			43387.38302		68.55800		324.00000 
 43692.65567		 594.55370			43098.10198		191.72800		875.00000 
 43692.65567		 305.27265			43387.38302		68.55800		324.00000 
 43692.65567		 594.55370			43098.10198		191.72800		875.00000 
 43692.65567		 305.27265			43387.38302		68.55800		324.00000 
 43692.65567		 594.55370			43098.10198		191.72800		875.00000 
 43692.65567		 305.27265			43387.38302		68.55800		324.00000 
 43692.65567		 594.55370			43098.10198		191.72800		875.00000 
 43692.65567		 305.27265			43387.38302		68.55800		324.00000 
 43692.65567		 594.55370			43098.10198		191.72800		875.00000 
 43692.65567		 305.27265			43387.38302		68.55800		324.00000 
 43692.65567		 594.55370			43098.10198		191.72800		875.00000 
 43692.65567		 305.27265			43387.38302		68.55800		324.00000 
 43692.65567		 594.55370			43098.10198		191.72800		875.00000 
 43692.65567		 305.27265			43387.38302		68.55800		324.00000 
 43692.65567		 594.55370			43098.10198		191.72800		875.00000 
 43692.65567		 305.27265			43387.38302		68.55800		324.00000 
 43692.65567		 594.55370			43098.10198		191.72800		875.00000 
 43692.65567		 305.27265			43387.38302		68.55800		324.00000 
 43692.65567		 594.55370			43098.10198		191.72800		875.00000 
 43692.65567		 305.27265			43387.38302		68.55800		324.00000 
 43692.65567		 594.55370			43098.10198		191.72800		875.00000 
 43692.65567		 305.27265			43387.38302		68.55800		324.00000 
 43692.65567		 594.55370			43098.10198		191.72800		875.00000 
 43692.65567		 305.27265			43387.38302		68.55800		324.00000 
 43692.65567		 594.55370			43098.10198		191.72800		875.00000 
 43692.65567		 305.27265			43387.38302		68.55800		324.00000 
 43692.65567		 594.55370			43098.10198		191.72800		875.00000 
 43692.65567		 305.27265			43387.38302		68.55800		324.00000 
 43692.65567		 594.55370			43098.10198		191.72800		875.00000 
 43692.65567		 305.27265			43387.38302		68.55800		324.00000 
 43692.65567		 594.55370			43098.10198		191.72800		875.00000 
 43692.65567		 305.27265			43387.38302		68.55800		324.00000 
 43692.65567		 594.55370			43098.10198		191.72800		875.00000 
 43692.65567		 305.27265			43387.38302		68.55800		324.00000 
 43692.65567		 594.55370			43098.10198		191.72800		875.00000 
 43692.65567		 305.27265			43387.38302		68.55800		324.00000 
 43692.65567		 594.55370			43098.10198		191.72800		875.00000 
 43692.65567		 305.27265			43387.38302		68.55800		324.00000 
 43692.65567		 594.55370			43098.10198		191.72800		875.00000 
 43692.65567		 305.27265			43387.38302		68.55800		324.00000 
 43692.65567		 594.55370			43098.10198		191.72800		875.00000 
 43692.65567		 305.27265			43387.38302		68.55800		324.00000 
 43692.65567		 594.55370			43098.10198		191.72800		875.00000 
 43692.65567		 305.27265			43387.38302		68.55800		324.00000 
 43692.65567		 594.55370			43098.10198		191.72800		875.00000 
 43692.65567		 305.27265			43387.38302		68.55800		324.00000 
 43692.65567		 594.55370			43098.10198		191.72800		875.00000 
 43692.65567		 305.27265			43387.38302		68.55800		324.00000 
 43692.65567		 594.55370			43098.10198		191.72800		875.00000 
 43692.65567		 305.27265			43387.38302		68.55800		324.00000 
 43692.65567		 594.55370			43098.10198		191.72800		875.00000 
 43692.65567		 305.27265			43387.38302		68.55800		324.00000 
 43692.65567		 594.55370			43098.10198		191.72800		875.00000 
 43692.65567		 305.27265			43387.38302		68.55800		324.00000 
 43692.65567		 594.55370			43098.10198		191.72800		875.00000 
 43692.65567		 305.27265			43387.38302		68.55800		324.00000 
 43692.65567		 594.55370			43098.10198		191.72800		875.00000 
 43692.65567		 305.27265			43387.38302		68.55800		324.00000 
 43692.65567		 594.55370			43098.10198		191.72800		875.00000 
 43692.65567		 305.27265			43387.38302		68.55800		324.00000 
 43692.65567		 594.55370			43098.10198		191.72800		875.00000 
 43692.65567		 305.27265			43387.38302		68.55800		324.00000 
 43692.65567		 594.55370			43098.10198		191.72800		875.00000 
 43692.65567		 305.27265			43387.38302		68.55800		324.00000 
 43692.65567		 594.55370			43098.10198		191.72800		875.00000 
 43692.65567		 305.27265			43387.38302		68.55800		324.00000 
 43692.65567		 594.55370			43098.10198		191.72800		875.00000 
 43692.65567		 305.27265			43387.38302		68.55800		324.00000 
 43692.65567		 594.55370			43098.10198		191.72800		875.00000 
 43692.65567		 305.27265			43387.38302		68.55800		324.00000 
 43692.65567		 594.55370			43098.10198		191.72800		875.00000 
 43692.65567		 305.27265			43387.38302		68.55800		324.00000 
 43692.65567		 594.55370			43098.10198		191.72800		875.00000 
 43692.65567		 305.27265			43387.38302		68.55800		324.00000 
 43692.65567		 594.55370			43098.10198		191.72800		875.00000 
 43692.65567		 305.27265			43387.38302		68.55800		324.00000 
 43692.65567		 594.55370			43098.10198		191.72800		875.00000 
 43692.65567		 305.27265			43387.38302		68.55800		324.00000 
 43692.65567		 594.55370			43098.10198		191.72800		875.00000 
 43692.65567		 305.27265			43387.38302		68.55800		324.00000 
 43692.65567		 594.55370			43098.10198		191.72800		875.00000 
 43692.65567		 305.27265			43387.38302		68.55800		324.00000 
 43692.65567		 594.55370			43098.10198		191.72800		875.00000 
 43692.65567		 305.27265			43387.38302		68.55800		324.00000 
 43692.65567		 594.55370			43098.10198		191.72800		875.00000 
 43692.65567		 305.27265			43387.38302		68.55800		324.00000 
 43692.65567		 594.55370			43098.10198		191.72800		875.00000 
 43692.65567		 305.27265			43387.38302		68.55800		324.00000 
 43692.65567		 594.55370			43098.10198		191.72800		875.00000 
 43692.65567		 305.27265			43387.38302		68.55800		324.00000 
 43692.65567		 594.55370			43098.10198		191.72800		875.00000 
 43692.65567		 305.27265			43387.38302		68.55800		324.00000 
 43692.65567		 594.55370			43098.10198		206.71000		875.00000 
 43692.65567		 305.27265			43387.38302		68.55800		324.00000 
 43692.65567		 594.55370			43098.10198		206.71000		875.00000 
 43692.65567		 305.27265			43387.38302		68.55800		324.00000 
 43692.65567		 594.55370			43098.10198		206.71000		875.00000 
 43692.65567		 305.27265			43387.38302		68.55800		324.00000 
 43692.65567		 594.55370			43098.10198		206.71000		875.00000 
 43692.65567		 305.27265			43387.38302		68.55800		324.00000 
 43692.65567		 594.55370			43098.10198		206.71000		875.00000 
 43692.65567		 305.27265			43387.38302		68.55800		324.00000 
 43692.65567		 594.55370			43098.10198		206.71000		875.00000 
 43692.65567		 305.27265			43387.38302		68.55800		324.00000 
 43692.65567		 594.55370			43098.10198		206.71000		875.00000 
 43692.65567		 305.27265			43387.38302		68.55800		324.00000 
 43692.65567		 594.55370			43098.10198		206.71000		875.00000 
 43692.65567		 305.27265			43387.38302		68.55800		324.00000 
 43692.65567		 594.55370			43098.10198		206.71000		875.00000 
 43692.65567		 305.27265			43387.38302		68.55800		324.00000 
 43692.65567		 594.55370			43098.10198		206.71000		875.00000 
 43692.65567		 305.27265			43387.38302		68.55800		324.00000 
 43692.65567		 594.55370			43098.10198		206.71000		875.00000 
 43692.65567		 305.27265			43387.38302		68.55800		324.00000 
 43692.65567		 594.55370			43098.10198		206.71000		875.00000 
 43692.65567		 305.27265			43387.38302		68.55800		324.00000 
 43692.65567		 594.55370			43098.10198		206.71000		875.00000 
 43692.65567		 305.27265			43387.38302		68.55800		324.00000 
 43692.65567		 594.55370			43098.10198		206.71000		875.00000 
 43692.65567		 305.27265			43387.38302		68.55800		324.00000 
 43692.65567		 594.55370			43098.10198		206.71000		875.00000 
 43692.65567		 305.27265			43387.38302		68.55800		324.00000 
 43692.65567		 594.55370			43098.10198		206.71000		875.00000 
 43692.65567		 305.27265			43387.38302		68.55800		324.00000 
 43692.65567		 594.55370			43098.10198		206.71000		875.00000 
 43692.65567		 305.27265			43387.38302		68.55800		324.00000 
 43692.65567		 594.55370			43098.10198		206.71000		875.00000 
 43692.65567		 305.27265			43387.38302		68.55800		324.00000 
 43692.65567		 594.55370			43098.10198		206.71000		875.00000 
 43692.65567		 305.27265			43387.38302		68.55800		324.00000 
 43692.65567		 594.55370			43098.10198		206.71000		875.00000 
 43692.65567		 305.27265			43387.38302		68.55800		324.00000 
 43692.65567		 594.55370			43098.10198		206.71000		875.00000 
 43692.65567		 305.27265			43387.38302		68.55800		324.00000 
 43692.65567		 594.55370			43098.10198		206.71000		875.00000 
 43692.65567		 305.27265			43387.38302		68.55800		324.00000 
 43692.65567		 594.55370			43098.10198		206.71000		875.00000 
 43692.65567		 305.27265			43387.38302		68.55800		324.00000 
 43692.65567		 594.55370			43098.10198		206.71000		875.00000 
 43692.65567		 305.27265			43387.38302		68.55800		324.00000 
 43692.65567		 594.55370			43098.10198		206.71000		875.00000 
 43692.65567		 305.27265			43387.38302		68.55800		324.00000 
 43692.65567		 594.55370			43098.10198		206.71000		875.00000 
 43692.65567		 305.27265			43387.38302		68.55800		324.00000 
 43692.65567		 594.55370			43098.10198		206.71000		875.00000 
 43692.65567		 305.27265			43387.38302		68.55800		324.00000 
 43692.65567		 594.55370			43098.10198		206.71000		875.00000 
 43692.65567		 305.27265			43387.38302		68.55800		324.00000 
 43692.65567		 594.55370			43098.10198		206.71000		875.00000 
 43692.65567		 305.27265			43387.38302		68.55800		324.00000 
 43692.65567		 594.55370			43098.10198		206.71000		875.00000 
 43692.65567		 305.27265			43387.38302		68.55800		324.00000 
 43692.65567		 594.55370			43098.10198		206.71000		875.00000 
 43692.65567		 305.27265			43387.38302		68.55800		324.00000 
 43692.65567		 594.55370			43098.10198		206.71000		875.00000 
 43692.65567		 305.27265			43387.38302		68.55800		324.00000 
 43692.65567		 594.55370			43098.10198		206.71000		875.00000 
 43692.65567		 305.27265			43387.38302		68.55800		324.00000 
 43692.65567		 594.55370			43098.10198		206.71000		875.00000 
 43692.65567		 305.27265			43387.38302		68.55800		324.00000 
 43692.65567		 594.55370			43098.10198		206.71000		875.00000 
 43692.65567		 305.27265			43387.38302		68.55800		324.00000 
 43692.65567		 594.55370			43098.10198		206.71000		875.00000 
 43692.65567		 305.27265			43387.38302		68.55800		324.00000 
 43692.65567		 594.55370			43098.10198		206.71000		875.00000 
 43692.65567		 305.27265			43387.38302		68.55800		324.00000 
 43692.65567		 594.55370			43098.10198		206.71000		875.00000 
 43692.65567		 305.27265			43387.38302		68.55800		324.00000 
 43692.65567		 594.55370			43098.10198		206.71000		875.00000 
 43692.65567		 305.27265			43387.38302		68.55800		324.00000 
 43692.65567		 594.55370			43098.10198		206.71000		875.00000 
 43692.65567		 305.27265			43387.38302		68.55800		324.00000 
 43692.65567		 594.55370			43098.10198		206.71000		875.00000 
 43692.65567		 305.27265			43387.38302		68.55800		324.00000 
 43692.65567		 594.55370			43098.10198		206.71000		875.00000 
 43692.65567		 305.27265			43387.38302		68.55800		324.00000 
 43692.65567		 594.55370			43098.10198		206.71000		875.00000 
 43692.65567		 305.27265			43387.38302		68.55800		324.00000 
 43692.65567		 594.55370			43098.10198		206.71000		875.00000 
 43692.65567		 305.27265			43387.38302		68.55800		324.00000 
 43692.65567		 594.55370			43098.10198		206.71000		875.00000 
 43692.65567		 305.27265			43387.38302		68.55800		324.00000 
 43692.65567		 594.55370			43098.10198		206.71000		875.00000 
 43692.65567		 305.27265			43387.38302		68.55800		324.00000 
 43692.65567		 594.55370			43098.10198		206.71000		875.00000 
 43692.65567		 305.27265			43387.38302		68.55800		324.00000 
 43692.65567		 594.55370			43098.10198		206.71000		875.00000 
 43692.65567		 305.27265			43387.38302		68.55800		324.00000 
 43692.65567		 594.55370			43098.10198		206.71000		875.00000 
 43692.65567		 305.27265			43387.38302		68.55800		324.00000 
 43692.65567		 594.55370			43098.10198		206.71000		875.00000 
 43692.65567		 305.27265			43387.38302		68.55800		324.00000 
 43692.65567		 594.55370			43098.10198		206.71000		875.00000 
 43692.65567		 305.27265			43387.38302		68.55800		324.00000 
 43692.65567		 594.55370			43098.10198		206.71000		875.00000 
 43692.65567		 305.27265			43387.38302		68.55800		324.00000 
 43692.65567		 594.55370			43098.10198		206.71000		875.00000 
 43692.65567		 305.27265			43387.38302		68.55800		324.00000 
 43692.65567		 594.55370			43098.10198		206.71000		875.00000 
 43692.65567		 305.27265			43387.38302		68.55800		324.00000 
 43692.65567		 594.55370			43098.10198		206.71000		875.00000 
 43692.65567		 305.27265			43387.38302		68.55800		324.00000 
 43692.65567		 594.55370			43098.10198		206.71000		875.00000 
 43692.65567		 305.27265			43387.38302		68.55800		324.00000 
 43692.65567		 594.55370			43098.10198		206.71000		875.00000 
 43692.65567		 305.27265			43387.38302		68.55800		324.00000 
 43692.65567		 594.55370			43098.10198		206.71000		875.00000 
 43692.65567		 305.27265			43387.38302		68.55800		324.00000 
 43692.65567		 594.55370			43098.10198		206.71000		875.00000 
 43692.65567		 305.27265			43387.38302		68.55800		324.00000 
 43692.65567		 594.55370			43098.10198		206.71000		875.00000 
 43692.65567		 305.27265			43387.38302		68.55800		324.00000 
 43692.65567		 594.55370			43098.10198		206.71000		875.00000 
 43692.65567		 305.27265			43387.38302		68.55800		324.00000 
 43692.65567		 594.55370			43098.10198		206.71000		875.00000 
 43692.65567		 305.27265			43387.38302		68.55800		324.00000 
 43692.65567		 594.55370			43098.10198		206.71000		875.00000 
 43692.65567		 305.27265			43387.38302		68.55800		324.00000 
 43692.65567		 594.55370			43098.10198		206.71000		875.00000 
 43692.65567		 305.27265			43387.38302		68.55800		324.00000 
 43692.65567		 594.55370			43098.10198		212.74800		875.00000 
 43692.65567		 305.27265			43387.38302		68.55800		324.00000 
 43692.65567		 594.55370			43098.10198		212.74800		875.00000 
 43692.65567		 305.27265			43387.38302		68.55800		324.00000 
 43692.65567		 594.55370			43098.10198		212.74800		875.00000 
 43692.65567		 305.27265			43387.38302		68.55800		324.00000 
 43692.65567		 594.55370			43098.10198		212.74800		875.00000 
 43692.65567		 305.27265			43387.38302		68.55800		324.00000 
 43692.65567		 594.55370			43098.10198		212.74800		875.00000 
 43692.65567		 305.27265			43387.38302		68.55800		324.00000 
 43692.65567		 594.55370			43098.10198		212.74800		875.00000 
 43692.65567		 305.27265			43387.38302		68.55800		324.00000 
 43692.65567		 594.55370			43098.10198		212.74800		875.00000 
 43692.65567		 305.27265			43387.38302		68.55800		324.00000 
 43692.65567		 594.55370			43098.10198		212.74800		875.00000 
 43692.65567		 305.27265			43387.38302		68.55800		324.00000 
 43692.65567		 594.55370			43098.10198		212.74800		875.00000 
 43692.65567		 305.27265			43387.38302		68.55800		324.00000 
 43692.65567		 594.55370			43098.10198		212.74800		875.00000 
 43692.65567		 305.27265			43387.38302		68.55800		324.00000 
 43692.65567		 594.55370			43098.10198		212.74800		875.00000 
 43692.65567		 305.27265			43387.38302		68.55800		324.00000 
 43692.65567		 594.55370			43098.10198		212.74800		875.00000 
 43692.65567		 305.27265			43387.38302		68.55800		324.00000 
 43692.65567		 594.55370			43098.10198		212.74800		875.00000 
 43692.65567		 305.27265			43387.38302		68.55800		324.00000 
 43692.65567		 594.55370			43098.10198		212.74800		875.00000 
 43692.65567		 305.27265			43387.38302		68.55800		324.00000 
 43692.65567		 537.27032			43155.38535		212.74800		875.00000 
 43692.65567		 305.27265			43387.38302		68.55800		324.00000 
 43692.65567		 537.27032			43155.38535		212.74800		875.00000 
 43692.65567		 305.27265			43387.38302		68.55800		324.00000 
 43692.65567		 537.27032			43155.38535		212.74800		875.00000 
 43692.65567		 305.27265			43387.38302		68.55800		324.00000 
 43692.65567		 537.27032			43155.38535		212.74800		875.00000 
 43692.65567		 305.27265			43387.38302		68.55800		324.00000 
 43692.65567		 537.27032			43155.38535		212.74800		875.00000 
 43692.65567		 305.27265			43387.38302		68.55800		324.00000 
 43692.65567		 537.27032			43155.38535		212.74800		875.00000 
 43692.65567		 305.27265			43387.38302		68.55800		324.00000 
 43692.65567		 537.27032			43155.38535		212.74800		875.00000 
 43692.65567		 305.27265			43387.38302		68.55800		324.00000 
 43692.65567		 537.27032			43155.38535		212.74800		875.00000 
 43692.65567		 305.27265			43387.38302		68.55800		324.00000 
 43692.65567		 537.27032			43155.38535		212.74800		875.00000 
 43692.65567		 305.27265			43387.38302		68.55800		324.00000 
 43692.65567		 537.27032			43155.38535		212.74800		875.00000 
 43692.65567		 305.27265			43387.38302		68.55800		324.00000 
 43692.65567		 537.27032			43155.38535		212.74800		875.00000 
 43692.65567		 305.27265			43387.38302		68.55800		324.00000 
 43692.65567		 537.27032			43155.38535		212.74800		875.00000 
 43692.65567		 305.27265			43387.38302		68.55800		324.00000 
 43692.65567		 537.27032			43155.38535		212.74800		875.00000 
 43692.65567		 305.27265			43387.38302		68.55800		324.00000 
 43692.65567		 537.27032			43155.38535		212.74800		875.00000 
 43692.65567		 305.27265			43387.38302		68.55800		324.00000 
 43692.65567		 537.27032			43155.38535		212.74800		875.00000 
 43692.65567		 305.27265			43387.38302		68.55800		324.00000 
 43692.65567		 537.27032			43155.38535		212.74800		875.00000 
 43692.65567		 305.27265			43387.38302		68.55800		324.00000 
 43692.65567		 537.27032			43155.38535		212.74800		875.00000 
 43692.65567		 305.27265			43387.38302		68.55800		324.00000 
 43692.65567		 537.27032			43155.38535		212.74800		875.00000 
 43692.65567		 305.27265			43387.38302		68.55800		324.00000 
 43692.65567		 537.27032			43155.38535		212.74800		875.00000 
 43692.65567		 305.27265			43387.38302		68.55800		324.00000 
 43692.65567		 537.27032			43155.38535		212.74800		875.00000 
 43692.65567		 305.27265			43387.38302		68.55800		324.00000 
 43692.65567		 525.81365			43166.84203		212.74800		875.00000 
 43692.65567		 305.27265			43387.38302		68.55800		324.00000 
 43692.65567		 525.81365			43166.84203		212.74800		875.00000 
 43692.65567		 261.35540			43431.30027		68.55800		324.00000 
 43692.65567		 261.35540			43431.30027		212.74800		875.00000 
 43692.65567		 261.35540			43431.30027		68.55800		324.00000 
